Dividing Wavelength (nm)	Counts (n)	Blue Motor Position (mm): 0.000000	Red Motor Position (mm): 24.300000	
326.493990	1.000226
326.888308	1.000226
327.282561	1.000226
327.676750	0.999344
328.070874	0.999399
328.464933	0.999509
328.858929	0.998599
329.252859	0.999145
329.646726	0.998948
330.040528	0.999745
330.434265	0.999142
330.827938	1.001071
331.221547	1.000192
331.615091	1.000735
332.008571	0.999184
332.401986	0.999564
332.795338	0.999593
333.188625	0.998680
333.581847	1.000418
333.975006	0.999316
334.368100	0.999578
334.761129	0.999985
335.154095	1.000425
335.546996	0.997057
335.939833	0.993256
336.332606	0.993737
336.725315	0.994848
337.117960	0.995483
337.510540	0.993446
337.903056	0.994949
338.295508	0.993914
338.687896	0.993625
339.080220	0.995398
339.472480	0.994149
339.864676	0.994882
340.256807	0.995891
340.648875	0.995752
341.040879	0.994898
341.432818	0.995247
341.824694	0.994138
342.216506	0.994669
342.608253	0.993980
342.999937	0.993730
343.391557	0.994347
343.783113	0.993461
344.174605	0.995174
344.566033	0.994497
344.957397	0.994189
345.348697	0.993998
345.739934	0.994186
346.131106	0.994235
346.522215	0.993578
346.913260	0.993750
347.304241	0.994060
347.695159	0.995233
348.086012	0.993696
348.476802	0.995390
348.867528	0.994237
349.258191	0.993685
349.648789	0.995075
350.039324	0.995169
350.429796	0.995445
350.820203	0.995546
351.210548	0.994786
351.600828	0.994301
351.991045	0.994951
352.381198	0.993261
352.771288	0.995108
353.161314	0.993823
353.551276	0.994671
353.941175	0.993959
354.331010	0.993389
354.720782	0.995627
355.110490	0.993974
355.500135	0.994595
355.889717	0.994992
356.279235	0.993873
356.668689	0.994510
357.058080	0.993003
357.447408	0.995037
357.836672	0.995015
358.225873	0.995027
358.615010	0.995266
359.004084	0.996310
359.393095	0.994954
359.782043	0.994255
360.170927	0.994663
360.559748	0.995733
360.948505	0.994195
361.337199	0.994497
361.725830	0.994543
362.114398	0.994842
362.502903	0.994928
362.891344	0.996371
363.279722	0.993993
363.668037	0.994693
364.056289	0.993857
364.444478	0.995412
364.832603	0.995021
365.220665	0.993851
365.608665	0.994774
365.996601	0.994572
366.384474	0.994259
366.772284	0.994540
367.160031	0.993142
367.547715	0.994011
367.935336	0.994787
368.322893	0.994342
368.710388	0.992884
369.097820	0.994587
369.485189	0.994348
369.872495	0.993126
370.259738	0.992689
370.646918	0.995492
371.034035	0.994806
371.421090	0.994555
371.808081	0.993652
372.195010	0.994031
372.581875	0.995428
372.968678	0.994873
373.355418	0.994869
373.742096	0.995143
374.128710	0.996070
374.515262	0.994128
374.901751	0.995788
375.288177	0.994913
375.674540	0.995346
376.060841	0.994365
376.447079	0.994879
376.833254	0.994762
377.219367	0.994705
377.605417	0.995261
377.991404	0.994378
378.377329	0.994573
378.763191	0.995654
379.148991	0.996283
379.534727	0.995905
379.920402	0.996036
380.306013	0.996360
380.691563	0.996568
381.077049	0.995545
381.462474	0.995851
381.847835	0.996344
382.233134	0.995807
382.618371	0.997015
383.003545	0.996165
383.388657	0.995670
383.773706	0.996205
384.158693	0.995895
384.543618	0.996056
384.928480	0.996009
385.313280	0.997145
385.698017	0.996955
386.082692	0.996861
386.467305	0.996659
386.851856	0.995675
387.236344	0.996025
387.620770	0.995405
388.005133	0.996525
388.389435	0.997289
388.773674	0.995849
389.157851	0.996061
389.541965	0.996770
389.926018	0.997029
390.310008	0.996853
390.693936	0.996582
391.077802	0.996157
391.461606	0.996550
391.845348	0.996425
392.229027	0.997564
392.612645	0.996758
392.996200	0.997779
393.379694	0.996610
393.763125	0.997904
394.146494	0.996623
394.529801	0.996683
394.913047	0.998549
395.296230	0.997060
395.679351	0.997098
396.062410	0.996233
396.445408	0.996694
396.828343	0.997352
397.211217	0.997153
397.594028	0.996742
397.976778	0.996661
398.359466	0.996492
398.742092	0.996368
399.124656	0.995894
399.507158	0.996691
399.889598	0.997504
400.271977	0.997105
400.654294	0.996796
401.036549	0.997353
401.418742	0.997392
401.800874	0.995735
402.182944	0.996983
402.564952	0.996380
402.946898	0.997475
403.328783	0.996988
403.710606	0.996777
404.092367	0.995942
404.474067	0.997169
404.855705	0.996666
405.237282	0.997387
405.618797	0.997021
406.000250	0.996696
406.381642	0.997239
406.762972	0.997458
407.144240	0.996835
407.525447	0.996845
407.906593	0.996867
408.287677	0.997458
408.668700	0.997509
409.049661	0.995915
409.430560	0.996823
409.811399	0.996407
410.192176	0.996911
410.572891	0.996986
410.953545	0.997593
411.334138	0.995898
411.714669	0.997422
412.095139	0.996058
412.475547	0.997222
412.855894	0.996856
413.236180	0.997669
413.616405	0.996877
413.996568	0.997691
414.376670	0.996369
414.756711	0.995168
415.136691	0.997166
415.516609	0.996458
415.896466	0.997069
416.276262	0.995120
416.655997	0.995603
417.035670	0.995967
417.415283	0.996977
417.794834	0.996858
418.174324	0.996100
418.553753	0.996444
418.933121	0.996162
419.312428	0.996175
419.691674	0.996774
420.070859	0.996908
420.449983	0.996032
420.829045	0.996341
421.208047	0.997464
421.586988	0.998426
421.965867	0.996370
422.344686	0.997786
422.723444	0.996509
423.102141	0.997027
423.480777	0.996354
423.859352	0.996276
424.237866	0.995472
424.616319	0.995208
424.994712	0.995444
425.373044	0.996167
425.751314	0.996195
426.129524	0.996044
426.507673	0.996172
426.885762	0.996305
427.263789	0.996337
427.641756	0.995870
428.019662	0.996268
428.397508	0.994295
428.775292	0.993817
429.153016	0.994222
429.530679	0.994892
429.908282	0.994289
430.285824	0.992159
430.663305	0.991744
431.040726	0.991219
431.418086	0.990837
431.795385	0.990103
432.172624	0.988018
432.549802	0.987541
432.926920	0.986322
433.303977	0.984165
433.680974	0.983343
434.057910	0.981398
434.434786	0.981269
434.811601	0.978370
435.188355	0.975725
435.565050	0.974046
435.941683	0.972463
436.318257	0.970878
436.694770	0.966638
437.071222	0.964691
437.447614	0.962331
437.823946	0.960161
438.200218	0.956808
438.576429	0.955084
438.952580	0.950856
439.328670	0.946776
439.704700	0.943920
440.080670	0.940681
440.456580	0.934282
440.832429	0.930787
441.208218	0.928040
441.583947	0.922518
441.959616	0.919291
442.335224	0.913853
442.710773	0.909062
443.086261	0.901911
443.461689	0.899356
443.837057	0.892086
444.212365	0.884997
444.587612	0.881333
444.962800	0.872872
445.337927	0.866925
445.712995	0.866348
446.088002	0.851910
446.462949	0.847892
446.837837	0.842110
447.212664	0.833202
447.587431	0.822403
447.962139	0.804559
448.336786	0.784555
448.711374	0.782068
449.085901	0.788484
449.460369	0.782346
449.834776	0.774820
450.209124	0.759202
450.583412	0.746376
450.957640	0.737818
451.331808	0.733301
451.705917	0.733672
452.079965	0.727987
452.453954	0.713770
452.827883	0.709082
453.201752	0.699093
453.575562	0.696448
453.949311	0.680540
454.323001	0.677059
454.696632	0.666968
455.070202	0.653482
455.443713	0.642017
455.817164	0.631057
456.190556	0.619927
456.563888	0.609098
456.937160	0.600175
457.310373	0.602277
457.683526	0.592760
458.056619	0.588365
458.429653	0.581350
458.802628	0.576206
459.175542	0.565259
459.548398	0.545704
459.921194	0.533576
460.293930	0.528187
460.666607	0.503963
461.039224	0.489327
461.411782	0.479711
461.784280	0.470858
462.156719	0.466712
462.529099	0.462099
462.901419	0.466679
463.273680	0.463982
463.645882	0.457496
464.018024	0.455250
464.390106	0.443982
464.762130	0.426189
465.134094	0.408391
465.505999	0.380874
465.877845	0.351953
466.249631	0.335094
466.621358	0.333517
466.993026	0.337776
467.364634	0.337245
467.736184	0.339993
468.107674	0.343407
468.479105	0.337468
468.850477	0.339950
469.221790	0.342229
469.593043	0.347477
469.964238	0.347905
470.335373	0.344055
470.706449	0.339483
471.077467	0.337308
471.448425	0.299544
471.819324	0.274052
472.190164	0.270769
472.560945	0.295166
472.931667	0.313788
473.302330	0.315396
473.672934	0.324684
474.043479	0.311579
474.413965	0.311542
474.784393	0.313390
475.154761	0.307236
475.525070	0.302510
475.895321	0.307106
476.265513	0.300272
476.635645	0.294461
477.005719	0.293170
477.375734	0.289287
477.745691	0.281612
478.115588	0.276997
478.485427	0.269845
478.855207	0.256373
479.224928	0.238538
479.594591	0.226450
479.964194	0.229108
480.333739	0.229668
480.703226	0.230821
481.072653	0.228595
481.442022	0.223897
481.811333	0.219971
482.180584	0.223236
482.549777	0.228131
482.918912	0.231520
483.287988	0.230622
483.657005	0.230274
484.025964	0.236437
484.394864	0.233341
484.763706	0.233708
485.132489	0.238441
485.501213	0.239014
485.869879	0.237570
486.238487	0.240535
486.607036	0.238156
486.975527	0.242480
487.343959	0.238572
487.712333	0.237295
488.080648	0.238913
488.448905	0.237809
488.817104	0.239278
489.185244	0.232986
489.553326	0.230187
489.921350	0.219930
490.289315	0.202513
490.657222	0.197568
491.025070	0.198737
491.392861	0.200756
491.760593	0.206157
492.128267	0.211934
492.495883	0.217264
492.863440	0.223326
493.230939	0.229509
493.598380	0.231161
493.965763	0.233038
494.333088	0.235375
494.700354	0.236779
495.067563	0.235668
495.434713	0.238998
495.801805	0.236583
496.168839	0.238254
496.535815	0.239505
496.902733	0.239551
497.269593	0.241075
497.636395	0.238847
498.003139	0.238765
498.369825	0.241943
498.736453	0.238154
499.103023	0.239824
499.469535	0.239139
499.835989	0.239589
500.202385	0.240475
500.568723	0.243553
500.935003	0.238888
501.301226	0.242905
501.667390	0.237403
502.033497	0.235722
502.399546	0.238307
502.765537	0.239825
503.131470	0.238416
503.497345	0.234628
503.863163	0.243299
504.228923	0.236398
504.594625	0.235244
504.960269	0.240302
505.325856	0.235767
505.691385	0.240101
506.056856	0.236775
506.422270	0.236064
506.787625	0.238547
507.152924	0.236124
507.518164	0.236289
507.883347	0.237961
508.248472	0.239591
508.613540	0.234798
508.978550	0.237251
509.343503	0.237748
509.708398	0.235531
510.073236	0.233122
510.438016	0.232988
510.802738	0.234059
511.167403	0.232995
511.532010	0.234675
511.896561	0.230468
512.261053	0.229132
512.625488	0.231233
512.989866	0.231325
513.354186	0.231727
513.718449	0.233455
514.082655	0.229889
514.446803	0.232320
514.810894	0.229756
515.174927	0.232380
515.538904	0.232026
515.902822	0.228967
516.266684	0.231280
516.630488	0.232384
516.994235	0.231292
517.357925	0.229705
517.721558	0.228529
518.085133	0.227685
518.448651	0.227873
518.812112	0.229955
519.175516	0.229810
519.538863	0.227419
519.902152	0.228909
520.265385	0.225705
520.628560	0.227534
520.991678	0.228006
521.354739	0.226835
521.717743	0.228256
522.080690	0.228589
522.443580	0.226125
522.806413	0.227040
523.169189	0.226034
523.531908	0.225169
523.894569	0.228502
524.257174	0.228574
524.619722	0.226179
524.982213	0.227402
525.344647	0.226216
525.707025	0.227038
526.069345	0.225217
526.431608	0.226975
526.793815	0.225074
527.155964	0.229141
527.518057	0.228141
527.880093	0.229205
528.242072	0.227477
528.603995	0.229456
528.965860	0.231333
529.327669	0.229947
529.689421	0.231234
530.051117	0.231868
530.412755	0.229518
530.774337	0.231874
531.135862	0.232065
531.497331	0.231661
531.858743	0.234218
532.220098	0.231205
532.581396	0.233782
532.942638	0.234247
533.303824	0.235086
533.664953	0.234814
534.026025	0.236631
534.387040	0.234622
534.747999	0.234245
535.108902	0.233593
535.469748	0.238531
535.830537	0.236039
536.191270	0.236364
536.551947	0.236153
536.912567	0.236102
537.273131	0.238128
537.633638	0.238054
537.994089	0.238525
538.354483	0.239624
538.714821	0.236460
539.075103	0.236399
539.435328	0.237138
539.795497	0.240826
540.155609	0.237402
540.515665	0.235609
540.875665	0.241309
541.235609	0.239659
541.595496	0.239912
541.955328	0.236393
542.315102	0.238967
542.674821	0.239984
543.034483	0.239961
543.394090	0.239841
543.753640	0.241617
544.113134	0.236656
544.472571	0.240151
544.831953	0.236837
545.191278	0.241080
545.550548	0.240537
545.909761	0.237263
546.268918	0.238056
546.628019	0.236445
546.987064	0.238886
547.346053	0.240755
547.704986	0.238974
548.063863	0.239034
548.422684	0.239413
548.781449	0.241029
549.140158	0.238559
549.498811	0.241536
549.857408	0.244802
550.215949	0.239391
550.574434	0.242571
550.932864	0.240370
551.291237	0.239173
551.649555	0.240427
552.007817	0.240202
552.366022	0.241009
552.724173	0.241275
553.082267	0.241421
553.440305	0.238467
553.798288	0.243021
554.156215	0.239651
554.514086	0.240228
554.871902	0.243356
555.229661	0.242470
555.587365	0.243029
555.945014	0.245656
556.302606	0.242639
556.660143	0.245275
557.017625	0.241544
557.375050	0.243610
557.732421	0.240933
558.089735	0.242864
558.446994	0.242907
558.804197	0.242371
559.161345	0.241874
559.518437	0.245510
559.875474	0.243179
560.232455	0.242630
560.589381	0.244143
560.946251	0.243942
561.303065	0.241518
561.659825	0.243188
562.016528	0.244492
562.373177	0.247168
562.729770	0.244485
563.086307	0.246828
563.442789	0.244567
563.799216	0.247465
564.155587	0.246164
564.511904	0.246920
564.868164	0.247171
565.224370	0.247301
565.580520	0.248837
565.936615	0.248708
566.292654	0.252039
566.648638	0.248840
567.004567	0.249691
567.360441	0.250016
567.716260	0.252200
568.072023	0.249972
568.427732	0.250619
568.783385	0.253138
569.138982	0.251333
569.494525	0.251131
569.850013	0.253905
570.205445	0.252251
570.560823	0.254662
570.916145	0.256936
571.271412	0.255226
571.626625	0.256434
571.981782	0.257143
572.336884	0.257803
572.691931	0.257465
573.046923	0.258775
573.401860	0.260105
573.756743	0.261474
574.111570	0.260735
574.466342	0.261057
574.821059	0.260493
575.175722	0.263158
575.530330	0.262929
575.884882	0.262979
576.239380	0.265003
576.593823	0.265661
576.948211	0.265163
577.302544	0.268539
577.656823	0.267891
578.011047	0.268129
578.365216	0.268571
578.719330	0.270731
579.073389	0.270475
579.427394	0.271944
579.781344	0.272281
580.135239	0.274080
580.489080	0.273628
580.842866	0.276724
581.196597	0.276824
581.550273	0.275286
581.903895	0.276059
582.257463	0.274076
582.610975	0.277922
582.964434	0.276908
583.317837	0.279581
583.671186	0.279615
584.024481	0.280034
584.377721	0.282337
584.730906	0.283342
585.084037	0.282299
585.437113	0.284133
585.790135	0.283806
586.143103	0.286487
586.496016	0.287565
586.848874	0.285132
587.201679	0.286243
587.554428	0.289277
587.907124	0.287886
588.259765	0.288496
588.612352	0.288883
588.964884	0.293150
589.317362	0.292506
589.669786	0.292378
590.022155	0.290978
590.374470	0.290429
590.726731	0.292398
591.078937	0.297041
591.431090	0.293414
591.783188	0.297494
592.135232	0.298068
592.487222	0.298129
592.839157	0.296210
593.191038	0.298553
593.542866	0.300446
593.894639	0.304131
594.246358	0.302090
594.598022	0.301098
594.949633	0.305126
595.301190	0.305498
595.652692	0.304698
596.004141	0.301132
596.355535	0.308776
596.706876	0.309788
597.058162	0.312215
597.409395	0.309221
597.760573	0.306854
598.111698	0.310289
598.462768	0.310982
598.813785	0.311887
599.164748	0.313296
599.515657	0.313670
599.866511	0.316947
600.217312	0.312189
600.568060	0.317790
600.918753	0.313735
601.269392	0.314564
601.619978	0.318405
601.970510	0.315825
602.320988	0.316204
602.671412	0.313456
603.021783	0.316285
603.372100	0.317731
603.722363	0.317376
604.072572	0.317910
604.422728	0.317654
604.772830	0.319554
605.122878	0.319318
605.472872	0.319824
605.822813	0.318231
606.172701	0.321026
606.522534	0.318249
606.872314	0.318511
607.222041	0.319015
607.571714	0.317303
607.921333	0.318630
608.270899	0.318679
608.620411	0.315170
608.969870	0.319228
609.319276	0.319451
609.668627	0.319119
610.017926	0.317835
610.367171	0.316549
610.716362	0.317275
611.065500	0.317269
611.414585	0.315680
611.763616	0.316571
612.112594	0.316815
612.461518	0.316163
612.810389	0.314068
613.159207	0.316308
613.507971	0.318394
613.856682	0.314016
614.205340	0.315617
614.553945	0.312370
614.902496	0.316387
615.250994	0.314352
615.599439	0.315064
615.947830	0.314122
616.296169	0.314968
616.644454	0.314656
616.992686	0.314735
617.340864	0.312776
617.688990	0.316522
618.037063	0.313204
618.385082	0.314982
618.733048	0.311723
619.080961	0.313955
619.428821	0.313644
619.776628	0.313164
620.124382	0.315026
620.472083	0.315272
620.819731	0.314529
621.167326	0.318563
621.514868	0.318051
621.862357	0.322520
622.209793	0.322300
622.557176	0.324774
622.904506	0.325407
623.251783	0.327813
623.599007	0.330051
623.946179	0.329489
624.293297	0.331403
624.640363	0.335411
624.987376	0.336000
625.334336	0.338442
625.681243	0.340824
626.028097	0.341331
626.374899	0.342860
626.721647	0.342791
627.068343	0.345684
627.414987	0.347199
627.761577	0.349176
628.108115	0.346923
628.454600	0.352488
628.801032	0.349355
629.147412	0.352207
629.493739	0.352418
629.840014	0.355174
630.186236	0.352868
630.532405	0.357756
630.878521	0.355741
631.224585	0.357802
631.570597	0.361598
631.916556	0.360103
632.262462	0.360114
632.608316	0.362331
632.954117	0.362549
633.299866	0.363921
633.645562	0.364155
633.991206	0.368526
634.336797	0.371555
634.682336	0.373899
635.027823	0.375175
635.373257	0.375714
635.718639	0.379431
636.063968	0.378948
636.409245	0.384682
636.754470	0.384761
637.099642	0.387655
637.444762	0.390690
637.789829	0.389769
638.134845	0.393239
638.479808	0.394239
638.824719	0.393963
639.169577	0.397736
639.514383	0.396405
639.859137	0.400987
640.203839	0.401142
640.548489	0.401295
640.893086	0.402819
641.237632	0.404111
641.582125	0.403263
641.926566	0.404481
642.270955	0.404636
642.615292	0.404985
642.959576	0.403813
643.303809	0.404645
643.647990	0.403725
643.992118	0.404575
644.336195	0.408155
644.680219	0.406612
645.024192	0.407336
645.368112	0.401071
645.711981	0.399920
646.055797	0.395090
646.399562	0.397864
646.743274	0.389472
647.086935	0.386736
647.430544	0.387023
647.774101	0.386165
648.117606	0.386058
648.461059	0.386226
648.804460	0.388405
649.147810	0.394075
649.491108	0.396063
649.834354	0.397101
650.177548	0.402522
650.520690	0.407809
650.863781	0.408749
651.206820	0.408023
651.549807	0.412622
651.892742	0.416544
652.235626	0.416304
652.578458	0.417612
652.921238	0.423550
653.263967	0.421393
653.606644	0.425627
653.949269	0.424797
654.291843	0.428887
654.634365	0.425962
654.976836	0.428730
655.319255	0.428913
655.661622	0.430610
656.003938	0.430540
656.346203	0.433414
656.688416	0.431455
657.030577	0.434852
657.372687	0.436687
657.714746	0.437859
658.056753	0.434629
658.398708	0.438196
658.740612	0.439126
659.082465	0.435379
659.424266	0.436751
659.766016	0.435515
660.107715	0.438428
660.449362	0.436817
660.790958	0.437791
661.132503	0.438375
661.473996	0.436095
661.815438	0.436634
662.156829	0.437101
662.498168	0.437667
662.839456	0.439572
663.180693	0.436885
663.521879	0.437072
663.863013	0.437903
664.204097	0.436731
664.545129	0.433530
664.886110	0.433840
665.227040	0.430530
665.567918	0.433767
665.908746	0.431278
666.249522	0.430776
666.590248	0.432434
666.930922	0.430746
667.271545	0.429389
667.612118	0.429258
667.952639	0.431053
668.293109	0.429397
668.633528	0.432217
668.973896	0.432130
669.314213	0.432977
669.654480	0.434395
669.994695	0.434577
670.334859	0.435655
670.674973	0.435755
671.015035	0.435932
671.355047	0.435593
671.695008	0.436872
672.034918	0.438265
672.374777	0.438216
672.714585	0.439005
673.054342	0.438989
673.394049	0.439514
673.733705	0.437037
674.073310	0.438035
674.412864	0.441129
674.752368	0.441661
675.091820	0.441665
675.431223	0.446746
675.770574	0.446344
676.109875	0.449499
676.449125	0.449302
676.788324	0.451419
677.127473	0.456724
677.466571	0.456145
677.805619	0.458513
678.144616	0.459018
678.483562	0.460765
678.822458	0.463725
679.161303	0.464642
679.500098	0.465023
679.838842	0.466744
680.177535	0.465680
680.516179	0.465267
680.854771	0.463856
681.193314	0.457076
681.531805	0.448352
681.870247	0.436649
682.208638	0.429565
682.546978	0.428347
682.885268	0.430781
683.223508	0.435978
683.561697	0.440432
683.899836	0.442841
684.237925	0.446076
684.575963	0.448693
684.913951	0.451548
685.251889	0.447605
685.589776	0.449336
685.927614	0.451953
686.265401	0.446364
686.603137	0.447767
686.940824	0.441694
687.278460	0.440137
687.616046	0.439170
687.953582	0.434044
688.291068	0.435576
688.628504	0.431149
688.965889	0.433494
689.303224	0.437798
689.640510	0.441259
689.977745	0.447248
690.314930	0.454698
690.652065	0.459573
690.989150	0.467512
691.326185	0.474000
691.663170	0.477899
692.000105	0.485538
692.336990	0.492250
692.673825	0.494809
693.010610	0.501813
693.347345	0.507038
693.684030	0.508164
694.020665	0.513264
694.357251	0.522190
694.693786	0.521447
695.030272	0.525729
695.366707	0.529245
695.703093	0.533157
696.039429	0.530753
696.375716	0.531764
696.711952	0.535235
697.048139	0.536558
697.384276	0.539511
697.720363	0.536827
698.056400	0.536159
698.392388	0.542286
698.728326	0.544856
699.064214	0.547539
699.400053	0.548058
699.735842	0.551620
700.071581	0.554827
700.407270	0.557762
700.742910	0.560564
701.078501	0.566390
701.414042	0.566769
701.749533	0.570258
702.084974	0.578565
702.420366	0.570758
702.755709	0.578611
703.091002	0.585909
703.426246	0.580033
703.761440	0.585890
704.096584	0.590735
704.431679	0.587970
704.766725	0.589695
705.101721	0.591247
705.436668	0.587145
705.771565	0.593966
706.106413	0.591247
706.441212	0.586438
706.775961	0.585697
707.110661	0.587913
707.445311	0.584475
707.779913	0.581219
708.114465	0.580160
708.448967	0.577045
708.783421	0.568323
709.117825	0.563144
709.452180	0.563189
709.786485	0.556965
710.120742	0.547501
710.454949	0.549259
710.789107	0.541630
711.123216	0.532595
711.457275	0.534539
711.791286	0.525720
712.125247	0.523693
712.459159	0.534525
712.793023	0.527351
713.126837	0.531259
713.460602	0.531327
713.794318	0.541440
714.127985	0.540410
714.461602	0.549743
714.795171	0.553186
715.128691	0.560930
715.462162	0.568952
715.795584	0.574125
716.128957	0.576471
716.462281	0.584337
716.795556	0.586729
717.128782	0.591811
717.461960	0.601450
717.795088	0.600408
718.128167	0.605870
718.461198	0.615224
718.794180	0.615442
719.127113	0.618542
719.459997	0.621638
719.792833	0.627794
720.125619	0.629788
720.458357	0.635017
720.791046	0.634427
721.123686	0.639186
721.456278	0.645069
721.788821	0.643040
722.121315	0.646098
722.453761	0.650854
722.786158	0.648188
723.118506	0.644894
723.450805	0.653430
723.783056	0.648840
724.115259	0.646360
724.447412	0.645268
724.779518	0.648071
725.111574	0.645799
725.443582	0.641697
725.775542	0.643632
726.107453	0.636426
726.439315	0.635942
726.771129	0.633923
727.102895	0.627922
727.434612	0.621254
727.766281	0.618365
728.097901	0.617497
728.429473	0.617713
728.760996	0.616496
729.092471	0.615707
729.423897	0.620047
729.755276	0.619733
730.086606	0.618786
730.417887	0.613754
730.749120	0.604040
731.080305	0.595427
731.411442	0.591288
731.742530	0.596631
732.073570	0.595754
732.404562	0.588325
732.735506	0.589334
733.066401	0.594237
733.397249	0.603195
733.728048	0.614301
734.058798	0.626694
734.389501	0.637816
734.720156	0.647599
735.050762	0.654904
735.381320	0.655739
735.711831	0.665639
736.042293	0.670713
736.372707	0.665816
736.703073	0.670292
737.033391	0.672637
737.363661	0.669471
737.693883	0.664921
738.024056	0.663870
738.354182	0.664837
738.684260	0.653850
739.014290	0.649531
739.344272	0.650312
739.674207	0.643897
740.004093	0.643022
740.333931	0.643758
740.663722	0.643973
740.993464	0.643817
741.323159	0.647857
741.652806	0.652733
741.982405	0.657993
742.311956	0.662426
742.641460	0.664912
742.970915	0.669171
743.300323	0.676056
743.629683	0.682898
743.958996	0.684291
744.288260	0.688773
744.617477	0.695120
744.946647	0.696160
745.275768	0.701669
745.604842	0.701133
745.933869	0.711677
746.262847	0.711599
746.591778	0.705305
746.920662	0.711349
747.249498	0.718069
747.578286	0.709232
747.907027	0.704520
748.235720	0.705912
748.564365	0.700692
748.892963	0.700378
749.221514	0.703603
749.550017	0.709102
749.878473	0.708909
750.206881	0.715031
750.535242	0.715942
750.863555	0.716232
751.191821	0.717006
751.520039	0.719865
751.848210	0.725640
752.176334	0.717920
752.504411	0.716361
752.832440	0.725531
753.160421	0.728426
753.488356	0.727193
753.816243	0.724616
754.144082	0.733350
754.471875	0.736911
754.799620	0.731820
755.127318	0.733644
755.454969	0.733820
755.782572	0.732036
756.110129	0.737158
756.437638	0.739524
756.765100	0.736520
757.092515	0.734279
757.419882	0.733684
757.747203	0.738444
758.074477	0.738475
758.401703	0.735784
758.728882	0.729964
759.056014	0.728801
759.383099	0.727842
759.710138	0.729322
760.037129	0.726600
760.364073	0.720100
760.690970	0.722274
761.017820	0.728048
761.344623	0.724003
761.671379	0.714080
761.998088	0.702457
762.324751	0.679926
762.651366	0.638903
762.977935	0.572004
763.304456	0.520211
763.630931	0.510694
763.957359	0.549884
764.283740	0.593608
764.610074	0.620455
764.936362	0.652242
765.262602	0.678846
765.588796	0.699942
765.914943	0.717833
766.241044	0.735780
766.567097	0.741686
766.893104	0.751580
767.219064	0.758704
767.544978	0.764224
767.870845	0.777945
768.196665	0.781623
768.522438	0.779708
768.848165	0.780351
769.173846	0.791122
769.499479	0.794172
769.825066	0.798062
770.150607	0.803321
770.476101	0.798418
770.801548	0.799596
771.126949	0.809772
771.452303	0.814801
771.777611	0.813532
772.102872	0.812797
772.428087	0.817660
772.753256	0.822882
773.078378	0.823406
773.403453	0.832356
773.728482	0.837457
774.053465	0.829684
774.378401	0.833885
774.703291	0.842731
775.028135	0.841568
775.352932	0.843659
775.677683	0.845813
776.002388	0.847121
776.327046	0.846277
776.651658	0.849590
776.976224	0.852705
777.300743	0.852587
777.625216	0.855238
777.949643	0.856902
778.274024	0.856588
778.598359	0.858709
778.922647	0.857409
779.246889	0.856741
779.571086	0.862369
779.895236	0.864275
780.219339	0.861701
780.543397	0.858007
780.867409	0.856985
781.191374	0.859192
781.515294	0.861476
781.839167	0.859292
782.162995	0.862780
782.486776	0.859996
782.810511	0.860324
783.134201	0.864654
783.457844	0.862199
783.781441	0.863848
784.104993	0.869919
784.428498	0.870695
784.751958	0.866829
785.075372	0.868667
785.398739	0.873274
785.722061	0.869056
786.045337	0.864428
786.368568	0.868921
786.691752	0.872447
787.014891	0.856857
787.337983	0.848528
787.661030	0.841026
787.984031	0.823459
788.306987	0.811267
788.629897	0.812388
788.952760	0.817217
789.275579	0.821217
789.598351	0.837124
789.921078	0.850414
790.243759	0.851927
790.566395	0.856937
790.888984	0.864303
791.211529	0.868638
791.534027	0.871765
791.856480	0.873898
792.178888	0.879313
792.501249	0.882073
792.823566	0.883441
793.145836	0.882234
793.468062	0.885302
793.790241	0.885131
794.112375	0.883664
794.434464	0.878344
794.756507	0.878265
795.078505	0.877527
795.400457	0.871859
795.722364	0.860767
796.044226	0.853984
796.366042	0.852704
796.687812	0.855903
797.009538	0.852266
797.331218	0.854798
797.652852	0.859177
797.974442	0.864124
798.295986	0.864282
798.617484	0.867245
798.938938	0.870973
799.260346	0.875279
799.581709	0.878322
799.903026	0.879468
800.224299	0.881288
800.545526	0.884584
800.866708	0.888159
801.187845	0.892133
801.508936	0.891777
801.829983	0.891283
802.150984	0.892822
802.471940	0.898088
802.792851	0.897216
803.113717	0.898930
803.434538	0.895632
803.755314	0.897760
804.076045	0.899595
804.396731	0.900432
804.717372	0.899658
805.037967	0.902184
805.358518	0.898743
805.679024	0.897268
805.999485	0.897009
806.319901	0.898026
806.640272	0.898086
806.960598	0.896716
807.280879	0.893846
807.601115	0.892340
807.921306	0.896282
808.241453	0.895701
808.561554	0.893998
808.881611	0.894650
809.201623	0.895682
809.521590	0.896804
809.841513	0.896416
810.161390	0.896198
810.481223	0.897786
810.801011	0.901989
811.120755	0.903441
811.440453	0.900627
811.760107	0.900332
812.079716	0.900686
812.399281	0.903785
812.718801	0.906497
813.038276	0.907804
813.357707	0.907329
813.677093	0.904204
813.996434	0.907547
814.315731	0.908233
814.634983	0.909909
814.954191	0.908741
815.273354	0.905499
815.592473	0.901819
815.911547	0.901015
816.230577	0.898377
816.549562	0.896505
816.868502	0.896947
817.187399	0.893226
817.506250	0.887190
817.825058	0.889662
818.143821	0.886585
818.462539	0.881779
818.781213	0.873963
819.099843	0.862848
819.418429	0.847458
819.736970	0.830062
820.055466	0.810503
820.373919	0.785187
820.692327	0.752689
821.010691	0.718218
821.329011	0.641282
821.647286	0.526755
821.965517	0.413264
822.283704	0.370504
822.601847	0.372158
822.919945	0.407364
823.237999	0.440949
823.556010	0.487300
823.873976	0.542564
824.191897	0.592860
824.509775	0.635062
824.827609	0.680607
825.145398	0.703575
825.463144	0.705776
825.780845	0.688865
826.098502	0.670067
826.416116	0.624725
826.733685	0.580624
827.051210	0.572684
827.368692	0.587038
827.686129	0.625143
828.003522	0.676817
828.320872	0.724625
828.638177	0.767798
828.955439	0.800126
829.272656	0.823017
829.589830	0.839833
829.906960	0.854230
830.224046	0.867368
830.541088	0.878490
830.858086	0.881444
831.175041	0.888586
831.491952	0.887142
831.808819	0.884015
832.125642	0.876895
832.442421	0.861335
832.759157	0.841121
833.075849	0.795278
833.392497	0.732569
833.709101	0.690533
834.025662	0.699882
834.342179	0.732367
834.658653	0.770420
834.975083	0.806431
835.291469	0.832316
835.607811	0.855772
835.924110	0.871032
836.240366	0.887741
836.556578	0.900607
836.872746	0.908820
837.188871	0.914733
837.504952	0.919008
837.820990	0.924195
838.136984	0.927044
838.452935	0.930546
838.768842	0.931412
839.084706	0.925291
839.400526	0.899052
839.716303	0.858665
840.032037	0.838170
840.347727	0.840227
840.663373	0.858698
840.978977	0.880200
841.294537	0.901504
841.610054	0.919192
841.925527	0.926862
842.240957	0.932789
842.556344	0.940958
842.871687	0.946019
843.186987	0.950894
843.502244	0.949913
843.817458	0.952198
844.132629	0.955999
844.447756	0.960251
844.762840	0.960679
845.077881	0.959125
845.392879	0.960009
845.707833	0.963220
846.022745	0.963947
846.337613	0.965027
846.652438	0.965898
846.967221	0.965502
847.281960	0.965916
847.596656	0.967682
847.911309	0.965698
848.225919	0.967778
848.540485	0.968053
848.855009	0.969709
849.169490	0.967673
849.483928	0.969324
849.798323	0.969881
850.112675	0.969696
850.426984	0.969492
850.741251	0.969298
851.055474	0.971105
851.369654	0.968062
851.683792	0.969185
851.997887	0.970491
852.311938	0.971242
852.625947	0.970999
852.939914	0.967734
853.253837	0.969168
853.567718	0.971345
853.881555	0.971518
854.195350	0.968722
854.509103	0.969573
854.822812	0.970002
855.136479	0.969912
855.450103	0.969290
855.763685	0.968043
856.077224	0.968594
856.390720	0.970568
856.704173	0.971009
857.017584	0.968887
857.330953	0.967106
857.644278	0.968098
857.957561	0.969477
858.270802	0.968473
858.584000	0.967654
858.897155	0.967350
859.210268	0.967673
859.523339	0.969259
859.836367	0.969645
860.149352	0.971198
860.462295	0.967938
860.775195	0.970437
861.088054	0.968195
861.400869	0.968582
861.713642	0.970671
862.026373	0.970125
862.339062	0.971472
862.651708	0.968908
862.964312	0.968102
863.276873	0.969802
863.589392	0.968766
863.901869	0.966909
864.214303	0.964533
864.526696	0.963973
864.839045	0.963916
865.151353	0.961120
865.463619	0.963705
865.775842	0.962759
866.088023	0.961846
866.400162	0.961455
866.712258	0.962443
867.024313	0.962959
867.336325	0.963322
867.648296	0.964287
867.960224	0.961645
868.272110	0.962145
868.583954	0.964795
868.895755	0.964028
869.207515	0.961708
869.519233	0.959965
869.830909	0.961636
870.142542	0.962464
870.454134	0.962298
870.765684	0.960826
871.077191	0.958442
871.388657	0.959526
871.700081	0.958690
872.011463	0.958727
872.322803	0.958169
872.634101	0.956295
872.945357	0.954443
873.256571	0.952449
873.567744	0.952228
873.878874	0.954192
874.189963	0.952184
874.501010	0.951752
874.812015	0.948942
875.122979	0.951381
875.433900	0.953121
875.744780	0.954347
876.055618	0.950536
876.366415	0.950375
876.677169	0.949708
876.987882	0.951602
877.298554	0.951264
877.609183	0.947379
877.919771	0.945468
878.230317	0.942752
878.540822	0.940547
878.851285	0.936501
879.161707	0.927393
879.472087	0.916049
879.782425	0.899372
880.092722	0.865481
880.402977	0.814806
880.713191	0.754550
881.023363	0.697032
881.333494	0.662791
881.643583	0.634591
881.953631	0.633816
882.263637	0.663306
882.573602	0.702860
882.883526	0.727560
883.193408	0.750368
883.503248	0.772684
883.813048	0.799657
884.122806	0.829810
884.432522	0.852090
884.742197	0.872344
885.051831	0.882613
885.361424	0.892520
885.670975	0.903916
885.980485	0.914692
886.289954	0.920683
886.599382	0.926111
886.908768	0.928670
887.218113	0.935966
887.527417	0.939518
887.836680	0.943482
888.145901	0.944369
888.455082	0.946823
888.764221	0.951081
889.073319	0.953197
889.382376	0.952305
889.691392	0.953811
890.000366	0.953057
890.309300	0.953645
890.618193	0.953579
890.927044	0.951505
891.235855	0.952237
891.544625	0.951285
891.853353	0.952432
892.162041	0.949846
892.470687	0.943285
892.779293	0.938667
893.087858	0.935307
893.396381	0.927256
893.704864	0.913708
894.013306	0.890940
894.321707	0.863605
894.630068	0.849379
894.938387	0.845587
895.246665	0.846332
895.554903	0.858851
895.863100	0.871993
896.171256	0.888391
896.479371	0.907793
896.787446	0.921069
897.095480	0.925836
897.403473	0.929711
897.711425	0.932645
898.019336	0.941326
898.327207	0.944057
898.635038	0.945638
898.942827	0.945700
899.250576	0.949633
899.558284	0.952355
899.865952	0.955211
900.173579	0.955568
900.481165	0.956981
900.788711	0.960147
901.096216	0.962207
901.403681	0.963109
901.711105	0.963943
902.018489	0.964203
902.325832	0.963407
902.633135	0.962409
902.940397	0.955543
903.247619	0.944044
903.554800	0.919007
903.861941	0.878996
904.169041	0.845371
904.476101	0.827821
904.783121	0.828715
905.090100	0.844769
905.397039	0.865930
905.703938	0.888323
906.010796	0.907364
906.317614	0.924273
906.624391	0.935685
906.931129	0.944319
907.237826	0.952611
907.544483	0.960399
907.851099	0.962374
908.157675	0.967906
908.464211	0.970428
908.770707	0.972419
909.077163	0.973808
909.383578	0.975065
909.689954	0.975602
909.996289	0.975561
910.302584	0.978633
910.608839	0.979726
910.915054	0.978234
911.221229	0.977593
911.527363	0.977349
911.833458	0.977262
912.139513	0.976415
912.445527	0.975456
912.751502	0.973143
913.057436	0.972645
913.363331	0.969764
913.669186	0.967063
913.975000	0.961927
914.280775	0.955509
914.586510	0.949883
914.892205	0.936344
915.197859	0.915562
915.503475	0.888092
915.809050	0.868540
916.114585	0.864284
916.420081	0.862323
916.725536	0.857090
917.030952	0.866158
917.336328	0.878529
917.641665	0.893188
917.946961	0.908964
918.252218	0.920246
918.557435	0.927605
918.862612	0.937361
919.167750	0.943511
919.472848	0.948388
919.777906	0.953698
920.082925	0.958461
920.387904	0.961322
920.692843	0.963226
920.997743	0.964063
921.302603	0.967710
921.607423	0.969562
921.912204	0.971675
922.216946	0.971326
922.521647	0.973683
922.826310	0.975302
923.130932	0.976565
923.435516	0.977839
923.740059	0.979049
924.044564	0.977998
924.349028	0.981327
924.653454	0.983072
924.957840	0.985379
925.262186	0.984976
925.566493	0.983761
925.870761	0.985785
926.174989	0.986261
926.479178	0.988515
926.783328	0.988962
927.087438	0.987475
927.391509	0.988081
927.695541	0.989447
927.999533	0.989604
928.303486	0.989343
928.607400	0.991399
928.911275	0.989082
929.215110	0.989702
929.518906	0.990489
929.822663	0.989616
930.126381	0.990714
930.430060	0.990447
930.733699	0.990938
931.037299	0.988100
931.340861	0.990224
931.644383	0.989581
931.947866	0.988756
932.251309	0.990210
932.554714	0.990159
932.858080	0.990246
933.161407	0.989702
933.464694	0.990449
933.767943	0.988711
934.071153	0.990946
934.374323	0.991121
934.677455	0.991691
934.980548	0.992529
935.283602	0.991508
935.586617	0.991592
935.889593	0.991661
936.192530	0.989779
936.495428	0.991647
936.798287	0.989849
937.101108	0.990760
937.403890	0.988891
937.706632	0.988661
938.009336	0.986938
938.312002	0.985724
938.614628	0.984022
938.917216	0.983336
939.219765	0.981425
939.522275	0.983276
939.824747	0.982728
940.127179	0.983142
940.429573	0.984265
940.731929	0.984451
941.034246	0.984810
941.336524	0.985984
941.638763	0.987394
941.940964	0.986455
942.243126	0.987107
942.545250	0.987731
942.847335	0.988581
943.149381	0.987600
943.451389	0.987673
943.753359	0.988571
944.055290	0.990248
944.357182	0.989780
944.659036	0.988204
944.960851	0.989099
945.262628	0.990301
945.564367	0.990740
945.866067	0.989714
946.167729	0.989363
946.469352	0.989457
946.770937	0.989220
947.072484	0.990303
947.373992	0.989763
947.675462	0.990280
947.976893	0.990619
948.278286	0.990415
948.579641	0.991671
948.880958	0.989628
949.182236	0.991769
949.483476	0.991164
949.784678	0.990034
950.085841	0.990985
950.386967	0.990746
950.688054	0.990204
950.989103	0.989826
951.290114	0.989636
951.591087	0.990015
951.892021	0.988266
952.192917	0.988491
952.493776	0.988734
952.794596	0.987803
953.095378	0.987946
953.396122	0.988387
953.696828	0.987647
953.997496	0.990214
954.298126	0.990251
954.598718	0.990821
954.899272	0.990576
955.199788	0.990228
955.500266	0.992421
955.800706	0.992411
956.101108	0.993335
956.401472	0.994325
956.701798	0.992956
957.002087	0.992893
957.302337	0.993250
957.602550	0.995123
957.902724	0.994015
958.202861	0.995276
958.502960	0.995586
958.803022	0.994376
959.103045	0.995427
959.403031	0.996056
959.702979	0.995079
960.002889	0.995527
960.302762	0.994898
960.602596	0.995812
960.902393	0.993797
961.202153	0.997122
961.501875	0.995734
961.801559	0.996636
962.101205	0.995753
962.400814	0.996572
962.700385	0.996384
962.999918	0.996862
963.299414	0.996643
963.598873	0.995137
963.898293	0.996493
964.197677	0.994356
964.497022	0.995707
964.796331	0.996189
965.095601	0.997175
965.394835	0.996562
965.694030	0.996583
965.993189	0.997450
966.292309	0.996580
966.591393	0.997339
966.890439	0.996790
967.189447	0.995852
967.488419	0.997430
967.787353	0.996724
968.086249	0.996358
968.385108	0.996238
968.683930	0.996867
968.982714	0.997475
969.281462	0.997691
969.580172	0.996216
969.878844	0.997145
970.177480	0.997699
970.476078	0.997717
970.774639	0.996523
971.073162	0.996981
971.371649	0.995565
971.670098	0.996790
971.968510	0.996712
972.266885	0.994735
972.565223	0.996884
972.863524	0.996025
973.161788	0.996201
973.460014	0.996679
973.758204	0.995622
974.056356	0.997233
974.354471	0.995816
974.652550	0.995821
974.950591	0.995935
975.248595	0.996181
975.546563	0.997659
975.844493	0.997710
976.142386	0.997315
976.440243	0.996712
976.738062	0.998371
977.035845	0.998557
977.333590	0.996280
977.631299	0.998607
977.928971	0.996734
978.226606	0.996261
978.524204	0.995674
978.821765	0.998480
979.119290	0.996778
979.416777	0.996604
979.714228	0.996361
980.011642	0.996882
980.309020	0.996798
980.606360	0.997645
980.903664	0.997595
981.200931	0.996188
981.498162	0.995236
981.795356	0.993219
982.092513	0.994430
982.389633	0.994682
982.686717	0.991188
982.983764	0.991832
983.280775	0.990318
983.577749	0.990820
983.874686	0.992860
984.171587	0.991532
984.468451	0.994621
984.765279	0.994488
985.062070	0.994135
985.358824	0.994884
985.655543	0.995039
985.952224	0.996314
986.248869	0.996733
986.545478	0.997245
986.842050	0.998446
987.138586	0.995921
987.435086	0.996791
987.731549	0.998920
988.027975	0.998522
988.324366	0.998181
988.620719	0.996744
988.917037	0.996784
989.213318	0.998972
989.509563	0.997770
989.805772	0.998897
990.101944	0.998949
990.398080	0.997476
990.694180	0.998129
990.990244	0.997659
991.286271	0.997345
991.582262	0.997478
991.878217	0.997462
992.174136	0.998606
992.470019	0.998004
992.765865	0.998065
993.061676	0.998758
993.357450	0.997965
993.653188	0.996311
993.948890	0.998024
994.244556	0.996337
994.540186	0.996928
994.835780	0.995710
995.131337	0.997162
995.426859	0.996158
995.722345	0.998471
996.017795	0.995425
996.313208	0.996179
996.608586	0.995382
996.903928	0.996705
997.199234	0.994938
997.494504	0.997353
997.789738	0.995453
998.084936	0.996145
998.380099	0.997122
998.675225	0.996960
998.970316	0.997788
999.265371	0.998260
999.560390	0.998598
999.855373	0.999111
1000.150320	0.998894
1000.445232	0.998651
1000.740108	0.997166
1001.034948	0.998813
1001.329752	0.999646
1001.624521	0.998383
1001.919254	0.999965
1002.213951	0.998681
1002.508613	0.998380
1002.803239	0.999822
1003.097829	0.999832
1003.392384	0.999490
1003.686903	0.999048
1003.981386	0.998749
1004.275834	0.998068
1004.570246	0.997895
1004.864623	0.999097
1005.158964	0.999415
1005.453270	0.999667
1005.747540	0.998307
1006.041775	0.998903
1006.335974	0.999553
1006.630138	0.998546
1006.924266	0.999670
1007.218359	1.000224
1007.512416	0.998894
1007.806438	0.999563
1008.100425	0.999293
1008.394376	0.998456
1008.688292	0.999251
1008.982172	0.999638
1009.276017	0.999347
1009.569827	0.999485
1009.863602	0.998689
1010.157341	0.999226
1010.451045	0.999031
1010.744714	0.998584
1011.038347	0.998696
1011.331945	0.997934
1011.625508	0.997339
1011.919036	0.997502
1012.212528	0.999080
1012.505986	0.997783
1012.799408	0.998236
1013.092795	0.999091
1013.386147	0.998199
1013.679464	0.998939
1013.972745	0.997791
1014.265992	0.998107
1014.559204	0.998076
1014.852380	0.999234
1015.145521	0.999246
1015.438628	0.999446
1015.731699	0.998202
1016.024736	0.998922
1016.317737	0.999341
1016.610703	0.999240
1016.903635	0.999384
1017.196531	0.996866
1017.489393	0.999475
1017.782219	0.997166
1018.075011	0.997480
1018.367768	0.998815
1018.660490	0.999263
1018.953177	0.999263
1019.245829	0.999263
