Dividing Wavelength (nm)	Counts (n)	Blue Motor Position (mm): 0.000000	Red Motor Position (mm): 36.100000	
326.493990	1.000203
326.888308	1.000203
327.282561	1.000203
327.676750	0.999955
328.070874	0.999003
328.464933	0.999186
328.858929	0.999138
329.252859	0.999436
329.646726	0.999099
330.040528	0.999699
330.434265	0.998767
330.827938	1.000289
331.221547	0.999633
331.615091	1.000582
332.008571	0.999734
332.401986	1.000568
332.795338	1.000054
333.188625	0.997919
333.581847	0.999443
333.975006	0.998642
334.368100	0.998994
334.761129	1.000685
335.154095	1.000533
335.546996	0.997444
335.939833	0.995331
336.332606	0.996162
336.725315	0.996551
337.117960	0.998571
337.510540	0.996858
337.903056	0.996223
338.295508	0.995897
338.687896	0.996948
339.080220	0.996700
339.472480	0.996029
339.864676	0.997497
340.256807	0.997759
340.648875	0.997487
341.040879	0.995885
341.432818	0.996669
341.824694	0.995930
342.216506	0.998086
342.608253	0.996065
342.999937	0.996252
343.391557	0.996277
343.783113	0.996384
344.174605	0.997562
344.566033	0.996720
344.957397	0.996013
345.348697	0.995453
345.739934	0.997020
346.131106	0.996517
346.522215	0.995602
346.913260	0.996564
347.304241	0.997800
347.695159	0.995384
348.086012	0.994795
348.476802	0.995979
348.867528	0.995767
349.258191	0.995080
349.648789	0.997873
350.039324	0.996259
350.429796	0.997266
350.820203	0.996674
351.210548	0.996799
351.600828	0.997058
351.991045	0.997417
352.381198	0.995576
352.771288	0.996016
353.161314	0.996860
353.551276	0.998248
353.941175	0.997310
354.331010	0.996938
354.720782	0.996710
355.110490	0.996805
355.500135	0.998053
355.889717	0.997672
356.279235	0.996914
356.668689	0.997237
357.058080	0.995627
357.447408	0.997709
357.836672	0.996831
358.225873	0.997442
358.615010	0.996454
359.004084	0.997360
359.393095	0.996848
359.782043	0.996876
360.170927	0.997845
360.559748	0.996741
360.948505	0.996523
361.337199	0.995980
361.725830	0.995686
362.114398	0.996923
362.502903	0.998304
362.891344	0.998338
363.279722	0.996533
363.668037	0.996755
364.056289	0.997317
364.444478	0.996678
364.832603	0.997662
365.220665	0.996164
365.608665	0.996332
365.996601	0.996535
366.384474	0.996353
366.772284	0.996519
367.160031	0.995285
367.547715	0.995476
367.935336	0.996107
368.322893	0.997610
368.710388	0.996413
369.097820	0.996703
369.485189	0.995945
369.872495	0.995452
370.259738	0.996104
370.646918	0.996805
371.034035	0.996095
371.421090	0.996746
371.808081	0.996606
372.195010	0.996681
372.581875	0.997657
372.968678	0.996846
373.355418	0.995778
373.742096	0.996973
374.128710	0.998914
374.515262	0.996693
374.901751	0.997134
375.288177	0.997010
375.674540	0.998159
376.060841	0.996376
376.447079	0.998088
376.833254	0.997155
377.219367	0.997326
377.605417	0.997131
377.991404	0.997536
378.377329	0.995992
378.763191	0.997470
379.148991	0.998635
379.534727	0.998591
379.920402	0.997371
380.306013	0.997553
380.691563	0.997541
381.077049	0.996774
381.462474	0.996929
381.847835	0.997997
382.233134	0.997682
382.618371	0.997130
383.003545	0.997463
383.388657	0.997309
383.773706	0.998155
384.158693	0.998423
384.543618	0.997657
384.928480	0.998820
385.313280	0.998122
385.698017	0.997524
386.082692	0.998111
386.467305	0.998001
386.851856	0.997785
387.236344	0.997395
387.620770	0.996777
388.005133	0.998191
388.389435	0.998657
388.773674	0.998762
389.157851	0.997839
389.541965	0.997925
389.926018	0.997277
390.310008	0.999607
390.693936	0.997889
391.077802	0.998463
391.461606	0.997571
391.845348	0.998552
392.229027	0.998972
392.612645	0.997840
392.996200	0.999702
393.379694	0.997689
393.763125	0.998841
394.146494	0.998395
394.529801	0.997890
394.913047	0.999334
395.296230	0.998556
395.679351	0.998537
396.062410	0.997838
396.445408	0.998737
396.828343	0.997671
397.211217	0.997599
397.594028	0.998125
397.976778	0.998327
398.359466	0.998226
398.742092	0.998050
399.124656	0.998769
399.507158	0.998030
399.889598	0.998661
400.271977	0.997939
400.654294	0.998513
401.036549	0.999296
401.418742	0.999319
401.800874	0.998552
402.182944	0.997998
402.564952	0.998454
402.946898	0.998855
403.328783	0.998191
403.710606	0.998402
404.092367	0.998878
404.474067	0.998701
404.855705	0.998405
405.237282	0.998795
405.618797	0.998153
406.000250	0.998150
406.381642	0.998942
406.762972	0.998389
407.144240	0.999648
407.525447	0.998730
407.906593	0.998937
408.287677	0.998925
408.668700	0.999504
409.049661	0.996549
409.430560	0.998714
409.811399	0.998834
410.192176	0.998284
410.572891	0.998565
410.953545	0.998290
411.334138	0.997007
411.714669	0.998623
412.095139	0.997900
412.475547	0.998799
412.855894	0.998980
413.236180	0.999273
413.616405	0.999099
413.996568	0.999860
414.376670	0.999145
414.756711	0.998709
415.136691	0.998487
415.516609	0.998484
415.896466	0.998067
416.276262	0.997479
416.655997	0.998279
417.035670	0.998216
417.415283	0.998793
417.794834	0.998765
418.174324	0.998614
418.553753	0.998446
418.933121	0.998204
419.312428	0.998736
419.691674	0.998497
420.070859	0.998841
420.449983	0.998156
420.829045	0.998975
421.208047	0.999289
421.586988	0.999532
421.965867	0.999344
422.344686	0.999774
422.723444	0.998733
423.102141	0.999810
423.480777	0.998646
423.859352	0.997672
424.237866	0.998556
424.616319	0.998682
424.994712	0.998565
425.373044	0.999294
425.751314	0.998179
426.129524	0.998862
426.507673	0.999595
426.885762	0.999559
427.263789	0.998948
427.641756	0.998709
428.019662	0.999521
428.397508	0.998273
428.775292	0.998436
429.153016	0.999314
429.530679	0.999377
429.908282	0.999714
430.285824	0.997807
430.663305	0.998867
431.040726	0.998144
431.418086	0.999803
431.795385	0.999650
432.172624	0.998944
432.549802	0.999641
432.926920	0.999586
433.303977	0.998076
433.680974	0.998750
434.057910	0.999025
434.434786	0.999044
434.811601	0.998629
435.188355	0.999017
435.565050	0.998666
435.941683	0.999549
436.318257	0.999722
436.694770	0.998167
437.071222	0.999717
437.447614	0.998701
437.823946	0.998944
438.200218	0.999623
438.576429	0.999812
438.952580	0.999355
439.328670	0.998946
439.704700	0.998938
440.080670	0.999688
440.456580	0.998907
440.832429	0.998978
441.208218	0.998506
441.583947	0.998723
441.959616	0.999386
442.335224	0.999136
442.710773	0.999892
443.086261	0.998263
443.461689	0.998576
443.837057	0.999205
444.212365	1.000150
444.587612	0.999275
444.962800	0.998920
445.337927	0.998956
445.712995	0.999384
446.088002	0.999233
446.462949	0.999389
446.837837	0.999090
447.212664	0.998955
447.587431	0.999550
447.962139	0.998920
448.336786	0.998852
448.711374	0.999422
449.085901	0.999516
449.460369	1.000276
449.834776	0.999340
450.209124	0.999573
450.583412	0.999600
450.957640	0.999843
451.331808	0.999343
451.705917	0.999725
452.079965	0.999433
452.453954	0.998882
452.827883	0.998460
453.201752	0.999071
453.575562	0.999299
453.949311	0.999258
454.323001	0.999245
454.696632	0.999064
455.070202	0.998872
455.443713	0.998840
455.817164	0.999556
456.190556	0.998821
456.563888	0.998655
456.937160	0.999393
457.310373	0.998359
457.683526	0.999234
458.056619	0.999442
458.429653	1.000162
458.802628	0.998433
459.175542	0.999245
459.548398	0.999080
459.921194	0.999093
460.293930	0.999768
460.666607	0.998376
461.039224	0.998214
461.411782	0.999981
461.784280	0.998636
462.156719	0.999429
462.529099	0.998972
462.901419	0.999270
463.273680	0.999948
463.645882	0.998850
464.018024	0.999096
464.390106	0.999386
464.762130	1.000156
465.134094	0.999618
465.505999	0.999517
465.877845	0.999263
466.249631	0.999959
466.621358	0.999675
466.993026	0.999307
467.364634	0.999819
467.736184	1.000060
468.107674	0.999593
468.479105	0.999318
468.850477	0.999563
469.221790	0.999866
469.593043	0.999874
469.964238	0.999824
470.335373	0.998775
470.706449	0.999186
471.077467	0.999683
471.448425	0.999892
471.819324	1.000574
472.190164	0.998850
472.560945	0.999934
472.931667	0.999194
473.302330	0.999410
473.672934	1.000137
474.043479	0.999654
474.413965	0.999300
474.784393	0.999798
475.154761	0.999008
475.525070	0.998223
475.895321	0.999452
476.265513	0.999465
476.635645	0.998442
477.005719	1.000157
477.375734	0.999096
477.745691	0.999722
478.115588	0.999887
478.485427	0.999658
478.855207	0.999340
479.224928	0.999420
479.594591	0.999488
479.964194	0.999865
480.333739	1.000057
480.703226	0.999120
481.072653	0.999971
481.442022	1.000060
481.811333	0.998923
482.180584	0.999406
482.549777	0.998897
482.918912	0.999935
483.287988	1.000052
483.657005	0.998771
484.025964	1.000133
484.394864	1.000222
484.763706	1.000126
485.132489	0.999974
485.501213	0.999216
485.869879	0.999514
486.238487	1.000062
486.607036	1.000116
486.975527	0.999161
487.343959	1.000119
487.712333	0.999529
488.080648	0.999227
488.448905	0.999850
488.817104	0.999308
489.185244	0.999585
489.553326	0.999781
489.921350	0.999539
490.289315	0.999512
490.657222	0.999452
491.025070	1.000084
491.392861	0.999991
491.760593	0.999730
492.128267	0.999368
492.495883	0.999542
492.863440	0.999631
493.230939	0.999423
493.598380	0.999471
493.965763	0.999239
494.333088	0.999285
494.700354	0.999106
495.067563	0.999233
495.434713	0.999023
495.801805	1.000238
496.168839	0.999825
496.535815	0.998350
496.902733	0.998866
497.269593	0.999511
497.636395	0.999427
498.003139	0.998977
498.369825	0.999816
498.736453	0.998926
499.103023	0.997992
499.469535	0.998892
499.835989	0.998846
500.202385	0.998415
500.568723	0.999105
500.935003	0.999107
501.301226	0.999261
501.667390	0.998454
502.033497	0.998645
502.399546	0.999584
502.765537	0.998255
503.131470	0.998659
503.497345	0.998558
503.863163	0.999944
504.228923	0.998368
504.594625	0.998908
504.960269	0.998971
505.325856	0.998654
505.691385	0.998216
506.056856	0.998534
506.422270	0.998939
506.787625	0.998563
507.152924	0.998595
507.518164	0.999006
507.883347	0.997924
508.248472	0.998206
508.613540	0.998632
508.978550	0.998497
509.343503	0.997505
509.708398	0.997910
510.073236	0.998079
510.438016	0.998196
510.802738	0.997671
511.167403	0.998085
511.532010	0.997543
511.896561	0.996348
512.261053	0.998387
512.625488	0.997334
512.989866	0.997606
513.354186	0.997237
513.718449	0.996789
514.082655	0.996554
514.446803	0.996902
514.810894	0.996857
515.174927	0.996041
515.538904	0.996031
515.902822	0.995345
516.266684	0.995536
516.630488	0.995819
516.994235	0.994366
517.357925	0.993870
517.721558	0.994370
518.085133	0.993297
518.448651	0.994456
518.812112	0.993321
519.175516	0.992486
519.538863	0.992730
519.902152	0.991676
520.265385	0.991571
520.628560	0.991042
520.991678	0.990707
521.354739	0.990644
521.717743	0.990132
522.080690	0.989049
522.443580	0.988663
522.806413	0.987751
523.169189	0.987309
523.531908	0.986471
523.894569	0.986403
524.257174	0.985844
524.619722	0.985036
524.982213	0.984233
525.344647	0.982928
525.707025	0.981755
526.069345	0.981175
526.431608	0.980669
526.793815	0.980344
527.155964	0.978793
527.518057	0.978680
527.880093	0.977619
528.242072	0.976098
528.603995	0.974771
528.965860	0.974954
529.327669	0.972999
529.689421	0.971788
530.051117	0.971591
530.412755	0.969256
530.774337	0.968222
531.135862	0.966705
531.497331	0.966329
531.858743	0.964843
532.220098	0.962985
532.581396	0.961707
532.942638	0.960541
533.303824	0.959220
533.664953	0.957115
534.026025	0.955692
534.387040	0.953824
534.747999	0.952169
535.108902	0.950249
535.469748	0.948481
535.830537	0.947755
536.191270	0.945126
536.551947	0.942895
536.912567	0.941578
537.273131	0.940611
537.633638	0.937017
537.994089	0.935345
538.354483	0.933846
538.714821	0.931150
539.075103	0.928497
539.435328	0.926120
539.795497	0.924317
540.155609	0.921388
540.515665	0.919517
540.875665	0.916709
541.235609	0.914122
541.595496	0.911398
541.955328	0.907397
542.315102	0.906400
542.674821	0.903919
543.034483	0.900506
543.394090	0.897721
543.753640	0.895308
544.113134	0.891336
544.472571	0.889107
544.831953	0.885215
545.191278	0.882645
545.550548	0.880754
545.909761	0.875808
546.268918	0.872999
546.628019	0.869709
546.987064	0.866542
547.346053	0.865162
547.704986	0.859609
548.063863	0.856976
548.422684	0.854805
548.781449	0.851113
549.140158	0.847083
549.498811	0.843549
549.857408	0.840829
550.215949	0.835752
550.574434	0.832701
550.932864	0.827656
551.291237	0.825149
551.649555	0.820263
552.007817	0.817049
552.366022	0.813752
552.724173	0.810440
553.082267	0.806970
553.440305	0.800435
553.798288	0.799649
554.156215	0.793120
554.514086	0.789815
554.871902	0.787315
555.229661	0.782268
555.587365	0.779152
555.945014	0.777437
556.302606	0.770222
556.660143	0.768797
557.017625	0.761439
557.375050	0.759090
557.732421	0.753777
558.089735	0.750497
558.446994	0.746893
558.804197	0.741950
559.161345	0.738179
559.518437	0.735986
559.875474	0.729553
560.232455	0.724549
560.589381	0.721678
560.946251	0.715253
561.303065	0.712249
561.659825	0.706864
562.016528	0.703781
562.373177	0.701890
562.729770	0.694748
563.086307	0.692038
563.442789	0.687284
563.799216	0.682248
564.155587	0.678278
564.511904	0.673757
564.868164	0.670172
565.224370	0.666333
565.580520	0.661857
565.936615	0.659403
566.292654	0.654493
566.648638	0.649844
567.004567	0.645510
567.360441	0.642512
567.716260	0.637891
568.072023	0.633196
568.427732	0.628348
568.783385	0.627651
569.138982	0.620441
569.494525	0.616116
569.850013	0.613577
570.205445	0.607263
570.560823	0.607144
570.916145	0.602581
571.271412	0.597663
571.626625	0.594109
571.981782	0.590201
572.336884	0.586388
572.691931	0.583279
573.046923	0.578101
573.401860	0.575419
573.756743	0.572813
574.111570	0.567669
574.466342	0.564493
574.821059	0.559709
575.175722	0.557236
575.530330	0.553148
575.884882	0.548937
576.239380	0.546429
576.593823	0.542974
576.948211	0.538776
577.302544	0.537925
577.656823	0.533000
578.011047	0.530031
578.365216	0.526347
578.719330	0.524408
579.073389	0.519566
579.427394	0.517612
579.781344	0.514871
580.135239	0.512199
580.489080	0.508475
580.842866	0.506786
581.196597	0.503443
581.550273	0.499296
581.903895	0.495954
582.257463	0.491949
582.610975	0.490380
582.964434	0.487932
583.317837	0.485800
583.671186	0.483611
584.024481	0.479502
584.377721	0.478874
584.730906	0.476292
585.084037	0.472111
585.437113	0.470825
585.790135	0.466649
586.143103	0.465889
586.496016	0.464380
586.848874	0.458558
587.201679	0.456859
587.554428	0.455978
587.907124	0.452544
588.259765	0.450435
588.612352	0.447578
588.964884	0.448574
589.317362	0.445150
589.669786	0.442572
590.022155	0.439091
590.374470	0.434957
590.726731	0.434509
591.078937	0.435015
591.431090	0.428623
591.783188	0.430691
592.135232	0.427712
592.487222	0.426242
592.839157	0.421778
593.191038	0.421393
593.542866	0.420251
593.894639	0.421380
594.246358	0.417020
594.598022	0.414455
594.949633	0.415293
595.301190	0.413475
595.652692	0.411211
596.004141	0.405041
596.355535	0.410333
596.706876	0.408118
597.058162	0.408306
597.409395	0.403604
597.760573	0.399534
598.111698	0.400622
598.462768	0.398743
598.813785	0.398726
599.164748	0.397243
599.515657	0.396154
599.866511	0.396610
600.217312	0.391171
600.568060	0.394453
600.918753	0.389432
601.269392	0.388651
601.619978	0.389604
601.970510	0.386012
602.320988	0.385455
602.671412	0.380727
603.021783	0.382053
603.372100	0.381808
603.722363	0.379542
604.072572	0.379460
604.422728	0.377698
604.772830	0.378244
605.122878	0.376248
605.472872	0.375841
605.822813	0.372578
606.172701	0.373636
606.522534	0.370165
606.872314	0.369005
607.222041	0.368523
607.571714	0.366158
607.921333	0.366043
608.270899	0.365056
608.620411	0.360824
608.969870	0.363334
609.319276	0.362251
609.668627	0.360858
610.017926	0.358427
610.367171	0.356017
610.716362	0.356189
611.065500	0.355815
611.414585	0.353392
611.763616	0.353596
612.112594	0.353084
612.461518	0.351463
612.810389	0.348436
613.159207	0.350172
613.507971	0.350670
613.856682	0.345810
614.205340	0.346720
614.553945	0.342698
614.902496	0.345722
615.250994	0.343309
615.599439	0.343660
615.947830	0.342455
616.296169	0.342894
616.644454	0.341810
616.992686	0.340902
617.340864	0.338417
617.688990	0.341451
618.037063	0.337844
618.385082	0.339443
618.733048	0.335764
619.080961	0.337792
619.428821	0.336541
619.776628	0.335630
620.124382	0.337119
620.472083	0.336359
620.819731	0.335551
621.167326	0.338176
621.514868	0.337521
621.862357	0.341518
622.209793	0.340445
622.557176	0.341999
622.904506	0.342348
623.251783	0.344411
623.599007	0.346424
623.946179	0.345637
624.293297	0.346643
624.640363	0.350343
624.987376	0.350485
625.334336	0.352640
625.681243	0.354656
626.028097	0.354730
626.374899	0.355569
626.721647	0.355618
627.068343	0.358481
627.414987	0.359169
627.761577	0.361005
628.108115	0.358931
628.454600	0.364556
628.801032	0.360849
629.147412	0.362904
629.493739	0.362985
629.840014	0.365905
630.186236	0.363294
630.532405	0.368554
630.878521	0.365608
631.224585	0.368233
631.570597	0.371490
631.916556	0.369606
632.262462	0.369856
632.608316	0.371590
632.954117	0.371793
633.299866	0.373093
633.645562	0.373423
633.991206	0.377145
634.336797	0.379962
634.682336	0.382095
635.027823	0.383626
635.373257	0.383601
635.718639	0.386960
636.063968	0.386073
636.409245	0.392192
636.754470	0.391655
637.099642	0.394305
637.444762	0.397850
637.789829	0.396147
638.134845	0.399694
638.479808	0.400620
638.824719	0.400531
639.169577	0.404391
639.514383	0.402534
639.859137	0.407263
640.203839	0.406966
640.548489	0.407565
640.893086	0.408870
641.237632	0.410360
641.582125	0.408679
641.926566	0.410171
642.270955	0.410173
642.615292	0.410433
642.959576	0.409564
643.303809	0.409969
643.647990	0.409507
643.992118	0.409862
644.336195	0.413888
644.680219	0.411869
645.024192	0.412599
645.368112	0.405929
645.711981	0.405176
646.055797	0.400307
646.399562	0.402574
646.743274	0.394706
647.086935	0.392179
647.430544	0.392343
647.774101	0.390548
648.117606	0.390717
648.461059	0.391122
648.804460	0.393146
649.147810	0.398909
649.491108	0.400704
649.834354	0.401868
650.177548	0.407187
650.520690	0.411694
650.863781	0.413508
651.206820	0.412892
651.549807	0.417764
651.892742	0.421515
652.235626	0.420519
652.578458	0.421709
652.921238	0.427741
653.263967	0.425511
653.606644	0.429555
653.949269	0.429316
654.291843	0.432794
654.634365	0.429757
654.976836	0.432554
655.319255	0.433101
655.661622	0.434780
656.003938	0.434662
656.346203	0.437246
656.688416	0.434863
657.030577	0.438910
657.372687	0.440798
657.714746	0.441209
658.056753	0.438017
658.398708	0.442159
658.740612	0.443081
659.082465	0.439306
659.424266	0.440366
659.766016	0.439013
660.107715	0.441792
660.449362	0.440881
660.790958	0.441613
661.132503	0.441678
661.473996	0.439942
661.815438	0.440781
662.156829	0.440737
662.498168	0.441186
662.839456	0.443209
663.180693	0.440694
663.521879	0.440311
663.863013	0.441661
664.204097	0.439803
664.545129	0.436952
664.886110	0.437299
665.227040	0.434373
665.567918	0.437065
665.908746	0.434434
666.249522	0.434767
666.590248	0.435666
666.930922	0.434103
667.271545	0.432649
667.612118	0.432947
667.952639	0.434335
668.293109	0.433169
668.633528	0.436225
668.973896	0.435967
669.314213	0.436204
669.654480	0.437529
669.994695	0.437868
670.334859	0.438843
670.674973	0.439240
671.015035	0.439682
671.355047	0.439053
671.695008	0.440044
672.034918	0.441698
672.374777	0.441570
672.714585	0.442332
673.054342	0.442392
673.394049	0.442847
673.733705	0.440210
674.073310	0.441578
674.412864	0.444829
674.752368	0.444868
675.091820	0.445769
675.431223	0.449343
675.770574	0.449665
676.109875	0.452317
676.449125	0.452368
676.788324	0.454730
677.127473	0.460147
677.466571	0.459796
677.805619	0.461750
678.144616	0.462014
678.483562	0.463875
678.822458	0.466946
679.161303	0.467708
679.500098	0.467894
679.838842	0.469754
680.177535	0.468876
680.516179	0.467781
680.854771	0.467048
681.193314	0.460288
681.531805	0.451734
681.870247	0.440309
682.208638	0.433064
682.546978	0.431838
682.885268	0.433342
683.223508	0.439683
683.561697	0.443407
683.899836	0.446151
684.237925	0.450071
684.575963	0.452325
684.913951	0.454947
685.251889	0.450656
685.589776	0.452797
685.927614	0.455306
686.265401	0.449641
686.603137	0.450771
686.940824	0.445076
687.278460	0.443774
687.616046	0.442720
687.953582	0.437240
688.291068	0.439135
688.628504	0.435077
688.965889	0.436898
689.303224	0.440954
689.640510	0.445318
689.977745	0.450350
690.314930	0.458564
690.652065	0.463234
690.989150	0.470564
691.326185	0.477114
691.663170	0.481349
692.000105	0.488400
692.336990	0.495332
692.673825	0.497376
693.010610	0.504437
693.347345	0.510334
693.684030	0.511914
694.020665	0.516615
694.357251	0.525494
694.693786	0.524804
695.030272	0.528417
695.366707	0.531975
695.703093	0.535980
696.039429	0.533674
696.375716	0.535621
696.711952	0.537821
697.048139	0.540174
697.384276	0.542279
697.720363	0.540316
698.056400	0.539360
698.392388	0.544883
698.728326	0.547679
699.064214	0.550965
699.400053	0.551559
699.735842	0.554899
700.071581	0.558286
700.407270	0.560953
700.742910	0.563016
701.078501	0.570109
701.414042	0.569871
701.749533	0.573121
702.084974	0.582152
702.420366	0.573971
702.755709	0.581545
703.091002	0.589449
703.426246	0.582850
703.761440	0.588280
704.096584	0.593208
704.431679	0.591233
704.766725	0.592755
705.101721	0.594373
705.436668	0.590505
705.771565	0.597258
706.106413	0.594223
706.441212	0.589562
706.775961	0.587960
707.110661	0.590971
707.445311	0.587117
707.779913	0.584674
708.114465	0.583187
708.448967	0.580017
708.783421	0.571758
709.117825	0.566318
709.452180	0.566758
709.786485	0.560631
710.120742	0.550048
710.454949	0.551814
710.789107	0.544421
711.123216	0.535237
711.457275	0.537579
711.791286	0.528071
712.125247	0.527504
712.459159	0.537439
712.793023	0.530745
713.126837	0.534170
713.460602	0.535162
713.794318	0.543961
714.127985	0.543083
714.461602	0.553295
714.795171	0.556726
715.128691	0.564101
715.462162	0.571321
715.795584	0.577001
716.128957	0.579919
716.462281	0.586865
716.795556	0.589844
717.128782	0.595408
717.461960	0.604474
717.795088	0.602446
718.128167	0.609542
718.461198	0.617021
718.794180	0.618615
719.127113	0.621004
719.459997	0.624618
719.792833	0.630942
720.125619	0.632462
720.458357	0.638618
720.791046	0.637247
721.123686	0.640602
721.456278	0.647861
721.788821	0.645145
722.121315	0.650487
722.453761	0.653333
722.786158	0.651818
723.118506	0.647776
723.450805	0.656036
723.783056	0.651983
724.115259	0.649484
724.447412	0.648477
724.779518	0.650509
725.111574	0.648849
725.443582	0.644942
725.775542	0.646238
726.107453	0.638936
726.439315	0.639255
726.771129	0.636956
727.102895	0.630590
727.434612	0.623643
727.766281	0.621689
728.097901	0.620936
728.429473	0.620506
728.760996	0.619078
729.092471	0.619780
729.423897	0.622949
729.755276	0.622515
730.086606	0.622509
730.417887	0.617073
730.749120	0.608270
731.080305	0.598639
731.411442	0.595002
731.742530	0.599646
732.073570	0.598780
732.404562	0.591224
732.735506	0.592832
733.066401	0.597117
733.397249	0.606439
733.728048	0.618111
734.058798	0.630087
734.389501	0.640931
734.720156	0.650165
735.050762	0.658071
735.381320	0.658821
735.711831	0.668437
736.042293	0.672732
736.372707	0.668865
736.703073	0.673406
737.033391	0.675847
737.363661	0.672718
737.693883	0.667477
738.024056	0.666555
738.354182	0.667153
738.684260	0.656338
739.014290	0.653039
739.344272	0.653472
739.674207	0.647404
740.004093	0.646224
740.333931	0.647098
740.663722	0.646649
740.993464	0.647686
741.323159	0.651637
741.652806	0.656437
741.982405	0.660895
742.311956	0.665291
742.641460	0.667150
742.970915	0.671471
743.300323	0.679002
743.629683	0.685585
743.958996	0.686559
744.288260	0.691973
744.617477	0.696833
744.946647	0.698960
745.275768	0.704441
745.604842	0.703937
745.933869	0.713793
746.262847	0.715105
746.591778	0.707945
746.920662	0.714394
747.249498	0.720126
747.578286	0.711580
747.907027	0.707835
748.235720	0.709312
748.564365	0.703284
748.892963	0.703113
749.221514	0.706601
749.550017	0.710939
749.878473	0.711114
750.206881	0.717210
750.535242	0.719855
750.863555	0.718644
751.191821	0.719486
751.520039	0.723610
751.848210	0.728015
752.176334	0.720538
752.504411	0.719508
752.832440	0.727524
753.160421	0.730699
753.488356	0.729932
753.816243	0.727213
754.144082	0.735169
754.471875	0.739677
754.799620	0.734664
755.127318	0.736053
755.454969	0.735680
755.782572	0.735190
756.110129	0.740534
756.437638	0.743014
756.765100	0.738670
757.092515	0.736932
757.419882	0.736061
757.747203	0.741559
758.074477	0.740120
758.401703	0.737602
758.728882	0.732896
759.056014	0.732476
759.383099	0.731023
759.710138	0.732443
760.037129	0.728909
760.364073	0.723143
760.690970	0.725220
761.017820	0.730559
761.344623	0.726334
761.671379	0.718024
761.998088	0.705764
762.324751	0.683783
762.651366	0.642958
762.977935	0.576114
763.304456	0.524439
763.630931	0.514972
763.957359	0.553606
764.283740	0.598108
764.610074	0.624733
764.936362	0.655545
765.262602	0.681530
765.588796	0.703630
765.914943	0.721350
766.241044	0.738570
766.567097	0.745446
766.893104	0.755572
767.219064	0.761559
767.544978	0.767517
767.870845	0.781340
768.196665	0.784568
768.522438	0.781441
768.848165	0.782896
769.173846	0.792344
769.499479	0.797311
769.825066	0.799925
770.150607	0.806007
770.476101	0.800260
770.801548	0.802149
771.126949	0.814096
771.452303	0.817490
771.777611	0.816382
772.102872	0.815363
772.428087	0.821240
772.753256	0.824631
773.078378	0.826188
773.403453	0.834844
773.728482	0.838727
774.053465	0.832753
774.378401	0.836091
774.703291	0.843842
775.028135	0.843733
775.352932	0.845983
775.677683	0.849000
776.002388	0.847710
776.327046	0.847837
776.651658	0.850788
776.976224	0.855122
777.300743	0.855228
777.625216	0.856777
777.949643	0.858892
778.274024	0.859227
778.598359	0.861134
778.922647	0.859920
779.246889	0.859246
779.571086	0.863934
779.895236	0.866966
780.219339	0.862862
780.543397	0.860457
780.867409	0.859061
781.191374	0.860986
781.515294	0.861945
781.839167	0.861924
782.162995	0.865638
782.486776	0.861428
782.810511	0.863069
783.134201	0.866159
783.457844	0.863303
783.781441	0.866034
784.104993	0.872546
784.428498	0.871588
784.751958	0.868850
785.075372	0.870887
785.398739	0.873305
785.722061	0.871374
786.045337	0.865715
786.368568	0.871641
786.691752	0.874391
787.014891	0.860072
787.337983	0.850910
787.661030	0.843973
787.984031	0.826567
788.306987	0.813038
788.629897	0.815789
788.952760	0.820249
789.275579	0.823767
789.598351	0.838656
789.921078	0.851658
790.243759	0.854451
790.566395	0.859132
790.888984	0.865574
791.211529	0.871076
791.534027	0.873948
791.856480	0.875966
792.178888	0.881781
792.501249	0.883995
792.823566	0.885040
793.145836	0.885137
793.468062	0.886749
793.790241	0.886463
794.112375	0.885461
794.434464	0.880647
794.756507	0.880566
795.078505	0.879785
795.400457	0.873931
795.722364	0.862980
796.044226	0.855828
796.366042	0.854931
796.687812	0.858294
797.009538	0.854305
797.331218	0.857197
797.652852	0.862087
797.974442	0.867099
798.295986	0.865885
798.617484	0.869330
798.938938	0.873354
799.260346	0.878163
799.581709	0.880790
799.903026	0.882021
800.224299	0.882504
800.545526	0.886688
800.866708	0.891362
801.187845	0.894631
801.508936	0.893894
801.829983	0.892096
802.150984	0.894564
802.471940	0.899768
802.792851	0.899241
803.113717	0.899978
803.434538	0.896798
803.755314	0.900059
804.076045	0.901913
804.396731	0.901863
804.717372	0.901052
805.037967	0.903558
805.358518	0.901739
805.679024	0.899432
805.999485	0.898979
806.319901	0.898689
806.640272	0.901408
806.960598	0.898663
807.280879	0.895213
807.601115	0.894732
807.921306	0.897881
808.241453	0.898313
808.561554	0.895376
808.881611	0.897641
809.201623	0.898525
809.521590	0.897259
809.841513	0.899284
810.161390	0.898225
810.481223	0.900937
810.801011	0.903717
811.120755	0.905367
811.440453	0.904370
811.760107	0.903411
812.079716	0.902103
812.399281	0.906234
812.718801	0.908612
813.038276	0.909754
813.357707	0.909122
813.677093	0.905380
813.996434	0.909956
814.315731	0.909944
814.634983	0.912296
814.954191	0.909295
815.273354	0.907575
815.592473	0.903621
815.911547	0.903722
816.230577	0.900684
816.549562	0.898858
816.868502	0.900056
817.187399	0.895406
817.506250	0.890376
817.825058	0.892535
818.143821	0.889807
818.462539	0.883763
818.781213	0.876080
819.099843	0.865218
819.418429	0.849518
819.736970	0.833810
820.055466	0.814055
820.373919	0.788366
820.692327	0.756321
821.010691	0.723046
821.329011	0.647115
821.647286	0.534768
821.965517	0.421918
822.283704	0.379678
822.601847	0.381613
822.919945	0.416988
823.237999	0.449632
823.556010	0.495526
823.873976	0.550714
824.191897	0.600252
824.509775	0.641822
824.827609	0.685924
825.145398	0.708561
825.463144	0.711132
825.780845	0.694203
826.098502	0.676231
826.416116	0.631715
826.733685	0.587984
827.051210	0.580529
827.368692	0.594498
827.686129	0.630729
828.003522	0.682631
828.320872	0.729276
828.638177	0.771939
828.955439	0.804502
829.272656	0.825532
829.589830	0.842580
829.906960	0.857123
830.224046	0.870239
830.541088	0.879559
830.858086	0.884417
831.175041	0.891263
831.491952	0.889540
831.808819	0.886120
832.125642	0.880729
832.442421	0.865018
832.759157	0.844376
833.075849	0.799372
833.392497	0.736844
833.709101	0.696360
834.025662	0.704938
834.342179	0.736728
834.658653	0.775699
834.975083	0.811074
835.291469	0.837259
835.607811	0.858521
835.924110	0.874427
836.240366	0.890428
836.556578	0.904201
836.872746	0.911777
837.188871	0.917157
837.504952	0.922554
837.820990	0.925851
838.136984	0.927524
838.452935	0.931166
838.768842	0.933521
839.084706	0.926465
839.400526	0.901593
839.716303	0.862800
840.032037	0.841126
840.347727	0.844789
840.663373	0.861979
840.978977	0.883075
841.294537	0.904397
841.610054	0.920773
841.925527	0.928495
842.240957	0.934357
842.556344	0.941286
842.871687	0.948089
843.186987	0.952610
843.502244	0.951626
843.817458	0.953213
844.132629	0.957563
844.447756	0.962244
844.762840	0.961702
845.077881	0.960765
845.392879	0.960542
845.707833	0.963983
846.022745	0.966554
846.337613	0.966723
846.652438	0.968080
846.967221	0.966159
847.281960	0.967301
847.596656	0.968570
847.911309	0.967104
848.225919	0.969438
848.540485	0.969585
848.855009	0.971272
849.169490	0.969619
849.483928	0.970967
849.798323	0.970799
850.112675	0.971338
850.426984	0.970386
850.741251	0.971163
851.055474	0.970925
851.369654	0.969307
851.683792	0.969969
851.997887	0.971400
852.311938	0.972574
852.625947	0.971314
852.939914	0.968864
853.253837	0.969577
853.567718	0.970732
853.881555	0.972262
854.195350	0.969545
854.509103	0.970871
854.822812	0.970530
855.136479	0.971143
855.450103	0.970406
855.763685	0.969742
856.077224	0.969660
856.390720	0.971591
856.704173	0.971415
857.017584	0.969156
857.330953	0.968234
857.644278	0.970530
857.957561	0.969463
858.270802	0.970140
858.584000	0.969036
858.897155	0.967130
859.210268	0.969894
859.523339	0.969899
859.836367	0.972299
860.149352	0.971425
860.462295	0.970192
860.775195	0.971705
861.088054	0.970693
861.400869	0.970221
861.713642	0.971408
862.026373	0.971340
862.339062	0.972231
862.651708	0.969773
862.964312	0.968784
863.276873	0.970797
863.589392	0.968895
863.901869	0.967717
864.214303	0.966205
864.526696	0.966148
864.839045	0.964682
865.151353	0.963733
865.463619	0.964797
865.775842	0.963950
866.088023	0.964943
866.400162	0.962814
866.712258	0.965011
867.024313	0.964827
867.336325	0.964455
867.648296	0.965715
867.960224	0.964079
868.272110	0.963515
868.583954	0.965474
868.895755	0.965570
869.207515	0.963750
869.519233	0.961140
869.830909	0.962410
870.142542	0.965222
870.454134	0.963461
870.765684	0.963247
871.077191	0.959522
871.388657	0.960597
871.700081	0.959641
872.011463	0.961196
872.322803	0.960489
872.634101	0.958093
872.945357	0.957085
873.256571	0.955138
873.567744	0.955176
873.878874	0.956021
874.189963	0.953962
874.501010	0.952353
874.812015	0.952073
875.122979	0.952804
875.433900	0.955345
875.744780	0.956129
876.055618	0.953173
876.366415	0.952054
876.677169	0.952755
876.987882	0.954104
877.298554	0.952925
877.609183	0.948962
877.919771	0.948326
878.230317	0.945022
878.540822	0.943201
878.851285	0.938427
879.161707	0.930044
879.472087	0.918887
879.782425	0.904145
880.092722	0.871321
880.402977	0.821494
880.713191	0.762290
881.023363	0.705790
881.333494	0.673350
881.643583	0.645134
881.953631	0.644426
882.263637	0.673225
882.573602	0.712829
882.883526	0.737023
883.193408	0.758750
883.503248	0.780424
883.813048	0.807185
884.122806	0.835850
884.432522	0.857653
884.742197	0.877691
885.051831	0.886738
885.361424	0.896550
885.670975	0.908218
885.980485	0.918699
886.289954	0.923784
886.599382	0.928249
886.908768	0.932439
887.218113	0.937794
887.527417	0.942758
887.836680	0.944165
888.145901	0.946188
888.455082	0.949194
888.764221	0.952909
889.073319	0.955017
889.382376	0.955756
889.691392	0.955715
890.000366	0.955714
890.309300	0.955464
890.618193	0.956398
890.927044	0.953946
891.235855	0.954550
891.544625	0.954436
891.853353	0.955413
892.162041	0.951436
892.470687	0.945902
892.779293	0.941345
893.087858	0.937598
893.396381	0.930551
893.704864	0.917311
894.013306	0.894567
894.321707	0.869699
894.630068	0.854746
894.938387	0.850605
895.246665	0.852188
895.554903	0.864986
895.863100	0.876742
896.171256	0.892420
896.479371	0.911762
896.787446	0.923498
897.095480	0.930252
897.403473	0.931380
897.711425	0.935943
898.019336	0.943695
898.327207	0.946103
898.635038	0.949726
898.942827	0.948448
899.250576	0.950963
899.558284	0.954794
899.865952	0.956431
900.173579	0.957001
900.481165	0.958187
900.788711	0.961265
901.096216	0.963176
901.403681	0.964274
901.711105	0.965688
902.018489	0.966072
902.325832	0.964637
902.633135	0.964349
902.940397	0.959724
903.247619	0.946399
903.554800	0.922279
903.861941	0.885997
904.169041	0.851665
904.476101	0.836126
904.783121	0.837041
905.090100	0.852144
905.397039	0.871676
905.703938	0.892587
906.010796	0.912037
906.317614	0.926590
906.624391	0.938265
906.931129	0.947288
907.237826	0.954522
907.544483	0.962307
907.851099	0.965049
908.157675	0.970102
908.464211	0.971932
908.770707	0.974412
909.077163	0.975549
909.383578	0.976214
909.689954	0.975820
909.996289	0.977778
910.302584	0.979273
910.608839	0.981770
910.915054	0.979750
911.221229	0.979614
911.527363	0.979323
911.833458	0.978898
912.139513	0.979023
912.445527	0.976467
912.751502	0.975778
913.057436	0.973939
913.363331	0.973181
913.669186	0.967779
913.975000	0.964482
914.280775	0.959117
914.586510	0.952616
914.892205	0.940313
915.197859	0.919518
915.503475	0.893593
915.809050	0.875154
916.114585	0.870219
916.420081	0.869394
916.725536	0.865769
917.030952	0.872358
917.336328	0.885708
917.641665	0.898835
917.946961	0.913833
918.252218	0.925644
918.557435	0.932941
918.862612	0.940628
919.167750	0.946365
919.472848	0.950263
919.777906	0.955780
920.082925	0.961586
920.387904	0.965386
920.692843	0.965390
920.997743	0.966208
921.302603	0.969477
921.607423	0.971186
921.912204	0.973769
922.216946	0.973809
922.521647	0.976114
922.826310	0.976443
923.130932	0.979462
923.435516	0.980195
923.740059	0.981723
924.044564	0.979921
924.349028	0.982273
924.653454	0.984554
924.957840	0.986926
925.262186	0.986370
925.566493	0.984599
925.870761	0.985947
926.174989	0.987963
926.479178	0.988900
926.783328	0.989649
927.087438	0.989632
927.391509	0.989319
927.695541	0.990761
927.999533	0.990445
928.303486	0.991310
928.607400	0.992888
928.911275	0.990458
929.215110	0.991652
929.518906	0.991694
929.822663	0.990592
930.126381	0.991884
930.430060	0.990846
930.733699	0.990388
931.037299	0.988979
931.340861	0.992426
931.644383	0.990146
931.947866	0.989312
932.251309	0.990764
932.554714	0.990827
932.858080	0.990852
933.161407	0.990519
933.464694	0.990931
933.767943	0.990773
934.071153	0.992270
934.374323	0.992944
934.677455	0.991937
934.980548	0.991983
935.283602	0.992205
935.586617	0.993443
935.889593	0.991505
936.192530	0.991782
936.495428	0.993688
936.798287	0.992864
937.101108	0.990924
937.403890	0.989705
937.706632	0.990130
938.009336	0.987986
938.312002	0.986477
938.614628	0.985100
938.917216	0.984709
939.219765	0.983689
939.522275	0.984789
939.824747	0.984069
940.127179	0.984519
940.429573	0.985469
940.731929	0.985991
941.034246	0.985488
941.336524	0.986623
941.638763	0.987572
941.940964	0.987411
942.243126	0.987731
942.545250	0.988215
942.847335	0.988865
943.149381	0.989697
943.451389	0.989289
943.753359	0.988787
944.055290	0.991416
944.357182	0.990304
944.659036	0.989463
944.960851	0.990117
945.262628	0.990993
945.564367	0.991836
945.866067	0.991628
946.167729	0.991295
946.469352	0.990826
946.770937	0.989683
947.072484	0.991604
947.373992	0.991845
947.675462	0.991611
947.976893	0.991049
948.278286	0.991245
948.579641	0.992691
948.880958	0.992327
949.182236	0.991695
949.483476	0.992056
949.784678	0.991586
950.085841	0.992318
950.386967	0.992024
950.688054	0.990582
950.989103	0.991831
951.290114	0.990396
951.591087	0.990023
951.892021	0.990721
952.192917	0.989587
952.493776	0.988635
952.794596	0.989583
953.095378	0.988819
953.396122	0.989375
953.696828	0.988627
953.997496	0.989502
954.298126	0.991855
954.598718	0.990583
954.899272	0.991294
955.199788	0.991436
955.500266	0.992830
955.800706	0.993732
956.101108	0.993764
956.401472	0.994199
956.701798	0.994349
957.002087	0.993863
957.302337	0.993518
957.602550	0.996422
957.902724	0.995247
958.202861	0.996294
958.502960	0.995568
958.803022	0.994964
959.103045	0.996125
959.403031	0.994918
959.702979	0.995526
960.002889	0.995662
960.302762	0.995552
960.602596	0.996437
960.902393	0.995551
961.202153	0.997509
961.501875	0.997001
961.801559	0.996005
962.101205	0.996420
962.400814	0.996165
962.700385	0.996924
962.999918	0.996352
963.299414	0.996936
963.598873	0.996137
963.898293	0.996751
964.197677	0.995962
964.497022	0.996158
964.796331	0.997760
965.095601	0.996643
965.394835	0.996632
965.694030	0.997123
965.993189	0.997210
966.292309	0.997506
966.591393	0.997660
966.890439	0.999297
967.189447	0.996366
967.488419	0.998047
967.787353	0.995493
968.086249	0.997095
968.385108	0.998614
968.683930	0.998227
968.982714	0.996779
969.281462	0.998338
969.580172	0.996070
969.878844	0.997321
970.177480	0.996909
970.476078	0.997313
970.774639	0.997395
971.073162	0.997884
971.371649	0.996736
971.670098	0.997118
971.968510	0.997979
972.266885	0.996771
972.565223	0.997693
972.863524	0.995699
973.161788	0.996708
973.460014	0.999253
973.758204	0.996531
974.056356	0.996876
974.354471	0.995557
974.652550	0.997278
974.950591	0.996694
975.248595	0.997081
975.546563	0.997302
975.844493	0.998476
976.142386	0.996693
976.440243	0.997105
976.738062	0.997688
977.035845	0.997333
977.333590	0.996840
977.631299	0.997477
977.928971	0.997397
978.226606	0.996185
978.524204	0.996125
978.821765	0.998801
979.119290	0.996654
979.416777	0.997521
979.714228	0.997804
980.011642	0.995933
980.309020	0.996712
980.606360	0.996737
980.903664	0.998467
981.200931	0.996390
981.498162	0.995171
981.795356	0.994356
982.092513	0.994287
982.389633	0.995258
982.686717	0.992131
982.983764	0.992538
983.280775	0.992098
983.577749	0.990511
983.874686	0.992815
984.171587	0.992812
984.468451	0.995081
984.765279	0.996493
985.062070	0.994362
985.358824	0.994459
985.655543	0.994495
985.952224	0.996173
986.248869	0.996515
986.545478	0.997710
986.842050	0.999321
987.138586	0.996036
987.435086	0.998170
987.731549	0.998086
988.027975	0.998542
988.324366	0.997093
988.620719	0.997179
988.917037	0.995747
989.213318	0.998831
989.509563	0.997387
989.805772	0.998924
990.101944	0.999613
990.398080	0.997666
990.694180	0.997786
990.990244	0.996529
991.286271	0.997860
991.582262	0.998913
991.878217	0.997936
992.174136	0.998398
992.470019	0.998725
992.765865	0.997934
993.061676	0.998697
993.357450	0.998112
993.653188	0.997142
993.948890	0.996822
994.244556	0.998766
994.540186	0.997078
994.835780	0.996354
995.131337	0.997726
995.426859	0.997450
995.722345	0.997790
996.017795	0.996383
996.313208	0.996004
996.608586	0.995644
996.903928	0.996424
997.199234	0.996192
997.494504	0.996546
997.789738	0.996516
998.084936	0.996585
998.380099	0.997303
998.675225	0.998277
998.970316	0.998273
999.265371	0.998694
999.560390	0.998805
999.855373	0.997413
1000.150320	0.998419
1000.445232	0.998231
1000.740108	0.997740
1001.034948	0.998886
1001.329752	0.999120
1001.624521	0.999145
1001.919254	0.997712
1002.213951	0.997808
1002.508613	0.998609
1002.803239	0.999181
1003.097829	0.999519
1003.392384	0.998930
1003.686903	0.998255
1003.981386	0.998301
1004.275834	0.998832
1004.570246	0.999337
1004.864623	0.999148
1005.158964	0.999246
1005.453270	0.998374
1005.747540	0.997769
1006.041775	0.996936
1006.335974	0.999227
1006.630138	0.999878
1006.924266	1.000199
1007.218359	1.000282
1007.512416	0.999656
1007.806438	0.999463
1008.100425	0.999103
1008.394376	0.998212
1008.688292	0.998926
1008.982172	1.000075
1009.276017	0.998708
1009.569827	0.998687
1009.863602	0.998831
1010.157341	0.999877
1010.451045	1.000108
1010.744714	0.998908
1011.038347	0.997789
1011.331945	0.998613
1011.625508	0.997501
1011.919036	0.998280
1012.212528	0.998756
1012.505986	0.998423
1012.799408	0.999070
1013.092795	0.998768
1013.386147	0.999339
1013.679464	0.999158
1013.972745	0.999194
1014.265992	0.996803
1014.559204	0.998947
1014.852380	0.999060
1015.145521	0.998440
1015.438628	0.998244
1015.731699	0.998643
1016.024736	0.999806
1016.317737	0.998733
1016.610703	0.998462
1016.903635	0.999062
1017.196531	0.998408
1017.489393	0.999484
1017.782219	0.998853
1018.075011	0.998156
1018.367768	0.998063
1018.660490	0.999109
1018.953177	0.999109
1019.245829	0.999109
