Dividing Wavelength (nm)	Counts (n)	Blue Motor Position (mm): 0.000000	Red Motor Position (mm): 15.200000	
326.493990	1.001988
326.888308	1.001988
327.282561	1.001988
327.676750	1.000085
328.070874	1.000875
328.464933	0.999901
328.858929	0.999801
329.252859	1.000425
329.646726	0.999797
330.040528	0.999579
330.434265	1.000723
330.827938	1.000469
331.221547	1.001283
331.615091	1.000064
332.008571	1.000617
332.401986	1.000072
332.795338	1.000892
333.188625	0.999009
333.581847	1.000583
333.975006	1.000457
334.368100	1.000331
334.761129	0.999950
335.154095	1.001751
335.546996	0.998167
335.939833	0.993265
336.332606	0.994074
336.725315	0.995286
337.117960	0.995193
337.510540	0.994434
337.903056	0.994782
338.295508	0.993116
338.687896	0.993325
339.080220	0.993974
339.472480	0.993212
339.864676	0.994131
340.256807	0.993983
340.648875	0.994965
341.040879	0.994437
341.432818	0.994096
341.824694	0.993912
342.216506	0.995469
342.608253	0.993314
342.999937	0.993313
343.391557	0.993041
343.783113	0.994013
344.174605	0.993651
344.566033	0.995616
344.957397	0.991744
345.348697	0.993371
345.739934	0.994010
346.131106	0.994079
346.522215	0.993911
346.913260	0.994725
347.304241	0.994643
347.695159	0.995329
348.086012	0.992476
348.476802	0.993787
348.867528	0.994111
349.258191	0.992598
349.648789	0.995818
350.039324	0.993396
350.429796	0.994922
350.820203	0.994279
351.210548	0.995036
351.600828	0.993750
351.991045	0.994821
352.381198	0.993952
352.771288	0.993224
353.161314	0.993959
353.551276	0.994895
353.941175	0.994439
354.331010	0.993833
354.720782	0.994374
355.110490	0.995167
355.500135	0.994739
355.889717	0.994174
356.279235	0.992664
356.668689	0.994035
357.058080	0.993323
357.447408	0.995552
357.836672	0.994596
358.225873	0.994012
358.615010	0.994911
359.004084	0.994742
359.393095	0.994048
359.782043	0.993973
360.170927	0.994730
360.559748	0.994975
360.948505	0.994367
361.337199	0.994643
361.725830	0.993711
362.114398	0.993447
362.502903	0.994453
362.891344	0.995125
363.279722	0.993863
363.668037	0.993894
364.056289	0.993721
364.444478	0.995491
364.832603	0.993478
365.220665	0.993911
365.608665	0.994797
365.996601	0.993926
366.384474	0.995815
366.772284	0.993542
367.160031	0.992921
367.547715	0.993310
367.935336	0.993764
368.322893	0.993648
368.710388	0.993483
369.097820	0.993378
369.485189	0.993657
369.872495	0.993228
370.259738	0.992118
370.646918	0.995269
371.034035	0.994779
371.421090	0.993060
371.808081	0.992630
372.195010	0.993482
372.581875	0.993939
372.968678	0.993417
373.355418	0.994230
373.742096	0.992713
374.128710	0.994910
374.515262	0.992982
374.901751	0.994663
375.288177	0.994381
375.674540	0.996018
376.060841	0.993903
376.447079	0.994086
376.833254	0.993723
377.219367	0.995160
377.605417	0.994953
377.991404	0.995381
378.377329	0.993842
378.763191	0.993579
379.148991	0.994050
379.534727	0.994032
379.920402	0.994136
380.306013	0.994068
380.691563	0.995156
381.077049	0.995110
381.462474	0.994359
381.847835	0.993760
382.233134	0.993793
382.618371	0.994253
383.003545	0.994224
383.388657	0.992717
383.773706	0.994052
384.158693	0.993844
384.543618	0.994248
384.928480	0.995331
385.313280	0.993846
385.698017	0.994546
386.082692	0.994767
386.467305	0.994794
386.851856	0.993830
387.236344	0.993683
387.620770	0.993415
388.005133	0.994384
388.389435	0.994503
388.773674	0.993867
389.157851	0.994079
389.541965	0.994062
389.926018	0.993867
390.310008	0.994471
390.693936	0.994465
391.077802	0.993674
391.461606	0.993378
391.845348	0.993472
392.229027	0.994587
392.612645	0.993674
392.996200	0.993896
393.379694	0.992626
393.763125	0.993100
394.146494	0.991205
394.529801	0.988720
394.913047	0.988123
395.296230	0.986646
395.679351	0.985832
396.062410	0.983171
396.445408	0.982251
396.828343	0.978711
397.211217	0.975417
397.594028	0.973822
397.976778	0.970000
398.359466	0.965973
398.742092	0.960773
399.124656	0.957402
399.507158	0.952382
399.889598	0.948747
400.271977	0.943955
400.654294	0.938002
401.036549	0.933161
401.418742	0.927874
401.800874	0.918594
402.182944	0.911889
402.564952	0.903494
402.946898	0.898880
403.328783	0.890794
403.710606	0.886196
404.092367	0.872043
404.474067	0.866775
404.855705	0.858386
405.237282	0.854295
405.618797	0.840459
406.000250	0.829878
406.381642	0.818709
406.762972	0.811428
407.144240	0.802743
407.525447	0.794317
407.906593	0.781989
408.287677	0.770762
408.668700	0.766826
409.049661	0.753855
409.430560	0.742672
409.811399	0.737916
410.192176	0.718678
410.572891	0.715027
410.953545	0.699133
411.334138	0.698345
411.714669	0.686470
412.095139	0.686634
412.475547	0.667481
412.855894	0.660336
413.236180	0.652120
413.616405	0.648482
413.996568	0.634339
414.376670	0.632267
414.756711	0.629527
415.136691	0.620149
415.516609	0.606810
415.896466	0.598840
416.276262	0.589320
416.655997	0.585561
417.035670	0.563862
417.415283	0.552109
417.794834	0.551198
418.174324	0.551279
418.553753	0.555182
418.933121	0.534147
419.312428	0.524347
419.691674	0.525414
420.070859	0.511928
420.449983	0.516291
420.829045	0.503188
421.208047	0.508662
421.586988	0.500580
421.965867	0.496170
422.344686	0.482752
422.723444	0.492926
423.102141	0.506849
423.480777	0.479705
423.859352	0.497515
424.237866	0.474508
424.616319	0.474085
424.994712	0.463871
425.373044	0.472862
425.751314	0.459744
426.129524	0.474998
426.507673	0.458585
426.885762	0.451551
427.263789	0.456478
427.641756	0.465152
428.019662	0.455737
428.397508	0.454187
428.775292	0.458092
429.153016	0.449820
429.530679	0.456047
429.908282	0.448940
430.285824	0.458878
430.663305	0.437172
431.040726	0.457847
431.418086	0.458300
431.795385	0.449642
432.172624	0.447316
432.549802	0.449192
432.926920	0.447809
433.303977	0.446909
433.680974	0.443829
434.057910	0.442381
434.434786	0.442057
434.811601	0.444037
435.188355	0.426577
435.565050	0.436060
435.941683	0.437512
436.318257	0.421544
436.694770	0.422253
437.071222	0.420454
437.447614	0.424656
437.823946	0.431419
438.200218	0.420730
438.576429	0.430597
438.952580	0.423300
439.328670	0.420160
439.704700	0.427045
440.080670	0.427571
440.456580	0.409267
440.832429	0.416631
441.208218	0.427653
441.583947	0.416760
441.959616	0.416609
442.335224	0.421565
442.710773	0.412707
443.086261	0.410541
443.461689	0.424226
443.837057	0.414784
444.212365	0.403999
444.587612	0.411573
444.962800	0.400980
445.337927	0.402362
445.712995	0.428965
446.088002	0.391139
446.462949	0.401561
446.837837	0.405734
447.212664	0.395070
447.587431	0.386748
447.962139	0.357441
448.336786	0.316676
448.711374	0.326771
449.085901	0.370378
449.460369	0.375200
449.834776	0.378594
450.209124	0.358061
450.583412	0.350146
450.957640	0.343660
451.331808	0.354779
451.705917	0.378353
452.079965	0.382470
452.453954	0.370799
452.827883	0.377758
453.201752	0.372645
453.575562	0.383955
453.949311	0.372662
454.323001	0.379109
454.696632	0.374408
455.070202	0.367242
455.443713	0.358873
455.817164	0.354062
456.190556	0.349258
456.563888	0.346626
456.937160	0.344003
457.310373	0.361271
457.683526	0.360208
458.056619	0.365886
458.429653	0.366354
458.802628	0.369797
459.175542	0.364231
459.548398	0.346703
459.921194	0.339203
460.293930	0.338877
460.666607	0.316722
461.039224	0.305032
461.411782	0.300967
461.784280	0.300086
462.156719	0.304237
462.529099	0.308841
462.901419	0.324690
463.273680	0.329251
463.645882	0.328484
464.018024	0.334487
464.390106	0.327478
464.762130	0.312139
465.134094	0.295282
465.505999	0.264668
465.877845	0.235182
466.249631	0.222260
466.621358	0.229358
466.993026	0.243313
467.364634	0.249410
467.736184	0.258418
468.107674	0.267053
468.479105	0.266204
468.850477	0.273158
469.221790	0.279596
469.593043	0.289969
469.964238	0.294797
470.335373	0.293876
470.706449	0.292055
471.077467	0.293371
471.448425	0.255124
471.819324	0.230950
472.190164	0.230204
472.560945	0.258691
472.931667	0.281180
473.302330	0.285239
473.672934	0.297014
474.043479	0.285214
474.413965	0.287438
474.784393	0.290443
475.154761	0.285754
475.525070	0.282475
475.895321	0.288748
476.265513	0.282552
476.635645	0.277970
477.005719	0.278178
477.375734	0.274745
477.745691	0.267922
478.115588	0.264586
478.485427	0.258021
478.855207	0.244989
479.224928	0.227195
479.594591	0.215523
479.964194	0.218926
480.333739	0.220175
480.703226	0.221722
481.072653	0.220223
481.442022	0.215961
481.811333	0.212257
482.180584	0.215860
482.549777	0.220780
482.918912	0.224147
483.287988	0.224133
483.657005	0.223686
484.025964	0.229891
484.394864	0.227270
484.763706	0.227932
485.132489	0.232803
485.501213	0.233820
485.869879	0.232025
486.238487	0.235392
486.607036	0.232885
486.975527	0.237542
487.343959	0.233613
487.712333	0.232663
488.080648	0.233996
488.448905	0.233260
488.817104	0.234368
489.185244	0.228889
489.553326	0.225938
489.921350	0.215950
490.289315	0.198349
490.657222	0.193283
491.025070	0.194498
491.392861	0.196519
491.760593	0.202281
492.128267	0.207789
492.495883	0.213440
492.863440	0.219459
493.230939	0.225978
493.598380	0.227239
493.965763	0.229453
494.333088	0.231747
494.700354	0.233055
495.067563	0.232156
495.434713	0.235520
495.801805	0.233171
496.168839	0.234911
496.535815	0.236236
496.902733	0.236145
497.269593	0.237742
497.636395	0.235435
498.003139	0.235842
498.369825	0.238886
498.736453	0.235238
499.103023	0.236623
499.469535	0.236156
499.835989	0.236557
500.202385	0.237440
500.568723	0.240776
500.935003	0.235649
501.301226	0.240010
501.667390	0.234662
502.033497	0.232195
502.399546	0.235324
502.765537	0.237022
503.131470	0.235819
503.497345	0.231872
503.863163	0.240489
504.228923	0.233598
504.594625	0.232412
504.960269	0.237750
505.325856	0.232812
505.691385	0.237483
506.056856	0.234284
506.422270	0.233372
506.787625	0.236046
507.152924	0.233469
507.518164	0.233855
507.883347	0.235499
508.248472	0.237376
508.613540	0.232120
508.978550	0.234878
509.343503	0.235183
509.708398	0.233061
510.073236	0.230370
510.438016	0.230516
510.802738	0.231584
511.167403	0.230667
511.532010	0.232461
511.896561	0.227812
512.261053	0.226722
512.625488	0.228387
512.989866	0.229037
513.354186	0.229111
513.718449	0.231086
514.082655	0.227462
514.446803	0.229750
514.810894	0.227181
515.174927	0.230019
515.538904	0.229519
515.902822	0.226280
516.266684	0.228785
516.630488	0.229839
516.994235	0.228469
517.357925	0.227366
517.721558	0.225929
518.085133	0.225316
518.448651	0.225469
518.812112	0.227467
519.175516	0.227220
519.538863	0.224882
519.902152	0.226422
520.265385	0.223412
520.628560	0.225143
520.991678	0.225714
521.354739	0.224252
521.717743	0.225820
522.080690	0.226245
522.443580	0.223327
522.806413	0.224266
523.169189	0.223605
523.531908	0.222445
523.894569	0.226051
524.257174	0.226304
524.619722	0.223677
524.982213	0.224965
525.344647	0.223661
525.707025	0.224612
526.069345	0.222750
526.431608	0.224520
526.793815	0.222307
527.155964	0.226518
527.518057	0.225490
527.880093	0.226483
528.242072	0.225062
528.603995	0.226983
528.965860	0.228602
529.327669	0.227345
529.689421	0.228196
530.051117	0.228986
530.412755	0.226894
530.774337	0.229251
531.135862	0.229455
531.497331	0.228981
531.858743	0.231772
532.220098	0.228496
532.581396	0.231102
532.942638	0.231798
533.303824	0.232345
533.664953	0.232111
534.026025	0.233912
534.387040	0.231896
534.747999	0.231949
535.108902	0.230716
535.469748	0.235604
535.830537	0.233594
536.191270	0.233896
536.551947	0.233565
536.912567	0.233573
537.273131	0.235263
537.633638	0.235469
537.994089	0.235838
538.354483	0.236827
538.714821	0.233840
539.075103	0.233379
539.435328	0.234309
539.795497	0.237959
540.155609	0.234695
540.515665	0.232655
540.875665	0.238584
541.235609	0.237098
541.595496	0.237283
541.955328	0.233589
542.315102	0.236278
542.674821	0.237229
543.034483	0.237339
543.394090	0.237111
543.753640	0.239100
544.113134	0.233806
544.472571	0.237180
544.831953	0.234028
545.191278	0.238078
545.550548	0.237627
545.909761	0.234627
546.268918	0.235088
546.628019	0.233474
546.987064	0.236095
547.346053	0.238275
547.704986	0.236129
548.063863	0.236370
548.422684	0.236473
548.781449	0.238160
549.140158	0.235771
549.498811	0.238595
549.857408	0.241669
550.215949	0.236717
550.574434	0.239683
550.932864	0.237772
551.291237	0.236436
551.649555	0.237771
552.007817	0.237373
552.366022	0.238211
552.724173	0.238397
553.082267	0.238830
553.440305	0.235632
553.798288	0.240180
554.156215	0.236607
554.514086	0.237200
554.871902	0.240646
555.229661	0.239719
555.587365	0.240210
555.945014	0.242742
556.302606	0.239691
556.660143	0.242347
557.017625	0.238658
557.375050	0.241233
557.732421	0.237829
558.089735	0.240079
558.446994	0.240265
558.804197	0.239088
559.161345	0.239412
559.518437	0.242648
559.875474	0.240309
560.232455	0.239783
560.589381	0.241051
560.946251	0.241058
561.303065	0.238601
561.659825	0.239878
562.016528	0.241508
562.373177	0.244582
562.729770	0.241765
563.086307	0.243676
563.442789	0.241753
563.799216	0.244389
564.155587	0.243331
564.511904	0.244487
564.868164	0.244131
565.224370	0.244305
565.580520	0.246100
565.936615	0.245997
566.292654	0.248745
566.648638	0.245724
567.004567	0.246717
567.360441	0.247350
567.716260	0.249552
568.072023	0.247013
568.427732	0.247692
568.783385	0.250295
569.138982	0.248399
569.494525	0.248004
569.850013	0.250993
570.205445	0.249490
570.560823	0.251976
570.916145	0.254022
571.271412	0.252102
571.626625	0.253672
571.981782	0.254053
572.336884	0.254823
572.691931	0.254806
573.046923	0.255872
573.401860	0.257166
573.756743	0.258532
574.111570	0.257887
574.466342	0.258180
574.821059	0.257252
575.175722	0.260022
575.530330	0.259876
575.884882	0.260089
576.239380	0.262234
576.593823	0.262657
576.948211	0.262181
577.302544	0.265365
577.656823	0.265048
578.011047	0.265204
578.365216	0.265623
578.719330	0.267811
579.073389	0.267551
579.427394	0.268843
579.781344	0.269519
580.135239	0.271024
580.489080	0.270384
580.842866	0.273653
581.196597	0.273427
581.550273	0.272170
581.903895	0.273386
582.257463	0.271526
582.610975	0.274858
582.964434	0.273853
583.317837	0.276769
583.671186	0.277020
584.024481	0.277126
584.377721	0.279490
584.730906	0.280258
585.084037	0.279410
585.437113	0.280926
585.790135	0.280701
586.143103	0.283632
586.496016	0.284797
586.848874	0.282103
587.201679	0.282853
587.554428	0.286110
587.907124	0.284864
588.259765	0.285821
588.612352	0.286149
588.964884	0.289886
589.317362	0.289564
589.669786	0.289363
590.022155	0.288091
590.374470	0.287394
590.726731	0.289243
591.078937	0.294095
591.431090	0.290558
591.783188	0.294769
592.135232	0.295206
592.487222	0.294984
592.839157	0.293112
593.191038	0.295544
593.542866	0.297698
593.894639	0.301111
594.246358	0.298853
594.598022	0.298425
594.949633	0.302210
595.301190	0.302962
595.652692	0.302041
596.004141	0.298419
596.355535	0.306418
596.706876	0.306974
597.058162	0.309357
597.409395	0.306646
597.760573	0.304012
598.111698	0.307557
598.462768	0.307716
598.813785	0.309021
599.164748	0.310466
599.515657	0.310803
599.866511	0.314347
600.217312	0.309044
600.568060	0.314759
600.918753	0.311208
601.269392	0.311721
601.619978	0.315327
601.970510	0.313070
602.320988	0.312938
602.671412	0.310563
603.021783	0.313352
603.372100	0.314278
603.722363	0.314088
604.072572	0.315266
604.422728	0.314752
604.772830	0.317583
605.122878	0.316445
605.472872	0.316995
605.822813	0.315148
606.172701	0.317966
606.522534	0.315689
606.872314	0.315811
607.222041	0.316312
607.571714	0.314489
607.921333	0.315969
608.270899	0.315744
608.620411	0.312435
608.969870	0.316615
609.319276	0.316873
609.668627	0.316336
610.017926	0.314932
610.367171	0.313354
610.716362	0.313940
611.065500	0.314285
611.414585	0.313084
611.763616	0.313494
612.112594	0.314256
612.461518	0.313367
612.810389	0.311393
613.159207	0.313644
613.507971	0.315516
613.856682	0.310993
614.205340	0.312661
614.553945	0.309712
614.902496	0.313221
615.250994	0.311700
615.599439	0.312159
615.947830	0.311577
616.296169	0.312208
616.644454	0.312185
616.992686	0.312220
617.340864	0.309795
617.688990	0.313610
618.037063	0.310081
618.385082	0.312031
618.733048	0.308886
619.080961	0.311201
619.428821	0.310585
619.776628	0.310215
620.124382	0.312114
620.472083	0.312497
620.819731	0.311764
621.167326	0.315773
621.514868	0.315668
621.862357	0.319958
622.209793	0.319194
622.557176	0.321571
622.904506	0.322528
623.251783	0.324925
623.599007	0.327363
623.946179	0.327273
624.293297	0.328561
624.640363	0.332727
624.987376	0.332990
625.334336	0.335678
625.681243	0.338077
626.028097	0.338399
626.374899	0.339600
626.721647	0.339821
627.068343	0.343375
627.414987	0.344033
627.761577	0.346571
628.108115	0.344210
628.454600	0.349902
628.801032	0.346575
629.147412	0.348966
629.493739	0.349922
629.840014	0.352896
630.186236	0.349974
630.532405	0.355709
630.878521	0.352920
631.224585	0.355225
631.570597	0.359007
631.916556	0.357439
632.262462	0.357407
632.608316	0.359397
632.954117	0.360545
633.299866	0.360827
633.645562	0.361536
633.991206	0.365829
634.336797	0.368799
634.682336	0.371479
635.027823	0.372994
635.373257	0.373754
635.718639	0.377193
636.063968	0.375865
636.409245	0.382042
636.754470	0.382512
637.099642	0.385289
637.444762	0.388347
637.789829	0.387110
638.134845	0.391152
638.479808	0.391626
638.824719	0.391517
639.169577	0.395342
639.514383	0.393837
639.859137	0.398542
640.203839	0.398666
640.548489	0.398884
640.893086	0.400075
641.237632	0.402224
641.582125	0.400069
641.926566	0.401788
642.270955	0.402162
642.615292	0.402726
642.959576	0.401540
643.303809	0.401909
643.647990	0.401686
643.992118	0.402447
644.336195	0.405860
644.680219	0.404408
645.024192	0.405249
645.368112	0.398619
645.711981	0.397732
646.055797	0.392775
646.399562	0.395081
646.743274	0.386770
647.086935	0.384765
647.430544	0.385041
647.774101	0.383793
648.117606	0.383337
648.461059	0.384043
648.804460	0.386042
649.147810	0.391216
649.491108	0.393540
649.834354	0.394908
650.177548	0.399980
650.520690	0.405479
650.863781	0.406557
651.206820	0.405932
651.549807	0.410664
651.892742	0.414361
652.235626	0.413634
652.578458	0.414914
652.921238	0.420911
653.263967	0.419140
653.606644	0.422842
653.949269	0.422760
654.291843	0.426380
654.634365	0.422752
654.976836	0.426172
655.319255	0.426468
655.661622	0.428544
656.003938	0.428436
656.346203	0.431244
656.688416	0.429221
657.030577	0.432527
657.372687	0.434062
657.714746	0.435250
658.056753	0.432084
658.398708	0.436015
658.740612	0.436895
659.082465	0.433236
659.424266	0.433886
659.766016	0.433602
660.107715	0.435548
660.449362	0.434487
660.790958	0.435362
661.132503	0.436136
661.473996	0.433115
661.815438	0.434526
662.156829	0.434938
662.498168	0.435864
662.839456	0.436963
663.180693	0.434871
663.521879	0.434504
663.863013	0.435406
664.204097	0.433835
664.545129	0.430708
664.886110	0.430839
665.227040	0.428842
665.567918	0.430949
665.908746	0.429105
666.249522	0.429157
666.590248	0.430210
666.930922	0.427897
667.271545	0.426836
667.612118	0.427192
667.952639	0.429109
668.293109	0.427213
668.633528	0.430039
668.973896	0.429882
669.314213	0.430596
669.654480	0.432193
669.994695	0.432380
670.334859	0.433592
670.674973	0.433436
671.015035	0.433667
671.355047	0.433648
671.695008	0.434156
672.034918	0.436424
672.374777	0.435884
672.714585	0.436464
673.054342	0.437012
673.394049	0.436817
673.733705	0.434982
674.073310	0.435626
674.412864	0.439020
674.752368	0.439387
675.091820	0.439453
675.431223	0.443949
675.770574	0.444045
676.109875	0.446725
676.449125	0.447384
676.788324	0.448733
677.127473	0.454943
677.466571	0.453878
677.805619	0.456154
678.144616	0.456529
678.483562	0.458735
678.822458	0.461020
679.161303	0.462643
679.500098	0.462392
679.838842	0.464134
680.177535	0.464137
680.516179	0.462293
680.854771	0.461711
681.193314	0.454709
681.531805	0.445688
681.870247	0.435116
682.208638	0.427090
682.546978	0.426455
682.885268	0.427550
683.223508	0.434158
683.561697	0.437616
683.899836	0.440334
684.237925	0.444130
684.575963	0.446210
684.913951	0.449767
685.251889	0.445518
685.589776	0.447333
685.927614	0.449432
686.265401	0.443730
686.603137	0.445520
686.940824	0.439715
687.278460	0.438039
687.616046	0.436991
687.953582	0.431630
688.291068	0.433297
688.628504	0.429202
688.965889	0.430480
689.303224	0.435112
689.640510	0.439343
689.977745	0.444629
690.314930	0.452991
690.652065	0.456942
690.989150	0.465166
691.326185	0.471452
691.663170	0.476141
692.000105	0.483723
692.336990	0.490188
692.673825	0.492733
693.010610	0.499836
693.347345	0.504802
693.684030	0.506587
694.020665	0.511639
694.357251	0.520478
694.693786	0.520425
695.030272	0.524480
695.366707	0.527288
695.703093	0.531273
696.039429	0.529034
696.375716	0.530298
696.711952	0.532647
697.048139	0.535008
697.384276	0.537262
697.720363	0.535568
698.056400	0.534934
698.392388	0.539999
698.728326	0.542705
699.064214	0.545853
699.400053	0.546571
699.735842	0.549849
700.071581	0.552642
700.407270	0.555837
700.742910	0.558251
701.078501	0.565213
701.414042	0.565482
701.749533	0.567646
702.084974	0.577056
702.420366	0.569649
702.755709	0.576813
703.091002	0.584960
703.426246	0.577504
703.761440	0.583984
704.096584	0.588416
704.431679	0.585885
704.766725	0.587660
705.101721	0.589522
705.436668	0.585608
705.771565	0.592715
706.106413	0.589597
706.441212	0.585099
706.775961	0.583640
707.110661	0.586314
707.445311	0.582664
707.779913	0.580609
708.114465	0.577789
708.448967	0.574862
708.783421	0.566915
709.117825	0.561469
709.452180	0.562140
709.786485	0.555396
710.120742	0.545739
710.454949	0.547456
710.789107	0.540286
711.123216	0.530162
711.457275	0.532394
711.791286	0.523033
712.125247	0.521834
712.459159	0.532802
712.793023	0.525428
713.126837	0.529342
713.460602	0.530094
713.794318	0.539535
714.127985	0.538136
714.461602	0.548451
714.795171	0.551409
715.128691	0.558353
715.462162	0.566781
715.795584	0.572360
716.128957	0.575049
716.462281	0.581412
716.795556	0.585454
717.128782	0.590854
717.461960	0.599595
717.795088	0.599039
718.128167	0.604853
718.461198	0.613354
718.794180	0.614247
719.127113	0.616926
719.459997	0.620358
719.792833	0.626890
720.125619	0.627311
720.458357	0.634692
720.791046	0.632941
721.123686	0.637378
721.456278	0.643250
721.788821	0.640544
722.121315	0.645031
722.453761	0.649178
722.786158	0.647324
723.118506	0.643338
723.450805	0.650971
723.783056	0.647286
724.115259	0.644824
724.447412	0.644114
724.779518	0.645822
725.111574	0.644406
725.443582	0.640450
725.775542	0.641141
726.107453	0.634436
726.439315	0.634629
726.771129	0.632479
727.102895	0.626274
727.434612	0.619822
727.766281	0.616892
728.097901	0.616530
728.429473	0.616706
728.760996	0.614683
729.092471	0.613988
729.423897	0.618215
729.755276	0.617279
730.086606	0.617803
730.417887	0.611663
730.749120	0.602703
731.080305	0.593448
731.411442	0.589166
731.742530	0.593899
732.073570	0.592713
732.404562	0.586108
732.735506	0.587117
733.066401	0.591269
733.397249	0.601591
733.728048	0.612990
734.058798	0.625211
734.389501	0.636276
734.720156	0.645338
735.050762	0.653383
735.381320	0.654744
735.711831	0.663261
736.042293	0.668862
736.372707	0.664000
736.703073	0.669451
737.033391	0.671507
737.363661	0.668095
737.693883	0.663301
738.024056	0.662594
738.354182	0.663372
738.684260	0.652579
739.014290	0.647518
739.344272	0.648268
739.674207	0.642653
740.004093	0.641986
740.333931	0.642299
740.663722	0.642042
740.993464	0.642580
741.323159	0.646555
741.652806	0.651482
741.982405	0.655792
742.311956	0.661336
742.641460	0.663360
742.970915	0.667096
743.300323	0.674735
743.629683	0.681366
743.958996	0.682585
744.288260	0.687138
744.617477	0.692663
744.946647	0.694539
745.275768	0.700065
745.604842	0.699805
745.933869	0.710268
746.262847	0.710880
746.591778	0.704290
746.920662	0.710473
747.249498	0.716395
747.578286	0.708218
747.907027	0.703318
748.235720	0.705310
748.564365	0.699434
748.892963	0.699464
749.221514	0.702149
749.550017	0.707351
749.878473	0.707088
750.206881	0.713817
750.535242	0.714987
750.863555	0.714476
751.191821	0.716028
751.520039	0.719236
751.848210	0.724019
752.176334	0.716562
752.504411	0.715297
752.832440	0.723708
753.160421	0.727546
753.488356	0.725705
753.816243	0.723706
754.144082	0.731823
754.471875	0.735385
754.799620	0.730395
755.127318	0.732258
755.454969	0.731474
755.782572	0.731401
756.110129	0.736837
756.437638	0.738466
756.765100	0.735038
757.092515	0.733843
757.419882	0.732478
757.747203	0.737594
758.074477	0.736773
758.401703	0.733773
758.728882	0.729292
759.056014	0.727986
759.383099	0.726589
759.710138	0.728378
760.037129	0.724905
760.364073	0.718656
760.690970	0.720125
761.017820	0.726778
761.344623	0.722670
761.671379	0.713606
761.998088	0.702055
762.324751	0.679153
762.651366	0.637108
762.977935	0.569983
763.304456	0.517546
763.630931	0.508310
763.957359	0.547329
764.283740	0.591769
764.610074	0.619204
764.936362	0.650649
765.262602	0.676877
765.588796	0.698779
765.914943	0.716171
766.241044	0.733772
766.567097	0.740913
766.893104	0.750618
767.219064	0.757399
767.544978	0.763707
767.870845	0.776726
768.196665	0.779949
768.522438	0.779583
768.848165	0.780211
769.173846	0.788400
769.499479	0.793528
769.825066	0.796606
770.150607	0.801866
770.476101	0.797614
770.801548	0.798079
771.126949	0.810654
771.452303	0.812746
771.777611	0.812642
772.102872	0.812492
772.428087	0.817200
772.753256	0.821193
773.078378	0.822264
773.403453	0.832094
773.728482	0.835548
774.053465	0.829440
774.378401	0.832913
774.703291	0.840554
775.028135	0.840319
775.352932	0.843357
775.677683	0.845057
776.002388	0.846905
776.327046	0.845841
776.651658	0.848692
776.976224	0.852568
777.300743	0.852399
777.625216	0.853864
777.949643	0.855933
778.274024	0.856042
778.598359	0.857222
778.922647	0.856065
779.246889	0.857055
779.571086	0.861318
779.895236	0.863953
780.219339	0.860932
780.543397	0.857052
780.867409	0.856168
781.191374	0.859085
781.515294	0.858965
781.839167	0.858400
782.162995	0.861417
782.486776	0.859873
782.810511	0.859678
783.134201	0.863607
783.457844	0.861040
783.781441	0.864141
784.104993	0.870459
784.428498	0.870619
784.751958	0.865977
785.075372	0.868054
785.398739	0.872412
785.722061	0.867696
786.045337	0.863602
786.368568	0.868899
786.691752	0.870967
787.014891	0.856284
787.337983	0.848134
787.661030	0.840359
787.984031	0.822782
788.306987	0.810487
788.629897	0.811804
788.952760	0.815683
789.275579	0.819571
789.598351	0.835112
789.921078	0.848484
790.243759	0.850594
790.566395	0.856284
790.888984	0.862566
791.211529	0.868301
791.534027	0.870810
791.856480	0.873472
792.178888	0.878387
792.501249	0.880574
792.823566	0.881603
793.145836	0.882066
793.468062	0.884265
793.790241	0.884632
794.112375	0.883225
794.434464	0.877686
794.756507	0.876573
795.078505	0.877812
795.400457	0.871125
795.722364	0.859233
796.044226	0.851791
796.366042	0.851201
796.687812	0.854887
797.009538	0.851787
797.331218	0.854106
797.652852	0.858838
797.974442	0.864111
798.295986	0.863171
798.617484	0.866214
798.938938	0.870759
799.260346	0.875261
799.581709	0.877642
799.903026	0.879084
800.224299	0.879048
800.545526	0.884796
800.866708	0.887462
801.187845	0.892219
801.508936	0.890619
801.829983	0.888775
802.150984	0.892069
802.471940	0.897549
802.792851	0.896402
803.113717	0.897842
803.434538	0.895184
803.755314	0.898566
804.076045	0.898899
804.396731	0.900046
804.717372	0.899816
805.037967	0.902061
805.358518	0.899041
805.679024	0.895639
805.999485	0.895412
806.319901	0.897028
806.640272	0.898075
806.960598	0.896404
807.280879	0.893015
807.601115	0.891673
807.921306	0.895834
808.241453	0.895239
808.561554	0.893893
808.881611	0.893969
809.201623	0.895898
809.521590	0.895491
809.841513	0.896492
810.161390	0.895068
810.481223	0.897115
810.801011	0.901039
811.120755	0.902649
811.440453	0.901529
811.760107	0.899724
812.079716	0.900337
812.399281	0.902977
812.718801	0.906238
813.038276	0.906380
813.357707	0.906850
813.677093	0.903331
813.996434	0.907111
814.315731	0.907127
814.634983	0.908909
814.954191	0.906357
815.273354	0.905054
815.592473	0.900884
815.911547	0.901235
816.230577	0.898682
816.549562	0.894869
816.868502	0.897251
817.187399	0.893444
817.506250	0.887062
817.825058	0.888973
818.143821	0.886071
818.462539	0.881116
818.781213	0.872734
819.099843	0.860253
819.418429	0.845996
819.736970	0.828568
820.055466	0.809407
820.373919	0.782748
820.692327	0.751087
821.010691	0.715680
821.329011	0.637215
821.647286	0.521121
821.965517	0.407613
822.283704	0.364560
822.601847	0.365769
822.919945	0.401067
823.237999	0.435128
823.556010	0.482879
823.873976	0.538925
824.191897	0.589559
824.509775	0.631825
824.827609	0.677145
825.145398	0.700227
825.463144	0.702884
825.780845	0.685615
826.098502	0.667324
826.416116	0.621244
826.733685	0.576813
827.051210	0.568389
827.368692	0.583092
827.686129	0.620303
828.003522	0.674753
828.320872	0.722022
828.638177	0.766423
828.955439	0.799059
829.272656	0.820731
829.589830	0.837992
829.906960	0.853702
830.224046	0.866870
830.541088	0.876713
830.858086	0.880691
831.175041	0.887368
831.491952	0.886097
831.808819	0.883076
832.125642	0.876090
832.442421	0.861049
832.759157	0.839518
833.075849	0.792921
833.392497	0.728933
833.709101	0.688468
834.025662	0.697650
834.342179	0.729606
834.658653	0.768493
834.975083	0.804562
835.291469	0.831934
835.607811	0.853319
835.924110	0.869910
836.240366	0.886255
836.556578	0.900864
836.872746	0.907991
837.188871	0.914179
837.504952	0.919781
837.820990	0.922788
838.136984	0.926936
838.452935	0.929793
838.768842	0.930912
839.084706	0.925246
839.400526	0.898510
839.716303	0.858916
840.032037	0.836755
840.347727	0.839152
840.663373	0.857317
840.978977	0.878427
841.294537	0.901517
841.610054	0.918710
841.925527	0.924823
842.240957	0.932522
842.556344	0.939831
842.871687	0.946318
843.186987	0.950226
843.502244	0.950004
843.817458	0.951189
844.132629	0.956042
844.447756	0.960173
844.762840	0.960851
845.077881	0.959864
845.392879	0.959833
845.707833	0.962662
846.022745	0.963973
846.337613	0.964575
846.652438	0.966043
846.967221	0.965568
847.281960	0.965916
847.596656	0.967017
847.911309	0.966295
848.225919	0.967455
848.540485	0.967708
848.855009	0.968533
849.169490	0.969552
849.483928	0.968327
849.798323	0.968949
850.112675	0.969999
850.426984	0.969712
850.741251	0.969501
851.055474	0.969623
851.369654	0.967996
851.683792	0.969288
851.997887	0.969956
852.311938	0.969945
852.625947	0.968814
852.939914	0.968243
853.253837	0.968436
853.567718	0.970861
853.881555	0.971633
854.195350	0.967131
854.509103	0.969872
854.822812	0.970037
855.136479	0.970901
855.450103	0.969611
855.763685	0.968199
856.077224	0.968507
856.390720	0.970485
856.704173	0.969711
857.017584	0.968200
857.330953	0.965587
857.644278	0.968372
857.957561	0.968622
858.270802	0.968076
858.584000	0.967654
858.897155	0.967554
859.210268	0.967097
859.523339	0.968705
859.836367	0.970045
860.149352	0.971014
860.462295	0.968548
860.775195	0.969787
861.088054	0.969713
861.400869	0.969451
861.713642	0.971590
862.026373	0.969324
862.339062	0.971007
862.651708	0.967342
862.964312	0.967290
863.276873	0.969502
863.589392	0.968410
863.901869	0.966626
864.214303	0.965239
864.526696	0.964479
864.839045	0.962960
865.151353	0.960893
865.463619	0.962420
865.775842	0.962226
866.088023	0.961666
866.400162	0.962047
866.712258	0.961064
867.024313	0.961226
867.336325	0.963456
867.648296	0.962943
867.960224	0.961504
868.272110	0.961270
868.583954	0.963251
868.895755	0.963649
869.207515	0.962428
869.519233	0.959102
869.830909	0.961064
870.142542	0.962855
870.454134	0.960796
870.765684	0.960101
871.077191	0.957214
871.388657	0.958972
871.700081	0.957413
872.011463	0.958698
872.322803	0.957491
872.634101	0.956331
872.945357	0.954290
873.256571	0.953729
873.567744	0.952873
873.878874	0.953950
874.189963	0.952506
874.501010	0.950068
874.812015	0.949836
875.122979	0.951341
875.433900	0.953474
875.744780	0.954444
876.055618	0.951094
876.366415	0.950842
876.677169	0.949709
876.987882	0.951014
877.298554	0.951155
877.609183	0.947807
877.919771	0.944695
878.230317	0.942448
878.540822	0.941637
878.851285	0.934340
879.161707	0.926077
879.472087	0.915467
879.782425	0.898683
880.092722	0.863476
880.402977	0.811308
880.713191	0.750071
881.023363	0.690505
881.333494	0.655540
881.643583	0.628084
881.953631	0.628400
882.263637	0.656704
882.573602	0.695749
882.883526	0.722360
883.193408	0.746017
883.503248	0.768230
883.813048	0.796262
884.122806	0.825955
884.432522	0.848868
884.742197	0.869572
885.051831	0.879756
885.361424	0.890884
885.670975	0.902109
885.980485	0.913660
886.289954	0.919473
886.599382	0.924761
886.908768	0.927910
887.218113	0.933739
887.527417	0.938685
887.836680	0.941728
888.145901	0.942531
888.455082	0.945958
888.764221	0.949312
889.073319	0.951896
889.382376	0.953271
889.691392	0.952909
890.000366	0.952505
890.309300	0.953397
890.618193	0.953577
890.927044	0.950656
891.235855	0.951782
891.544625	0.951072
891.853353	0.951067
892.162041	0.948745
892.470687	0.941940
892.779293	0.937249
893.087858	0.933523
893.396381	0.925691
893.704864	0.912697
894.013306	0.887714
894.321707	0.861271
894.630068	0.846131
894.938387	0.842411
895.246665	0.842866
895.554903	0.856260
895.863100	0.870257
896.171256	0.886157
896.479371	0.903886
896.787446	0.918125
897.095480	0.924622
897.403473	0.927842
897.711425	0.932792
898.019336	0.940215
898.327207	0.942677
898.635038	0.945273
898.942827	0.945322
899.250576	0.947822
899.558284	0.952014
899.865952	0.953446
900.173579	0.954998
900.481165	0.955427
900.788711	0.959431
901.096216	0.960595
901.403681	0.961206
901.711105	0.963091
902.018489	0.963901
902.325832	0.962568
902.633135	0.961782
902.940397	0.955346
903.247619	0.943730
903.554800	0.916902
903.861941	0.877239
904.169041	0.841596
904.476101	0.824209
904.783121	0.824548
905.090100	0.841280
905.397039	0.863545
905.703938	0.884462
906.010796	0.905408
906.317614	0.922093
906.624391	0.933088
906.931129	0.943480
907.237826	0.951981
907.544483	0.958969
907.851099	0.962325
908.157675	0.967906
908.464211	0.970721
908.770707	0.972489
909.077163	0.974165
909.383578	0.974552
909.689954	0.975605
909.996289	0.975672
910.302584	0.977817
910.608839	0.979688
910.915054	0.978413
911.221229	0.978070
911.527363	0.976696
911.833458	0.977783
912.139513	0.977247
912.445527	0.974837
912.751502	0.973183
913.057436	0.972076
913.363331	0.969978
913.669186	0.966373
913.975000	0.961402
914.280775	0.955034
914.586510	0.947091
914.892205	0.934394
915.197859	0.913000
915.503475	0.886092
915.809050	0.866498
916.114585	0.859576
916.420081	0.857504
916.725536	0.853571
917.030952	0.862524
917.336328	0.875444
917.641665	0.891360
917.946961	0.906843
918.252218	0.917948
918.557435	0.927116
918.862612	0.936659
919.167750	0.941612
919.472848	0.945750
919.777906	0.952562
920.082925	0.958311
920.387904	0.961296
920.692843	0.962296
920.997743	0.962568
921.302603	0.966761
921.607423	0.967937
921.912204	0.971537
922.216946	0.971856
922.521647	0.973381
922.826310	0.975997
923.130932	0.977361
923.435516	0.978400
923.740059	0.979686
924.044564	0.978276
924.349028	0.980239
924.653454	0.982449
924.957840	0.985617
925.262186	0.984723
925.566493	0.984097
925.870761	0.984630
926.174989	0.985726
926.479178	0.987389
926.783328	0.988394
927.087438	0.988374
927.391509	0.987564
927.695541	0.989745
927.999533	0.989852
928.303486	0.989529
928.607400	0.990163
928.911275	0.989224
929.215110	0.990411
929.518906	0.990147
929.822663	0.990190
930.126381	0.991925
930.430060	0.990183
930.733699	0.991043
931.037299	0.988958
931.340861	0.991712
931.644383	0.989414
931.947866	0.989211
932.251309	0.991508
932.554714	0.991247
932.858080	0.990528
933.161407	0.990546
933.464694	0.991308
933.767943	0.989805
934.071153	0.990021
934.374323	0.991379
934.677455	0.991802
934.980548	0.992028
935.283602	0.990319
935.586617	0.990721
935.889593	0.991358
936.192530	0.991918
936.495428	0.989214
936.798287	0.991064
937.101108	0.990859
937.403890	0.989150
937.706632	0.988702
938.009336	0.986838
938.312002	0.985683
938.614628	0.983759
938.917216	0.983313
939.219765	0.982740
939.522275	0.983709
939.824747	0.982718
940.127179	0.982749
940.429573	0.984793
940.731929	0.984500
941.034246	0.984282
941.336524	0.985060
941.638763	0.985827
941.940964	0.986062
942.243126	0.987173
942.545250	0.987316
942.847335	0.988710
943.149381	0.986075
943.451389	0.987947
943.753359	0.988973
944.055290	0.992204
944.357182	0.990147
944.659036	0.987938
944.960851	0.989012
945.262628	0.991381
945.564367	0.990478
945.866067	0.989745
946.167729	0.991305
946.469352	0.989997
946.770937	0.989298
947.072484	0.991963
947.373992	0.989529
947.675462	0.989982
947.976893	0.991245
948.278286	0.991290
948.579641	0.992902
948.880958	0.990935
949.182236	0.990996
949.483476	0.991039
949.784678	0.990615
950.085841	0.991342
950.386967	0.990652
950.688054	0.991658
950.989103	0.991790
951.290114	0.989596
951.591087	0.989275
951.892021	0.990452
952.192917	0.988453
952.493776	0.989068
952.794596	0.987933
953.095378	0.986432
953.396122	0.988628
953.696828	0.986563
953.997496	0.990743
954.298126	0.989940
954.598718	0.991256
954.899272	0.990031
955.199788	0.990365
955.500266	0.991848
955.800706	0.993092
956.101108	0.992256
956.401472	0.992727
956.701798	0.994637
957.002087	0.992566
957.302337	0.994635
957.602550	0.995042
957.902724	0.994453
958.202861	0.995543
958.502960	0.995339
958.803022	0.993296
959.103045	0.995883
959.403031	0.995768
959.702979	0.995796
960.002889	0.995251
960.302762	0.994568
960.602596	0.995573
960.902393	0.995549
961.202153	0.996544
961.501875	0.997555
961.801559	0.995862
962.101205	0.995862
962.400814	0.996588
962.700385	0.996599
962.999918	0.996832
963.299414	0.997371
963.598873	0.995328
963.898293	0.995746
964.197677	0.997123
964.497022	0.996682
964.796331	0.997221
965.095601	0.996200
965.394835	0.997125
965.694030	0.996199
965.993189	0.997560
966.292309	0.997610
966.591393	0.997634
966.890439	0.998018
967.189447	0.997072
967.488419	0.998459
967.787353	0.995158
968.086249	0.997890
968.385108	0.997117
968.683930	0.998195
968.982714	0.997684
969.281462	0.997382
969.580172	0.996401
969.878844	0.997164
970.177480	0.996563
970.476078	0.996927
970.774639	0.996800
971.073162	0.998247
971.371649	0.996387
971.670098	0.995796
971.968510	0.997558
972.266885	0.995064
972.565223	0.996478
972.863524	0.995040
973.161788	0.996969
973.460014	0.997745
973.758204	0.995887
974.056356	0.997171
974.354471	0.995087
974.652550	0.995575
974.950591	0.996482
975.248595	0.996874
975.546563	0.997398
975.844493	0.997806
976.142386	0.996886
976.440243	0.998661
976.738062	0.997431
977.035845	0.998057
977.333590	0.996869
977.631299	0.997470
977.928971	0.996476
978.226606	0.996658
978.524204	0.996553
978.821765	0.999336
979.119290	0.997079
979.416777	0.996653
979.714228	0.998476
980.011642	0.996852
980.309020	0.997243
980.606360	0.996464
980.903664	0.999284
981.200931	0.996366
981.498162	0.996162
981.795356	0.995073
982.092513	0.994275
982.389633	0.994864
982.686717	0.990520
982.983764	0.991937
983.280775	0.990486
983.577749	0.991295
983.874686	0.991414
984.171587	0.991950
984.468451	0.993945
984.765279	0.995335
985.062070	0.994185
985.358824	0.995106
985.655543	0.995022
985.952224	0.996950
986.248869	0.996482
986.545478	0.998445
986.842050	0.999095
987.138586	0.996381
987.435086	0.996652
987.731549	0.998011
988.027975	0.998465
988.324366	0.996980
988.620719	0.998149
988.917037	0.996834
989.213318	0.997339
989.509563	0.998096
989.805772	0.998603
990.101944	0.998364
990.398080	0.997113
990.694180	0.998146
990.990244	0.997621
991.286271	0.998902
991.582262	0.999209
991.878217	0.998374
992.174136	0.999187
992.470019	0.999591
992.765865	0.999545
993.061676	0.997499
993.357450	0.998716
993.653188	0.997289
993.948890	0.998533
994.244556	0.997840
994.540186	0.997925
994.835780	0.997456
995.131337	0.997450
995.426859	0.996519
995.722345	0.996895
996.017795	0.995168
996.313208	0.996940
996.608586	0.994825
996.903928	0.996367
997.199234	0.996386
997.494504	0.996610
997.789738	0.997362
998.084936	0.996012
998.380099	0.998542
998.675225	0.997788
998.970316	0.997997
999.265371	0.998933
999.560390	0.998547
999.855373	0.998253
1000.150320	0.998482
1000.445232	0.997292
1000.740108	0.997850
1001.034948	0.998063
1001.329752	0.999814
1001.624521	0.998753
1001.919254	0.998604
1002.213951	0.998407
1002.508613	0.998983
1002.803239	0.999411
1003.097829	0.997334
1003.392384	0.999321
1003.686903	0.998291
1003.981386	0.998213
1004.275834	0.998937
1004.570246	0.998344
1004.864623	0.998613
1005.158964	0.999235
1005.453270	0.999352
1005.747540	0.997904
1006.041775	0.999562
1006.335974	0.999950
1006.630138	0.999667
1006.924266	0.998682
1007.218359	0.999600
1007.512416	0.999618
1007.806438	0.999926
1008.100425	0.999235
1008.394376	0.998770
1008.688292	0.999160
1008.982172	0.999744
1009.276017	1.000016
1009.569827	0.998752
1009.863602	0.998798
1010.157341	0.999042
1010.451045	0.999908
1010.744714	0.999522
1011.038347	0.999039
1011.331945	0.999243
1011.625508	0.997670
1011.919036	0.998829
1012.212528	0.997876
1012.505986	0.998720
1012.799408	0.998764
1013.092795	1.000365
1013.386147	0.999486
1013.679464	0.998569
1013.972745	0.998116
1014.265992	0.997798
1014.559204	0.998340
1014.852380	0.998715
1015.145521	0.998930
1015.438628	0.999385
1015.731699	0.999151
1016.024736	0.999259
1016.317737	0.999226
1016.610703	0.999458
1016.903635	1.000138
1017.196531	0.998669
1017.489393	0.999932
1017.782219	0.999534
1018.075011	0.998301
1018.367768	0.998511
1018.660490	0.999671
1018.953177	0.999671
1019.245829	0.999671
