Dividing Wavelength (nm)	Counts (n)	Blue Motor Position (mm): 0.000000	Red Motor Position (mm): 24.700000	
326.493990	1.001541
326.888308	1.001541
327.282561	1.001541
327.676750	0.999163
328.070874	0.998576
328.464933	0.999716
328.858929	0.999193
329.252859	0.998654
329.646726	1.000428
330.040528	0.999561
330.434265	0.999207
330.827938	1.000280
331.221547	1.000595
331.615091	0.999013
332.008571	1.000394
332.401986	0.999615
332.795338	1.001261
333.188625	0.999122
333.581847	1.000876
333.975006	0.999224
334.368100	0.999352
334.761129	0.999500
335.154095	1.000874
335.546996	0.997280
335.939833	0.993770
336.332606	0.994188
336.725315	0.996054
337.117960	0.996203
337.510540	0.994051
337.903056	0.994626
338.295508	0.993100
338.687896	0.995979
339.080220	0.994565
339.472480	0.994717
339.864676	0.993630
340.256807	0.994167
340.648875	0.995680
341.040879	0.995657
341.432818	0.994817
341.824694	0.994314
342.216506	0.994492
342.608253	0.994880
342.999937	0.995055
343.391557	0.994888
343.783113	0.994063
344.174605	0.995252
344.566033	0.994754
344.957397	0.994098
345.348697	0.994538
345.739934	0.995165
346.131106	0.994990
346.522215	0.994263
346.913260	0.994427
347.304241	0.994450
347.695159	0.994595
348.086012	0.993412
348.476802	0.994562
348.867528	0.995694
349.258191	0.992772
349.648789	0.995762
350.039324	0.993882
350.429796	0.995199
350.820203	0.994855
351.210548	0.994110
351.600828	0.993903
351.991045	0.994345
352.381198	0.994251
352.771288	0.994453
353.161314	0.993692
353.551276	0.995979
353.941175	0.994269
354.331010	0.993539
354.720782	0.995110
355.110490	0.994250
355.500135	0.994770
355.889717	0.993975
356.279235	0.994500
356.668689	0.994358
357.058080	0.994390
357.447408	0.994724
357.836672	0.994964
358.225873	0.994831
358.615010	0.994751
359.004084	0.995188
359.393095	0.994822
359.782043	0.994058
360.170927	0.995273
360.559748	0.995859
360.948505	0.994948
361.337199	0.994273
361.725830	0.995157
362.114398	0.993985
362.502903	0.995615
362.891344	0.995961
363.279722	0.993270
363.668037	0.996150
364.056289	0.994702
364.444478	0.995621
364.832603	0.995207
365.220665	0.995267
365.608665	0.994562
365.996601	0.993990
366.384474	0.994479
366.772284	0.994697
367.160031	0.993275
367.547715	0.994136
367.935336	0.994768
368.322893	0.994221
368.710388	0.993134
369.097820	0.994922
369.485189	0.994820
369.872495	0.993849
370.259738	0.991465
370.646918	0.996269
371.034035	0.995060
371.421090	0.995235
371.808081	0.994279
372.195010	0.994789
372.581875	0.995958
372.968678	0.994943
373.355418	0.994915
373.742096	0.994832
374.128710	0.995599
374.515262	0.995291
374.901751	0.995291
375.288177	0.995047
375.674540	0.995211
376.060841	0.994294
376.447079	0.995820
376.833254	0.995421
377.219367	0.995488
377.605417	0.995211
377.991404	0.995464
378.377329	0.994349
378.763191	0.994901
379.148991	0.995482
379.534727	0.995403
379.920402	0.995186
380.306013	0.995457
380.691563	0.995823
381.077049	0.995283
381.462474	0.995761
381.847835	0.996054
382.233134	0.995123
382.618371	0.996189
383.003545	0.996007
383.388657	0.996059
383.773706	0.995842
384.158693	0.995307
384.543618	0.996149
384.928480	0.995870
385.313280	0.996197
385.698017	0.996333
386.082692	0.996232
386.467305	0.996775
386.851856	0.995564
387.236344	0.995379
387.620770	0.994916
388.005133	0.995830
388.389435	0.996295
388.773674	0.995700
389.157851	0.996371
389.541965	0.995838
389.926018	0.996136
390.310008	0.997927
390.693936	0.995283
391.077802	0.996138
391.461606	0.996294
391.845348	0.997099
392.229027	0.997173
392.612645	0.996892
392.996200	0.997952
393.379694	0.996811
393.763125	0.996532
394.146494	0.997062
394.529801	0.995717
394.913047	0.996696
395.296230	0.995440
395.679351	0.996296
396.062410	0.996071
396.445408	0.996165
396.828343	0.996617
397.211217	0.996000
397.594028	0.996886
397.976778	0.995618
398.359466	0.997096
398.742092	0.995926
399.124656	0.995740
399.507158	0.995905
399.889598	0.996781
400.271977	0.995682
400.654294	0.996318
401.036549	0.997446
401.418742	0.997605
401.800874	0.995561
402.182944	0.995798
402.564952	0.995170
402.946898	0.996288
403.328783	0.996867
403.710606	0.995769
404.092367	0.995788
404.474067	0.996773
404.855705	0.996753
405.237282	0.996450
405.618797	0.996295
406.000250	0.995419
406.381642	0.996339
406.762972	0.996740
407.144240	0.997036
407.525447	0.996576
407.906593	0.996842
408.287677	0.997132
408.668700	0.997251
409.049661	0.996019
409.430560	0.996553
409.811399	0.995667
410.192176	0.996082
410.572891	0.996848
410.953545	0.996689
411.334138	0.995783
411.714669	0.996408
412.095139	0.995607
412.475547	0.997246
412.855894	0.996388
413.236180	0.996146
413.616405	0.996677
413.996568	0.997900
414.376670	0.995213
414.756711	0.995570
415.136691	0.996458
415.516609	0.996650
415.896466	0.995802
416.276262	0.994690
416.655997	0.997280
417.035670	0.996263
417.415283	0.996966
417.794834	0.996439
418.174324	0.996163
418.553753	0.996360
418.933121	0.996094
419.312428	0.996168
419.691674	0.995640
420.070859	0.996545
420.449983	0.996140
420.829045	0.995776
421.208047	0.996229
421.586988	0.997194
421.965867	0.995344
422.344686	0.995982
422.723444	0.996372
423.102141	0.996146
423.480777	0.996039
423.859352	0.996252
424.237866	0.995612
424.616319	0.996132
424.994712	0.995509
425.373044	0.996118
425.751314	0.996738
426.129524	0.995360
426.507673	0.995895
426.885762	0.995947
427.263789	0.996532
427.641756	0.995718
428.019662	0.995850
428.397508	0.993893
428.775292	0.994038
429.153016	0.994665
429.530679	0.995085
429.908282	0.995451
430.285824	0.994276
430.663305	0.993501
431.040726	0.993010
431.418086	0.993970
431.795385	0.992574
432.172624	0.991512
432.549802	0.991875
432.926920	0.991587
433.303977	0.989334
433.680974	0.989853
434.057910	0.987714
434.434786	0.987849
434.811601	0.986521
435.188355	0.984545
435.565050	0.983558
435.941683	0.982349
436.318257	0.980002
436.694770	0.978440
437.071222	0.976910
437.447614	0.975268
437.823946	0.973791
438.200218	0.971575
438.576429	0.968618
438.952580	0.966275
439.328670	0.963153
439.704700	0.961108
440.080670	0.959033
440.456580	0.954338
440.832429	0.951390
441.208218	0.949629
441.583947	0.945588
441.959616	0.942407
442.335224	0.938817
442.710773	0.935257
443.086261	0.930099
443.461689	0.928203
443.837057	0.921962
444.212365	0.916029
444.587612	0.912984
444.962800	0.907144
445.337927	0.902704
445.712995	0.901368
446.088002	0.889798
446.462949	0.886695
446.837837	0.881454
447.212664	0.874663
447.587431	0.865864
447.962139	0.851794
448.336786	0.834920
448.711374	0.832887
449.085901	0.837518
449.460369	0.831801
449.834776	0.824436
450.209124	0.811062
450.583412	0.799759
450.957640	0.792669
451.331808	0.788219
451.705917	0.786867
452.079965	0.780860
452.453954	0.769808
452.827883	0.764364
453.201752	0.755202
453.575562	0.752454
453.949311	0.738571
454.323001	0.733327
454.696632	0.723957
455.070202	0.711607
455.443713	0.700357
455.817164	0.689830
456.190556	0.679169
456.563888	0.669716
456.937160	0.660369
457.310373	0.660533
457.683526	0.651255
458.056619	0.646136
458.429653	0.638670
458.802628	0.632198
459.175542	0.621622
459.548398	0.602639
459.921194	0.591091
460.293930	0.584128
460.666607	0.561098
461.039224	0.546601
461.411782	0.537095
461.784280	0.527835
462.156719	0.522278
462.529099	0.516529
462.901419	0.519082
463.273680	0.514535
463.645882	0.507224
464.018024	0.503262
464.390106	0.491798
464.762130	0.473836
465.134094	0.455931
465.505999	0.429572
465.877845	0.401576
466.249631	0.384554
466.621358	0.381349
466.993026	0.383608
467.364634	0.380841
467.736184	0.381576
468.107674	0.383203
468.479105	0.375915
468.850477	0.377452
469.221790	0.377251
469.593043	0.380623
469.964238	0.379430
470.335373	0.374248
470.706449	0.368517
471.077467	0.365435
471.448425	0.327831
471.819324	0.302450
472.190164	0.297760
472.560945	0.320223
472.931667	0.336506
473.302330	0.336983
473.672934	0.345173
474.043479	0.331070
474.413965	0.330223
474.784393	0.330763
475.154761	0.323608
475.525070	0.318334
475.895321	0.321808
476.265513	0.314380
476.635645	0.307619
477.005719	0.305759
477.375734	0.300623
477.745691	0.292555
478.115588	0.287282
478.485427	0.279549
478.855207	0.265807
479.224928	0.247519
479.594591	0.234860
479.964194	0.236723
480.333739	0.236687
480.703226	0.236887
481.072653	0.234407
481.442022	0.229359
481.811333	0.225153
482.180584	0.227926
482.549777	0.232376
482.918912	0.235222
483.287988	0.234334
483.657005	0.233299
484.025964	0.239196
484.394864	0.236143
484.763706	0.236247
485.132489	0.240849
485.501213	0.241192
485.869879	0.239656
486.238487	0.242433
486.607036	0.240092
486.975527	0.244197
487.343959	0.240265
487.712333	0.238876
488.080648	0.239769
488.448905	0.238997
488.817104	0.240193
489.185244	0.234578
489.553326	0.231237
489.921350	0.221076
490.289315	0.203507
490.657222	0.198630
491.025070	0.199741
491.392861	0.201666
491.760593	0.207058
492.128267	0.212662
492.495883	0.217975
492.863440	0.224111
493.230939	0.230722
493.598380	0.231612
493.965763	0.233617
494.333088	0.236106
494.700354	0.237076
495.067563	0.236168
495.434713	0.239710
495.801805	0.237390
496.168839	0.238719
496.535815	0.240178
496.902733	0.239881
497.269593	0.241271
497.636395	0.239141
498.003139	0.239211
498.369825	0.242317
498.736453	0.238668
499.103023	0.240209
499.469535	0.239532
499.835989	0.239894
500.202385	0.240620
500.568723	0.243821
500.935003	0.239261
501.301226	0.243205
501.667390	0.237468
502.033497	0.235656
502.399546	0.238486
502.765537	0.240239
503.131470	0.238783
503.497345	0.234991
503.863163	0.243831
504.228923	0.236756
504.594625	0.235192
504.960269	0.240655
505.325856	0.236136
505.691385	0.240443
506.056856	0.236969
506.422270	0.236269
506.787625	0.238963
507.152924	0.236058
507.518164	0.236564
507.883347	0.238286
508.248472	0.239886
508.613540	0.234917
508.978550	0.237413
509.343503	0.237924
509.708398	0.235615
510.073236	0.233378
510.438016	0.233393
510.802738	0.233992
511.167403	0.232993
511.532010	0.235281
511.896561	0.230460
512.261053	0.229394
512.625488	0.231279
512.989866	0.231519
513.354186	0.231751
513.718449	0.233694
514.082655	0.230237
514.446803	0.232313
514.810894	0.230009
515.174927	0.232462
515.538904	0.231917
515.902822	0.229109
516.266684	0.231457
516.630488	0.232748
516.994235	0.231369
517.357925	0.230203
517.721558	0.228457
518.085133	0.227857
518.448651	0.228223
518.812112	0.229948
519.175516	0.229680
519.538863	0.227591
519.902152	0.229039
520.265385	0.226044
520.628560	0.227943
520.991678	0.228313
521.354739	0.226994
521.717743	0.228473
522.080690	0.228656
522.443580	0.226171
522.806413	0.226904
523.169189	0.226205
523.531908	0.225067
523.894569	0.228624
524.257174	0.228821
524.619722	0.226318
524.982213	0.227578
525.344647	0.226605
525.707025	0.227266
526.069345	0.225329
526.431608	0.227101
526.793815	0.225108
527.155964	0.229364
527.518057	0.228307
527.880093	0.229276
528.242072	0.227624
528.603995	0.229610
528.965860	0.231254
529.327669	0.230137
529.689421	0.231113
530.051117	0.231895
530.412755	0.229585
530.774337	0.232007
531.135862	0.232189
531.497331	0.231504
531.858743	0.234489
532.220098	0.231424
532.581396	0.233978
532.942638	0.234405
533.303824	0.235188
533.664953	0.234976
534.026025	0.236773
534.387040	0.234841
534.747999	0.234793
535.108902	0.233543
535.469748	0.238423
535.830537	0.236186
536.191270	0.236919
536.551947	0.236306
536.912567	0.236270
537.273131	0.238344
537.633638	0.238052
537.994089	0.238506
538.354483	0.239712
538.714821	0.236753
539.075103	0.236438
539.435328	0.237141
539.795497	0.240903
540.155609	0.237620
540.515665	0.235939
540.875665	0.241425
541.235609	0.239711
541.595496	0.240058
541.955328	0.236509
542.315102	0.239191
542.674821	0.240291
543.034483	0.240532
543.394090	0.240065
543.753640	0.241900
544.113134	0.236779
544.472571	0.239973
544.831953	0.236888
545.191278	0.241005
545.550548	0.240397
545.909761	0.237012
546.268918	0.237990
546.628019	0.236484
546.987064	0.239237
547.346053	0.240837
547.704986	0.238947
548.063863	0.238944
548.422684	0.239261
548.781449	0.241172
549.140158	0.238748
549.498811	0.241655
549.857408	0.244804
550.215949	0.239578
550.574434	0.242606
550.932864	0.240430
551.291237	0.239273
551.649555	0.240613
552.007817	0.240504
552.366022	0.241092
552.724173	0.241381
553.082267	0.241652
553.440305	0.238622
553.798288	0.243036
554.156215	0.239415
554.514086	0.240186
554.871902	0.243380
555.229661	0.242447
555.587365	0.243259
555.945014	0.245784
556.302606	0.242414
556.660143	0.245273
557.017625	0.241681
557.375050	0.244110
557.732421	0.241155
558.089735	0.243051
558.446994	0.243082
558.804197	0.242416
559.161345	0.242174
559.518437	0.245612
559.875474	0.243214
560.232455	0.242883
560.589381	0.244081
560.946251	0.244040
561.303065	0.241693
561.659825	0.243227
562.016528	0.244647
562.373177	0.247500
562.729770	0.244721
563.086307	0.246925
563.442789	0.244666
563.799216	0.247311
564.155587	0.246348
564.511904	0.247109
564.868164	0.247368
565.224370	0.247509
565.580520	0.248974
565.936615	0.248909
566.292654	0.251898
566.648638	0.248868
567.004567	0.250034
567.360441	0.250498
567.716260	0.252213
568.072023	0.250412
568.427732	0.250810
568.783385	0.253299
569.138982	0.251529
569.494525	0.251123
569.850013	0.254007
570.205445	0.252463
570.560823	0.255066
570.916145	0.257022
571.271412	0.255209
571.626625	0.256703
571.981782	0.257011
572.336884	0.258258
572.691931	0.257673
573.046923	0.259015
573.401860	0.260222
573.756743	0.261947
574.111570	0.260681
574.466342	0.261378
574.821059	0.260448
575.175722	0.263103
575.530330	0.262986
575.884882	0.263139
576.239380	0.265157
576.593823	0.265598
576.948211	0.265345
577.302544	0.268372
577.656823	0.267839
578.011047	0.268288
578.365216	0.268794
578.719330	0.270945
579.073389	0.270921
579.427394	0.271956
579.781344	0.272731
580.135239	0.274181
580.489080	0.273842
580.842866	0.276895
581.196597	0.276522
581.550273	0.275448
581.903895	0.276280
582.257463	0.274195
582.610975	0.278139
582.964434	0.277030
583.317837	0.279406
583.671186	0.280063
584.024481	0.280043
584.377721	0.282875
584.730906	0.283292
585.084037	0.282033
585.437113	0.284083
585.790135	0.283668
586.143103	0.286732
586.496016	0.287926
586.848874	0.285028
587.201679	0.285868
587.554428	0.289387
587.907124	0.288021
588.259765	0.288934
588.612352	0.289243
588.964884	0.293126
589.317362	0.292560
589.669786	0.292469
590.022155	0.290721
590.374470	0.290275
590.726731	0.292461
591.078937	0.297066
591.431090	0.293263
591.783188	0.297541
592.135232	0.298385
592.487222	0.298097
592.839157	0.296281
593.191038	0.298816
593.542866	0.300366
593.894639	0.304133
594.246358	0.302043
594.598022	0.301327
594.949633	0.305097
595.301190	0.306020
595.652692	0.304788
596.004141	0.301314
596.355535	0.309236
596.706876	0.309752
597.058162	0.312344
597.409395	0.309083
597.760573	0.307151
598.111698	0.310238
598.462768	0.310893
598.813785	0.312154
599.164748	0.313416
599.515657	0.313759
599.866511	0.317140
600.217312	0.312239
600.568060	0.317994
600.918753	0.313918
601.269392	0.315076
601.619978	0.318239
601.970510	0.315992
602.320988	0.316350
602.671412	0.313827
603.021783	0.316544
603.372100	0.317537
603.722363	0.317439
604.072572	0.317921
604.422728	0.317943
604.772830	0.320023
605.122878	0.319574
605.472872	0.320158
605.822813	0.318195
606.172701	0.321316
606.522534	0.318268
606.872314	0.318651
607.222041	0.319438
607.571714	0.317624
607.921333	0.318966
608.270899	0.318526
608.620411	0.315350
608.969870	0.319424
609.319276	0.319260
609.668627	0.319141
610.017926	0.318105
610.367171	0.316437
610.716362	0.317273
611.065500	0.317059
611.414585	0.316351
611.763616	0.317010
612.112594	0.317197
612.461518	0.316614
612.810389	0.314289
613.159207	0.316458
613.507971	0.318349
613.856682	0.314248
614.205340	0.315599
614.553945	0.312620
614.902496	0.316609
615.250994	0.314122
615.599439	0.315384
615.947830	0.314618
616.296169	0.315615
616.644454	0.314885
616.992686	0.314910
617.340864	0.312943
617.688990	0.316994
618.037063	0.313242
618.385082	0.314846
618.733048	0.311684
619.080961	0.314289
619.428821	0.313807
619.776628	0.313317
620.124382	0.315193
620.472083	0.315397
620.819731	0.314683
621.167326	0.318804
621.514868	0.318444
621.862357	0.322999
622.209793	0.322113
622.557176	0.324419
622.904506	0.325500
623.251783	0.328253
623.599007	0.330047
623.946179	0.330120
624.293297	0.331629
624.640363	0.335780
624.987376	0.336235
625.334336	0.338530
625.681243	0.340732
626.028097	0.341553
626.374899	0.342398
626.721647	0.342783
627.068343	0.346218
627.414987	0.347076
627.761577	0.349168
628.108115	0.347431
628.454600	0.352846
628.801032	0.349913
629.147412	0.351773
629.493739	0.352153
629.840014	0.355515
630.186236	0.352775
630.532405	0.358196
630.878521	0.355851
631.224585	0.358237
631.570597	0.361944
631.916556	0.360171
632.262462	0.360132
632.608316	0.362409
632.954117	0.362704
633.299866	0.364045
633.645562	0.364469
633.991206	0.368446
634.336797	0.371512
634.682336	0.374125
635.027823	0.375885
635.373257	0.376297
635.718639	0.379937
636.063968	0.378723
636.409245	0.384622
636.754470	0.385140
637.099642	0.387464
637.444762	0.390578
637.789829	0.389880
638.134845	0.393427
638.479808	0.394146
638.824719	0.394141
639.169577	0.398111
639.514383	0.396710
639.859137	0.401548
640.203839	0.401376
640.548489	0.401382
640.893086	0.402746
641.237632	0.404334
641.582125	0.403099
641.926566	0.404826
642.270955	0.405049
642.615292	0.404783
642.959576	0.403762
643.303809	0.404902
643.647990	0.404222
643.992118	0.404938
644.336195	0.408576
644.680219	0.406253
645.024192	0.407455
645.368112	0.400649
645.711981	0.400175
646.055797	0.395977
646.399562	0.397816
646.743274	0.389798
647.086935	0.386947
647.430544	0.387598
647.774101	0.386841
648.117606	0.386043
648.461059	0.386034
648.804460	0.388634
649.147810	0.393942
649.491108	0.395850
649.834354	0.396884
650.177548	0.402630
650.520690	0.407983
650.863781	0.409080
651.206820	0.408629
651.549807	0.412840
651.892742	0.417104
652.235626	0.416745
652.578458	0.417833
652.921238	0.423309
653.263967	0.421342
653.606644	0.424990
653.949269	0.425080
654.291843	0.428712
654.634365	0.425842
654.976836	0.429062
655.319255	0.429223
655.661622	0.430844
656.003938	0.430680
656.346203	0.433920
656.688416	0.431283
657.030577	0.435229
657.372687	0.437129
657.714746	0.437564
658.056753	0.434680
658.398708	0.438344
658.740612	0.439661
659.082465	0.435481
659.424266	0.436292
659.766016	0.435508
660.107715	0.438444
660.449362	0.437382
660.790958	0.437884
661.132503	0.438444
661.473996	0.436494
661.815438	0.437025
662.156829	0.437088
662.498168	0.437853
662.839456	0.439307
663.180693	0.437313
663.521879	0.436800
663.863013	0.438186
664.204097	0.436496
664.545129	0.433972
664.886110	0.433621
665.227040	0.430914
665.567918	0.433397
665.908746	0.431743
666.249522	0.431493
666.590248	0.432577
666.930922	0.430477
667.271545	0.429331
667.612118	0.429412
667.952639	0.431026
668.293109	0.429504
668.633528	0.432753
668.973896	0.432338
669.314213	0.432858
669.654480	0.434316
669.994695	0.434701
670.334859	0.435619
670.674973	0.436293
671.015035	0.435551
671.355047	0.435725
671.695008	0.437072
672.034918	0.439012
672.374777	0.438514
672.714585	0.438910
673.054342	0.439180
673.394049	0.439350
673.733705	0.437045
674.073310	0.438466
674.412864	0.441451
674.752368	0.441847
675.091820	0.442087
675.431223	0.446104
675.770574	0.446254
676.109875	0.449617
676.449125	0.449079
676.788324	0.451233
677.127473	0.457229
677.466571	0.456996
677.805619	0.458238
678.144616	0.459650
678.483562	0.461275
678.822458	0.463044
679.161303	0.464691
679.500098	0.464715
679.838842	0.466623
680.177535	0.466035
680.516179	0.465034
680.854771	0.463969
681.193314	0.456760
681.531805	0.448568
681.870247	0.436821
682.208638	0.429451
682.546978	0.428725
682.885268	0.430660
683.223508	0.436385
683.561697	0.440212
683.899836	0.443153
684.237925	0.446134
684.575963	0.449148
684.913951	0.451804
685.251889	0.447545
685.589776	0.449437
685.927614	0.452064
686.265401	0.446044
686.603137	0.447673
686.940824	0.441965
687.278460	0.440143
687.616046	0.439342
687.953582	0.434590
688.291068	0.435551
688.628504	0.431454
688.965889	0.433147
689.303224	0.438133
689.640510	0.441088
689.977745	0.447486
690.314930	0.455253
690.652065	0.459512
690.989150	0.466998
691.326185	0.473889
691.663170	0.477781
692.000105	0.485213
692.336990	0.492310
692.673825	0.495074
693.010610	0.502130
693.347345	0.507315
693.684030	0.508383
694.020665	0.513961
694.357251	0.522272
694.693786	0.521536
695.030272	0.526361
695.366707	0.529676
695.703093	0.533456
696.039429	0.530710
696.375716	0.532308
696.711952	0.535021
697.048139	0.536711
697.384276	0.539324
697.720363	0.537526
698.056400	0.536807
698.392388	0.542359
698.728326	0.545013
699.064214	0.547935
699.400053	0.548482
699.735842	0.552530
700.071581	0.555086
700.407270	0.557117
700.742910	0.560821
701.078501	0.567068
701.414042	0.566870
701.749533	0.570311
702.084974	0.578802
702.420366	0.571237
702.755709	0.578628
703.091002	0.586401
703.426246	0.580214
703.761440	0.585800
704.096584	0.591093
704.431679	0.587820
704.766725	0.589511
705.101721	0.591800
705.436668	0.587963
705.771565	0.594955
706.106413	0.591210
706.441212	0.586872
706.775961	0.584984
707.110661	0.588458
707.445311	0.584512
707.779913	0.581766
708.114465	0.579983
708.448967	0.576858
708.783421	0.568947
709.117825	0.562846
709.452180	0.563453
709.786485	0.557471
710.120742	0.547278
710.454949	0.549436
710.789107	0.541508
711.123216	0.532451
711.457275	0.533932
711.791286	0.525326
712.125247	0.523548
712.459159	0.535411
712.793023	0.528064
713.126837	0.531645
713.460602	0.532394
713.794318	0.540924
714.127985	0.540488
714.461602	0.549872
714.795171	0.553643
715.128691	0.561275
715.462162	0.568302
715.795584	0.574059
716.128957	0.576838
716.462281	0.583641
716.795556	0.586632
717.128782	0.592835
717.461960	0.602273
717.795088	0.600179
718.128167	0.606509
718.461198	0.615500
718.794180	0.616300
719.127113	0.618143
719.459997	0.621942
719.792833	0.628056
720.125619	0.628960
720.458357	0.636062
720.791046	0.634411
721.123686	0.638917
721.456278	0.645217
721.788821	0.642309
722.121315	0.646408
722.453761	0.650232
722.786158	0.649052
723.118506	0.645665
723.450805	0.653746
723.783056	0.648793
724.115259	0.646756
724.447412	0.646665
724.779518	0.647751
725.111574	0.645461
725.443582	0.641576
725.775542	0.643176
726.107453	0.636735
726.439315	0.636481
726.771129	0.634248
727.102895	0.628065
727.434612	0.620877
727.766281	0.618260
728.097901	0.617871
728.429473	0.617925
728.760996	0.616410
729.092471	0.616175
729.423897	0.620424
729.755276	0.619287
730.086606	0.619394
730.417887	0.614021
730.749120	0.605059
731.080305	0.596089
731.411442	0.590979
731.742530	0.596617
732.073570	0.595636
732.404562	0.587616
732.735506	0.588806
733.066401	0.593744
733.397249	0.603296
733.728048	0.614779
734.058798	0.626629
734.389501	0.637231
734.720156	0.647543
735.050762	0.655515
735.381320	0.656604
735.711831	0.666083
736.042293	0.670634
736.372707	0.666128
736.703073	0.670986
737.033391	0.673235
737.363661	0.669540
737.693883	0.665791
738.024056	0.664760
738.354182	0.664947
738.684260	0.654001
739.014290	0.649768
739.344272	0.650924
739.674207	0.643978
740.004093	0.643926
740.333931	0.644765
740.663722	0.643482
740.993464	0.644645
741.323159	0.648213
741.652806	0.652702
741.982405	0.658433
742.311956	0.662084
742.641460	0.664738
742.970915	0.668444
743.300323	0.676110
743.629683	0.683274
743.958996	0.684528
744.288260	0.689934
744.617477	0.694940
744.946647	0.696690
745.275768	0.702007
745.604842	0.701644
745.933869	0.711645
746.262847	0.711662
746.591778	0.705734
746.920662	0.712091
747.249498	0.718550
747.578286	0.708840
747.907027	0.705142
748.235720	0.705996
748.564365	0.702064
748.892963	0.700260
749.221514	0.704249
749.550017	0.709602
749.878473	0.708113
750.206881	0.714752
750.535242	0.716488
750.863555	0.715853
751.191821	0.718119
751.520039	0.720581
751.848210	0.725281
752.176334	0.717748
752.504411	0.716510
752.832440	0.725753
753.160421	0.728762
753.488356	0.726878
753.816243	0.724336
754.144082	0.732776
754.471875	0.736666
754.799620	0.731771
755.127318	0.732442
755.454969	0.733115
755.782572	0.732757
756.110129	0.737974
756.437638	0.739573
756.765100	0.736724
757.092515	0.735011
757.419882	0.733971
757.747203	0.738505
758.074477	0.738230
758.401703	0.735655
758.728882	0.730617
759.056014	0.728855
759.383099	0.728837
759.710138	0.729317
760.037129	0.726301
760.364073	0.720530
760.690970	0.722080
761.017820	0.728407
761.344623	0.724098
761.671379	0.714024
761.998088	0.703075
762.324751	0.680245
762.651366	0.639598
762.977935	0.572513
763.304456	0.520665
763.630931	0.511098
763.957359	0.549848
764.283740	0.594345
764.610074	0.620964
764.936362	0.651896
765.262602	0.678245
765.588796	0.699740
765.914943	0.718186
766.241044	0.735074
766.567097	0.742615
766.893104	0.751441
767.219064	0.758216
767.544978	0.765100
767.870845	0.778729
768.196665	0.782303
768.522438	0.780151
768.848165	0.781392
769.173846	0.790351
769.499479	0.794920
769.825066	0.797616
770.150607	0.802636
770.476101	0.798115
770.801548	0.799970
771.126949	0.811023
771.452303	0.814455
771.777611	0.814034
772.102872	0.812826
772.428087	0.818381
772.753256	0.822155
773.078378	0.823244
773.403453	0.833212
773.728482	0.837009
774.053465	0.829559
774.378401	0.834395
774.703291	0.842226
775.028135	0.842085
775.352932	0.843592
775.677683	0.846152
776.002388	0.846769
776.327046	0.845453
776.651658	0.849609
776.976224	0.852811
777.300743	0.853718
777.625216	0.856196
777.949643	0.856840
778.274024	0.857444
778.598359	0.859443
778.922647	0.857862
779.246889	0.858135
779.571086	0.860987
779.895236	0.864194
780.219339	0.861910
780.543397	0.858359
780.867409	0.857523
781.191374	0.860249
781.515294	0.860466
781.839167	0.858640
782.162995	0.862495
782.486776	0.859529
782.810511	0.860932
783.134201	0.864210
783.457844	0.861501
783.781441	0.864946
784.104993	0.870267
784.428498	0.871411
784.751958	0.866698
785.075372	0.869115
785.398739	0.872814
785.722061	0.868837
786.045337	0.865458
786.368568	0.870425
786.691752	0.872645
787.014891	0.857750
787.337983	0.849063
787.661030	0.841671
787.984031	0.823710
788.306987	0.811203
788.629897	0.813004
788.952760	0.816809
789.275579	0.821012
789.598351	0.836954
789.921078	0.850027
790.243759	0.852198
790.566395	0.856648
790.888984	0.863389
791.211529	0.869393
791.534027	0.871950
791.856480	0.874665
792.178888	0.879409
792.501249	0.881806
792.823566	0.882335
793.145836	0.882895
793.468062	0.884652
793.790241	0.884996
794.112375	0.883586
794.434464	0.879151
794.756507	0.878283
795.078505	0.877499
795.400457	0.872956
795.722364	0.860814
796.044226	0.853862
796.366042	0.852419
796.687812	0.856114
797.009538	0.852102
797.331218	0.854753
797.652852	0.859801
797.974442	0.864788
798.295986	0.864397
798.617484	0.866760
798.938938	0.870851
799.260346	0.877058
799.581709	0.878045
799.903026	0.880688
800.224299	0.880753
800.545526	0.884364
800.866708	0.889478
801.187845	0.893164
801.508936	0.893287
801.829983	0.890745
802.150984	0.893036
802.471940	0.898478
802.792851	0.896518
803.113717	0.898177
803.434538	0.896450
803.755314	0.899224
804.076045	0.900270
804.396731	0.899680
804.717372	0.899246
805.037967	0.901830
805.358518	0.899788
805.679024	0.896773
805.999485	0.897587
806.319901	0.898872
806.640272	0.898105
806.960598	0.896910
807.280879	0.894234
807.601115	0.893107
807.921306	0.896082
808.241453	0.896788
808.561554	0.894279
808.881611	0.893322
809.201623	0.896464
809.521590	0.897225
809.841513	0.898104
810.161390	0.895841
810.481223	0.898133
810.801011	0.901337
811.120755	0.902664
811.440453	0.902652
811.760107	0.900913
812.079716	0.901419
812.399281	0.904657
812.718801	0.907237
813.038276	0.907569
813.357707	0.907226
813.677093	0.904141
813.996434	0.907176
814.315731	0.909312
814.634983	0.909756
814.954191	0.907866
815.273354	0.904988
815.592473	0.901700
815.911547	0.901438
816.230577	0.899778
816.549562	0.895656
816.868502	0.898665
817.187399	0.893530
817.506250	0.888331
817.825058	0.890747
818.143821	0.887038
818.462539	0.882141
818.781213	0.874238
819.099843	0.863017
819.418429	0.846842
819.736970	0.829918
820.055466	0.810103
820.373919	0.785425
820.692327	0.752134
821.010691	0.717915
821.329011	0.641067
821.647286	0.526639
821.965517	0.413338
822.283704	0.370771
822.601847	0.372595
822.919945	0.408191
823.237999	0.440829
823.556010	0.487223
823.873976	0.542978
824.191897	0.593638
824.509775	0.636000
824.827609	0.681378
825.145398	0.703814
825.463144	0.706555
825.780845	0.689254
826.098502	0.669866
826.416116	0.624978
826.733685	0.580974
827.051210	0.572606
827.368692	0.587588
827.686129	0.624869
828.003522	0.676981
828.320872	0.723969
828.638177	0.768109
828.955439	0.800942
829.272656	0.822112
829.589830	0.839662
829.906960	0.855001
830.224046	0.865964
830.541088	0.877948
830.858086	0.881356
831.175041	0.887839
831.491952	0.887006
831.808819	0.884257
832.125642	0.877621
832.442421	0.861913
832.759157	0.841630
833.075849	0.795611
833.392497	0.731953
833.709101	0.691000
834.025662	0.700540
834.342179	0.732503
834.658653	0.770596
834.975083	0.806870
835.291469	0.833051
835.607811	0.855502
835.924110	0.871613
836.240366	0.888715
836.556578	0.902487
836.872746	0.908027
837.188871	0.915805
837.504952	0.919999
837.820990	0.924866
838.136984	0.928321
838.452935	0.929737
838.768842	0.931809
839.084706	0.925078
839.400526	0.900070
839.716303	0.859806
840.032037	0.836854
840.347727	0.841654
840.663373	0.859808
840.978977	0.880626
841.294537	0.903224
841.610054	0.918909
841.925527	0.925215
842.240957	0.932275
842.556344	0.939512
842.871687	0.947724
843.186987	0.949305
843.502244	0.949771
843.817458	0.951417
844.132629	0.956382
844.447756	0.959849
844.762840	0.959945
845.077881	0.958974
845.392879	0.960385
845.707833	0.962939
846.022745	0.964637
846.337613	0.965237
846.652438	0.966363
846.967221	0.964593
847.281960	0.965887
847.596656	0.967302
847.911309	0.966389
848.225919	0.968180
848.540485	0.969313
848.855009	0.969199
849.169490	0.968732
849.483928	0.968590
849.798323	0.969033
850.112675	0.970160
850.426984	0.970777
850.741251	0.969118
851.055474	0.971150
851.369654	0.968076
851.683792	0.968674
851.997887	0.970362
852.311938	0.970384
852.625947	0.969890
852.939914	0.969011
853.253837	0.968868
853.567718	0.970998
853.881555	0.971706
854.195350	0.968050
854.509103	0.969589
854.822812	0.970747
855.136479	0.969737
855.450103	0.969779
855.763685	0.969566
856.077224	0.969049
856.390720	0.971473
856.704173	0.970768
857.017584	0.968245
857.330953	0.968722
857.644278	0.968715
857.957561	0.969892
858.270802	0.968808
858.584000	0.969047
858.897155	0.966583
859.210268	0.968333
859.523339	0.967896
859.836367	0.970500
860.149352	0.971328
860.462295	0.967889
860.775195	0.969818
861.088054	0.970053
861.400869	0.970586
861.713642	0.970394
862.026373	0.970450
862.339062	0.970235
862.651708	0.968094
862.964312	0.967692
863.276873	0.969846
863.589392	0.968416
863.901869	0.966296
864.214303	0.965226
864.526696	0.963418
864.839045	0.964635
865.151353	0.961499
865.463619	0.962430
865.775842	0.963289
866.088023	0.962322
866.400162	0.961716
866.712258	0.962232
867.024313	0.962714
867.336325	0.964171
867.648296	0.963952
867.960224	0.962044
868.272110	0.961630
868.583954	0.965434
868.895755	0.965412
869.207515	0.961559
869.519233	0.960014
869.830909	0.962176
870.142542	0.962506
870.454134	0.962090
870.765684	0.960460
871.077191	0.958601
871.388657	0.958527
871.700081	0.959224
872.011463	0.959350
872.322803	0.958244
872.634101	0.957372
872.945357	0.956118
873.256571	0.954548
873.567744	0.953508
873.878874	0.954416
874.189963	0.953018
874.501010	0.951070
874.812015	0.949240
875.122979	0.951821
875.433900	0.953913
875.744780	0.953762
876.055618	0.951269
876.366415	0.950909
876.677169	0.950762
876.987882	0.951126
877.298554	0.951813
877.609183	0.947656
877.919771	0.946482
878.230317	0.943512
878.540822	0.941500
878.851285	0.935716
879.161707	0.928053
879.472087	0.915637
879.782425	0.901402
880.092722	0.866322
880.402977	0.814242
880.713191	0.754908
881.023363	0.696162
881.333494	0.663390
881.643583	0.635152
881.953631	0.633771
882.263637	0.662601
882.573602	0.702993
882.883526	0.727012
883.193408	0.750581
883.503248	0.773770
883.813048	0.800124
884.122806	0.830349
884.432522	0.853859
884.742197	0.872096
885.051831	0.882753
885.361424	0.892799
885.670975	0.904245
885.980485	0.915003
886.289954	0.920954
886.599382	0.925104
886.908768	0.928442
887.218113	0.936273
887.527417	0.939803
887.836680	0.943069
888.145901	0.944424
888.455082	0.946289
888.764221	0.950509
889.073319	0.953300
889.382376	0.953619
889.691392	0.954081
890.000366	0.954058
890.309300	0.954111
890.618193	0.954339
890.927044	0.951403
891.235855	0.952704
891.544625	0.952378
891.853353	0.953078
892.162041	0.949798
892.470687	0.942711
892.779293	0.939544
893.087858	0.935180
893.396381	0.927225
893.704864	0.913793
894.013306	0.890830
894.321707	0.865190
894.630068	0.850247
894.938387	0.845269
895.246665	0.846657
895.554903	0.859052
895.863100	0.872211
896.171256	0.889598
896.479371	0.907367
896.787446	0.920564
897.095480	0.926880
897.403473	0.928852
897.711425	0.933170
898.019336	0.941371
898.327207	0.943431
898.635038	0.945838
898.942827	0.945370
899.250576	0.948670
899.558284	0.952695
899.865952	0.954414
900.173579	0.955934
900.481165	0.956177
900.788711	0.960449
901.096216	0.961472
901.403681	0.961413
901.711105	0.963715
902.018489	0.963801
902.325832	0.962863
902.633135	0.961461
902.940397	0.956638
903.247619	0.944561
903.554800	0.920108
903.861941	0.880075
904.169041	0.845715
904.476101	0.828738
904.783121	0.830017
905.090100	0.845454
905.397039	0.865739
905.703938	0.888419
906.010796	0.907140
906.317614	0.922393
906.624391	0.935823
906.931129	0.944653
907.237826	0.952382
907.544483	0.960084
907.851099	0.963176
908.157675	0.968061
908.464211	0.970339
908.770707	0.972835
909.077163	0.975146
909.383578	0.975544
909.689954	0.976218
909.996289	0.975203
910.302584	0.978088
910.608839	0.980135
910.915054	0.979354
911.221229	0.978681
911.527363	0.977099
911.833458	0.977253
912.139513	0.977126
912.445527	0.976354
912.751502	0.974586
913.057436	0.972460
913.363331	0.970714
913.669186	0.966194
913.975000	0.961861
914.280775	0.956181
914.586510	0.949245
914.892205	0.936966
915.197859	0.915326
915.503475	0.888113
915.809050	0.868599
916.114585	0.864133
916.420081	0.862137
916.725536	0.857692
917.030952	0.865946
917.336328	0.878648
917.641665	0.893382
917.946961	0.909470
918.252218	0.921317
918.557435	0.929307
918.862612	0.937140
919.167750	0.942708
919.472848	0.948195
919.777906	0.953988
920.082925	0.958932
920.387904	0.962233
920.692843	0.963255
920.997743	0.964706
921.302603	0.967672
921.607423	0.969726
921.912204	0.972477
922.216946	0.971737
922.521647	0.973445
922.826310	0.976402
923.130932	0.977119
923.435516	0.978544
923.740059	0.980890
924.044564	0.978088
924.349028	0.980609
924.653454	0.982243
924.957840	0.985227
925.262186	0.983847
925.566493	0.983992
925.870761	0.984864
926.174989	0.987054
926.479178	0.988509
926.783328	0.988790
927.087438	0.988657
927.391509	0.988121
927.695541	0.990129
927.999533	0.989565
928.303486	0.988292
928.607400	0.990589
928.911275	0.988436
929.215110	0.990709
929.518906	0.991301
929.822663	0.989648
930.126381	0.991170
930.430060	0.990930
930.733699	0.990072
931.037299	0.989300
931.340861	0.992225
931.644383	0.989680
931.947866	0.989654
932.251309	0.990524
932.554714	0.990522
932.858080	0.990345
933.161407	0.989982
933.464694	0.991683
933.767943	0.989525
934.071153	0.991734
934.374323	0.992410
934.677455	0.992073
934.980548	0.991099
935.283602	0.990899
935.586617	0.991412
935.889593	0.990887
936.192530	0.990466
936.495428	0.990485
936.798287	0.990694
937.101108	0.989025
937.403890	0.988338
937.706632	0.989489
938.009336	0.986959
938.312002	0.985327
938.614628	0.984769
938.917216	0.984434
939.219765	0.982508
939.522275	0.982820
939.824747	0.982054
940.127179	0.983468
940.429573	0.985185
940.731929	0.984585
941.034246	0.985260
941.336524	0.986836
941.638763	0.986956
941.940964	0.986999
942.243126	0.987280
942.545250	0.986824
942.847335	0.988305
943.149381	0.987806
943.451389	0.987698
943.753359	0.988012
944.055290	0.990870
944.357182	0.989801
944.659036	0.988561
944.960851	0.990108
945.262628	0.989811
945.564367	0.989625
945.866067	0.990486
946.167729	0.989603
946.469352	0.989655
946.770937	0.988819
947.072484	0.989961
947.373992	0.989846
947.675462	0.990493
947.976893	0.990644
948.278286	0.989665
948.579641	0.991997
948.880958	0.991259
949.182236	0.991184
949.483476	0.990706
949.784678	0.990062
950.085841	0.990890
950.386967	0.991092
950.688054	0.991487
950.989103	0.991197
951.290114	0.989169
951.591087	0.989874
951.892021	0.990194
952.192917	0.988565
952.493776	0.988726
952.794596	0.988222
953.095378	0.987668
953.396122	0.988257
953.696828	0.987127
953.997496	0.989794
954.298126	0.990207
954.598718	0.991039
954.899272	0.991811
955.199788	0.991044
955.500266	0.992377
955.800706	0.993295
956.101108	0.993245
956.401472	0.993132
956.701798	0.994532
957.002087	0.992749
957.302337	0.993461
957.602550	0.995237
957.902724	0.996158
958.202861	0.996074
958.502960	0.994852
958.803022	0.994679
959.103045	0.996201
959.403031	0.995924
959.702979	0.994901
960.002889	0.996510
960.302762	0.995096
960.602596	0.996348
960.902393	0.994814
961.202153	0.997112
961.501875	0.996499
961.801559	0.996291
962.101205	0.996823
962.400814	0.996878
962.700385	0.996111
962.999918	0.996948
963.299414	0.996557
963.598873	0.995693
963.898293	0.996698
964.197677	0.996476
964.497022	0.996180
964.796331	0.996839
965.095601	0.995909
965.394835	0.996812
965.694030	0.996815
965.993189	0.997187
966.292309	0.995380
966.591393	0.998400
966.890439	0.997305
967.189447	0.996691
967.488419	0.997449
967.787353	0.996936
968.086249	0.996163
968.385108	0.996042
968.683930	0.997586
968.982714	0.998250
969.281462	0.997090
969.580172	0.996563
969.878844	0.997360
970.177480	0.996707
970.476078	0.997035
970.774639	0.996108
971.073162	0.997175
971.371649	0.996984
971.670098	0.997195
971.968510	0.997396
972.266885	0.996615
972.565223	0.996542
972.863524	0.995508
973.161788	0.996503
973.460014	0.997140
973.758204	0.995115
974.056356	0.996903
974.354471	0.994365
974.652550	0.995310
974.950591	0.995462
975.248595	0.997620
975.546563	0.995864
975.844493	0.998314
976.142386	0.996796
976.440243	0.997789
976.738062	0.996188
977.035845	0.997377
977.333590	0.996882
977.631299	0.997947
977.928971	0.997148
978.226606	0.997432
978.524204	0.995680
978.821765	0.997250
979.119290	0.995741
979.416777	0.996307
979.714228	0.997834
980.011642	0.996077
980.309020	0.997078
980.606360	0.997625
980.903664	0.998733
981.200931	0.996117
981.498162	0.993290
981.795356	0.995072
982.092513	0.994181
982.389633	0.993806
982.686717	0.991751
982.983764	0.992523
983.280775	0.990690
983.577749	0.990434
983.874686	0.992380
984.171587	0.992558
984.468451	0.993554
984.765279	0.995657
985.062070	0.994403
985.358824	0.994749
985.655543	0.995465
985.952224	0.995836
986.248869	0.996640
986.545478	0.997132
986.842050	0.998011
987.138586	0.995163
987.435086	0.997917
987.731549	0.998466
988.027975	0.998150
988.324366	0.998568
988.620719	0.997833
988.917037	0.996747
989.213318	0.998202
989.509563	0.998002
989.805772	0.998732
990.101944	0.998404
990.398080	0.997354
990.694180	0.998002
990.990244	0.996667
991.286271	0.998730
991.582262	0.997462
991.878217	0.998269
992.174136	0.997809
992.470019	0.999132
992.765865	0.998004
993.061676	0.998953
993.357450	0.998062
993.653188	0.996978
993.948890	0.998058
994.244556	0.998848
994.540186	0.997866
994.835780	0.996858
995.131337	0.996817
995.426859	0.994731
995.722345	0.998480
996.017795	0.995483
996.313208	0.996293
996.608586	0.995827
996.903928	0.997271
997.199234	0.994936
997.494504	0.998045
997.789738	0.997740
998.084936	0.996215
998.380099	0.996725
998.675225	0.998173
998.970316	0.999050
999.265371	0.997702
999.560390	0.997369
999.855373	0.999765
1000.150320	0.997792
1000.445232	0.999443
1000.740108	0.998070
1001.034948	0.997898
1001.329752	0.999749
1001.624521	0.999263
1001.919254	0.997891
1002.213951	0.998887
1002.508613	0.998778
1002.803239	0.998414
1003.097829	0.998248
1003.392384	0.999128
1003.686903	0.999122
1003.981386	0.998619
1004.275834	0.999742
1004.570246	0.998391
1004.864623	0.997979
1005.158964	0.998512
1005.453270	0.998423
1005.747540	0.996432
1006.041775	0.999516
1006.335974	0.999338
1006.630138	0.999076
1006.924266	0.999590
1007.218359	0.999625
1007.512416	0.999091
1007.806438	0.998960
1008.100425	0.999809
1008.394376	0.998472
1008.688292	0.997964
1008.982172	1.000558
1009.276017	0.998458
1009.569827	0.999290
1009.863602	0.998215
1010.157341	0.999085
1010.451045	0.999355
1010.744714	0.998877
1011.038347	0.998338
1011.331945	0.998159
1011.625508	0.997811
1011.919036	0.998086
1012.212528	0.998706
1012.505986	0.997331
1012.799408	0.998672
1013.092795	1.000122
1013.386147	0.998841
1013.679464	0.998608
1013.972745	0.997941
1014.265992	0.996840
1014.559204	0.998294
1014.852380	0.998840
1015.145521	0.998888
1015.438628	0.998625
1015.731699	1.000244
1016.024736	0.999066
1016.317737	0.998464
1016.610703	0.998929
1016.903635	0.999791
1017.196531	0.998509
1017.489393	0.999343
1017.782219	0.999239
1018.075011	0.998234
1018.367768	0.998039
1018.660490	1.000101
1018.953177	1.000101
1019.245829	1.000101
