Dividing Wavelength (nm)	Counts (n)	Blue Motor Position (mm): 0.000000	Red Motor Position (mm): 3.400000	
326.493990	1.001451
326.888308	1.001451
327.282561	1.001451
327.676750	1.000668
328.070874	0.999212
328.464933	1.000334
328.858929	0.999787
329.252859	0.999185
329.646726	1.000308
330.040528	0.998887
330.434265	0.999671
330.827938	1.002128
331.221547	1.001266
331.615091	0.998877
332.008571	1.000040
332.401986	1.000354
332.795338	1.000731
333.188625	0.999646
333.581847	1.001094
333.975006	1.000751
334.368100	0.999670
334.761129	1.000016
335.154095	1.001521
335.546996	0.998084
335.939833	0.993062
336.332606	0.992701
336.725315	0.993664
337.117960	0.994578
337.510540	0.993854
337.903056	0.994267
338.295508	0.993433
338.687896	0.993922
339.080220	0.993366
339.472480	0.994775
339.864676	0.993187
340.256807	0.993766
340.648875	0.995049
341.040879	0.994292
341.432818	0.992985
341.824694	0.992799
342.216506	0.995372
342.608253	0.994822
342.999937	0.993182
343.391557	0.994174
343.783113	0.992762
344.174605	0.993012
344.566033	0.994594
344.957397	0.993059
345.348697	0.993264
345.739934	0.994084
346.131106	0.993722
346.522215	0.993384
346.913260	0.993116
347.304241	0.992490
347.695159	0.994461
348.086012	0.992927
348.476802	0.993297
348.867528	0.993146
349.258191	0.992995
349.648789	0.992905
350.039324	0.992466
350.429796	0.994739
350.820203	0.994174
351.210548	0.992160
351.600828	0.993312
351.991045	0.993431
352.381198	0.993288
352.771288	0.993493
353.161314	0.992128
353.551276	0.994393
353.941175	0.993148
354.331010	0.992292
354.720782	0.993208
355.110490	0.992573
355.500135	0.993491
355.889717	0.992763
356.279235	0.991679
356.668689	0.992426
357.058080	0.993279
357.447408	0.994068
357.836672	0.993488
358.225873	0.993727
358.615010	0.993154
359.004084	0.993906
359.393095	0.992006
359.782043	0.993687
360.170927	0.994608
360.559748	0.992050
360.948505	0.991838
361.337199	0.992354
361.725830	0.992894
362.114398	0.991900
362.502903	0.992706
362.891344	0.993641
363.279722	0.992256
363.668037	0.993199
364.056289	0.992422
364.444478	0.993100
364.832603	0.992157
365.220665	0.991193
365.608665	0.992000
365.996601	0.991191
366.384474	0.991536
366.772284	0.990442
367.160031	0.989575
367.547715	0.990343
367.935336	0.989525
368.322893	0.988788
368.710388	0.986115
369.097820	0.985544
369.485189	0.984296
369.872495	0.982452
370.259738	0.978084
370.646918	0.979457
371.034035	0.976887
371.421090	0.973288
371.808081	0.968907
372.195010	0.966536
372.581875	0.961650
372.968678	0.955998
373.355418	0.952285
373.742096	0.946735
374.128710	0.941744
374.515262	0.936010
374.901751	0.932215
375.288177	0.927795
375.674540	0.919312
376.060841	0.912411
376.447079	0.908346
376.833254	0.900204
377.219367	0.895381
377.605417	0.884350
377.991404	0.880638
378.377329	0.873509
378.763191	0.867977
379.148991	0.858976
379.534727	0.851646
379.920402	0.843586
380.306013	0.839951
380.691563	0.826990
381.077049	0.819871
381.462474	0.815931
381.847835	0.804491
382.233134	0.798903
382.618371	0.799180
383.003545	0.781737
383.388657	0.780556
383.773706	0.772290
384.158693	0.768984
384.543618	0.761808
384.928480	0.754885
385.313280	0.743694
385.698017	0.745124
386.082692	0.732584
386.467305	0.731234
386.851856	0.723935
387.236344	0.718685
387.620770	0.712455
388.005133	0.707963
388.389435	0.703397
388.773674	0.699648
389.157851	0.692171
389.541965	0.689608
389.926018	0.695967
390.310008	0.682841
390.693936	0.679182
391.077802	0.672022
391.461606	0.673955
391.845348	0.663408
392.229027	0.663046
392.612645	0.660531
392.996200	0.648007
393.379694	0.640537
393.763125	0.630860
394.146494	0.635787
394.529801	0.626002
394.913047	0.619270
395.296230	0.624340
395.679351	0.615898
396.062410	0.611719
396.445408	0.614997
396.828343	0.610649
397.211217	0.605403
397.594028	0.617818
397.976778	0.607748
398.359466	0.603946
398.742092	0.599350
399.124656	0.611988
399.507158	0.600020
399.889598	0.597187
400.271977	0.587750
400.654294	0.593339
401.036549	0.591299
401.418742	0.595925
401.800874	0.580852
402.182944	0.578196
402.564952	0.569262
402.946898	0.571995
403.328783	0.572273
403.710606	0.583322
404.092367	0.558490
404.474067	0.563490
404.855705	0.561897
405.237282	0.572092
405.618797	0.557805
406.000250	0.553357
406.381642	0.544225
406.762972	0.548125
407.144240	0.547318
407.525447	0.547747
407.906593	0.540339
408.287677	0.535902
408.668700	0.544359
409.049661	0.537181
409.430560	0.532969
409.811399	0.541671
410.192176	0.523332
410.572891	0.530654
410.953545	0.518732
411.334138	0.532065
411.714669	0.524585
412.095139	0.536239
412.475547	0.520860
412.855894	0.522579
413.236180	0.522204
413.616405	0.527450
413.996568	0.517709
414.376670	0.523854
414.756711	0.528611
415.136691	0.525256
415.516609	0.517632
415.896466	0.513485
416.276262	0.509032
416.655997	0.511658
417.035670	0.492792
417.415283	0.485090
417.794834	0.488755
418.174324	0.493723
418.553753	0.503966
418.933121	0.485442
419.312428	0.479536
419.691674	0.485464
420.070859	0.473553
420.449983	0.481535
420.829045	0.471699
421.208047	0.480217
421.586988	0.474015
421.965867	0.472664
422.344686	0.461386
422.723444	0.474038
423.102141	0.490132
423.480777	0.463827
423.859352	0.483992
424.237866	0.461243
424.616319	0.462175
424.994712	0.453052
425.373044	0.463345
425.751314	0.450873
426.129524	0.467474
426.507673	0.452023
426.885762	0.445629
427.263789	0.450824
427.641756	0.460315
428.019662	0.450922
428.397508	0.449518
428.775292	0.454086
429.153016	0.445710
429.530679	0.451983
429.908282	0.445788
430.285824	0.455686
430.663305	0.433952
431.040726	0.455203
431.418086	0.455660
431.795385	0.446858
432.172624	0.444987
432.549802	0.446650
432.926920	0.445232
433.303977	0.444155
433.680974	0.441888
434.057910	0.440048
434.434786	0.439820
434.811601	0.442245
435.188355	0.424507
435.565050	0.433653
435.941683	0.435366
436.318257	0.419180
436.694770	0.419936
437.071222	0.418510
437.447614	0.422261
437.823946	0.429315
438.200218	0.418344
438.576429	0.429047
438.952580	0.421572
439.328670	0.418038
439.704700	0.424454
440.080670	0.425755
440.456580	0.406526
440.832429	0.415026
441.208218	0.425828
441.583947	0.414509
441.959616	0.414135
442.335224	0.419640
442.710773	0.410423
443.086261	0.408518
443.461689	0.421996
443.837057	0.412104
444.212365	0.402076
444.587612	0.409410
444.962800	0.398975
445.337927	0.400690
445.712995	0.426696
446.088002	0.389576
446.462949	0.399699
446.837837	0.403820
447.212664	0.393118
447.587431	0.384688
447.962139	0.355224
448.336786	0.314323
448.711374	0.324854
449.085901	0.368647
449.460369	0.373069
449.834776	0.376471
450.209124	0.355769
450.583412	0.348156
450.957640	0.341405
451.331808	0.352936
451.705917	0.376501
452.079965	0.380780
452.453954	0.369141
452.827883	0.375576
453.201752	0.370831
453.575562	0.382199
453.949311	0.370735
454.323001	0.376459
454.696632	0.372563
455.070202	0.365137
455.443713	0.356945
455.817164	0.351568
456.190556	0.347694
456.563888	0.344817
456.937160	0.342130
457.310373	0.359769
457.683526	0.357991
458.056619	0.363620
458.429653	0.364685
458.802628	0.367667
459.175542	0.362131
459.548398	0.344928
459.921194	0.337176
460.293930	0.336983
460.666607	0.314729
461.039224	0.303109
461.411782	0.298583
461.784280	0.298221
462.156719	0.302235
462.529099	0.306383
462.901419	0.322388
463.273680	0.326795
463.645882	0.326268
464.018024	0.332235
464.390106	0.324925
464.762130	0.309941
465.134094	0.292586
465.505999	0.261761
465.877845	0.232603
466.249631	0.219485
466.621358	0.227131
466.993026	0.240797
467.364634	0.246836
467.736184	0.255883
468.107674	0.264494
468.479105	0.263493
468.850477	0.270393
469.221790	0.276976
469.593043	0.287276
469.964238	0.292356
470.335373	0.291556
470.706449	0.289570
471.077467	0.290392
471.448425	0.252605
471.819324	0.227919
472.190164	0.227321
472.560945	0.256288
472.931667	0.278380
473.302330	0.282562
473.672934	0.294455
474.043479	0.282738
474.413965	0.284497
474.784393	0.288019
475.154761	0.282883
475.525070	0.279907
475.895321	0.286017
476.265513	0.279857
476.635645	0.275083
477.005719	0.275650
477.375734	0.271821
477.745691	0.265422
478.115588	0.261374
478.485427	0.255346
478.855207	0.242068
479.224928	0.224513
479.594591	0.212704
479.964194	0.216034
480.333739	0.217322
480.703226	0.218653
481.072653	0.217524
481.442022	0.212831
481.811333	0.209434
482.180584	0.212941
482.549777	0.218327
482.918912	0.221464
483.287988	0.221036
483.657005	0.220974
484.025964	0.227317
484.394864	0.224719
484.763706	0.225133
485.132489	0.230325
485.501213	0.231057
485.869879	0.229388
486.238487	0.232496
486.607036	0.230602
486.975527	0.235158
487.343959	0.230905
487.712333	0.230005
488.080648	0.231590
488.448905	0.230602
488.817104	0.231937
489.185244	0.226474
489.553326	0.223537
489.921350	0.213174
490.289315	0.195696
490.657222	0.190640
491.025070	0.192076
491.392861	0.194051
491.760593	0.199576
492.128267	0.205509
492.495883	0.210689
492.863440	0.217198
493.230939	0.223783
493.598380	0.224797
493.965763	0.226912
494.333088	0.229337
494.700354	0.230622
495.067563	0.229678
495.434713	0.233206
495.801805	0.230816
496.168839	0.232426
496.535815	0.233725
496.902733	0.233662
497.269593	0.235492
497.636395	0.232985
498.003139	0.233221
498.369825	0.236329
498.736453	0.232798
499.103023	0.234271
499.469535	0.233645
499.835989	0.233964
500.202385	0.234922
500.568723	0.238088
500.935003	0.233288
501.301226	0.237667
501.667390	0.232017
502.033497	0.229869
502.399546	0.233003
502.765537	0.234725
503.131470	0.233207
503.497345	0.229347
503.863163	0.238248
504.228923	0.231251
504.594625	0.229905
504.960269	0.235340
505.325856	0.230621
505.691385	0.235126
506.056856	0.231736
506.422270	0.231179
506.787625	0.233382
507.152924	0.231074
507.518164	0.231348
507.883347	0.232974
508.248472	0.234853
508.613540	0.229986
508.978550	0.232480
509.343503	0.232772
509.708398	0.230249
510.073236	0.228361
510.438016	0.228059
510.802738	0.229035
511.167403	0.228001
511.532010	0.230003
511.896561	0.224987
512.261053	0.224162
512.625488	0.226269
512.989866	0.226692
513.354186	0.226866
513.718449	0.228689
514.082655	0.225213
514.446803	0.227325
514.810894	0.224838
515.174927	0.227618
515.538904	0.226830
515.902822	0.223906
516.266684	0.226342
516.630488	0.227491
516.994235	0.226225
517.357925	0.225033
517.721558	0.223464
518.085133	0.222964
518.448651	0.223122
518.812112	0.225253
519.175516	0.224836
519.538863	0.222532
519.902152	0.224028
520.265385	0.221151
520.628560	0.222733
520.991678	0.223139
521.354739	0.222052
521.717743	0.223099
522.080690	0.223747
522.443580	0.221071
522.806413	0.222068
523.169189	0.221370
523.531908	0.220373
523.894569	0.223638
524.257174	0.223667
524.619722	0.221107
524.982213	0.222421
525.344647	0.221600
525.707025	0.222031
526.069345	0.220696
526.431608	0.222148
526.793815	0.219854
527.155964	0.224131
527.518057	0.222972
527.880093	0.224100
528.242072	0.222601
528.603995	0.224459
528.965860	0.226287
529.327669	0.225283
529.689421	0.226076
530.051117	0.226809
530.412755	0.224606
530.774337	0.226915
531.135862	0.227116
531.497331	0.226390
531.858743	0.229501
532.220098	0.226242
532.581396	0.228691
532.942638	0.229182
533.303824	0.230206
533.664953	0.229898
534.026025	0.231742
534.387040	0.229494
534.747999	0.229448
535.108902	0.228194
535.469748	0.233235
535.830537	0.231108
536.191270	0.231690
536.551947	0.231052
536.912567	0.231400
537.273131	0.232697
537.633638	0.232965
537.994089	0.233504
538.354483	0.234391
538.714821	0.231654
539.075103	0.231196
539.435328	0.232058
539.795497	0.235681
540.155609	0.232239
540.515665	0.230449
540.875665	0.236292
541.235609	0.234819
541.595496	0.234827
541.955328	0.231378
542.315102	0.234068
542.674821	0.234819
543.034483	0.234846
543.394090	0.234840
543.753640	0.236694
544.113134	0.231679
544.472571	0.235045
544.831953	0.231959
545.191278	0.236063
545.550548	0.235275
545.909761	0.232214
546.268918	0.232895
546.628019	0.231302
546.987064	0.234189
547.346053	0.235787
547.704986	0.233419
548.063863	0.233954
548.422684	0.234251
548.781449	0.235906
549.140158	0.233385
549.498811	0.236539
549.857408	0.239571
550.215949	0.234457
550.574434	0.237142
550.932864	0.235445
551.291237	0.233993
551.649555	0.235564
552.007817	0.234981
552.366022	0.235953
552.724173	0.236265
553.082267	0.236631
553.440305	0.233316
553.798288	0.237876
554.156215	0.234419
554.514086	0.234796
554.871902	0.238296
555.229661	0.237467
555.587365	0.238167
555.945014	0.240431
556.302606	0.237432
556.660143	0.239943
557.017625	0.236632
557.375050	0.238788
557.732421	0.235717
558.089735	0.237807
558.446994	0.237794
558.804197	0.237111
559.161345	0.236960
559.518437	0.240321
559.875474	0.238045
560.232455	0.237805
560.589381	0.238894
560.946251	0.238887
561.303065	0.236525
561.659825	0.237853
562.016528	0.239219
562.373177	0.242138
562.729770	0.239196
563.086307	0.241658
563.442789	0.239088
563.799216	0.241883
564.155587	0.240831
564.511904	0.242054
564.868164	0.242233
565.224370	0.241853
565.580520	0.243813
565.936615	0.243408
566.292654	0.246461
566.648638	0.243614
567.004567	0.244382
567.360441	0.244871
567.716260	0.247241
568.072023	0.244554
568.427732	0.245645
568.783385	0.248018
569.138982	0.246164
569.494525	0.245640
569.850013	0.248803
570.205445	0.247003
570.560823	0.249362
570.916145	0.251664
571.271412	0.249818
571.626625	0.251149
571.981782	0.251808
572.336884	0.252676
572.691931	0.252235
573.046923	0.254018
573.401860	0.254705
573.756743	0.256647
574.111570	0.255457
574.466342	0.255544
574.821059	0.255197
575.175722	0.257734
575.530330	0.257462
575.884882	0.257689
576.239380	0.259790
576.593823	0.260553
576.948211	0.259515
577.302544	0.263150
577.656823	0.262358
578.011047	0.262986
578.365216	0.263495
578.719330	0.265522
579.073389	0.265256
579.427394	0.266344
579.781344	0.267650
580.135239	0.268666
580.489080	0.268575
580.842866	0.271764
581.196597	0.271194
581.550273	0.269953
581.903895	0.271042
582.257463	0.268930
582.610975	0.272731
582.964434	0.272204
583.317837	0.274454
583.671186	0.274835
584.024481	0.274720
584.377721	0.277537
584.730906	0.278112
585.084037	0.276979
585.437113	0.279036
585.790135	0.278346
586.143103	0.281609
586.496016	0.282504
586.848874	0.280040
587.201679	0.280350
587.554428	0.284077
587.907124	0.282651
588.259765	0.283521
588.612352	0.284036
588.964884	0.287885
589.317362	0.287301
589.669786	0.287208
590.022155	0.285885
590.374470	0.284975
590.726731	0.287212
591.078937	0.292182
591.431090	0.288077
591.783188	0.292476
592.135232	0.292984
592.487222	0.292788
592.839157	0.291148
593.191038	0.293354
593.542866	0.295231
593.894639	0.298516
594.246358	0.296942
594.598022	0.296205
594.949633	0.299648
595.301190	0.300786
595.652692	0.300063
596.004141	0.295848
596.355535	0.304228
596.706876	0.304485
597.058162	0.307199
597.409395	0.304213
597.760573	0.301846
598.111698	0.305286
598.462768	0.305777
598.813785	0.306899
599.164748	0.308380
599.515657	0.308917
599.866511	0.311984
600.217312	0.307389
600.568060	0.312574
600.918753	0.308971
601.269392	0.309563
601.619978	0.313055
601.970510	0.310720
602.320988	0.311274
602.671412	0.308633
603.021783	0.310850
603.372100	0.312663
603.722363	0.312362
604.072572	0.312607
604.422728	0.312630
604.772830	0.314957
605.122878	0.314661
605.472872	0.314881
605.822813	0.313290
606.172701	0.315994
606.522534	0.313635
606.872314	0.313394
607.222041	0.314530
607.571714	0.312384
607.921333	0.313807
608.270899	0.313436
608.620411	0.310516
608.969870	0.314235
609.319276	0.314548
609.668627	0.314473
610.017926	0.312764
610.367171	0.311231
610.716362	0.311906
611.065500	0.312342
611.414585	0.310847
611.763616	0.311460
612.112594	0.312000
612.461518	0.311309
612.810389	0.308956
613.159207	0.311360
613.507971	0.313133
613.856682	0.309165
614.205340	0.310160
614.553945	0.307161
614.902496	0.311383
615.250994	0.308970
615.599439	0.310139
615.947830	0.309205
616.296169	0.310145
616.644454	0.310306
616.992686	0.309757
617.340864	0.307679
617.688990	0.311362
618.037063	0.307864
618.385082	0.309988
618.733048	0.306679
619.080961	0.309062
619.428821	0.308259
619.776628	0.308238
620.124382	0.310060
620.472083	0.310560
620.819731	0.310019
621.167326	0.313657
621.514868	0.313117
621.862357	0.318001
622.209793	0.317225
622.557176	0.319246
622.904506	0.320633
623.251783	0.322580
623.599007	0.325034
623.946179	0.324772
624.293297	0.326836
624.640363	0.330449
624.987376	0.331116
625.334336	0.333420
625.681243	0.336132
626.028097	0.336714
626.374899	0.337582
626.721647	0.337941
627.068343	0.341190
627.414987	0.342238
627.761577	0.344337
628.108115	0.342250
628.454600	0.347739
628.801032	0.345209
629.147412	0.347158
629.493739	0.347364
629.840014	0.350558
630.186236	0.347669
630.532405	0.353434
630.878521	0.350946
631.224585	0.353224
631.570597	0.356916
631.916556	0.355319
632.262462	0.355389
632.608316	0.357729
632.954117	0.358351
633.299866	0.358848
633.645562	0.359720
633.991206	0.363750
634.336797	0.367095
634.682336	0.369608
635.027823	0.371001
635.373257	0.371438
635.718639	0.374965
636.063968	0.373976
636.409245	0.380314
636.754470	0.380602
637.099642	0.382941
637.444762	0.386242
637.789829	0.385231
638.134845	0.388444
638.479808	0.389984
638.824719	0.389588
639.169577	0.393752
639.514383	0.392446
639.859137	0.396170
640.203839	0.396920
640.548489	0.397010
640.893086	0.398339
641.237632	0.399594
641.582125	0.398505
641.926566	0.400067
642.270955	0.400251
642.615292	0.400414
642.959576	0.399772
643.303809	0.400119
643.647990	0.399747
643.992118	0.400449
644.336195	0.404062
644.680219	0.402240
645.024192	0.403141
645.368112	0.396367
645.711981	0.395641
646.055797	0.390652
646.399562	0.392835
646.743274	0.384954
647.086935	0.382665
647.430544	0.382893
647.774101	0.381775
648.117606	0.381255
648.461059	0.381695
648.804460	0.384138
649.147810	0.389384
649.491108	0.391430
649.834354	0.392507
650.177548	0.398014
650.520690	0.403543
650.863781	0.404695
651.206820	0.404050
651.549807	0.408683
651.892742	0.412775
652.235626	0.412393
652.578458	0.412914
652.921238	0.419284
653.263967	0.417155
653.606644	0.420605
653.949269	0.420681
654.291843	0.424999
654.634365	0.421431
654.976836	0.424191
655.319255	0.425279
655.661622	0.426569
656.003938	0.426420
656.346203	0.429876
656.688416	0.426987
657.030577	0.430542
657.372687	0.432734
657.714746	0.433120
658.056753	0.430086
658.398708	0.434128
658.740612	0.435122
659.082465	0.431738
659.424266	0.432254
659.766016	0.431248
660.107715	0.434112
660.449362	0.432879
660.790958	0.433769
661.132503	0.433683
661.473996	0.431904
661.815438	0.432906
662.156829	0.432970
662.498168	0.433745
662.839456	0.435596
663.180693	0.432753
663.521879	0.432571
663.863013	0.433533
664.204097	0.432206
664.545129	0.429184
664.886110	0.429462
665.227040	0.426490
665.567918	0.429082
665.908746	0.427184
666.249522	0.426679
666.590248	0.427795
666.930922	0.426074
667.271545	0.425193
667.612118	0.425158
667.952639	0.427104
668.293109	0.425273
668.633528	0.428596
668.973896	0.428366
669.314213	0.428771
669.654480	0.430415
669.994695	0.430458
670.334859	0.431647
670.674973	0.431452
671.015035	0.431744
671.355047	0.431720
671.695008	0.433183
672.034918	0.433932
672.374777	0.433881
672.714585	0.435218
673.054342	0.435119
673.394049	0.435278
673.733705	0.432923
674.073310	0.433880
674.412864	0.437136
674.752368	0.437151
675.091820	0.437817
675.431223	0.442328
675.770574	0.441947
676.109875	0.444760
676.449125	0.445179
676.788324	0.446958
677.127473	0.452514
677.466571	0.452493
677.805619	0.454179
678.144616	0.455684
678.483562	0.457581
678.822458	0.459667
679.161303	0.460496
679.500098	0.460505
679.838842	0.462166
680.177535	0.462246
680.516179	0.460809
680.854771	0.460069
681.193314	0.453199
681.531805	0.444693
681.870247	0.432938
682.208638	0.425151
682.546978	0.423966
682.885268	0.425470
683.223508	0.432061
683.561697	0.436257
683.899836	0.439015
684.237925	0.442194
684.575963	0.444657
684.913951	0.447687
685.251889	0.443832
685.589776	0.445552
685.927614	0.447619
686.265401	0.441896
686.603137	0.443382
686.940824	0.437899
687.278460	0.435840
687.616046	0.435224
687.953582	0.429966
688.291068	0.431438
688.628504	0.427541
688.965889	0.428998
689.303224	0.433485
689.640510	0.437574
689.977745	0.443592
690.314930	0.451192
690.652065	0.455430
690.989150	0.463088
691.326185	0.469813
691.663170	0.473982
692.000105	0.481137
692.336990	0.488320
692.673825	0.490976
693.010610	0.497959
693.347345	0.503462
693.684030	0.504603
694.020665	0.509753
694.357251	0.517868
694.693786	0.517956
695.030272	0.522032
695.366707	0.525997
695.703093	0.528962
696.039429	0.527285
696.375716	0.528832
696.711952	0.531130
697.048139	0.533457
697.384276	0.535442
697.720363	0.533232
698.056400	0.532815
698.392388	0.538220
698.728326	0.541547
699.064214	0.544264
699.400053	0.545240
699.735842	0.548692
700.071581	0.551589
700.407270	0.554201
700.742910	0.556631
701.078501	0.563174
701.414042	0.563962
701.749533	0.567066
702.084974	0.574967
702.420366	0.568362
702.755709	0.575802
703.091002	0.583461
703.426246	0.576656
703.761440	0.582843
704.096584	0.587250
704.431679	0.584253
704.766725	0.586319
705.101721	0.587793
705.436668	0.584081
705.771565	0.590840
706.106413	0.588487
706.441212	0.582935
706.775961	0.582113
707.110661	0.584565
707.445311	0.580788
707.779913	0.578645
708.114465	0.576391
708.448967	0.573681
708.783421	0.565818
709.117825	0.560117
709.452180	0.560198
709.786485	0.553929
710.120742	0.543357
710.454949	0.545798
710.789107	0.538151
711.123216	0.529081
711.457275	0.530379
711.791286	0.521594
712.125247	0.520074
712.459159	0.531110
712.793023	0.523895
713.126837	0.527736
713.460602	0.528081
713.794318	0.537860
714.127985	0.535954
714.461602	0.546354
714.795171	0.549190
715.128691	0.557274
715.462162	0.565310
715.795584	0.570800
716.128957	0.573369
716.462281	0.580304
716.795556	0.583467
717.128782	0.588848
717.461960	0.598484
717.795088	0.596758
718.128167	0.604034
718.461198	0.611712
718.794180	0.612292
719.127113	0.615237
719.459997	0.618798
719.792833	0.624984
720.125619	0.626074
720.458357	0.631589
720.791046	0.631744
721.123686	0.635535
721.456278	0.642904
721.788821	0.638825
722.121315	0.643851
722.453761	0.647953
722.786158	0.645661
723.118506	0.642137
723.450805	0.649851
723.783056	0.645827
724.115259	0.642911
724.447412	0.642811
724.779518	0.644530
725.111574	0.643205
725.443582	0.638355
725.775542	0.640643
726.107453	0.632823
726.439315	0.632952
726.771129	0.631080
727.102895	0.624391
727.434612	0.617584
727.766281	0.614632
728.097901	0.614763
728.429473	0.614820
728.760996	0.613258
729.092471	0.612802
729.423897	0.616417
729.755276	0.615956
730.086606	0.615914
730.417887	0.610496
730.749120	0.601247
731.080305	0.591967
731.411442	0.588126
731.742530	0.592245
732.073570	0.591957
732.404562	0.584206
732.735506	0.585551
733.066401	0.590626
733.397249	0.599448
733.728048	0.611277
734.058798	0.623855
734.389501	0.635055
734.720156	0.644010
735.050762	0.652141
735.381320	0.651935
735.711831	0.663112
736.042293	0.667891
736.372707	0.662757
736.703073	0.668021
737.033391	0.669158
737.363661	0.667143
737.693883	0.662007
738.024056	0.661589
738.354182	0.661075
738.684260	0.649919
739.014290	0.647056
739.344272	0.647855
739.674207	0.640332
740.004093	0.640315
740.333931	0.640896
740.663722	0.640337
740.993464	0.640927
741.323159	0.644656
741.652806	0.649244
741.982405	0.654753
742.311956	0.659734
742.641460	0.662276
742.970915	0.665537
743.300323	0.672798
743.629683	0.680256
743.958996	0.681731
744.288260	0.685954
744.617477	0.691758
744.946647	0.693151
745.275768	0.698901
745.604842	0.698871
745.933869	0.708072
746.262847	0.708440
746.591778	0.702966
746.920662	0.708886
747.249498	0.716115
747.578286	0.706042
747.907027	0.702277
748.235720	0.703551
748.564365	0.697402
748.892963	0.697798
749.221514	0.700277
749.550017	0.705394
749.878473	0.704925
750.206881	0.712123
750.535242	0.713722
750.863555	0.713440
751.191821	0.714210
751.520039	0.717505
751.848210	0.722427
752.176334	0.714456
752.504411	0.714537
752.832440	0.722975
753.160421	0.725757
753.488356	0.724188
753.816243	0.722294
754.144082	0.730186
754.471875	0.733377
754.799620	0.729338
755.127318	0.730409
755.454969	0.730455
755.782572	0.729137
756.110129	0.735043
756.437638	0.736847
756.765100	0.733744
757.092515	0.731687
757.419882	0.730326
757.747203	0.736463
758.074477	0.734650
758.401703	0.732208
758.728882	0.727656
759.056014	0.726364
759.383099	0.725602
759.710138	0.726431
760.037129	0.722859
760.364073	0.717184
760.690970	0.719189
761.017820	0.724739
761.344623	0.720856
761.671379	0.711202
761.998088	0.700100
762.324751	0.677439
762.651366	0.634232
762.977935	0.567012
763.304456	0.515897
763.630931	0.505192
763.957359	0.544766
764.283740	0.590313
764.610074	0.617236
764.936362	0.648701
765.262602	0.675089
765.588796	0.696883
765.914943	0.715716
766.241044	0.732382
766.567097	0.739514
766.893104	0.748734
767.219064	0.755900
767.544978	0.761425
767.870845	0.775251
768.196665	0.780201
768.522438	0.777920
768.848165	0.778886
769.173846	0.787532
769.499479	0.792173
769.825066	0.795130
770.150607	0.801458
770.476101	0.795766
770.801548	0.797171
771.126949	0.808191
771.452303	0.812682
771.777611	0.811624
772.102872	0.810899
772.428087	0.815309
772.753256	0.819382
773.078378	0.822022
773.403453	0.830599
773.728482	0.834331
774.053465	0.828694
774.378401	0.832506
774.703291	0.841002
775.028135	0.838973
775.352932	0.841818
775.677683	0.844076
776.002388	0.844794
776.327046	0.844071
776.651658	0.846985
776.976224	0.851324
777.300743	0.851132
777.625216	0.852715
777.949643	0.855961
778.274024	0.855224
778.598359	0.856649
778.922647	0.855534
779.246889	0.856432
779.571086	0.860357
779.895236	0.862072
780.219339	0.859383
780.543397	0.857022
780.867409	0.854842
781.191374	0.857926
781.515294	0.859837
781.839167	0.857489
782.162995	0.861373
782.486776	0.858391
782.810511	0.858228
783.134201	0.861998
783.457844	0.859834
783.781441	0.862634
784.104993	0.869188
784.428498	0.869058
784.751958	0.865382
785.075372	0.867540
785.398739	0.870988
785.722061	0.866932
786.045337	0.863474
786.368568	0.867149
786.691752	0.870693
787.014891	0.857058
787.337983	0.846403
787.661030	0.838947
787.984031	0.821667
788.306987	0.808588
788.629897	0.811543
788.952760	0.814912
789.275579	0.819264
789.598351	0.834188
789.921078	0.847368
790.243759	0.850512
790.566395	0.855725
790.888984	0.861842
791.211529	0.867549
791.534027	0.869555
791.856480	0.872471
792.178888	0.876986
792.501249	0.879168
792.823566	0.881444
793.145836	0.881866
793.468062	0.882694
793.790241	0.883103
794.112375	0.882040
794.434464	0.876936
794.756507	0.875994
795.078505	0.876168
795.400457	0.870450
795.722364	0.858009
796.044226	0.851926
796.366042	0.849637
796.687812	0.854400
797.009538	0.850141
797.331218	0.853112
797.652852	0.858149
797.974442	0.863411
798.295986	0.863069
798.617484	0.864803
798.938938	0.869272
799.260346	0.874630
799.581709	0.876033
799.903026	0.878567
800.224299	0.878678
800.545526	0.883402
800.866708	0.887294
801.187845	0.890416
801.508936	0.891604
801.829983	0.888341
802.150984	0.891042
802.471940	0.897275
802.792851	0.894525
803.113717	0.896848
803.434538	0.894137
803.755314	0.897415
804.076045	0.899528
804.396731	0.899096
804.717372	0.898580
805.037967	0.900169
805.358518	0.898278
805.679024	0.895422
805.999485	0.894614
806.319901	0.896117
806.640272	0.896236
806.960598	0.894140
807.280879	0.892683
807.601115	0.891096
807.921306	0.895250
808.241453	0.894854
808.561554	0.892310
808.881611	0.892520
809.201623	0.895033
809.521590	0.894895
809.841513	0.896565
810.161390	0.895008
810.481223	0.896174
810.801011	0.899843
811.120755	0.901435
811.440453	0.900509
811.760107	0.898644
812.079716	0.899703
812.399281	0.903015
812.718801	0.905297
813.038276	0.905453
813.357707	0.905234
813.677093	0.902515
813.996434	0.906584
814.315731	0.906128
814.634983	0.908558
814.954191	0.906790
815.273354	0.903594
815.592473	0.900288
815.911547	0.899380
816.230577	0.896516
816.549562	0.894395
816.868502	0.895200
817.187399	0.892429
817.506250	0.886097
817.825058	0.888310
818.143821	0.884439
818.462539	0.879760
818.781213	0.871914
819.099843	0.860464
819.418429	0.844409
819.736970	0.826535
820.055466	0.807079
820.373919	0.780871
820.692327	0.747695
821.010691	0.712336
821.329011	0.633506
821.647286	0.516536
821.965517	0.401827
822.283704	0.358517
822.601847	0.359465
822.919945	0.395293
823.237999	0.429264
823.556010	0.477317
823.873976	0.533588
824.191897	0.585351
824.509775	0.628611
824.827609	0.673675
825.145398	0.696411
825.463144	0.699671
825.780845	0.682839
826.098502	0.664619
826.416116	0.617298
826.733685	0.572593
827.051210	0.563144
827.368692	0.578901
827.686129	0.616780
828.003522	0.670326
828.320872	0.718836
828.638177	0.763487
828.955439	0.796184
829.272656	0.819308
829.589830	0.836046
829.906960	0.851712
830.224046	0.864663
830.541088	0.875510
830.858086	0.879867
831.175041	0.885530
831.491952	0.884924
831.808819	0.881733
832.125642	0.874496
832.442421	0.860520
832.759157	0.837483
833.075849	0.790681
833.392497	0.725805
833.709101	0.685292
834.025662	0.694970
834.342179	0.726544
834.658653	0.766480
834.975083	0.801953
835.291469	0.830122
835.607811	0.851786
835.924110	0.868234
836.240366	0.884989
836.556578	0.900440
836.872746	0.907130
837.188871	0.913237
837.504952	0.919173
837.820990	0.923004
838.136984	0.925240
838.452935	0.929249
838.768842	0.931247
839.084706	0.923566
839.400526	0.897353
839.716303	0.855522
840.032037	0.834354
840.347727	0.837176
840.663373	0.855573
840.978977	0.876517
841.294537	0.899921
841.610054	0.916657
841.925527	0.924878
842.240957	0.931660
842.556344	0.939111
842.871687	0.945341
843.186987	0.949444
843.502244	0.949492
843.817458	0.951031
844.132629	0.954954
844.447756	0.959998
844.762840	0.959973
845.077881	0.959347
845.392879	0.958413
845.707833	0.961990
846.022745	0.963508
846.337613	0.964388
846.652438	0.965103
846.967221	0.964537
847.281960	0.963630
847.596656	0.967757
847.911309	0.965281
848.225919	0.967007
848.540485	0.967119
848.855009	0.968972
849.169490	0.967515
849.483928	0.968875
849.798323	0.968138
850.112675	0.969927
850.426984	0.968516
850.741251	0.969398
851.055474	0.969675
851.369654	0.967372
851.683792	0.969329
851.997887	0.970076
852.311938	0.969156
852.625947	0.968831
852.939914	0.967673
853.253837	0.968973
853.567718	0.970184
853.881555	0.970219
854.195350	0.967565
854.509103	0.968941
854.822812	0.968351
855.136479	0.968743
855.450103	0.969957
855.763685	0.967646
856.077224	0.968445
856.390720	0.970279
856.704173	0.969871
857.017584	0.967359
857.330953	0.966695
857.644278	0.967385
857.957561	0.969313
858.270802	0.967726
858.584000	0.968350
858.897155	0.965672
859.210268	0.966919
859.523339	0.967196
859.836367	0.969405
860.149352	0.970715
860.462295	0.968655
860.775195	0.969056
861.088054	0.968256
861.400869	0.968879
861.713642	0.969324
862.026373	0.969878
862.339062	0.970440
862.651708	0.967964
862.964312	0.967314
863.276873	0.969148
863.589392	0.968639
863.901869	0.966095
864.214303	0.965123
864.526696	0.962831
864.839045	0.963017
865.151353	0.961295
865.463619	0.962456
865.775842	0.962499
866.088023	0.961808
866.400162	0.961225
866.712258	0.961622
867.024313	0.962122
867.336325	0.961499
867.648296	0.963087
867.960224	0.961215
868.272110	0.960454
868.583954	0.962302
868.895755	0.962346
869.207515	0.960494
869.519233	0.959350
869.830909	0.959999
870.142542	0.961443
870.454134	0.960322
870.765684	0.958929
871.077191	0.956615
871.388657	0.957181
871.700081	0.957090
872.011463	0.957279
872.322803	0.957317
872.634101	0.954305
872.945357	0.953678
873.256571	0.952361
873.567744	0.952154
873.878874	0.952935
874.189963	0.952432
874.501010	0.950012
874.812015	0.948160
875.122979	0.949675
875.433900	0.952602
875.744780	0.952261
876.055618	0.950352
876.366415	0.948385
876.677169	0.949111
876.987882	0.950011
877.298554	0.949869
877.609183	0.946347
877.919771	0.944063
878.230317	0.940969
878.540822	0.939120
878.851285	0.933020
879.161707	0.925265
879.472087	0.912184
879.782425	0.896014
880.092722	0.860767
880.402977	0.807503
880.713191	0.744888
881.023363	0.684023
881.333494	0.648891
881.643583	0.621862
881.953631	0.621187
882.263637	0.650211
882.573602	0.689492
882.883526	0.716225
883.193408	0.741202
883.503248	0.764455
883.813048	0.792159
884.122806	0.822304
884.432522	0.846121
884.742197	0.866955
885.051831	0.878250
885.361424	0.888539
885.670975	0.900554
885.980485	0.911867
886.289954	0.916605
886.599382	0.923041
886.908768	0.926506
887.218113	0.932814
887.527417	0.936704
887.836680	0.940315
888.145901	0.942439
888.455082	0.945372
888.764221	0.949151
889.073319	0.951982
889.382376	0.952667
889.691392	0.952431
890.000366	0.952149
890.309300	0.953297
890.618193	0.951904
890.927044	0.949772
891.235855	0.949658
891.544625	0.950891
891.853353	0.950789
892.162041	0.948591
892.470687	0.941553
892.779293	0.936107
893.087858	0.931504
893.396381	0.923896
893.704864	0.910628
894.013306	0.885547
894.321707	0.858683
894.630068	0.842837
894.938387	0.837763
895.246665	0.839294
895.554903	0.853266
895.863100	0.866772
896.171256	0.884131
896.479371	0.903374
896.787446	0.916311
897.095480	0.922678
897.403473	0.924933
897.711425	0.930357
898.019336	0.937748
898.327207	0.940858
898.635038	0.942764
898.942827	0.943107
899.250576	0.946621
899.558284	0.950967
899.865952	0.952606
900.173579	0.954333
900.481165	0.954217
900.788711	0.958199
901.096216	0.959414
901.403681	0.960321
901.711105	0.961632
902.018489	0.962654
902.325832	0.961240
902.633135	0.959615
902.940397	0.955530
903.247619	0.940940
903.554800	0.915916
903.861941	0.874929
904.169041	0.838025
904.476101	0.819143
904.783121	0.820481
905.090100	0.837584
905.397039	0.859539
905.703938	0.883063
906.010796	0.903178
906.317614	0.920411
906.624391	0.931828
906.931129	0.942160
907.237826	0.950690
907.544483	0.958228
907.851099	0.961395
908.157675	0.966833
908.464211	0.968529
908.770707	0.971164
909.077163	0.972277
909.383578	0.972767
909.689954	0.974289
909.996289	0.975256
910.302584	0.976805
910.608839	0.978469
910.915054	0.977990
911.221229	0.977525
911.527363	0.975890
911.833458	0.977070
912.139513	0.974904
912.445527	0.975031
912.751502	0.972595
913.057436	0.972079
913.363331	0.969190
913.669186	0.965139
913.975000	0.959217
914.280775	0.954730
914.586510	0.946351
914.892205	0.932236
915.197859	0.910665
915.503475	0.883036
915.809050	0.861944
916.114585	0.855313
916.420081	0.853666
916.725536	0.849316
917.030952	0.859587
917.336328	0.871475
917.641665	0.887220
917.946961	0.903368
918.252218	0.916335
918.557435	0.925233
918.862612	0.933370
919.167750	0.939238
919.472848	0.944147
919.777906	0.951572
920.082925	0.957173
920.387904	0.961105
920.692843	0.961087
920.997743	0.962733
921.302603	0.966296
921.607423	0.968605
921.912204	0.970698
922.216946	0.971300
922.521647	0.971569
922.826310	0.973252
923.130932	0.975395
923.435516	0.977341
923.740059	0.978542
924.044564	0.977363
924.349028	0.980460
924.653454	0.981492
924.957840	0.984091
925.262186	0.983908
925.566493	0.983912
925.870761	0.983108
926.174989	0.987033
926.479178	0.988690
926.783328	0.988112
927.087438	0.987620
927.391509	0.988180
927.695541	0.989380
927.999533	0.989175
928.303486	0.989647
928.607400	0.989856
928.911275	0.988575
929.215110	0.990069
929.518906	0.990617
929.822663	0.989004
930.126381	0.990468
930.430060	0.990357
930.733699	0.990009
931.037299	0.990026
931.340861	0.990157
931.644383	0.989344
931.947866	0.988034
932.251309	0.989959
932.554714	0.989912
932.858080	0.990449
933.161407	0.989087
933.464694	0.992122
933.767943	0.990470
934.071153	0.989949
934.374323	0.991452
934.677455	0.989755
934.980548	0.991105
935.283602	0.990189
935.586617	0.991330
935.889593	0.991485
936.192530	0.990538
936.495428	0.990619
936.798287	0.990137
937.101108	0.988602
937.403890	0.988707
937.706632	0.988850
938.009336	0.985944
938.312002	0.984759
938.614628	0.983466
938.917216	0.983109
939.219765	0.981891
939.522275	0.982520
939.824747	0.981736
940.127179	0.982622
940.429573	0.983186
940.731929	0.984137
941.034246	0.983589
941.336524	0.985635
941.638763	0.985524
941.940964	0.986167
942.243126	0.986672
942.545250	0.986378
942.847335	0.988151
943.149381	0.987046
943.451389	0.987563
943.753359	0.988259
944.055290	0.990148
944.357182	0.989456
944.659036	0.988396
944.960851	0.989309
945.262628	0.989004
945.564367	0.990258
945.866067	0.989618
946.167729	0.989644
946.469352	0.990024
946.770937	0.988454
947.072484	0.990395
947.373992	0.989061
947.675462	0.989328
947.976893	0.989064
948.278286	0.989473
948.579641	0.991639
948.880958	0.990776
949.182236	0.990873
949.483476	0.991358
949.784678	0.988314
950.085841	0.990982
950.386967	0.990910
950.688054	0.991001
950.989103	0.990641
951.290114	0.989137
951.591087	0.988667
951.892021	0.989525
952.192917	0.988441
952.493776	0.987678
952.794596	0.987675
953.095378	0.987440
953.396122	0.988062
953.696828	0.985730
953.997496	0.989275
954.298126	0.990547
954.598718	0.990955
954.899272	0.991253
955.199788	0.990707
955.500266	0.992876
955.800706	0.991793
956.101108	0.992969
956.401472	0.993543
956.701798	0.994244
957.002087	0.992594
957.302337	0.993502
957.602550	0.995521
957.902724	0.995428
958.202861	0.995962
958.502960	0.995993
958.803022	0.993696
959.103045	0.996577
959.403031	0.994517
959.702979	0.995649
960.002889	0.995114
960.302762	0.994481
960.602596	0.996571
960.902393	0.995271
961.202153	0.997204
961.501875	0.996929
961.801559	0.996311
962.101205	0.994088
962.400814	0.996958
962.700385	0.996257
962.999918	0.996482
963.299414	0.996677
963.598873	0.995281
963.898293	0.997175
964.197677	0.995936
964.497022	0.996389
964.796331	0.997613
965.095601	0.997003
965.394835	0.996860
965.694030	0.996948
965.993189	0.997464
966.292309	0.995867
966.591393	0.997374
966.890439	0.996913
967.189447	0.997351
967.488419	0.997023
967.787353	0.995748
968.086249	0.995877
968.385108	0.996369
968.683930	0.996863
968.982714	0.997262
969.281462	0.997266
969.580172	0.996473
969.878844	0.998245
970.177480	0.997086
970.476078	0.997725
970.774639	0.995858
971.073162	0.997147
971.371649	0.995941
971.670098	0.997578
971.968510	0.997511
972.266885	0.995941
972.565223	0.996332
972.863524	0.997338
973.161788	0.995930
973.460014	0.997900
973.758204	0.996041
974.056356	0.995905
974.354471	0.994175
974.652550	0.996573
974.950591	0.996474
975.248595	0.996973
975.546563	0.997007
975.844493	0.998549
976.142386	0.997070
976.440243	0.996891
976.738062	0.997030
977.035845	0.997794
977.333590	0.996906
977.631299	0.998532
977.928971	0.996845
978.226606	0.997413
978.524204	0.996460
978.821765	0.997612
979.119290	0.994904
979.416777	0.997185
979.714228	0.997606
980.011642	0.995774
980.309020	0.996750
980.606360	0.997495
980.903664	0.998249
981.200931	0.996667
981.498162	0.994474
981.795356	0.994928
982.092513	0.993001
982.389633	0.993705
982.686717	0.990849
982.983764	0.991735
983.280775	0.989480
983.577749	0.990340
983.874686	0.990516
984.171587	0.991813
984.468451	0.993264
984.765279	0.994787
985.062070	0.994833
985.358824	0.995941
985.655543	0.994698
985.952224	0.995226
986.248869	0.996837
986.545478	0.996916
986.842050	0.998388
987.138586	0.995454
987.435086	0.998737
987.731549	0.998291
988.027975	0.997056
988.324366	0.997802
988.620719	0.997811
988.917037	0.995926
989.213318	0.998027
989.509563	0.999253
989.805772	0.997879
990.101944	0.998651
990.398080	0.997736
990.694180	0.998201
990.990244	0.997410
991.286271	0.997239
991.582262	0.998908
991.878217	0.998643
992.174136	0.998232
992.470019	0.999107
992.765865	0.997813
993.061676	0.998278
993.357450	0.997460
993.653188	0.996590
993.948890	0.997604
994.244556	0.998515
994.540186	0.997543
994.835780	0.996618
995.131337	0.998275
995.426859	0.995472
995.722345	0.997979
996.017795	0.996968
996.313208	0.995907
996.608586	0.995919
996.903928	0.996776
997.199234	0.995018
997.494504	0.996833
997.789738	0.995501
998.084936	0.996509
998.380099	0.999144
998.675225	0.997188
998.970316	0.997888
999.265371	0.999289
999.560390	0.998230
999.855373	0.997908
1000.150320	0.998832
1000.445232	0.999447
1000.740108	0.997101
1001.034948	0.998253
1001.329752	0.998427
1001.624521	0.998879
1001.919254	0.999088
1002.213951	0.999318
1002.508613	0.998133
1002.803239	0.999156
1003.097829	0.997628
1003.392384	0.998296
1003.686903	0.997903
1003.981386	0.998594
1004.275834	0.997875
1004.570246	0.999513
1004.864623	0.998801
1005.158964	0.999386
1005.453270	0.999363
1005.747540	0.998093
1006.041775	0.998599
1006.335974	0.999283
1006.630138	0.999810
1006.924266	1.000318
1007.218359	0.999408
1007.512416	0.999020
1007.806438	0.999199
1008.100425	0.999719
1008.394376	0.999296
1008.688292	0.998928
1008.982172	1.000588
1009.276017	0.999669
1009.569827	0.998549
1009.863602	0.999371
1010.157341	0.999947
1010.451045	0.999849
1010.744714	0.998413
1011.038347	0.999055
1011.331945	0.998877
1011.625508	0.997548
1011.919036	0.999450
1012.212528	0.998468
1012.505986	0.997679
1012.799408	0.998393
1013.092795	0.999277
1013.386147	0.999050
1013.679464	0.999061
1013.972745	0.998850
1014.265992	0.997418
1014.559204	0.998468
1014.852380	0.999506
1015.145521	0.998580
1015.438628	0.998954
1015.731699	0.998926
1016.024736	0.998756
1016.317737	0.999183
1016.610703	0.999451
1016.903635	0.999959
1017.196531	0.998572
1017.489393	0.999807
1017.782219	0.999004
1018.075011	0.999473
1018.367768	0.999396
1018.660490	0.999921
1018.953177	0.999921
1019.245829	0.999921
