Dividing Wavelength (nm)	Counts (n)	Blue Motor Position (mm): 0.000000	Red Motor Position (mm): 38.600000	
326.493990	1.000832
326.888308	1.000832
327.282561	1.000832
327.676750	0.998695
328.070874	0.999356
328.464933	1.000946
328.858929	1.000178
329.252859	0.999058
329.646726	0.998652
330.040528	1.000137
330.434265	0.999378
330.827938	0.999681
331.221547	1.000248
331.615091	0.999656
332.008571	0.999752
332.401986	0.999381
332.795338	0.999463
333.188625	0.997522
333.581847	1.000345
333.975006	0.999367
334.368100	0.998541
334.761129	0.998298
335.154095	1.001314
335.546996	0.997452
335.939833	0.995666
336.332606	0.996706
336.725315	0.997551
337.117960	0.997165
337.510540	0.997462
337.903056	0.997447
338.295508	0.996842
338.687896	0.997758
339.080220	0.996577
339.472480	0.996968
339.864676	0.997219
340.256807	0.997429
340.648875	0.996645
341.040879	0.996837
341.432818	0.996698
341.824694	0.997059
342.216506	0.997654
342.608253	0.997367
342.999937	0.997348
343.391557	0.997713
343.783113	0.996994
344.174605	0.996536
344.566033	0.997784
344.957397	0.997951
345.348697	0.997193
345.739934	0.998176
346.131106	0.996871
346.522215	0.996504
346.913260	0.997261
347.304241	0.996509
347.695159	0.996673
348.086012	0.995877
348.476802	0.996545
348.867528	0.996920
349.258191	0.995284
349.648789	0.997916
350.039324	0.996919
350.429796	0.998758
350.820203	0.997559
351.210548	0.997018
351.600828	0.995699
351.991045	0.997160
352.381198	0.996409
352.771288	0.995854
353.161314	0.997515
353.551276	0.998348
353.941175	0.997864
354.331010	0.996373
354.720782	0.997828
355.110490	0.996011
355.500135	0.998152
355.889717	0.996817
356.279235	0.997649
356.668689	0.997391
357.058080	0.997636
357.447408	0.998055
357.836672	0.997940
358.225873	0.998021
358.615010	0.997524
359.004084	0.997927
359.393095	0.996894
359.782043	0.997146
360.170927	0.999164
360.559748	0.997884
360.948505	0.996420
361.337199	0.997185
361.725830	0.998143
362.114398	0.995943
362.502903	0.997772
362.891344	0.998913
363.279722	0.997329
363.668037	0.998673
364.056289	0.996485
364.444478	0.998838
364.832603	0.996957
365.220665	0.998157
365.608665	0.996078
365.996601	0.996918
366.384474	0.997262
366.772284	0.997402
367.160031	0.996528
367.547715	0.996187
367.935336	0.998425
368.322893	0.997213
368.710388	0.996163
369.097820	0.996638
369.485189	0.996312
369.872495	0.996450
370.259738	0.995015
370.646918	0.997422
371.034035	0.997960
371.421090	0.998714
371.808081	0.997040
372.195010	0.998288
372.581875	0.997414
372.968678	0.997300
373.355418	0.996460
373.742096	0.996567
374.128710	0.998085
374.515262	0.996892
374.901751	0.998156
375.288177	0.996719
375.674540	0.997402
376.060841	0.996931
376.447079	0.997504
376.833254	0.997615
377.219367	0.997615
377.605417	0.997860
377.991404	0.997956
378.377329	0.996037
378.763191	0.996907
379.148991	0.998659
379.534727	0.998197
379.920402	0.998315
380.306013	0.997462
380.691563	0.999531
381.077049	0.997853
381.462474	0.998556
381.847835	0.997472
382.233134	0.997407
382.618371	0.997248
383.003545	0.997672
383.388657	0.997654
383.773706	0.998703
384.158693	0.997435
384.543618	0.997870
384.928480	0.997677
385.313280	0.997996
385.698017	0.998187
386.082692	0.999000
386.467305	0.998138
386.851856	0.997257
387.236344	0.997853
387.620770	0.996881
388.005133	0.997557
388.389435	0.998903
388.773674	0.996747
389.157851	0.998700
389.541965	0.997838
389.926018	0.998390
390.310008	0.999031
390.693936	0.998420
391.077802	0.999267
391.461606	0.998417
391.845348	0.998671
392.229027	0.998898
392.612645	0.998226
392.996200	0.998797
393.379694	0.997628
393.763125	0.998465
394.146494	0.998010
394.529801	0.997867
394.913047	0.999190
395.296230	0.998979
395.679351	0.998791
396.062410	0.997737
396.445408	0.998858
396.828343	0.997586
397.211217	0.998616
397.594028	0.998932
397.976778	0.998098
398.359466	0.997235
398.742092	0.997038
399.124656	0.997474
399.507158	0.998120
399.889598	0.997965
400.271977	0.998099
400.654294	0.999058
401.036549	0.998603
401.418742	0.998671
401.800874	0.998116
402.182944	0.998580
402.564952	0.997715
402.946898	0.999783
403.328783	0.998742
403.710606	0.998039
404.092367	0.998369
404.474067	0.998006
404.855705	0.998009
405.237282	0.998791
405.618797	0.998759
406.000250	0.997971
406.381642	0.998441
406.762972	0.998747
407.144240	0.999417
407.525447	0.998469
407.906593	0.998652
408.287677	0.998435
408.668700	0.998864
409.049661	0.996683
409.430560	0.998507
409.811399	0.997980
410.192176	0.998354
410.572891	0.997968
410.953545	0.998183
411.334138	0.997972
411.714669	0.998068
412.095139	0.997939
412.475547	0.998742
412.855894	0.997942
413.236180	0.998554
413.616405	0.997829
413.996568	0.999383
414.376670	0.998851
414.756711	0.998267
415.136691	0.997799
415.516609	0.998866
415.896466	0.998226
416.276262	0.997445
416.655997	0.999514
417.035670	0.998650
417.415283	0.998594
417.794834	0.999227
418.174324	0.998340
418.553753	0.998297
418.933121	0.998276
419.312428	0.998228
419.691674	0.998123
420.070859	0.998756
420.449983	0.998687
420.829045	0.999099
421.208047	0.998588
421.586988	0.999099
421.965867	0.999289
422.344686	0.999085
422.723444	0.998817
423.102141	0.998629
423.480777	0.998185
423.859352	0.997654
424.237866	0.998138
424.616319	0.998783
424.994712	0.999546
425.373044	0.999598
425.751314	0.999319
426.129524	0.998984
426.507673	0.998569
426.885762	0.998860
427.263789	0.998696
427.641756	0.999141
428.019662	0.999722
428.397508	0.997812
428.775292	0.997771
429.153016	0.998696
429.530679	0.999201
429.908282	0.999477
430.285824	0.998545
430.663305	0.998270
431.040726	0.998006
431.418086	0.999839
431.795385	0.999408
432.172624	0.998687
432.549802	0.999387
432.926920	0.999797
433.303977	0.998334
433.680974	0.998568
434.057910	0.998095
434.434786	0.999225
434.811601	0.999088
435.188355	0.998574
435.565050	0.998164
435.941683	0.999084
436.318257	0.999603
436.694770	0.997733
437.071222	0.998870
437.447614	0.998704
437.823946	0.998543
438.200218	0.998631
438.576429	0.998644
438.952580	0.999119
439.328670	0.997816
439.704700	0.999706
440.080670	0.998701
440.456580	0.998904
440.832429	0.997706
441.208218	0.998884
441.583947	0.999675
441.959616	0.999590
442.335224	0.998647
442.710773	1.000058
443.086261	0.999068
443.461689	0.998642
443.837057	0.999010
444.212365	0.999797
444.587612	0.998580
444.962800	0.999278
445.337927	0.998975
445.712995	0.998296
446.088002	0.999337
446.462949	0.998935
446.837837	0.999892
447.212664	0.999735
447.587431	0.999502
447.962139	0.999374
448.336786	0.999099
448.711374	0.999666
449.085901	0.998912
449.460369	0.999223
449.834776	0.998490
450.209124	0.998957
450.583412	0.999175
450.957640	0.998895
451.331808	0.998855
451.705917	0.999029
452.079965	0.999156
452.453954	0.999034
452.827883	0.998785
453.201752	0.999066
453.575562	0.998889
453.949311	0.998809
454.323001	0.998611
454.696632	0.998385
455.070202	0.998479
455.443713	0.998224
455.817164	0.998944
456.190556	0.998789
456.563888	0.998771
456.937160	0.999186
457.310373	0.998474
457.683526	0.998916
458.056619	0.998492
458.429653	0.998856
458.802628	0.997943
459.175542	0.998462
459.548398	0.998797
459.921194	0.998995
460.293930	0.998832
460.666607	0.998961
461.039224	0.998512
461.411782	0.998927
461.784280	0.998136
462.156719	0.999817
462.529099	0.998433
462.901419	0.998519
463.273680	0.998941
463.645882	0.999269
464.018024	0.998828
464.390106	0.999049
464.762130	0.999122
465.134094	0.998981
465.505999	1.000211
465.877845	0.999187
466.249631	0.999675
466.621358	0.999304
466.993026	0.998795
467.364634	0.998624
467.736184	0.999606
468.107674	0.998413
468.479105	0.998565
468.850477	0.999108
469.221790	0.998593
469.593043	0.998733
469.964238	0.999172
470.335373	0.998729
470.706449	0.998821
471.077467	0.998953
471.448425	0.999088
471.819324	1.000040
472.190164	0.998832
472.560945	0.999310
472.931667	0.998503
473.302330	0.998802
473.672934	0.999546
474.043479	0.999332
474.413965	0.998285
474.784393	0.998991
475.154761	0.999528
475.525070	0.998925
475.895321	0.999387
476.265513	0.998560
476.635645	0.998208
477.005719	0.998747
477.375734	0.998556
477.745691	0.998312
478.115588	0.998348
478.485427	0.999475
478.855207	0.998959
479.224928	0.998316
479.594591	0.999563
479.964194	0.998978
480.333739	0.999207
480.703226	0.999298
481.072653	0.999625
481.442022	1.000299
481.811333	0.998660
482.180584	0.998771
482.549777	0.999101
482.918912	0.998990
483.287988	0.999371
483.657005	0.997975
484.025964	0.999934
484.394864	0.999297
484.763706	0.999184
485.132489	1.000163
485.501213	0.999635
485.869879	0.998875
486.238487	0.999640
486.607036	0.999449
486.975527	0.998914
487.343959	0.999129
487.712333	0.998684
488.080648	0.998654
488.448905	0.998536
488.817104	0.999053
489.185244	0.999092
489.553326	0.998971
489.921350	0.998951
490.289315	0.998785
490.657222	0.999672
491.025070	0.999338
491.392861	1.000613
491.760593	0.999289
492.128267	0.998719
492.495883	0.998280
492.863440	0.998405
493.230939	0.999288
493.598380	0.999259
493.965763	0.998693
494.333088	0.999480
494.700354	0.998858
495.067563	0.998933
495.434713	0.998692
495.801805	0.999224
496.168839	0.999050
496.535815	0.998442
496.902733	0.998257
497.269593	0.998498
497.636395	0.998850
498.003139	0.998739
498.369825	0.999369
498.736453	0.998640
499.103023	0.998607
499.469535	0.998108
499.835989	0.998920
500.202385	0.998791
500.568723	0.998836
500.935003	0.999455
501.301226	0.999070
501.667390	0.998813
502.033497	0.998719
502.399546	0.999714
502.765537	0.998428
503.131470	0.998054
503.497345	0.998171
503.863163	0.999856
504.228923	0.999045
504.594625	0.998846
504.960269	0.999534
505.325856	0.998779
505.691385	0.998720
506.056856	0.998296
506.422270	0.998669
506.787625	0.998825
507.152924	0.998760
507.518164	0.998731
507.883347	0.998817
508.248472	0.998641
508.613540	0.998863
508.978550	0.999036
509.343503	0.998328
509.708398	0.999077
510.073236	0.999070
510.438016	0.999072
510.802738	0.998886
511.167403	0.998509
511.532010	0.999021
511.896561	0.998160
512.261053	0.999117
512.625488	0.998208
512.989866	0.998269
513.354186	0.998261
513.718449	0.998287
514.082655	0.998769
514.446803	0.998990
514.810894	0.999244
515.174927	0.998381
515.538904	0.998683
515.902822	0.998325
516.266684	0.998756
516.630488	0.998813
516.994235	0.997703
517.357925	0.998389
517.721558	0.998633
518.085133	0.997734
518.448651	0.998881
518.812112	0.998049
519.175516	0.997686
519.538863	0.998215
519.902152	0.998062
520.265385	0.998184
520.628560	0.997785
520.991678	0.998602
521.354739	0.997939
521.717743	0.997860
522.080690	0.998239
522.443580	0.997979
522.806413	0.997938
523.169189	0.997033
523.531908	0.997108
523.894569	0.998130
524.257174	0.998112
524.619722	0.997750
524.982213	0.997865
525.344647	0.997801
525.707025	0.996705
526.069345	0.997179
526.431608	0.997737
526.793815	0.997683
527.155964	0.997716
527.518057	0.997787
527.880093	0.997620
528.242072	0.997318
528.603995	0.996825
528.965860	0.998029
529.327669	0.996822
529.689421	0.996939
530.051117	0.997879
530.412755	0.997449
530.774337	0.997704
531.135862	0.997204
531.497331	0.996705
531.858743	0.997072
532.220098	0.997078
532.581396	0.997106
532.942638	0.996755
533.303824	0.997209
533.664953	0.996969
534.026025	0.996729
534.387040	0.996304
534.747999	0.996763
535.108902	0.996898
535.469748	0.996449
535.830537	0.996188
536.191270	0.996036
536.551947	0.996201
536.912567	0.996271
537.273131	0.996719
537.633638	0.995505
537.994089	0.995880
538.354483	0.995617
538.714821	0.995801
539.075103	0.995413
539.435328	0.996273
539.795497	0.995841
540.155609	0.995420
540.515665	0.995670
540.875665	0.994839
541.235609	0.995185
541.595496	0.994283
541.955328	0.994386
542.315102	0.994694
542.674821	0.994398
543.034483	0.993871
543.394090	0.993789
543.753640	0.993906
544.113134	0.993464
544.472571	0.994111
544.831953	0.993793
545.191278	0.993579
545.550548	0.993764
545.909761	0.992758
546.268918	0.993511
546.628019	0.992895
546.987064	0.991576
547.346053	0.992526
547.704986	0.992256
548.063863	0.992270
548.422684	0.991350
548.781449	0.991613
549.140158	0.990295
549.498811	0.991329
549.857408	0.990183
550.215949	0.990656
550.574434	0.989621
550.932864	0.988847
551.291237	0.989429
551.649555	0.988699
552.007817	0.988325
552.366022	0.987730
552.724173	0.988179
553.082267	0.987643
553.440305	0.985685
553.798288	0.986665
554.156215	0.985622
554.514086	0.985629
554.871902	0.984296
555.229661	0.983953
555.587365	0.983718
555.945014	0.983699
556.302606	0.982765
556.660143	0.982526
557.017625	0.981436
557.375050	0.981127
557.732421	0.979840
558.089735	0.979836
558.446994	0.979372
558.804197	0.978571
559.161345	0.978387
559.518437	0.978064
559.875474	0.976171
560.232455	0.974878
560.589381	0.974765
560.946251	0.972469
561.303065	0.972915
561.659825	0.972330
562.016528	0.970701
562.373177	0.970697
562.729770	0.968993
563.086307	0.968754
563.442789	0.967762
563.799216	0.966704
564.155587	0.964623
564.511904	0.964329
564.868164	0.962880
565.224370	0.962654
565.580520	0.960903
565.936615	0.960311
566.292654	0.958216
566.648638	0.957640
567.004567	0.955607
567.360441	0.955523
567.716260	0.953569
568.072023	0.952557
568.427732	0.951140
568.783385	0.950194
569.138982	0.948115
569.494525	0.946969
569.850013	0.945711
570.205445	0.943314
570.560823	0.942886
570.916145	0.940694
571.271412	0.938462
571.626625	0.936818
571.981782	0.935460
572.336884	0.934710
572.691931	0.932999
573.046923	0.929733
573.401860	0.928643
573.756743	0.927064
574.111570	0.925807
574.466342	0.924077
574.821059	0.921266
575.175722	0.920538
575.530330	0.917889
575.884882	0.915964
576.239380	0.914399
576.593823	0.912625
576.948211	0.909097
577.302544	0.909494
577.656823	0.905515
578.011047	0.904238
578.365216	0.901011
578.719330	0.899907
579.073389	0.897612
579.427394	0.895983
579.781344	0.893896
580.135239	0.891777
580.489080	0.888589
580.842866	0.886905
581.196597	0.884238
581.550273	0.881513
581.903895	0.878838
582.257463	0.876133
582.610975	0.873779
582.964434	0.871470
583.317837	0.869064
583.671186	0.866848
584.024481	0.864285
584.377721	0.861859
584.730906	0.859682
585.084037	0.856676
585.437113	0.854833
585.790135	0.851574
586.143103	0.848195
586.496016	0.847246
586.848874	0.843062
587.201679	0.840184
587.554428	0.837343
587.907124	0.834799
588.259765	0.832238
588.612352	0.829456
588.964884	0.827124
589.317362	0.823921
589.669786	0.821267
590.022155	0.819299
590.374470	0.815242
590.726731	0.813628
591.078937	0.810476
591.431090	0.806354
591.783188	0.805846
592.135232	0.802476
592.487222	0.800942
592.839157	0.796521
593.191038	0.794635
593.542866	0.792284
593.894639	0.790700
594.246358	0.786905
594.598022	0.783520
594.949633	0.782208
595.301190	0.779202
595.652692	0.775731
596.004141	0.770900
596.355535	0.772364
596.706876	0.768420
597.058162	0.765890
597.409395	0.762844
597.760573	0.758387
598.111698	0.757203
598.462768	0.753765
598.813785	0.751961
599.164748	0.748459
599.515657	0.746376
599.866511	0.743467
600.217312	0.739761
600.568060	0.738604
600.918753	0.734563
601.269392	0.731545
601.619978	0.729375
601.970510	0.724874
602.320988	0.723489
602.671412	0.717966
603.021783	0.716400
603.372100	0.714455
603.722363	0.710451
604.072572	0.707988
604.422728	0.704985
604.772830	0.702343
605.122878	0.698747
605.472872	0.696842
605.822813	0.692434
606.172701	0.690877
606.522534	0.686833
606.872314	0.684005
607.222041	0.680679
607.571714	0.677263
607.921333	0.674169
608.270899	0.670812
608.620411	0.666865
608.969870	0.665359
609.319276	0.662586
609.668627	0.659916
610.017926	0.655971
610.367171	0.651414
610.716362	0.649807
611.065500	0.646759
611.414585	0.643042
611.763616	0.641293
612.112594	0.637581
612.461518	0.633871
612.810389	0.630400
613.159207	0.628181
613.507971	0.626497
613.856682	0.621036
614.205340	0.619542
614.553945	0.614460
614.902496	0.614046
615.250994	0.609850
615.599439	0.608211
615.947830	0.604139
616.296169	0.602183
616.644454	0.598963
616.992686	0.596360
617.340864	0.591861
617.688990	0.591836
618.037063	0.587640
618.385082	0.585645
618.733048	0.580775
619.080961	0.580654
619.428821	0.577020
619.776628	0.573750
620.124382	0.573017
620.472083	0.569550
620.819731	0.567194
621.167326	0.566847
621.514868	0.564065
621.862357	0.564583
622.209793	0.561937
622.557176	0.559307
622.904506	0.557481
623.251783	0.557262
623.599007	0.555081
623.946179	0.552834
624.293297	0.551339
624.640363	0.551624
624.987376	0.548954
625.334336	0.549214
625.681243	0.547665
626.028097	0.545452
626.374899	0.544219
626.721647	0.541078
627.068343	0.542175
627.414987	0.539552
627.761577	0.538613
628.108115	0.536024
628.454600	0.536856
628.801032	0.531786
629.147412	0.532529
629.493739	0.529341
629.840014	0.530772
630.186236	0.526849
630.532405	0.528186
630.878521	0.525202
631.224585	0.524382
631.570597	0.525540
631.916556	0.521999
632.262462	0.520467
632.608316	0.520377
632.954117	0.518513
633.299866	0.517232
633.645562	0.515354
633.991206	0.517358
634.336797	0.517742
634.682336	0.516992
635.027823	0.515441
635.373257	0.514666
635.718639	0.514958
636.063968	0.512569
636.409245	0.515086
636.754470	0.513271
637.099642	0.513856
637.444762	0.514434
637.789829	0.511343
638.134845	0.512486
638.479808	0.511920
638.824719	0.510019
639.169577	0.511616
639.514383	0.508539
639.859137	0.511308
640.203839	0.509736
640.548489	0.508216
640.893086	0.508201
641.237632	0.507538
641.582125	0.504560
641.926566	0.503998
642.270955	0.503070
642.615292	0.502382
642.959576	0.499883
643.303809	0.498964
643.647990	0.496818
643.992118	0.496702
644.336195	0.499098
644.680219	0.495022
645.024192	0.495123
645.368112	0.488357
645.711981	0.486195
646.055797	0.481690
646.399562	0.482776
646.743274	0.474898
647.086935	0.471906
647.430544	0.470995
647.774101	0.468909
648.117606	0.467865
648.461059	0.466421
648.804460	0.467441
649.147810	0.470793
649.491108	0.470402
649.834354	0.470258
650.177548	0.474040
650.520690	0.477056
650.863781	0.477205
651.206820	0.474831
651.549807	0.478475
651.892742	0.480336
652.235626	0.479241
652.578458	0.478737
652.921238	0.483428
653.263967	0.480377
653.606644	0.483622
653.949269	0.482404
654.291843	0.485241
654.634365	0.480497
654.976836	0.482800
655.319255	0.482584
655.661622	0.482792
656.003938	0.481988
656.346203	0.484201
656.688416	0.480675
657.030577	0.483795
657.372687	0.484541
657.714746	0.484517
658.056753	0.480679
658.398708	0.483312
658.740612	0.484154
659.082465	0.479183
659.424266	0.479038
659.766016	0.478071
660.107715	0.479875
660.449362	0.478695
660.790958	0.478483
661.132503	0.478150
661.473996	0.475553
661.815438	0.475583
662.156829	0.475219
662.498168	0.475169
662.839456	0.476310
663.180693	0.473246
663.521879	0.472753
663.863013	0.473236
664.204097	0.471582
664.545129	0.467637
664.886110	0.466989
665.227040	0.463947
665.567918	0.466420
665.908746	0.464171
666.249522	0.463104
666.590248	0.463678
666.930922	0.461810
667.271545	0.460134
667.612118	0.459506
667.952639	0.461150
668.293109	0.458805
668.633528	0.461153
668.973896	0.460345
669.314213	0.460240
669.654480	0.461346
669.994695	0.460998
670.334859	0.461282
670.674973	0.461052
671.015035	0.460826
671.355047	0.460420
671.695008	0.461486
672.034918	0.462621
672.374777	0.461551
672.714585	0.462351
673.054342	0.462257
673.394049	0.462153
673.733705	0.459101
674.073310	0.459968
674.412864	0.462443
674.752368	0.462482
675.091820	0.462472
675.431223	0.466867
675.770574	0.466230
676.109875	0.468432
676.449125	0.468010
676.788324	0.469885
677.127473	0.474672
677.466571	0.474469
677.805619	0.475505
678.144616	0.476122
678.483562	0.477822
678.822458	0.479582
679.161303	0.480941
679.500098	0.480562
679.838842	0.482242
680.177535	0.481521
680.516179	0.479668
680.854771	0.478766
681.193314	0.472308
681.531805	0.463694
681.870247	0.452595
682.208638	0.444994
682.546978	0.443582
682.885268	0.445364
683.223508	0.451258
683.561697	0.454624
683.899836	0.457094
684.237925	0.459932
684.575963	0.462043
684.913951	0.465510
685.251889	0.461264
685.589776	0.463147
685.927614	0.465171
686.265401	0.459947
686.603137	0.460741
686.940824	0.454557
687.278460	0.453565
687.616046	0.452664
687.953582	0.446961
688.291068	0.448470
688.628504	0.444249
688.965889	0.446040
689.303224	0.449619
689.640510	0.453609
689.977745	0.459185
690.314930	0.466743
690.652065	0.471002
690.989150	0.478302
691.326185	0.484276
691.663170	0.488606
692.000105	0.495097
692.336990	0.502220
692.673825	0.504662
693.010610	0.511311
693.347345	0.516478
693.684030	0.517356
694.020665	0.522313
694.357251	0.530592
694.693786	0.530438
695.030272	0.534725
695.366707	0.537867
695.703093	0.541061
696.039429	0.538631
696.375716	0.539975
696.711952	0.543095
697.048139	0.545400
697.384276	0.547328
697.720363	0.545252
698.056400	0.544505
698.392388	0.549120
698.728326	0.552099
699.064214	0.555022
699.400053	0.555840
699.735842	0.559244
700.071581	0.561567
700.407270	0.565137
700.742910	0.566679
701.078501	0.573892
701.414042	0.573127
701.749533	0.577009
702.084974	0.584759
702.420366	0.577497
702.755709	0.584902
703.091002	0.592157
703.426246	0.586031
703.761440	0.591626
704.096584	0.596635
704.431679	0.593326
704.766725	0.595483
705.101721	0.597071
705.436668	0.593792
705.771565	0.599677
706.106413	0.596555
706.441212	0.591966
706.775961	0.590984
707.110661	0.594011
707.445311	0.589757
707.779913	0.587152
708.114465	0.585895
708.448967	0.582306
708.783421	0.574543
709.117825	0.569048
709.452180	0.569334
709.786485	0.562665
710.120742	0.553177
710.454949	0.555131
710.789107	0.547344
711.123216	0.538399
711.457275	0.540237
711.791286	0.531508
712.125247	0.530303
712.459159	0.540897
712.793023	0.533590
713.126837	0.536695
713.460602	0.537936
713.794318	0.546228
714.127985	0.545704
714.461602	0.555528
714.795171	0.559029
715.128691	0.566202
715.462162	0.574241
715.795584	0.579328
716.128957	0.582017
716.462281	0.588808
716.795556	0.592077
717.128782	0.597439
717.461960	0.606647
717.795088	0.605026
718.128167	0.610864
718.461198	0.620058
718.794180	0.620263
719.127113	0.623530
719.459997	0.626876
719.792833	0.633280
720.125619	0.634421
720.458357	0.640236
720.791046	0.639021
721.123686	0.642942
721.456278	0.649956
721.788821	0.646513
722.121315	0.651152
722.453761	0.655066
722.786158	0.653079
723.118506	0.649779
723.450805	0.656903
723.783056	0.653732
724.115259	0.649982
724.447412	0.649569
724.779518	0.651381
725.111574	0.650593
725.443582	0.646052
725.775542	0.647997
726.107453	0.641063
726.439315	0.640353
726.771129	0.639361
727.102895	0.632070
727.434612	0.625081
727.766281	0.622705
728.097901	0.621985
728.429473	0.622179
728.760996	0.619795
729.092471	0.620983
729.423897	0.623785
729.755276	0.623814
730.086606	0.623404
730.417887	0.618220
730.749120	0.609092
731.080305	0.600421
731.411442	0.596038
731.742530	0.600936
732.073570	0.599889
732.404562	0.592756
732.735506	0.593702
733.066401	0.598051
733.397249	0.607344
733.728048	0.619600
734.058798	0.631124
734.389501	0.641881
734.720156	0.650995
735.050762	0.659684
735.381320	0.660368
735.711831	0.669185
736.042293	0.674642
736.372707	0.669997
736.703073	0.674324
737.033391	0.676474
737.363661	0.673948
737.693883	0.669178
738.024056	0.668453
738.354182	0.668316
738.684260	0.657476
739.014290	0.654044
739.344272	0.654572
739.674207	0.648306
740.004093	0.647140
740.333931	0.648300
740.663722	0.648063
740.993464	0.648229
741.323159	0.652277
741.652806	0.657594
741.982405	0.662167
742.311956	0.666490
742.641460	0.668987
742.970915	0.672413
743.300323	0.679395
743.629683	0.685602
743.958996	0.688275
744.288260	0.693118
744.617477	0.698367
744.946647	0.699699
745.275768	0.704971
745.604842	0.705030
745.933869	0.715438
746.262847	0.715479
746.591778	0.709113
746.920662	0.715108
747.249498	0.721347
747.578286	0.712240
747.907027	0.708386
748.235720	0.710144
748.564365	0.704453
748.892963	0.704831
749.221514	0.706844
749.550017	0.713280
749.878473	0.713028
750.206881	0.718774
750.535242	0.720267
750.863555	0.720065
751.191821	0.720254
751.520039	0.723557
751.848210	0.728573
752.176334	0.721114
752.504411	0.719830
752.832440	0.727631
753.160421	0.732033
753.488356	0.730720
753.816243	0.728616
754.144082	0.736553
754.471875	0.739601
754.799620	0.735061
755.127318	0.737218
755.454969	0.737069
755.782572	0.735219
756.110129	0.740962
756.437638	0.743517
756.765100	0.739935
757.092515	0.737958
757.419882	0.736856
757.747203	0.742313
758.074477	0.741350
758.401703	0.738650
758.728882	0.733572
759.056014	0.732629
759.383099	0.731950
759.710138	0.733303
760.037129	0.729857
760.364073	0.723301
760.690970	0.725608
761.017820	0.731447
761.344623	0.727184
761.671379	0.718081
761.998088	0.706740
762.324751	0.684794
762.651366	0.643552
762.977935	0.577043
763.304456	0.525673
763.630931	0.516262
763.957359	0.554785
764.283740	0.599778
764.610074	0.625423
764.936362	0.656544
765.262602	0.683433
765.588796	0.703895
765.914943	0.721430
766.241044	0.739470
766.567097	0.745578
766.893104	0.755638
767.219064	0.761858
767.544978	0.768052
767.870845	0.782402
768.196665	0.785299
768.522438	0.782254
768.848165	0.784637
769.173846	0.793053
769.499479	0.798165
769.825066	0.801188
770.150607	0.805746
770.476101	0.801252
770.801548	0.801763
771.126949	0.814010
771.452303	0.817294
771.777611	0.816415
772.102872	0.815242
772.428087	0.821464
772.753256	0.824816
773.078378	0.825685
773.403453	0.834781
773.728482	0.839651
774.053465	0.833114
774.378401	0.836196
774.703291	0.843905
775.028135	0.844872
775.352932	0.846745
775.677683	0.849433
776.002388	0.850323
776.327046	0.848505
776.651658	0.851860
776.976224	0.855193
777.300743	0.855860
777.625216	0.858400
777.949643	0.859468
778.274024	0.859396
778.598359	0.860740
778.922647	0.859804
779.246889	0.860183
779.571086	0.864612
779.895236	0.866570
780.219339	0.863535
780.543397	0.861316
780.867409	0.859795
781.191374	0.861327
781.515294	0.863438
781.839167	0.861751
782.162995	0.865229
782.486776	0.862363
782.810511	0.861745
783.134201	0.867767
783.457844	0.864277
783.781441	0.866704
784.104993	0.873126
784.428498	0.873260
784.751958	0.869355
785.075372	0.871388
785.398739	0.875331
785.722061	0.871621
786.045337	0.867794
786.368568	0.872170
786.691752	0.875466
787.014891	0.860190
787.337983	0.851438
787.661030	0.844278
787.984031	0.827684
788.306987	0.814378
788.629897	0.815994
788.952760	0.820393
789.275579	0.825031
789.598351	0.839330
789.921078	0.853261
790.243759	0.854381
790.566395	0.860069
790.888984	0.865851
791.211529	0.871190
791.534027	0.874128
791.856480	0.876536
792.178888	0.883237
792.501249	0.884419
792.823566	0.886421
793.145836	0.884842
793.468062	0.887564
793.790241	0.887631
794.112375	0.885172
794.434464	0.880643
794.756507	0.881491
795.078505	0.880657
795.400457	0.875436
795.722364	0.863788
796.044226	0.855629
796.366042	0.855823
796.687812	0.857474
797.009538	0.854749
797.331218	0.857365
797.652852	0.863507
797.974442	0.867065
798.295986	0.867450
798.617484	0.869838
798.938938	0.874264
799.260346	0.879429
799.581709	0.881021
799.903026	0.883984
800.224299	0.882983
800.545526	0.887221
800.866708	0.892142
801.187845	0.895383
801.508936	0.894803
801.829983	0.892325
802.150984	0.895477
802.471940	0.899179
802.792851	0.899904
803.113717	0.900881
803.434538	0.898415
803.755314	0.901993
804.076045	0.903291
804.396731	0.902502
804.717372	0.902598
805.037967	0.904948
805.358518	0.901927
805.679024	0.899242
805.999485	0.899675
806.319901	0.899908
806.640272	0.900646
806.960598	0.898625
807.280879	0.896803
807.601115	0.894407
807.921306	0.899083
808.241453	0.899415
808.561554	0.896044
808.881611	0.897108
809.201623	0.899145
809.521590	0.900023
809.841513	0.900422
810.161390	0.899197
810.481223	0.900921
810.801011	0.903089
811.120755	0.905753
811.440453	0.904365
811.760107	0.904306
812.079716	0.902989
812.399281	0.906712
812.718801	0.908677
813.038276	0.910599
813.357707	0.908752
813.677093	0.905857
813.996434	0.910253
814.315731	0.911021
814.634983	0.912093
814.954191	0.910962
815.273354	0.907303
815.592473	0.904090
815.911547	0.903953
816.230577	0.901837
816.549562	0.898837
816.868502	0.899778
817.187399	0.895535
817.506250	0.890805
817.825058	0.893082
818.143821	0.890385
818.462539	0.884509
818.781213	0.877401
819.099843	0.866671
819.418429	0.850994
819.736970	0.834094
820.055466	0.815483
820.373919	0.789683
820.692327	0.757572
821.010691	0.723895
821.329011	0.648359
821.647286	0.535660
821.965517	0.423732
822.283704	0.381619
822.601847	0.383089
822.919945	0.418777
823.237999	0.451128
823.556010	0.497017
823.873976	0.552014
824.191897	0.601003
824.509775	0.642464
824.827609	0.687600
825.145398	0.709622
825.463144	0.712593
825.780845	0.694960
826.098502	0.676472
826.416116	0.632201
826.733685	0.588515
827.051210	0.581464
827.368692	0.595816
827.686129	0.631658
828.003522	0.684450
828.320872	0.730368
828.638177	0.772736
828.955439	0.805066
829.272656	0.826575
829.589830	0.844157
829.906960	0.859535
830.224046	0.870514
830.541088	0.880446
830.858086	0.884321
831.175041	0.891339
831.491952	0.890053
831.808819	0.886856
832.125642	0.879578
832.442421	0.865623
832.759157	0.843936
833.075849	0.800138
833.392497	0.737641
833.709101	0.697702
834.025662	0.707137
834.342179	0.738077
834.658653	0.776413
834.975083	0.811930
835.291469	0.836487
835.607811	0.859649
835.924110	0.874612
836.240366	0.891271
836.556578	0.904910
836.872746	0.912163
837.188871	0.917801
837.504952	0.923038
837.820990	0.925959
838.136984	0.930059
838.452935	0.933004
838.768842	0.934117
839.084706	0.928752
839.400526	0.902457
839.716303	0.863890
840.032037	0.842084
840.347727	0.845370
840.663373	0.862780
840.978977	0.883721
841.294537	0.905978
841.610054	0.921522
841.925527	0.928799
842.240957	0.935567
842.556344	0.941888
842.871687	0.948171
843.186987	0.952324
843.502244	0.952022
843.817458	0.954561
844.132629	0.957817
844.447756	0.962555
844.762840	0.962040
845.077881	0.960808
845.392879	0.961971
845.707833	0.965111
846.022745	0.967098
846.337613	0.965732
846.652438	0.968450
846.967221	0.965840
847.281960	0.967396
847.596656	0.970224
847.911309	0.967217
848.225919	0.969216
848.540485	0.970054
848.855009	0.970603
849.169490	0.970086
849.483928	0.970409
849.798323	0.970895
850.112675	0.972873
850.426984	0.970441
850.741251	0.972360
851.055474	0.971637
851.369654	0.970169
851.683792	0.970289
851.997887	0.971031
852.311938	0.972004
852.625947	0.971707
852.939914	0.970903
853.253837	0.971109
853.567718	0.972619
853.881555	0.972602
854.195350	0.969649
854.509103	0.972139
854.822812	0.972170
855.136479	0.972309
855.450103	0.971550
855.763685	0.970803
856.077224	0.970431
856.390720	0.972037
856.704173	0.971374
857.017584	0.970463
857.330953	0.968778
857.644278	0.970346
857.957561	0.970515
858.270802	0.970443
858.584000	0.970718
858.897155	0.968526
859.210268	0.968714
859.523339	0.970334
859.836367	0.971913
860.149352	0.972075
860.462295	0.970923
860.775195	0.971741
861.088054	0.969746
861.400869	0.971750
861.713642	0.971993
862.026373	0.971630
862.339062	0.972199
862.651708	0.969609
862.964312	0.970117
863.276873	0.971132
863.589392	0.970552
863.901869	0.968464
864.214303	0.967320
864.526696	0.965849
864.839045	0.965002
865.151353	0.963623
865.463619	0.964764
865.775842	0.964098
866.088023	0.964103
866.400162	0.963377
866.712258	0.964893
867.024313	0.965397
867.336325	0.965679
867.648296	0.964901
867.960224	0.964073
868.272110	0.964555
868.583954	0.966383
868.895755	0.966984
869.207515	0.963852
869.519233	0.962136
869.830909	0.963919
870.142542	0.965127
870.454134	0.964041
870.765684	0.963502
871.077191	0.960649
871.388657	0.960907
871.700081	0.959922
872.011463	0.961080
872.322803	0.961072
872.634101	0.959706
872.945357	0.955927
873.256571	0.955692
873.567744	0.955972
873.878874	0.955827
874.189963	0.955183
874.501010	0.954062
874.812015	0.952202
875.122979	0.953434
875.433900	0.956016
875.744780	0.956191
876.055618	0.954378
876.366415	0.952588
876.677169	0.953217
876.987882	0.955311
877.298554	0.953856
877.609183	0.951338
877.919771	0.948755
878.230317	0.946710
878.540822	0.942577
878.851285	0.939024
879.161707	0.929835
879.472087	0.920730
879.782425	0.904781
880.092722	0.871586
880.402977	0.821033
880.713191	0.763882
881.023363	0.707227
881.333494	0.674955
881.643583	0.646792
881.953631	0.646038
882.263637	0.674807
882.573602	0.713258
882.883526	0.738486
883.193408	0.760108
883.503248	0.781247
883.813048	0.807950
884.122806	0.836847
884.432522	0.858716
884.742197	0.878339
885.051831	0.887994
885.361424	0.898090
885.670975	0.908337
885.980485	0.918528
886.289954	0.924014
886.599382	0.929753
886.908768	0.933197
887.218113	0.938747
887.527417	0.943045
887.836680	0.946251
888.145901	0.947603
888.455082	0.949163
888.764221	0.954500
889.073319	0.955855
889.382376	0.955883
889.691392	0.956437
890.000366	0.956155
890.309300	0.957228
890.618193	0.956290
890.927044	0.954602
891.235855	0.953891
891.544625	0.955319
891.853353	0.955429
892.162041	0.953238
892.470687	0.946723
892.779293	0.941770
893.087858	0.938310
893.396381	0.931826
893.704864	0.919230
894.013306	0.896458
894.321707	0.869790
894.630068	0.857152
894.938387	0.852676
895.246665	0.853342
895.554903	0.867085
895.863100	0.877925
896.171256	0.893814
896.479371	0.912760
896.787446	0.925414
897.095480	0.931181
897.403473	0.932485
897.711425	0.936955
898.019336	0.944115
898.327207	0.947104
898.635038	0.948959
898.942827	0.948771
899.250576	0.951387
899.558284	0.955911
899.865952	0.957651
900.173579	0.958307
900.481165	0.959432
900.788711	0.963128
901.096216	0.964269
901.403681	0.963665
901.711105	0.965708
902.018489	0.966592
902.325832	0.965181
902.633135	0.965017
902.940397	0.959441
903.247619	0.948008
903.554800	0.924274
903.861941	0.886280
904.169041	0.852962
904.476101	0.837230
904.783121	0.838264
905.090100	0.853426
905.397039	0.874052
905.703938	0.893932
906.010796	0.912636
906.317614	0.928655
906.624391	0.939811
906.931129	0.948164
907.237826	0.955993
907.544483	0.962305
907.851099	0.965559
908.157675	0.972110
908.464211	0.974445
908.770707	0.975072
909.077163	0.976863
909.383578	0.977349
909.689954	0.977966
909.996289	0.978098
910.302584	0.980329
910.608839	0.982052
910.915054	0.980481
911.221229	0.980571
911.527363	0.978764
911.833458	0.979785
912.139513	0.979540
912.445527	0.977831
912.751502	0.976376
913.057436	0.975615
913.363331	0.973107
913.669186	0.969677
913.975000	0.964456
914.280775	0.959052
914.586510	0.952948
914.892205	0.940839
915.197859	0.920142
915.503475	0.894459
915.809050	0.876744
916.114585	0.872132
916.420081	0.870561
916.725536	0.867017
917.030952	0.873689
917.336328	0.886449
917.641665	0.900833
917.946961	0.915153
918.252218	0.926723
918.557435	0.933121
918.862612	0.941744
919.167750	0.947547
919.472848	0.951216
919.777906	0.956444
920.082925	0.963248
920.387904	0.965858
920.692843	0.966992
920.997743	0.966108
921.302603	0.970906
921.607423	0.971536
921.912204	0.974749
922.216946	0.974664
922.521647	0.975705
922.826310	0.977670
923.130932	0.979912
923.435516	0.981069
923.740059	0.982157
924.044564	0.980480
924.349028	0.983020
924.653454	0.985955
924.957840	0.987545
925.262186	0.987025
925.566493	0.984745
925.870761	0.986065
926.174989	0.987886
926.479178	0.990154
926.783328	0.989547
927.087438	0.990273
927.391509	0.989904
927.695541	0.991904
927.999533	0.991165
928.303486	0.990563
928.607400	0.993687
928.911275	0.990691
929.215110	0.991330
929.518906	0.993247
929.822663	0.990470
930.126381	0.992255
930.430060	0.992319
930.733699	0.991455
931.037299	0.990916
931.340861	0.992614
931.644383	0.991357
931.947866	0.990893
932.251309	0.991788
932.554714	0.991560
932.858080	0.991141
933.161407	0.990764
933.464694	0.992245
933.767943	0.991861
934.071153	0.992105
934.374323	0.993710
934.677455	0.992810
934.980548	0.993089
935.283602	0.992774
935.586617	0.992570
935.889593	0.992785
936.192530	0.992110
936.495428	0.993095
936.798287	0.991997
937.101108	0.992689
937.403890	0.990945
937.706632	0.991271
938.009336	0.988858
938.312002	0.987195
938.614628	0.985730
938.917216	0.985362
939.219765	0.983960
939.522275	0.984954
939.824747	0.985217
940.127179	0.985822
940.429573	0.986921
940.731929	0.987348
941.034246	0.986485
941.336524	0.987726
941.638763	0.987425
941.940964	0.988250
942.243126	0.989061
942.545250	0.990068
942.847335	0.989939
943.149381	0.989770
943.451389	0.990102
943.753359	0.990422
944.055290	0.992201
944.357182	0.991793
944.659036	0.989412
944.960851	0.991234
945.262628	0.991248
945.564367	0.992947
945.866067	0.991352
946.167729	0.992327
946.469352	0.991235
946.770937	0.991293
947.072484	0.992902
947.373992	0.992818
947.675462	0.992918
947.976893	0.991810
948.278286	0.992132
948.579641	0.992536
948.880958	0.991954
949.182236	0.992124
949.483476	0.992663
949.784678	0.992291
950.085841	0.992614
950.386967	0.992375
950.688054	0.992088
950.989103	0.992751
951.290114	0.990459
951.591087	0.991706
951.892021	0.991747
952.192917	0.990065
952.493776	0.990189
952.794596	0.989122
953.095378	0.989125
953.396122	0.989560
953.696828	0.988617
953.997496	0.990624
954.298126	0.992473
954.598718	0.991713
954.899272	0.992423
955.199788	0.991733
955.500266	0.992136
955.800706	0.993209
956.101108	0.994577
956.401472	0.994593
956.701798	0.995068
957.002087	0.994527
957.302337	0.995471
957.602550	0.996355
957.902724	0.995357
958.202861	0.995968
958.502960	0.996259
958.803022	0.995245
959.103045	0.996462
959.403031	0.996036
959.702979	0.995767
960.002889	0.997681
960.302762	0.994598
960.602596	0.996763
960.902393	0.996871
961.202153	0.998128
961.501875	0.997005
961.801559	0.997046
962.101205	0.996161
962.400814	0.996883
962.700385	0.996736
962.999918	0.996948
963.299414	0.997610
963.598873	0.997009
963.898293	0.996188
964.197677	0.996380
964.497022	0.998188
964.796331	0.998982
965.095601	0.997808
965.394835	0.997347
965.694030	0.996733
965.993189	0.998232
966.292309	0.997179
966.591393	0.997656
966.890439	0.998029
967.189447	0.997804
967.488419	0.997959
967.787353	0.996710
968.086249	0.996516
968.385108	0.997084
968.683930	0.996945
968.982714	0.997939
969.281462	0.998497
969.580172	0.997593
969.878844	0.997167
970.177480	0.996717
970.476078	0.997239
970.774639	0.998336
971.073162	0.998573
971.371649	0.997374
971.670098	0.997104
971.968510	0.997953
972.266885	0.996372
972.565223	0.997155
972.863524	0.997773
973.161788	0.996726
973.460014	0.997905
973.758204	0.996472
974.056356	0.997981
974.354471	0.995039
974.652550	0.996778
974.950591	0.997265
975.248595	0.996807
975.546563	0.996907
975.844493	0.998859
976.142386	0.996984
976.440243	0.996932
976.738062	0.996810
977.035845	0.999017
977.333590	0.998779
977.631299	0.998160
977.928971	0.997539
978.226606	0.996970
978.524204	0.997473
978.821765	0.998529
979.119290	0.997184
979.416777	0.996811
979.714228	0.996884
980.011642	0.995972
980.309020	0.998551
980.606360	0.996416
980.903664	0.997996
981.200931	0.996914
981.498162	0.995099
981.795356	0.995704
982.092513	0.994657
982.389633	0.996033
982.686717	0.992512
982.983764	0.993160
983.280775	0.992388
983.577749	0.992352
983.874686	0.993082
984.171587	0.993045
984.468451	0.994876
984.765279	0.996214
985.062070	0.995410
985.358824	0.995144
985.655543	0.996155
985.952224	0.996376
986.248869	0.997316
986.545478	0.998590
986.842050	0.999495
987.138586	0.996153
987.435086	0.998224
987.731549	0.998849
988.027975	0.998001
988.324366	0.998061
988.620719	0.999220
988.917037	0.997052
989.213318	0.998911
989.509563	0.999187
989.805772	0.999196
990.101944	0.998947
990.398080	0.998365
990.694180	0.997231
990.990244	0.998917
991.286271	0.997777
991.582262	0.998504
991.878217	0.998155
992.174136	0.998778
992.470019	0.999083
992.765865	0.998386
993.061676	0.998636
993.357450	0.998933
993.653188	0.996712
993.948890	0.998123
994.244556	0.997887
994.540186	0.997330
994.835780	0.997221
995.131337	0.997131
995.426859	0.998557
995.722345	0.998103
996.017795	0.996121
996.313208	0.996454
996.608586	0.996679
996.903928	0.997957
997.199234	0.996967
997.494504	0.997042
997.789738	0.997269
998.084936	0.995918
998.380099	0.998535
998.675225	0.997680
998.970316	0.998090
999.265371	0.998375
999.560390	0.998563
999.855373	0.998703
1000.150320	0.997608
1000.445232	0.999042
1000.740108	0.997618
1001.034948	0.998344
1001.329752	0.999927
1001.624521	0.999357
1001.919254	0.999065
1002.213951	0.998579
1002.508613	0.998036
1002.803239	0.999535
1003.097829	0.998266
1003.392384	0.999343
1003.686903	0.998931
1003.981386	0.998554
1004.275834	0.999075
1004.570246	0.998744
1004.864623	0.999182
1005.158964	1.000122
1005.453270	0.998151
1005.747540	0.998297
1006.041775	0.999476
1006.335974	0.999236
1006.630138	0.999087
1006.924266	0.999877
1007.218359	1.000030
1007.512416	1.000400
1007.806438	0.999145
1008.100425	0.999961
1008.394376	0.998985
1008.688292	0.997991
1008.982172	1.000771
1009.276017	1.000356
1009.569827	0.998457
1009.863602	0.998737
1010.157341	1.000107
1010.451045	0.999337
1010.744714	0.998863
1011.038347	0.999189
1011.331945	0.997194
1011.625508	0.997902
1011.919036	0.998471
1012.212528	0.998660
1012.505986	0.997376
1012.799408	0.998269
1013.092795	0.999105
1013.386147	0.999869
1013.679464	0.999430
1013.972745	0.998296
1014.265992	0.998053
1014.559204	0.997779
1014.852380	0.998527
1015.145521	0.999568
1015.438628	0.998268
1015.731699	0.998847
1016.024736	0.998179
1016.317737	0.999557
1016.610703	0.999727
1016.903635	1.000442
1017.196531	0.997917
1017.489393	0.999354
1017.782219	0.998016
1018.075011	0.998065
1018.367768	0.998544
1018.660490	0.999371
1018.953177	0.999371
1019.245829	0.999371
