Dividing Wavelength (nm)	Counts (n)	Blue Motor Position (mm): 0.000000	Red Motor Position (mm): 33.000000	
326.493990	1.000689
326.888308	1.000689
327.282561	1.000689
327.676750	1.000115
328.070874	0.999366
328.464933	0.999933
328.858929	0.999492
329.252859	0.999102
329.646726	0.999459
330.040528	0.999084
330.434265	0.999058
330.827938	0.999768
331.221547	0.999621
331.615091	1.000978
332.008571	1.000368
332.401986	0.999228
332.795338	0.999611
333.188625	0.997881
333.581847	0.999652
333.975006	0.999674
334.368100	0.998507
334.761129	0.999933
335.154095	1.000839
335.546996	0.998474
335.939833	0.995273
336.332606	0.995811
336.725315	0.996924
337.117960	0.998219
337.510540	0.995799
337.903056	0.997323
338.295508	0.995467
338.687896	0.996944
339.080220	0.995896
339.472480	0.996996
339.864676	0.995888
340.256807	0.996092
340.648875	0.997064
341.040879	0.996464
341.432818	0.996563
341.824694	0.996112
342.216506	0.996762
342.608253	0.996963
342.999937	0.996220
343.391557	0.996075
343.783113	0.996375
344.174605	0.996755
344.566033	0.996623
344.957397	0.996797
345.348697	0.996155
345.739934	0.996294
346.131106	0.996144
346.522215	0.995345
346.913260	0.996490
347.304241	0.995579
347.695159	0.995889
348.086012	0.995447
348.476802	0.996747
348.867528	0.995935
349.258191	0.995920
349.648789	0.995896
350.039324	0.995886
350.429796	0.996711
350.820203	0.997046
351.210548	0.995335
351.600828	0.996149
351.991045	0.996447
352.381198	0.994425
352.771288	0.995613
353.161314	0.995643
353.551276	0.997775
353.941175	0.996324
354.331010	0.996386
354.720782	0.996713
355.110490	0.995731
355.500135	0.997653
355.889717	0.995349
356.279235	0.995618
356.668689	0.996759
357.058080	0.995277
357.447408	0.997905
357.836672	0.996370
358.225873	0.997464
358.615010	0.996208
359.004084	0.997624
359.393095	0.997397
359.782043	0.996792
360.170927	0.997654
360.559748	0.997497
360.948505	0.995914
361.337199	0.996441
361.725830	0.997176
362.114398	0.996313
362.502903	0.996481
362.891344	0.997228
363.279722	0.995643
363.668037	0.996258
364.056289	0.995839
364.444478	0.997052
364.832603	0.995914
365.220665	0.996056
365.608665	0.996460
365.996601	0.995430
366.384474	0.996106
366.772284	0.996217
367.160031	0.995196
367.547715	0.995724
367.935336	0.995680
368.322893	0.996354
368.710388	0.996079
369.097820	0.995387
369.485189	0.997288
369.872495	0.995852
370.259738	0.995690
370.646918	0.996135
371.034035	0.996616
371.421090	0.995369
371.808081	0.995674
372.195010	0.997476
372.581875	0.996298
372.968678	0.996156
373.355418	0.996683
373.742096	0.996184
374.128710	0.997195
374.515262	0.996298
374.901751	0.997301
375.288177	0.997376
375.674540	0.997138
376.060841	0.995089
376.447079	0.996591
376.833254	0.995747
377.219367	0.997602
377.605417	0.997141
377.991404	0.996772
378.377329	0.995735
378.763191	0.996396
379.148991	0.997590
379.534727	0.997696
379.920402	0.997874
380.306013	0.996834
380.691563	0.997715
381.077049	0.996384
381.462474	0.997484
381.847835	0.997054
382.233134	0.996531
382.618371	0.997296
383.003545	0.996451
383.388657	0.997221
383.773706	0.997559
384.158693	0.997326
384.543618	0.997203
384.928480	0.997920
385.313280	0.996900
385.698017	0.997812
386.082692	0.998181
386.467305	0.997858
386.851856	0.996975
387.236344	0.996897
387.620770	0.996859
388.005133	0.998254
388.389435	0.998325
388.773674	0.997197
389.157851	0.997374
389.541965	0.997764
389.926018	0.996655
390.310008	0.998532
390.693936	0.997271
391.077802	0.997438
391.461606	0.997706
391.845348	0.997949
392.229027	0.999284
392.612645	0.997514
392.996200	0.998606
393.379694	0.997981
393.763125	0.999193
394.146494	0.997214
394.529801	0.997341
394.913047	0.998450
395.296230	0.998047
395.679351	0.998010
396.062410	0.997596
396.445408	0.997578
396.828343	0.997732
397.211217	0.998148
397.594028	0.998164
397.976778	0.997735
398.359466	0.998065
398.742092	0.997596
399.124656	0.997686
399.507158	0.997593
399.889598	0.997733
400.271977	0.998170
400.654294	0.998099
401.036549	0.998164
401.418742	0.998803
401.800874	0.998216
402.182944	0.997723
402.564952	0.997146
402.946898	0.998566
403.328783	0.998532
403.710606	0.997491
404.092367	0.997128
404.474067	0.998263
404.855705	0.997833
405.237282	0.998322
405.618797	0.996960
406.000250	0.996485
406.381642	0.997325
406.762972	0.998389
407.144240	0.998374
407.525447	0.998709
407.906593	0.998805
408.287677	0.998597
408.668700	0.999117
409.049661	0.997437
409.430560	0.997594
409.811399	0.997719
410.192176	0.998471
410.572891	0.998352
410.953545	0.998834
411.334138	0.997732
411.714669	0.998668
412.095139	0.997442
412.475547	0.998895
412.855894	0.999122
413.236180	0.998099
413.616405	0.998076
413.996568	0.998595
414.376670	0.997683
414.756711	0.997193
415.136691	0.998026
415.516609	0.998340
415.896466	0.997433
416.276262	0.996563
416.655997	0.998347
417.035670	0.997829
417.415283	0.998156
417.794834	0.997794
418.174324	0.998720
418.553753	0.998639
418.933121	0.997927
419.312428	0.998359
419.691674	0.998168
420.070859	0.998942
420.449983	0.998726
420.829045	0.997949
421.208047	0.998379
421.586988	0.999520
421.965867	0.998098
422.344686	0.999106
422.723444	0.997945
423.102141	0.998460
423.480777	0.998327
423.859352	0.997700
424.237866	0.997229
424.616319	0.998660
424.994712	0.998455
425.373044	0.997968
425.751314	0.998954
426.129524	0.998471
426.507673	0.998272
426.885762	0.998909
427.263789	0.998118
427.641756	0.998756
428.019662	0.998538
428.397508	0.998053
428.775292	0.997171
429.153016	0.997980
429.530679	0.998702
429.908282	0.999122
430.285824	0.998036
430.663305	0.997535
431.040726	0.998091
431.418086	1.000085
431.795385	0.999139
432.172624	0.997956
432.549802	0.998162
432.926920	0.998757
433.303977	0.998160
433.680974	0.999208
434.057910	0.997768
434.434786	0.998508
434.811601	0.997126
435.188355	0.998584
435.565050	0.998309
435.941683	0.998253
436.318257	0.999457
436.694770	0.997474
437.071222	0.998893
437.447614	0.999226
437.823946	0.998713
438.200218	0.998076
438.576429	0.998129
438.952580	0.998984
439.328670	0.998758
439.704700	0.998782
440.080670	0.998319
440.456580	0.998317
440.832429	0.997888
441.208218	0.998139
441.583947	0.998636
441.959616	0.999211
442.335224	0.998115
442.710773	0.998747
443.086261	0.997584
443.461689	0.998109
443.837057	0.998717
444.212365	0.998929
444.587612	0.998028
444.962800	0.998616
445.337927	0.998612
445.712995	0.998912
446.088002	0.999125
446.462949	0.998612
446.837837	0.998764
447.212664	0.998510
447.587431	0.998677
447.962139	0.998683
448.336786	0.998284
448.711374	0.998737
449.085901	0.998051
449.460369	0.999387
449.834776	0.998251
450.209124	0.998611
450.583412	0.998879
450.957640	0.999108
451.331808	0.998268
451.705917	0.998927
452.079965	0.998045
452.453954	0.998515
452.827883	0.998920
453.201752	0.998813
453.575562	0.999421
453.949311	0.999008
454.323001	0.998140
454.696632	0.998113
455.070202	0.998590
455.443713	0.998331
455.817164	0.998266
456.190556	0.999132
456.563888	0.998574
456.937160	0.998580
457.310373	0.997542
457.683526	0.997946
458.056619	0.998527
458.429653	0.998857
458.802628	0.997825
459.175542	0.998002
459.548398	0.998751
459.921194	0.998247
460.293930	0.998390
460.666607	0.998130
461.039224	0.997714
461.411782	0.997969
461.784280	0.998306
462.156719	0.998777
462.529099	0.998821
462.901419	0.998055
463.273680	0.998058
463.645882	0.998974
464.018024	0.998375
464.390106	0.997504
464.762130	0.999017
465.134094	0.998364
465.505999	0.999143
465.877845	0.998451
466.249631	0.999154
466.621358	0.999234
466.993026	0.998480
467.364634	0.998436
467.736184	0.998777
468.107674	0.998009
468.479105	0.997627
468.850477	0.998393
469.221790	0.998600
469.593043	0.999151
469.964238	0.999312
470.335373	0.998231
470.706449	0.998607
471.077467	0.998892
471.448425	0.998348
471.819324	0.999481
472.190164	0.997659
472.560945	0.998696
472.931667	0.997852
473.302330	0.997296
473.672934	0.999092
474.043479	0.998110
474.413965	0.997896
474.784393	0.998483
475.154761	0.997749
475.525070	0.997567
475.895321	0.998629
476.265513	0.998385
476.635645	0.997809
477.005719	0.998624
477.375734	0.997961
477.745691	0.998181
478.115588	0.997680
478.485427	0.998271
478.855207	0.997702
479.224928	0.998182
479.594591	0.998630
479.964194	0.997583
480.333739	0.998101
480.703226	0.997884
481.072653	0.997918
481.442022	0.998031
481.811333	0.996497
482.180584	0.997737
482.549777	0.996459
482.918912	0.997867
483.287988	0.996717
483.657005	0.997314
484.025964	0.997625
484.394864	0.996824
484.763706	0.996796
485.132489	0.996672
485.501213	0.996030
485.869879	0.995979
486.238487	0.995689
486.607036	0.995386
486.975527	0.993800
487.343959	0.994601
487.712333	0.993456
488.080648	0.993165
488.448905	0.993595
488.817104	0.993285
489.185244	0.992629
489.553326	0.991451
489.921350	0.990684
490.289315	0.989122
490.657222	0.989480
491.025070	0.987798
491.392861	0.987991
491.760593	0.986769
492.128267	0.986449
492.495883	0.985856
492.863440	0.985623
493.230939	0.984531
493.598380	0.983360
493.965763	0.982529
494.333088	0.981686
494.700354	0.979866
495.067563	0.979290
495.434713	0.978210
495.801805	0.977227
496.168839	0.976299
496.535815	0.974017
496.902733	0.972577
497.269593	0.971034
497.636395	0.971174
498.003139	0.968692
498.369825	0.967628
498.736453	0.965196
499.103023	0.962984
499.469535	0.961194
499.835989	0.959767
500.202385	0.957508
500.568723	0.956095
500.935003	0.953933
501.301226	0.951374
501.667390	0.949214
502.033497	0.946704
502.399546	0.945422
502.765537	0.942307
503.131470	0.940100
503.497345	0.937285
503.863163	0.936860
504.228923	0.931955
504.594625	0.929256
504.960269	0.927395
505.325856	0.923929
505.691385	0.920644
506.056856	0.918028
506.422270	0.914112
506.787625	0.912153
507.152924	0.907794
507.518164	0.905047
507.883347	0.901181
508.248472	0.897875
508.613540	0.893660
508.978550	0.890870
509.343503	0.885868
509.708398	0.882053
510.073236	0.878418
510.438016	0.874936
510.802738	0.870301
511.167403	0.865573
511.532010	0.861623
511.896561	0.856428
512.261053	0.852463
512.625488	0.847705
512.989866	0.843030
513.354186	0.838478
513.718449	0.833564
514.082655	0.828632
514.446803	0.823833
514.810894	0.818967
515.174927	0.813396
515.538904	0.808813
515.902822	0.803165
516.266684	0.799612
516.630488	0.793862
516.994235	0.788892
517.357925	0.782277
517.721558	0.777020
518.085133	0.770540
518.448651	0.766774
518.812112	0.761694
519.175516	0.755194
519.538863	0.749412
519.902152	0.744764
520.265385	0.736711
520.628560	0.733513
520.991678	0.726650
521.354739	0.721992
521.717743	0.716607
522.080690	0.711213
522.443580	0.702707
522.806413	0.697577
523.169189	0.692239
523.531908	0.685370
523.894569	0.681117
524.257174	0.674736
524.619722	0.667630
524.982213	0.663217
525.344647	0.655666
525.707025	0.650865
526.069345	0.643981
526.431608	0.638405
526.793815	0.631842
527.155964	0.627708
527.518057	0.622608
527.880093	0.616372
528.242072	0.610292
528.603995	0.604982
528.965860	0.600581
529.327669	0.593716
529.689421	0.589060
530.051117	0.583997
530.412755	0.575061
530.774337	0.572592
531.135862	0.565960
531.497331	0.560875
531.858743	0.556617
532.220098	0.549541
532.581396	0.545719
532.942638	0.540714
533.303824	0.535885
533.664953	0.529827
534.026025	0.525669
534.387040	0.518577
534.747999	0.513758
535.108902	0.508029
535.469748	0.505601
535.830537	0.499345
536.191270	0.494438
536.551947	0.488636
536.912567	0.483884
537.273131	0.480805
537.633638	0.475336
537.994089	0.470866
538.354483	0.466900
538.714821	0.460249
539.075103	0.455218
539.435328	0.450881
539.795497	0.449752
540.155609	0.441683
540.515665	0.436466
540.875665	0.436267
541.235609	0.430479
541.595496	0.426784
541.955328	0.418724
542.315102	0.417495
542.674821	0.414216
543.034483	0.409988
543.394090	0.405706
543.753640	0.403469
544.113134	0.394909
544.472571	0.394168
544.831953	0.387247
545.191278	0.386969
545.550548	0.382963
545.909761	0.376513
546.268918	0.373730
546.628019	0.368861
546.987064	0.367339
547.346053	0.366569
547.704986	0.360444
548.063863	0.357636
548.422684	0.355007
548.781449	0.353387
549.140158	0.348193
549.498811	0.347372
549.857408	0.347748
550.215949	0.339426
550.574434	0.339839
550.932864	0.334701
551.291237	0.331542
551.649555	0.329460
552.007817	0.327348
552.366022	0.325392
552.724173	0.323409
553.082267	0.321645
553.440305	0.315381
553.798288	0.318103
554.156215	0.312138
554.514086	0.310631
554.871902	0.311356
555.229661	0.308809
555.587365	0.307203
555.945014	0.307879
556.302606	0.302860
556.660143	0.303239
557.017625	0.297978
557.375050	0.298414
557.732421	0.293755
558.089735	0.293904
558.446994	0.292383
558.804197	0.289706
559.161345	0.288209
559.518437	0.290332
559.875474	0.286198
560.232455	0.284362
560.589381	0.284267
560.946251	0.282523
561.303065	0.279226
561.659825	0.279153
562.016528	0.279114
562.373177	0.281247
562.729770	0.276752
563.086307	0.278350
563.442789	0.275126
563.799216	0.276318
564.155587	0.273808
564.511904	0.274153
564.868164	0.273220
565.224370	0.272194
565.580520	0.272934
565.936615	0.272034
566.292654	0.274141
566.648638	0.270523
567.004567	0.270613
567.360441	0.270575
567.716260	0.271726
568.072023	0.268944
568.427732	0.268751
568.783385	0.270692
569.138982	0.268137
569.494525	0.266920
569.850013	0.269442
570.205445	0.267325
570.560823	0.269367
570.916145	0.270781
571.271412	0.268486
571.626625	0.269521
571.981782	0.269760
572.336884	0.270058
572.691931	0.269484
573.046923	0.270297
573.401860	0.271083
573.756743	0.272264
574.111570	0.271101
574.466342	0.270916
574.821059	0.270236
575.175722	0.272455
575.530330	0.271913
575.884882	0.271777
576.239380	0.273542
576.593823	0.274065
576.948211	0.273332
577.302544	0.276442
577.656823	0.275654
578.011047	0.275401
578.365216	0.275896
578.719330	0.277844
579.073389	0.277468
579.427394	0.278814
579.781344	0.279149
580.135239	0.280769
580.489080	0.280199
580.842866	0.282731
581.196597	0.282794
581.550273	0.281249
581.903895	0.282183
582.257463	0.280063
582.610975	0.283260
582.964434	0.282517
583.317837	0.284888
583.671186	0.285477
584.024481	0.285190
584.377721	0.287711
584.730906	0.288060
585.084037	0.287313
585.437113	0.288928
585.790135	0.288224
586.143103	0.291266
586.496016	0.292157
586.848874	0.290139
587.201679	0.290256
587.554428	0.293489
587.907124	0.292275
588.259765	0.292713
588.612352	0.293284
588.964884	0.297101
589.317362	0.296751
589.669786	0.296256
590.022155	0.294934
590.374470	0.294211
590.726731	0.296110
591.078937	0.300616
591.431090	0.297289
591.783188	0.301510
592.135232	0.301873
592.487222	0.301969
592.839157	0.299964
593.191038	0.301996
593.542866	0.303717
593.894639	0.307269
594.246358	0.305280
594.598022	0.304791
594.949633	0.308275
595.301190	0.309023
595.652692	0.308160
596.004141	0.304535
596.355535	0.312074
596.706876	0.312649
597.058162	0.314921
597.409395	0.312429
597.760573	0.310040
598.111698	0.313428
598.462768	0.313899
598.813785	0.314877
599.164748	0.316461
599.515657	0.316407
599.866511	0.319795
600.217312	0.314961
600.568060	0.320517
600.918753	0.317109
601.269392	0.317576
601.619978	0.320872
601.970510	0.318825
602.320988	0.318913
602.671412	0.316586
603.021783	0.319317
603.372100	0.319673
603.722363	0.319823
604.072572	0.320818
604.422728	0.320645
604.772830	0.322339
605.122878	0.322113
605.472872	0.322540
605.822813	0.321031
606.172701	0.323224
606.522534	0.320917
606.872314	0.321245
607.222041	0.321924
607.571714	0.320340
607.921333	0.321200
608.270899	0.321276
608.620411	0.317825
608.969870	0.321820
609.319276	0.321751
609.668627	0.321971
610.017926	0.320204
610.367171	0.318659
610.716362	0.319843
611.065500	0.319587
611.414585	0.318586
611.763616	0.319339
612.112594	0.319383
612.461518	0.318725
612.810389	0.316648
613.159207	0.318642
613.507971	0.321073
613.856682	0.316062
614.205340	0.318174
614.553945	0.314880
614.902496	0.318774
615.250994	0.316742
615.599439	0.317598
615.947830	0.317324
616.296169	0.318094
616.644454	0.316946
616.992686	0.317638
617.340864	0.315205
617.688990	0.319014
618.037063	0.315583
618.385082	0.317233
618.733048	0.314405
619.080961	0.316375
619.428821	0.316029
619.776628	0.315529
620.124382	0.317212
620.472083	0.318006
620.819731	0.317127
621.167326	0.321339
621.514868	0.320710
621.862357	0.325252
622.209793	0.324625
622.557176	0.326519
622.904506	0.328340
623.251783	0.330533
623.599007	0.332245
623.946179	0.332166
624.293297	0.333872
624.640363	0.337764
624.987376	0.338218
625.334336	0.341087
625.681243	0.342953
626.028097	0.343988
626.374899	0.344417
626.721647	0.345049
627.068343	0.348289
627.414987	0.349124
627.761577	0.351016
628.108115	0.349436
628.454600	0.354902
628.801032	0.352010
629.147412	0.353900
629.493739	0.354887
629.840014	0.357476
630.186236	0.355092
630.532405	0.360990
630.878521	0.358439
631.224585	0.360360
631.570597	0.363803
631.916556	0.362237
632.262462	0.362678
632.608316	0.364662
632.954117	0.365424
633.299866	0.366212
633.645562	0.366817
633.991206	0.371165
634.336797	0.373857
634.682336	0.376185
635.027823	0.378252
635.373257	0.378402
635.718639	0.382080
636.063968	0.380741
636.409245	0.386837
636.754470	0.387300
637.099642	0.389344
637.444762	0.393164
637.789829	0.392170
638.134845	0.395456
638.479808	0.396452
638.824719	0.396453
639.169577	0.400495
639.514383	0.399045
639.859137	0.403385
640.203839	0.403480
640.548489	0.403789
640.893086	0.404857
641.237632	0.406777
641.582125	0.405237
641.926566	0.406895
642.270955	0.406921
642.615292	0.407814
642.959576	0.406445
643.303809	0.406914
643.647990	0.406678
643.992118	0.407135
644.336195	0.410640
644.680219	0.408625
645.024192	0.409681
645.368112	0.403136
645.711981	0.402175
646.055797	0.397282
646.399562	0.399814
646.743274	0.392346
647.086935	0.389481
647.430544	0.389909
647.774101	0.388281
648.117606	0.388509
648.461059	0.388579
648.804460	0.390749
649.147810	0.396294
649.491108	0.398030
649.834354	0.399231
650.177548	0.404749
650.520690	0.410382
650.863781	0.411181
651.206820	0.410675
651.549807	0.415193
651.892742	0.418838
652.235626	0.418534
652.578458	0.419975
652.921238	0.425735
653.263967	0.423707
653.606644	0.427346
653.949269	0.427422
654.291843	0.431523
654.634365	0.427576
654.976836	0.430959
655.319255	0.430742
655.661622	0.432585
656.003938	0.432885
656.346203	0.435701
656.688416	0.433546
657.030577	0.436913
657.372687	0.438503
657.714746	0.439940
658.056753	0.436803
658.398708	0.440652
658.740612	0.441371
659.082465	0.437634
659.424266	0.438567
659.766016	0.437519
660.107715	0.440450
660.449362	0.439870
660.790958	0.440253
661.132503	0.440521
661.473996	0.438669
661.815438	0.438969
662.156829	0.439354
662.498168	0.440345
662.839456	0.441187
663.180693	0.439548
663.521879	0.439159
663.863013	0.440598
664.204097	0.438774
664.545129	0.435501
664.886110	0.435908
665.227040	0.433085
665.567918	0.435866
665.908746	0.433624
666.249522	0.433655
666.590248	0.434709
666.930922	0.432837
667.271545	0.431250
667.612118	0.431598
667.952639	0.433603
668.293109	0.432318
668.633528	0.435101
668.973896	0.434472
669.314213	0.435218
669.654480	0.436513
669.994695	0.437115
670.334859	0.437488
670.674973	0.438049
671.015035	0.438695
671.355047	0.437561
671.695008	0.438758
672.034918	0.440996
672.374777	0.440531
672.714585	0.441537
673.054342	0.441461
673.394049	0.441461
673.733705	0.438911
674.073310	0.440261
674.412864	0.444112
674.752368	0.444052
675.091820	0.444507
675.431223	0.449482
675.770574	0.448970
676.109875	0.451559
676.449125	0.451595
676.788324	0.453572
677.127473	0.459013
677.466571	0.459405
677.805619	0.460285
678.144616	0.461262
678.483562	0.463024
678.822458	0.465623
679.161303	0.467169
679.500098	0.467421
679.838842	0.469074
680.177535	0.468095
680.516179	0.467068
680.854771	0.466167
681.193314	0.459981
681.531805	0.450652
681.870247	0.439329
682.208638	0.431831
682.546978	0.430859
682.885268	0.433121
683.223508	0.439032
683.561697	0.442491
683.899836	0.445530
684.237925	0.448696
684.575963	0.451097
684.913951	0.454251
685.251889	0.450037
685.589776	0.452015
685.927614	0.454245
686.265401	0.448448
686.603137	0.449971
686.940824	0.443862
687.278460	0.442309
687.616046	0.441652
687.953582	0.436574
688.291068	0.437778
688.628504	0.433755
688.965889	0.436311
689.303224	0.439991
689.640510	0.444248
689.977745	0.449627
690.314930	0.458058
690.652065	0.462192
690.989150	0.469944
691.326185	0.475744
691.663170	0.480539
692.000105	0.487656
692.336990	0.494794
692.673825	0.497083
693.010610	0.504298
693.347345	0.509699
693.684030	0.510659
694.020665	0.515180
694.357251	0.524630
694.693786	0.523843
695.030272	0.528556
695.366707	0.531628
695.703093	0.535043
696.039429	0.532530
696.375716	0.534650
696.711952	0.537122
697.048139	0.539062
697.384276	0.541431
697.720363	0.539635
698.056400	0.539081
698.392388	0.544238
698.728326	0.547086
699.064214	0.550010
699.400053	0.550465
699.735842	0.553618
700.071581	0.556910
700.407270	0.560088
700.742910	0.562583
701.078501	0.569321
701.414042	0.568868
701.749533	0.572362
702.084974	0.581428
702.420366	0.572975
702.755709	0.581339
703.091002	0.589075
703.426246	0.581512
703.761440	0.588089
704.096584	0.592749
704.431679	0.589862
704.766725	0.592119
705.101721	0.593873
705.436668	0.589652
705.771565	0.596819
706.106413	0.593785
706.441212	0.588916
706.775961	0.587036
707.110661	0.590134
707.445311	0.586631
707.779913	0.583149
708.114465	0.582336
708.448967	0.579439
708.783421	0.571293
709.117825	0.565544
709.452180	0.566679
709.786485	0.559433
710.120742	0.549457
710.454949	0.552202
710.789107	0.543366
711.123216	0.534716
711.457275	0.536982
711.791286	0.527596
712.125247	0.526880
712.459159	0.537709
712.793023	0.529985
713.126837	0.533778
713.460602	0.534939
713.794318	0.544028
714.127985	0.542451
714.461602	0.552145
714.795171	0.555477
715.128691	0.563209
715.462162	0.571476
715.795584	0.576201
716.128957	0.579089
716.462281	0.585649
716.795556	0.589108
717.128782	0.594677
717.461960	0.604468
717.795088	0.602114
718.128167	0.608477
718.461198	0.617178
718.794180	0.618144
719.127113	0.620330
719.459997	0.624226
719.792833	0.630091
720.125619	0.631613
720.458357	0.638228
720.791046	0.637117
721.123686	0.640644
721.456278	0.646977
721.788821	0.645385
722.121315	0.648826
722.453761	0.653171
722.786158	0.650981
723.118506	0.646876
723.450805	0.655602
723.783056	0.651331
724.115259	0.648952
724.447412	0.648287
724.779518	0.650302
725.111574	0.648455
725.443582	0.644206
725.775542	0.645990
726.107453	0.638296
726.439315	0.638233
726.771129	0.636708
727.102895	0.630213
727.434612	0.622401
727.766281	0.620516
728.097901	0.620815
728.429473	0.619842
728.760996	0.619062
729.092471	0.619161
729.423897	0.622817
729.755276	0.621689
730.086606	0.621825
730.417887	0.616086
730.749120	0.606381
731.080305	0.598195
731.411442	0.594272
731.742530	0.599137
732.073570	0.597600
732.404562	0.590614
732.735506	0.591560
733.066401	0.596574
733.397249	0.605650
733.728048	0.617120
734.058798	0.628875
734.389501	0.640164
734.720156	0.649841
735.050762	0.657262
735.381320	0.658199
735.711831	0.667784
736.042293	0.672693
736.372707	0.668408
736.703073	0.673052
737.033391	0.675535
737.363661	0.672630
737.693883	0.667460
738.024056	0.666528
738.354182	0.666459
738.684260	0.656508
739.014290	0.652669
739.344272	0.652968
739.674207	0.647128
740.004093	0.646469
740.333931	0.646858
740.663722	0.646372
740.993464	0.647343
741.323159	0.650886
741.652806	0.656000
741.982405	0.660311
742.311956	0.664422
742.641460	0.666528
742.970915	0.670899
743.300323	0.678551
743.629683	0.684781
743.958996	0.686801
744.288260	0.691297
744.617477	0.697298
744.946647	0.697998
745.275768	0.703796
745.604842	0.703210
745.933869	0.713194
746.262847	0.714348
746.591778	0.707456
746.920662	0.714239
747.249498	0.720058
747.578286	0.711490
747.907027	0.707521
748.235720	0.709118
748.564365	0.703348
748.892963	0.702627
749.221514	0.706510
749.550017	0.711253
749.878473	0.710283
750.206881	0.717268
750.535242	0.718051
750.863555	0.718151
751.191821	0.719065
751.520039	0.722543
751.848210	0.726637
752.176334	0.719722
752.504411	0.719220
752.832440	0.726624
753.160421	0.731416
753.488356	0.729341
753.816243	0.726542
754.144082	0.734998
754.471875	0.738978
754.799620	0.733912
755.127318	0.735806
755.454969	0.735092
755.782572	0.734857
756.110129	0.740627
756.437638	0.742008
756.765100	0.738369
757.092515	0.736193
757.419882	0.735170
757.747203	0.740557
758.074477	0.740804
758.401703	0.737241
758.728882	0.732840
759.056014	0.731584
759.383099	0.730284
759.710138	0.731591
760.037129	0.728044
760.364073	0.722066
760.690970	0.725040
761.017820	0.729977
761.344623	0.725890
761.671379	0.717285
761.998088	0.705411
762.324751	0.682517
762.651366	0.641145
762.977935	0.575104
763.304456	0.523896
763.630931	0.514174
763.957359	0.553028
764.283740	0.596878
764.610074	0.623856
764.936362	0.654948
765.262602	0.681159
765.588796	0.702135
765.914943	0.720233
766.241044	0.737818
766.567097	0.744299
766.893104	0.754327
767.219064	0.761020
767.544978	0.766658
767.870845	0.780206
768.196665	0.784330
768.522438	0.782206
768.848165	0.782720
769.173846	0.793164
769.499479	0.796341
769.825066	0.800132
770.150607	0.805393
770.476101	0.800898
770.801548	0.801665
771.126949	0.812386
771.452303	0.816064
771.777611	0.815939
772.102872	0.815564
772.428087	0.819759
772.753256	0.822905
773.078378	0.825973
773.403453	0.834310
773.728482	0.838312
774.053465	0.831336
774.378401	0.835126
774.703291	0.843738
775.028135	0.843743
775.352932	0.845565
775.677683	0.848154
776.002388	0.848173
776.327046	0.846448
776.651658	0.851137
776.976224	0.854680
777.300743	0.854388
777.625216	0.857018
777.949643	0.858795
778.274024	0.859518
778.598359	0.859812
778.922647	0.858532
779.246889	0.859061
779.571086	0.864328
779.895236	0.865288
780.219339	0.863562
780.543397	0.859726
780.867409	0.857809
781.191374	0.861010
781.515294	0.861555
781.839167	0.861113
782.162995	0.864099
782.486776	0.861336
782.810511	0.862799
783.134201	0.865774
783.457844	0.863033
783.781441	0.866255
784.104993	0.873451
784.428498	0.873712
784.751958	0.868750
785.075372	0.869998
785.398739	0.874676
785.722061	0.871134
786.045337	0.866912
786.368568	0.870434
786.691752	0.873349
787.014891	0.859646
787.337983	0.850700
787.661030	0.844211
787.984031	0.826417
788.306987	0.813482
788.629897	0.815275
788.952760	0.819496
789.275579	0.823457
789.598351	0.838317
789.921078	0.851537
790.243759	0.853848
790.566395	0.858685
790.888984	0.865829
791.211529	0.870482
791.534027	0.873426
791.856480	0.876155
792.178888	0.881160
792.501249	0.882688
792.823566	0.884773
793.145836	0.884290
793.468062	0.888059
793.790241	0.886065
794.112375	0.884430
794.434464	0.879739
794.756507	0.879068
795.078505	0.879918
795.400457	0.873895
795.722364	0.861950
796.044226	0.855145
796.366042	0.854777
796.687812	0.857869
797.009538	0.853246
797.331218	0.856475
797.652852	0.862085
797.974442	0.866714
798.295986	0.866101
798.617484	0.868715
798.938938	0.872398
799.260346	0.877793
799.581709	0.879765
799.903026	0.881356
800.224299	0.882411
800.545526	0.886559
800.866708	0.891536
801.187845	0.893805
801.508936	0.894711
801.829983	0.891553
802.150984	0.894602
802.471940	0.899561
802.792851	0.898652
803.113717	0.900647
803.434538	0.897311
803.755314	0.900709
804.076045	0.902791
804.396731	0.902599
804.717372	0.900935
805.037967	0.902758
805.358518	0.900847
805.679024	0.899465
805.999485	0.898322
806.319901	0.899745
806.640272	0.898949
806.960598	0.899029
807.280879	0.894795
807.601115	0.894174
807.921306	0.898571
808.241453	0.898752
808.561554	0.895202
808.881611	0.896093
809.201623	0.898089
809.521590	0.897702
809.841513	0.899950
810.161390	0.898649
810.481223	0.899527
810.801011	0.903795
811.120755	0.904447
811.440453	0.902706
811.760107	0.902752
812.079716	0.902759
812.399281	0.906119
812.718801	0.908374
813.038276	0.908975
813.357707	0.907996
813.677093	0.904631
813.996434	0.907688
814.315731	0.909522
814.634983	0.911884
814.954191	0.910018
815.273354	0.907081
815.592473	0.903475
815.911547	0.903341
816.230577	0.900735
816.549562	0.898055
816.868502	0.899039
817.187399	0.894963
817.506250	0.889799
817.825058	0.892391
818.143821	0.889283
818.462539	0.883821
818.781213	0.875240
819.099843	0.864385
819.418429	0.849447
819.736970	0.833121
820.055466	0.814184
820.373919	0.788024
820.692327	0.755538
821.010691	0.722807
821.329011	0.646422
821.647286	0.533504
821.965517	0.420817
822.283704	0.378367
822.601847	0.380192
822.919945	0.415265
823.237999	0.448378
823.556010	0.494241
823.873976	0.549695
824.191897	0.599048
824.509775	0.640653
824.827609	0.686205
825.145398	0.707763
825.463144	0.709845
825.780845	0.692845
826.098502	0.675013
826.416116	0.629625
826.733685	0.586257
827.051210	0.578773
827.368692	0.592921
827.686129	0.629411
828.003522	0.681917
828.320872	0.728592
828.638177	0.771166
828.955439	0.804449
829.272656	0.825700
829.589830	0.842371
829.906960	0.857733
830.224046	0.869193
830.541088	0.879478
830.858086	0.884266
831.175041	0.890000
831.491952	0.889164
831.808819	0.885378
832.125642	0.880517
832.442421	0.864707
832.759157	0.844813
833.075849	0.797910
833.392497	0.735626
833.709101	0.694893
834.025662	0.705265
834.342179	0.736378
834.658653	0.774419
834.975083	0.810095
835.291469	0.836527
835.607811	0.857594
835.924110	0.873993
836.240366	0.890042
836.556578	0.903242
836.872746	0.910472
837.188871	0.917774
837.504952	0.922718
837.820990	0.926072
838.136984	0.928977
838.452935	0.932146
838.768842	0.934316
839.084706	0.926308
839.400526	0.901541
839.716303	0.862482
840.032037	0.840710
840.347727	0.843613
840.663373	0.862168
840.978977	0.882716
841.294537	0.905145
841.610054	0.920898
841.925527	0.927125
842.240957	0.933974
842.556344	0.941485
842.871687	0.946767
843.186987	0.951959
843.502244	0.952170
843.817458	0.952283
844.132629	0.957412
844.447756	0.960736
844.762840	0.961967
845.077881	0.960477
845.392879	0.960611
845.707833	0.964167
846.022745	0.965544
846.337613	0.966462
846.652438	0.967965
846.967221	0.964713
847.281960	0.966345
847.596656	0.968683
847.911309	0.967135
848.225919	0.969684
848.540485	0.969902
848.855009	0.969653
849.169490	0.969565
849.483928	0.970313
849.798323	0.969947
850.112675	0.970817
850.426984	0.970790
850.741251	0.971168
851.055474	0.971210
851.369654	0.969351
851.683792	0.970715
851.997887	0.971579
852.311938	0.971888
852.625947	0.970214
852.939914	0.969659
853.253837	0.970535
853.567718	0.971556
853.881555	0.971607
854.195350	0.969702
854.509103	0.970646
854.822812	0.971260
855.136479	0.971178
855.450103	0.971563
855.763685	0.970393
856.077224	0.968941
856.390720	0.972519
856.704173	0.971460
857.017584	0.969274
857.330953	0.968512
857.644278	0.968942
857.957561	0.969820
858.270802	0.969258
858.584000	0.970506
858.897155	0.968101
859.210268	0.968291
859.523339	0.968390
859.836367	0.971854
860.149352	0.971241
860.462295	0.970136
860.775195	0.970807
861.088054	0.970229
861.400869	0.970717
861.713642	0.970788
862.026373	0.971128
862.339062	0.971601
862.651708	0.968731
862.964312	0.969281
863.276873	0.970488
863.589392	0.969571
863.901869	0.967636
864.214303	0.966476
864.526696	0.965240
864.839045	0.964497
865.151353	0.963985
865.463619	0.964065
865.775842	0.963971
866.088023	0.963589
866.400162	0.963303
866.712258	0.963837
867.024313	0.963878
867.336325	0.964760
867.648296	0.963748
867.960224	0.963940
868.272110	0.964309
868.583954	0.965513
868.895755	0.964581
869.207515	0.962552
869.519233	0.961878
869.830909	0.962561
870.142542	0.964554
870.454134	0.963435
870.765684	0.962065
871.077191	0.959154
871.388657	0.961526
871.700081	0.958893
872.011463	0.959604
872.322803	0.960218
872.634101	0.958084
872.945357	0.955615
873.256571	0.954689
873.567744	0.954871
873.878874	0.955343
874.189963	0.954224
874.501010	0.953924
874.812015	0.952385
875.122979	0.953688
875.433900	0.955454
875.744780	0.956182
876.055618	0.953555
876.366415	0.951603
876.677169	0.952267
876.987882	0.954030
877.298554	0.952993
877.609183	0.949336
877.919771	0.947380
878.230317	0.944586
878.540822	0.942988
878.851285	0.937265
879.161707	0.930863
879.472087	0.919104
879.782425	0.903273
880.092722	0.869460
880.402977	0.819060
880.713191	0.761247
881.023363	0.704016
881.333494	0.671605
881.643583	0.643892
881.953631	0.642870
882.263637	0.671777
882.573602	0.710513
882.883526	0.734881
883.193408	0.758203
883.503248	0.778402
883.813048	0.806972
884.122806	0.833780
884.432522	0.856708
884.742197	0.876520
885.051831	0.886259
885.361424	0.896294
885.670975	0.907073
885.980485	0.916694
886.289954	0.922767
886.599382	0.928911
886.908768	0.931227
887.218113	0.936600
887.527417	0.941910
887.836680	0.944307
888.145901	0.946252
888.455082	0.948351
888.764221	0.953360
889.073319	0.954168
889.382376	0.954815
889.691392	0.955746
890.000366	0.954410
890.309300	0.956315
890.618193	0.955801
890.927044	0.953020
891.235855	0.953471
891.544625	0.954752
891.853353	0.954603
892.162041	0.952206
892.470687	0.944357
892.779293	0.939878
893.087858	0.936753
893.396381	0.929697
893.704864	0.917470
894.013306	0.894773
894.321707	0.867994
894.630068	0.856105
894.938387	0.850441
895.246665	0.851133
895.554903	0.863105
895.863100	0.875475
896.171256	0.892750
896.479371	0.911596
896.787446	0.924072
897.095480	0.928668
897.403473	0.931996
897.711425	0.936577
898.019336	0.943099
898.327207	0.946443
898.635038	0.947860
898.942827	0.947258
899.250576	0.950914
899.558284	0.954484
899.865952	0.956858
900.173579	0.957024
900.481165	0.957747
900.788711	0.961986
901.096216	0.963197
901.403681	0.963557
901.711105	0.964812
902.018489	0.965962
902.325832	0.963692
902.633135	0.964482
902.940397	0.958581
903.247619	0.946519
903.554800	0.922327
903.861941	0.884919
904.169041	0.850426
904.476101	0.834809
904.783121	0.835626
905.090100	0.850872
905.397039	0.871165
905.703938	0.892598
906.010796	0.911003
906.317614	0.927330
906.624391	0.938518
906.931129	0.946934
907.237826	0.954630
907.544483	0.961356
907.851099	0.964148
908.157675	0.968371
908.464211	0.971575
908.770707	0.973715
909.077163	0.975109
909.383578	0.977491
909.689954	0.976559
909.996289	0.976638
910.302584	0.978715
910.608839	0.981890
910.915054	0.980397
911.221229	0.979051
911.527363	0.978699
911.833458	0.978275
912.139513	0.978235
912.445527	0.976460
912.751502	0.974537
913.057436	0.973285
913.363331	0.971384
913.669186	0.969571
913.975000	0.963459
914.280775	0.959296
914.586510	0.952416
914.892205	0.938444
915.197859	0.918809
915.503475	0.893402
915.809050	0.873738
916.114585	0.870196
916.420081	0.867383
916.725536	0.864165
917.030952	0.871882
917.336328	0.883216
917.641665	0.897591
917.946961	0.912970
918.252218	0.925165
918.557435	0.932183
918.862612	0.940516
919.167750	0.945846
919.472848	0.950555
919.777906	0.955895
920.082925	0.959751
920.387904	0.965358
920.692843	0.965243
920.997743	0.965999
921.302603	0.969530
921.607423	0.971109
921.912204	0.973258
922.216946	0.973064
922.521647	0.975359
922.826310	0.976214
923.130932	0.978586
923.435516	0.979961
923.740059	0.981429
924.044564	0.979711
924.349028	0.982524
924.653454	0.984492
924.957840	0.985820
925.262186	0.985830
925.566493	0.984212
925.870761	0.985527
926.174989	0.987743
926.479178	0.989039
926.783328	0.988927
927.087438	0.989353
927.391509	0.989465
927.695541	0.989839
927.999533	0.989650
928.303486	0.990532
928.607400	0.991555
928.911275	0.989969
929.215110	0.990336
929.518906	0.991090
929.822663	0.990061
930.126381	0.992492
930.430060	0.991050
930.733699	0.990759
931.037299	0.991178
931.340861	0.991494
931.644383	0.991247
931.947866	0.990134
932.251309	0.991958
932.554714	0.990660
932.858080	0.990382
933.161407	0.991186
933.464694	0.991409
933.767943	0.989594
934.071153	0.992356
934.374323	0.992254
934.677455	0.992493
934.980548	0.993159
935.283602	0.991954
935.586617	0.992068
935.889593	0.991377
936.192530	0.990823
936.495428	0.991824
936.798287	0.992122
937.101108	0.992378
937.403890	0.989374
937.706632	0.988867
938.009336	0.988373
938.312002	0.986291
938.614628	0.985846
938.917216	0.985100
939.219765	0.982364
939.522275	0.984308
939.824747	0.984655
940.127179	0.984936
940.429573	0.986750
940.731929	0.984444
941.034246	0.985673
941.336524	0.987081
941.638763	0.987760
941.940964	0.986929
942.243126	0.987604
942.545250	0.989046
942.847335	0.989272
943.149381	0.989191
943.451389	0.988726
943.753359	0.989585
944.055290	0.991884
944.357182	0.990964
944.659036	0.990318
944.960851	0.990382
945.262628	0.991243
945.564367	0.991544
945.866067	0.990696
946.167729	0.991899
946.469352	0.990684
946.770937	0.989678
947.072484	0.991744
947.373992	0.990993
947.675462	0.990370
947.976893	0.990498
948.278286	0.990670
948.579641	0.991675
948.880958	0.990997
949.182236	0.992759
949.483476	0.991468
949.784678	0.990256
950.085841	0.991908
950.386967	0.992084
950.688054	0.990604
950.989103	0.991852
951.290114	0.990615
951.591087	0.989468
951.892021	0.990338
952.192917	0.990785
952.493776	0.989687
952.794596	0.989182
953.095378	0.988462
953.396122	0.988487
953.696828	0.988770
953.997496	0.990810
954.298126	0.992051
954.598718	0.992443
954.899272	0.991474
955.199788	0.990564
955.500266	0.991929
955.800706	0.994214
956.101108	0.993307
956.401472	0.993576
956.701798	0.994449
957.002087	0.992706
957.302337	0.994403
957.602550	0.994728
957.902724	0.995611
958.202861	0.995748
958.502960	0.995665
958.803022	0.994094
959.103045	0.996087
959.403031	0.997170
959.702979	0.995377
960.002889	0.996475
960.302762	0.995667
960.602596	0.996588
960.902393	0.994952
961.202153	0.998088
961.501875	0.997223
961.801559	0.996214
962.101205	0.995556
962.400814	0.997295
962.700385	0.996592
962.999918	0.997366
963.299414	0.996643
963.598873	0.996235
963.898293	0.996776
964.197677	0.995800
964.497022	0.997208
964.796331	0.997022
965.095601	0.996444
965.394835	0.995000
965.694030	0.996234
965.993189	0.997096
966.292309	0.996317
966.591393	0.997550
966.890439	0.997050
967.189447	0.996308
967.488419	0.997403
967.787353	0.995940
968.086249	0.996818
968.385108	0.996649
968.683930	0.996932
968.982714	0.996583
969.281462	0.998971
969.580172	0.996578
969.878844	0.997089
970.177480	0.995299
970.476078	0.997811
970.774639	0.997010
971.073162	0.996833
971.371649	0.996406
971.670098	0.997652
971.968510	0.997293
972.266885	0.995732
972.565223	0.996985
972.863524	0.996324
973.161788	0.996061
973.460014	0.996988
973.758204	0.995320
974.056356	0.996905
974.354471	0.994138
974.652550	0.996535
974.950591	0.996389
975.248595	0.996157
975.546563	0.997251
975.844493	0.997899
976.142386	0.997706
976.440243	0.997237
976.738062	0.997441
977.035845	0.998385
977.333590	0.996961
977.631299	0.998505
977.928971	0.997575
978.226606	0.996704
978.524204	0.995770
978.821765	0.998233
979.119290	0.997028
979.416777	0.998300
979.714228	0.997486
980.011642	0.997074
980.309020	0.997544
980.606360	0.996757
980.903664	0.997892
981.200931	0.997183
981.498162	0.995368
981.795356	0.996000
982.092513	0.994559
982.389633	0.994239
982.686717	0.991436
982.983764	0.992437
983.280775	0.991235
983.577749	0.991279
983.874686	0.991493
984.171587	0.992046
984.468451	0.996449
984.765279	0.993873
985.062070	0.995567
985.358824	0.994253
985.655543	0.995464
985.952224	0.996833
986.248869	0.997221
986.545478	0.997200
986.842050	0.997438
987.138586	0.995609
987.435086	0.997617
987.731549	0.998829
988.027975	0.998928
988.324366	0.997460
988.620719	0.997936
988.917037	0.996158
989.213318	0.997860
989.509563	0.998404
989.805772	0.998254
990.101944	0.998584
990.398080	0.996777
990.694180	0.998731
990.990244	0.998193
991.286271	0.997624
991.582262	0.997427
991.878217	0.998462
992.174136	0.997820
992.470019	0.999157
992.765865	0.998165
993.061676	0.997962
993.357450	0.998230
993.653188	0.997143
993.948890	0.996682
994.244556	0.998467
994.540186	0.997445
994.835780	0.997224
995.131337	0.998317
995.426859	0.996421
995.722345	0.997535
996.017795	0.996940
996.313208	0.996322
996.608586	0.996607
996.903928	0.996404
997.199234	0.997025
997.494504	0.997563
997.789738	0.997003
998.084936	0.996606
998.380099	0.997792
998.675225	0.997948
998.970316	0.997124
999.265371	0.997967
999.560390	0.998688
999.855373	0.997280
1000.150320	0.999111
1000.445232	0.997464
1000.740108	0.997477
1001.034948	0.997989
1001.329752	0.998855
1001.624521	0.999505
1001.919254	0.999500
1002.213951	0.997039
1002.508613	0.999231
1002.803239	0.999198
1003.097829	0.998951
1003.392384	1.000135
1003.686903	0.998585
1003.981386	0.997900
1004.275834	0.999715
1004.570246	0.998696
1004.864623	0.998616
1005.158964	0.999674
1005.453270	0.998897
1005.747540	0.997865
1006.041775	0.998810
1006.335974	0.999186
1006.630138	0.999822
1006.924266	0.999536
1007.218359	0.999665
1007.512416	0.998796
1007.806438	0.999198
1008.100425	0.999861
1008.394376	0.998541
1008.688292	0.998759
1008.982172	1.000657
1009.276017	0.999463
1009.569827	0.997768
1009.863602	0.998930
1010.157341	0.998859
1010.451045	0.999618
1010.744714	0.998386
1011.038347	0.999138
1011.331945	0.998746
1011.625508	0.996901
1011.919036	0.998989
1012.212528	0.999291
1012.505986	0.998923
1012.799408	0.997422
1013.092795	0.999332
1013.386147	0.998856
1013.679464	0.999765
1013.972745	0.999206
1014.265992	0.997512
1014.559204	0.998261
1014.852380	0.999705
1015.145521	0.998039
1015.438628	0.998972
1015.731699	0.998255
1016.024736	0.998626
1016.317737	0.998621
1016.610703	0.999774
1016.903635	0.999840
1017.196531	0.998540
1017.489393	0.999480
1017.782219	0.998236
1018.075011	0.998265
1018.367768	0.998842
1018.660490	1.000476
1018.953177	1.000476
1019.245829	1.000476
