Dividing Wavelength (nm)	Counts (n)	Blue Motor Position (mm): 0.000000	Red Motor Position (mm): 18.600000	
326.493990	1.001559
326.888308	1.001559
327.282561	1.001559
327.676750	1.000272
328.070874	1.000261
328.464933	1.000350
328.858929	1.000219
329.252859	1.000670
329.646726	1.001474
330.040528	1.000439
330.434265	0.999690
330.827938	1.001318
331.221547	1.000174
331.615091	1.000519
332.008571	0.999956
332.401986	0.999565
332.795338	1.000868
333.188625	0.998941
333.581847	0.999751
333.975006	0.999216
334.368100	0.999564
334.761129	1.001583
335.154095	1.000991
335.546996	0.997712
335.939833	0.994496
336.332606	0.993906
336.725315	0.994947
337.117960	0.995992
337.510540	0.993744
337.903056	0.994491
338.295508	0.993125
338.687896	0.994309
339.080220	0.994154
339.472480	0.993805
339.864676	0.994061
340.256807	0.994688
340.648875	0.994926
341.040879	0.993781
341.432818	0.995160
341.824694	0.993453
342.216506	0.994786
342.608253	0.994941
342.999937	0.993075
343.391557	0.994690
343.783113	0.993303
344.174605	0.994843
344.566033	0.995405
344.957397	0.993939
345.348697	0.993819
345.739934	0.994709
346.131106	0.994194
346.522215	0.993516
346.913260	0.994529
347.304241	0.993987
347.695159	0.993768
348.086012	0.993172
348.476802	0.993885
348.867528	0.994999
349.258191	0.994610
349.648789	0.995404
350.039324	0.993788
350.429796	0.993687
350.820203	0.995235
351.210548	0.995033
351.600828	0.995606
351.991045	0.995091
352.381198	0.993942
352.771288	0.994563
353.161314	0.993990
353.551276	0.995840
353.941175	0.994120
354.331010	0.994251
354.720782	0.995016
355.110490	0.993601
355.500135	0.994177
355.889717	0.993070
356.279235	0.994109
356.668689	0.993089
357.058080	0.994005
357.447408	0.995483
357.836672	0.994045
358.225873	0.994443
358.615010	0.994802
359.004084	0.996007
359.393095	0.994812
359.782043	0.995142
360.170927	0.995031
360.559748	0.995246
360.948505	0.993595
361.337199	0.993852
361.725830	0.993820
362.114398	0.992365
362.502903	0.994593
362.891344	0.994756
363.279722	0.993569
363.668037	0.995476
364.056289	0.994645
364.444478	0.995936
364.832603	0.994703
365.220665	0.994394
365.608665	0.993645
365.996601	0.994229
366.384474	0.993694
366.772284	0.993529
367.160031	0.992681
367.547715	0.993325
367.935336	0.994156
368.322893	0.993650
368.710388	0.992762
369.097820	0.994233
369.485189	0.994755
369.872495	0.993673
370.259738	0.993164
370.646918	0.995068
371.034035	0.995322
371.421090	0.994049
371.808081	0.993872
372.195010	0.994707
372.581875	0.994630
372.968678	0.995438
373.355418	0.994830
373.742096	0.995003
374.128710	0.996669
374.515262	0.994636
374.901751	0.994913
375.288177	0.994053
375.674540	0.994045
376.060841	0.994043
376.447079	0.995402
376.833254	0.994221
377.219367	0.994061
377.605417	0.994114
377.991404	0.995744
378.377329	0.993611
378.763191	0.994632
379.148991	0.995168
379.534727	0.995743
379.920402	0.995381
380.306013	0.994981
380.691563	0.995936
381.077049	0.994385
381.462474	0.994697
381.847835	0.995530
382.233134	0.995473
382.618371	0.995985
383.003545	0.995470
383.388657	0.995045
383.773706	0.996936
384.158693	0.995365
384.543618	0.996012
384.928480	0.996519
385.313280	0.996032
385.698017	0.996551
386.082692	0.996296
386.467305	0.995781
386.851856	0.995374
387.236344	0.995230
387.620770	0.994180
388.005133	0.996013
388.389435	0.996254
388.773674	0.996179
389.157851	0.996489
389.541965	0.996048
389.926018	0.996107
390.310008	0.996619
390.693936	0.994822
391.077802	0.996320
391.461606	0.996283
391.845348	0.996245
392.229027	0.996494
392.612645	0.996043
392.996200	0.997152
393.379694	0.995627
393.763125	0.995841
394.146494	0.996024
394.529801	0.995287
394.913047	0.995891
395.296230	0.995720
395.679351	0.995997
396.062410	0.995337
396.445408	0.995893
396.828343	0.995140
397.211217	0.995935
397.594028	0.995150
397.976778	0.995632
398.359466	0.995628
398.742092	0.994467
399.124656	0.994494
399.507158	0.995081
399.889598	0.994216
400.271977	0.994908
400.654294	0.996110
401.036549	0.996017
401.418742	0.995916
401.800874	0.994661
402.182944	0.994630
402.564952	0.994106
402.946898	0.995325
403.328783	0.994688
403.710606	0.995116
404.092367	0.993935
404.474067	0.993915
404.855705	0.992708
405.237282	0.993816
405.618797	0.991967
406.000250	0.989692
406.381642	0.990543
406.762972	0.987877
407.144240	0.988263
407.525447	0.987061
407.906593	0.983906
408.287677	0.982284
408.668700	0.980977
409.049661	0.976621
409.430560	0.976057
409.811399	0.972135
410.192176	0.968496
410.572891	0.965398
410.953545	0.961454
411.334138	0.958358
411.714669	0.954987
412.095139	0.951784
412.475547	0.946065
412.855894	0.942134
413.236180	0.937569
413.616405	0.933830
413.996568	0.927914
414.376670	0.922510
414.756711	0.917552
415.136691	0.912123
415.516609	0.903452
415.896466	0.897856
416.276262	0.888879
416.655997	0.884449
417.035670	0.872151
417.415283	0.864319
417.794834	0.857896
418.174324	0.852759
418.553753	0.847857
418.933121	0.833578
419.312428	0.824453
419.691674	0.817539
420.070859	0.805470
420.449983	0.799556
420.829045	0.786818
421.208047	0.782559
421.586988	0.770379
421.965867	0.760399
422.344686	0.746276
422.723444	0.743414
423.102141	0.743864
423.480777	0.721537
423.859352	0.722525
424.237866	0.700905
424.616319	0.692635
424.994712	0.679359
425.373044	0.676804
425.751314	0.660258
426.129524	0.661469
426.507673	0.642497
426.885762	0.631227
427.263789	0.625038
427.641756	0.624834
428.019662	0.609698
428.397508	0.600968
428.775292	0.595505
429.153016	0.582391
429.530679	0.581249
429.908282	0.568785
430.285824	0.570259
430.663305	0.545446
431.040726	0.556129
431.418086	0.551502
431.795385	0.537400
432.172624	0.531675
432.549802	0.526657
432.926920	0.520171
433.303977	0.514996
433.680974	0.507965
434.057910	0.501557
434.434786	0.496987
434.811601	0.494449
435.188355	0.474862
435.565050	0.480060
435.941683	0.477643
436.318257	0.459907
436.694770	0.456723
437.071222	0.452334
437.447614	0.454101
437.823946	0.457352
438.200218	0.444990
438.576429	0.452346
438.952580	0.443354
439.328670	0.438825
439.704700	0.443108
440.080670	0.442951
440.456580	0.422912
440.832429	0.428849
441.208218	0.438802
441.583947	0.426572
441.959616	0.425591
442.335224	0.429423
442.710773	0.420104
443.086261	0.417092
443.461689	0.430592
443.837057	0.419411
444.212365	0.409511
444.587612	0.416057
444.962800	0.405183
445.337927	0.406319
445.712995	0.432427
446.088002	0.394506
446.462949	0.404441
446.837837	0.408708
447.212664	0.397746
447.587431	0.389387
447.962139	0.360127
448.336786	0.319150
448.711374	0.329444
449.085901	0.372666
449.460369	0.377186
449.834776	0.380190
450.209124	0.359919
450.583412	0.352565
450.957640	0.345138
451.331808	0.356696
451.705917	0.379804
452.079965	0.383741
452.453954	0.372143
452.827883	0.378953
453.201752	0.374132
453.575562	0.385126
453.949311	0.373800
454.323001	0.379660
454.696632	0.375829
455.070202	0.368406
455.443713	0.360369
455.817164	0.354924
456.190556	0.350711
456.563888	0.347270
456.937160	0.345174
457.310373	0.362274
457.683526	0.360914
458.056619	0.366765
458.429653	0.367331
458.802628	0.370594
459.175542	0.365082
459.548398	0.347491
459.921194	0.340236
460.293930	0.339997
460.666607	0.317385
461.039224	0.306124
461.411782	0.302031
461.784280	0.301301
462.156719	0.305118
462.529099	0.309591
462.901419	0.325973
463.273680	0.329894
463.645882	0.329469
464.018024	0.335478
464.390106	0.328448
464.762130	0.313214
465.134094	0.296211
465.505999	0.265391
465.877845	0.236058
466.249631	0.223191
466.621358	0.230626
466.993026	0.244434
467.364634	0.250484
467.736184	0.259397
468.107674	0.267706
468.479105	0.266961
468.850477	0.273789
469.221790	0.280771
469.593043	0.290617
469.964238	0.295683
470.335373	0.295112
470.706449	0.293104
471.077467	0.293774
471.448425	0.255979
471.819324	0.231921
472.190164	0.231356
472.560945	0.259677
472.931667	0.282101
473.302330	0.286145
473.672934	0.297844
474.043479	0.286361
474.413965	0.288159
474.784393	0.291771
475.154761	0.286795
475.525070	0.283669
475.895321	0.289508
476.265513	0.283879
476.635645	0.279004
477.005719	0.278939
477.375734	0.275847
477.745691	0.269178
478.115588	0.265326
478.485427	0.259167
478.855207	0.246068
479.224928	0.228593
479.594591	0.216448
479.964194	0.220056
480.333739	0.221315
480.703226	0.222749
481.072653	0.221073
481.442022	0.216815
481.811333	0.213373
482.180584	0.216595
482.549777	0.222144
482.918912	0.225438
483.287988	0.225274
483.657005	0.225017
484.025964	0.231442
484.394864	0.228559
484.763706	0.229483
485.132489	0.234221
485.501213	0.234869
485.869879	0.233284
486.238487	0.236513
486.607036	0.234397
486.975527	0.238853
487.343959	0.234795
487.712333	0.233835
488.080648	0.235031
488.448905	0.234340
488.817104	0.235872
489.185244	0.230324
489.553326	0.226705
489.921350	0.216883
490.289315	0.199557
490.657222	0.194483
491.025070	0.195519
491.392861	0.197517
491.760593	0.203278
492.128267	0.209125
492.495883	0.214442
492.863440	0.220660
493.230939	0.226808
493.598380	0.228168
493.965763	0.230480
494.333088	0.232665
494.700354	0.234127
495.067563	0.233488
495.434713	0.236295
495.801805	0.234239
496.168839	0.235695
496.535815	0.237320
496.902733	0.237236
497.269593	0.238881
497.636395	0.236292
498.003139	0.236782
498.369825	0.240027
498.736453	0.236159
499.103023	0.237749
499.469535	0.237335
499.835989	0.237507
500.202385	0.238365
500.568723	0.241682
500.935003	0.236673
501.301226	0.240660
501.667390	0.235304
502.033497	0.233278
502.399546	0.236297
502.765537	0.238061
503.131470	0.236527
503.497345	0.232915
503.863163	0.241682
504.228923	0.234452
504.594625	0.233357
504.960269	0.238838
505.325856	0.234120
505.691385	0.238172
506.056856	0.234839
506.422270	0.234522
506.787625	0.236813
507.152924	0.234462
507.518164	0.235068
507.883347	0.236573
508.248472	0.238146
508.613540	0.233426
508.978550	0.235889
509.343503	0.236011
509.708398	0.233982
510.073236	0.231262
510.438016	0.231606
510.802738	0.232458
511.167403	0.231272
511.532010	0.233203
511.896561	0.228848
512.261053	0.227719
512.625488	0.229783
512.989866	0.230085
513.354186	0.230390
513.718449	0.231906
514.082655	0.228750
514.446803	0.230879
514.810894	0.228141
515.174927	0.230704
515.538904	0.230543
515.902822	0.227562
516.266684	0.230020
516.630488	0.231030
516.994235	0.229625
517.357925	0.228370
517.721558	0.227071
518.085133	0.226388
518.448651	0.226542
518.812112	0.228616
519.175516	0.228059
519.538863	0.226149
519.902152	0.227503
520.265385	0.224421
520.628560	0.226250
520.991678	0.226669
521.354739	0.225673
521.717743	0.226509
522.080690	0.227427
522.443580	0.224416
522.806413	0.225690
523.169189	0.224796
523.531908	0.223558
523.894569	0.227081
524.257174	0.227325
524.619722	0.225047
524.982213	0.225796
525.344647	0.224945
525.707025	0.225765
526.069345	0.223799
526.431608	0.225391
526.793815	0.223500
527.155964	0.227682
527.518057	0.226736
527.880093	0.227814
528.242072	0.226145
528.603995	0.228324
528.965860	0.229587
529.327669	0.228630
529.689421	0.229458
530.051117	0.230332
530.412755	0.227843
530.774337	0.230446
531.135862	0.230698
531.497331	0.230058
531.858743	0.232733
532.220098	0.229660
532.581396	0.232182
532.942638	0.232866
533.303824	0.233626
533.664953	0.233479
534.026025	0.235295
534.387040	0.233179
534.747999	0.233332
535.108902	0.231911
535.469748	0.236957
535.830537	0.234856
536.191270	0.235341
536.551947	0.234850
536.912567	0.234662
537.273131	0.236865
537.633638	0.236951
537.994089	0.237164
538.354483	0.238290
538.714821	0.235135
539.075103	0.234850
539.435328	0.235726
539.795497	0.239327
540.155609	0.235795
540.515665	0.233966
540.875665	0.239799
541.235609	0.238152
541.595496	0.238172
541.955328	0.234969
542.315102	0.237206
542.674821	0.238547
543.034483	0.238337
543.394090	0.238444
543.753640	0.240186
544.113134	0.235167
544.472571	0.238276
544.831953	0.235140
545.191278	0.239229
545.550548	0.239102
545.909761	0.235497
546.268918	0.236351
546.628019	0.234507
546.987064	0.237357
547.346053	0.239394
547.704986	0.236998
548.063863	0.237346
548.422684	0.237608
548.781449	0.239517
549.140158	0.237057
549.498811	0.240034
549.857408	0.242986
550.215949	0.237713
550.574434	0.240969
550.932864	0.238680
551.291237	0.237521
551.649555	0.238915
552.007817	0.238551
552.366022	0.239473
552.724173	0.239692
553.082267	0.239900
553.440305	0.236544
553.798288	0.241443
554.156215	0.237972
554.514086	0.238530
554.871902	0.241651
555.229661	0.240751
555.587365	0.241300
555.945014	0.244127
556.302606	0.240891
556.660143	0.243553
557.017625	0.239683
557.375050	0.242125
557.732421	0.239202
558.089735	0.241142
558.446994	0.241358
558.804197	0.240478
559.161345	0.240451
559.518437	0.243958
559.875474	0.241308
560.232455	0.240763
560.589381	0.241930
560.946251	0.242416
561.303065	0.239926
561.659825	0.241461
562.016528	0.242527
562.373177	0.245540
562.729770	0.242815
563.086307	0.244962
563.442789	0.242714
563.799216	0.245335
564.155587	0.244465
564.511904	0.245489
564.868164	0.245666
565.224370	0.245275
565.580520	0.247115
565.936615	0.247244
566.292654	0.249793
566.648638	0.246938
567.004567	0.247790
567.360441	0.248550
567.716260	0.250609
568.072023	0.248101
568.427732	0.249098
568.783385	0.251174
569.138982	0.249624
569.494525	0.249360
569.850013	0.252003
570.205445	0.250430
570.560823	0.253193
570.916145	0.254950
571.271412	0.253268
571.626625	0.254372
571.981782	0.255177
572.336884	0.256169
572.691931	0.255671
573.046923	0.256830
573.401860	0.258420
573.756743	0.259915
574.111570	0.258821
574.466342	0.259471
574.821059	0.258588
575.175722	0.261245
575.530330	0.261090
575.884882	0.261135
576.239380	0.263086
576.593823	0.263849
576.948211	0.263142
577.302544	0.266430
577.656823	0.266289
578.011047	0.266217
578.365216	0.266789
578.719330	0.268713
579.073389	0.268834
579.427394	0.269819
579.781344	0.270507
580.135239	0.272011
580.489080	0.271887
580.842866	0.274827
581.196597	0.274847
581.550273	0.273365
581.903895	0.274238
582.257463	0.272486
582.610975	0.275880
582.964434	0.274931
583.317837	0.277760
583.671186	0.278092
584.024481	0.278159
584.377721	0.280639
584.730906	0.281253
585.084037	0.280128
585.437113	0.282545
585.790135	0.281707
586.143103	0.284545
586.496016	0.285855
586.848874	0.283220
587.201679	0.283866
587.554428	0.287133
587.907124	0.285797
588.259765	0.286640
588.612352	0.287077
588.964884	0.291233
589.317362	0.290332
589.669786	0.290539
590.022155	0.288594
590.374470	0.288447
590.726731	0.290390
591.078937	0.295337
591.431090	0.291782
591.783188	0.295771
592.135232	0.296337
592.487222	0.296312
592.839157	0.294190
593.191038	0.296433
593.542866	0.298369
593.894639	0.302142
594.246358	0.299757
594.598022	0.299430
594.949633	0.302725
595.301190	0.304018
595.652692	0.303059
596.004141	0.299199
596.355535	0.307338
596.706876	0.307566
597.058162	0.310233
597.409395	0.307297
597.760573	0.304865
598.111698	0.308415
598.462768	0.308367
598.813785	0.309856
599.164748	0.311202
599.515657	0.311832
599.866511	0.314673
600.217312	0.310120
600.568060	0.315520
600.918753	0.311727
601.269392	0.312814
601.619978	0.316140
601.970510	0.313682
602.320988	0.313909
602.671412	0.311349
603.021783	0.314183
603.372100	0.315315
603.722363	0.315166
604.072572	0.315879
604.422728	0.315787
604.772830	0.318091
605.122878	0.317427
605.472872	0.318147
605.822813	0.316282
606.172701	0.318854
606.522534	0.316240
606.872314	0.316632
607.222041	0.317115
607.571714	0.315591
607.921333	0.316998
608.270899	0.316635
608.620411	0.313439
608.969870	0.317111
609.319276	0.317344
609.668627	0.317147
610.017926	0.315809
610.367171	0.314257
610.716362	0.315394
611.065500	0.315166
611.414585	0.314132
611.763616	0.315063
612.112594	0.314863
612.461518	0.314344
612.810389	0.312477
613.159207	0.314251
613.507971	0.316228
613.856682	0.312020
614.205340	0.313688
614.553945	0.310360
614.902496	0.314626
615.250994	0.312464
615.599439	0.312953
615.947830	0.312510
616.296169	0.313547
616.644454	0.313064
616.992686	0.313018
617.340864	0.310684
617.688990	0.314617
618.037063	0.310822
618.385082	0.313284
618.733048	0.309680
619.080961	0.312167
619.428821	0.311626
619.776628	0.311135
620.124382	0.313381
620.472083	0.313489
620.819731	0.312727
621.167326	0.316934
621.514868	0.316208
621.862357	0.320450
622.209793	0.320010
622.557176	0.322115
622.904506	0.323703
623.251783	0.325798
623.599007	0.328334
623.946179	0.327698
624.293297	0.329520
624.640363	0.333525
624.987376	0.334130
625.334336	0.336783
625.681243	0.338936
626.028097	0.339371
626.374899	0.340843
626.721647	0.340897
627.068343	0.343749
627.414987	0.344425
627.761577	0.346892
628.108115	0.345267
628.454600	0.350319
628.801032	0.347677
629.147412	0.350028
629.493739	0.350479
629.840014	0.353680
630.186236	0.350861
630.532405	0.356540
630.878521	0.354027
631.224585	0.355681
631.570597	0.359581
631.916556	0.358109
632.262462	0.358407
632.608316	0.360763
632.954117	0.361733
633.299866	0.361925
633.645562	0.362319
633.991206	0.366746
634.336797	0.369606
634.682336	0.371900
635.027823	0.373371
635.373257	0.374346
635.718639	0.377826
636.063968	0.376631
636.409245	0.382624
636.754470	0.383135
637.099642	0.385565
637.444762	0.389212
637.789829	0.388137
638.134845	0.391733
638.479808	0.392355
638.824719	0.392289
639.169577	0.396271
639.514383	0.394881
639.859137	0.399040
640.203839	0.399023
640.548489	0.399909
640.893086	0.401162
641.237632	0.402519
641.582125	0.401148
641.926566	0.402326
642.270955	0.402666
642.615292	0.403281
642.959576	0.401856
643.303809	0.402421
643.647990	0.402249
643.992118	0.403205
644.336195	0.406460
644.680219	0.404602
645.024192	0.405414
645.368112	0.399270
645.711981	0.398066
646.055797	0.393429
646.399562	0.395855
646.743274	0.388158
647.086935	0.385138
647.430544	0.385507
647.774101	0.384107
648.117606	0.384284
648.461059	0.384075
648.804460	0.386972
649.147810	0.392039
649.491108	0.393938
649.834354	0.395140
650.177548	0.400840
650.520690	0.406296
650.863781	0.407313
651.206820	0.406715
651.549807	0.411238
651.892742	0.415007
652.235626	0.415172
652.578458	0.416074
652.921238	0.421914
653.263967	0.419383
653.606644	0.423269
653.949269	0.423427
654.291843	0.426932
654.634365	0.423842
654.976836	0.427253
655.319255	0.426852
655.661622	0.428938
656.003938	0.428963
656.346203	0.431679
656.688416	0.430114
657.030577	0.433038
657.372687	0.435279
657.714746	0.435978
658.056753	0.433503
658.398708	0.437073
658.740612	0.437862
659.082465	0.434315
659.424266	0.434826
659.766016	0.433697
660.107715	0.436596
660.449362	0.435802
660.790958	0.436108
661.132503	0.436802
661.473996	0.434161
661.815438	0.435505
662.156829	0.435541
662.498168	0.435902
662.839456	0.437762
663.180693	0.435665
663.521879	0.435396
663.863013	0.436419
664.204097	0.435176
664.545129	0.431652
664.886110	0.432014
665.227040	0.429609
665.567918	0.432469
665.908746	0.429784
666.249522	0.429483
666.590248	0.431017
666.930922	0.428536
667.271545	0.427879
667.612118	0.427039
667.952639	0.429162
668.293109	0.428025
668.633528	0.430963
668.973896	0.430474
669.314213	0.431125
669.654480	0.432458
669.994695	0.433134
670.334859	0.433911
670.674973	0.434295
671.015035	0.434556
671.355047	0.434255
671.695008	0.435773
672.034918	0.437373
672.374777	0.436064
672.714585	0.438048
673.054342	0.437211
673.394049	0.438011
673.733705	0.435543
674.073310	0.436305
674.412864	0.439398
674.752368	0.440273
675.091820	0.440241
675.431223	0.444749
675.770574	0.444344
676.109875	0.447632
676.449125	0.447420
676.788324	0.449708
677.127473	0.455059
677.466571	0.454867
677.805619	0.456154
678.144616	0.457796
678.483562	0.459212
678.822458	0.462210
679.161303	0.463107
679.500098	0.463372
679.838842	0.465087
680.177535	0.464769
680.516179	0.462754
680.854771	0.462499
681.193314	0.455735
681.531805	0.446962
681.870247	0.435202
682.208638	0.427808
682.546978	0.426523
682.885268	0.428335
683.223508	0.435240
683.561697	0.438687
683.899836	0.441547
684.237925	0.444468
684.575963	0.446690
684.913951	0.450065
685.251889	0.445814
685.589776	0.448051
685.927614	0.450645
686.265401	0.444779
686.603137	0.445631
686.940824	0.439933
687.278460	0.438553
687.616046	0.437589
687.953582	0.432410
688.291068	0.434130
688.628504	0.430052
688.965889	0.431843
689.303224	0.435726
689.640510	0.440143
689.977745	0.445842
690.314930	0.453998
690.652065	0.457936
690.989150	0.465302
691.326185	0.471746
691.663170	0.476851
692.000105	0.484090
692.336990	0.491121
692.673825	0.493487
693.010610	0.500265
693.347345	0.506270
693.684030	0.506937
694.020665	0.512176
694.357251	0.521306
694.693786	0.520627
695.030272	0.524216
695.366707	0.528297
695.703093	0.531645
696.039429	0.529570
696.375716	0.530790
696.711952	0.533737
697.048139	0.535982
697.384276	0.538000
697.720363	0.536260
698.056400	0.535323
698.392388	0.540786
698.728326	0.543971
699.064214	0.546882
699.400053	0.547242
699.735842	0.550169
700.071581	0.553527
700.407270	0.556988
700.742910	0.558771
701.078501	0.565970
701.414042	0.565812
701.749533	0.568489
702.084974	0.578103
702.420366	0.570513
702.755709	0.577596
703.091002	0.585249
703.426246	0.579081
703.761440	0.584428
704.096584	0.590261
704.431679	0.585938
704.766725	0.588718
705.101721	0.590036
705.436668	0.585981
705.771565	0.593037
706.106413	0.589846
706.441212	0.585164
706.775961	0.583979
707.110661	0.587288
707.445311	0.583979
707.779913	0.580896
708.114465	0.579016
708.448967	0.576089
708.783421	0.567513
709.117825	0.562396
709.452180	0.563250
709.786485	0.556380
710.120742	0.546163
710.454949	0.547690
710.789107	0.540212
711.123216	0.530860
711.457275	0.532924
711.791286	0.523434
712.125247	0.523213
712.459159	0.533295
712.793023	0.525666
713.126837	0.530444
713.460602	0.530949
713.794318	0.539943
714.127985	0.538363
714.461602	0.548812
714.795171	0.551882
715.128691	0.560109
715.462162	0.567594
715.795584	0.572469
716.128957	0.576173
716.462281	0.582751
716.795556	0.585985
717.128782	0.591389
717.461960	0.601121
717.795088	0.598944
718.128167	0.604913
718.461198	0.613638
718.794180	0.614165
719.127113	0.617142
719.459997	0.621289
719.792833	0.627359
720.125619	0.628765
720.458357	0.634099
720.791046	0.633553
721.123686	0.637235
721.456278	0.644821
721.788821	0.641529
722.121315	0.646242
722.453761	0.649706
722.786158	0.648136
723.118506	0.643952
723.450805	0.651552
723.783056	0.648022
724.115259	0.645031
724.447412	0.644757
724.779518	0.646556
725.111574	0.645021
725.443582	0.641041
725.775542	0.642852
726.107453	0.634803
726.439315	0.635416
726.771129	0.632694
727.102895	0.626343
727.434612	0.619277
727.766281	0.617687
728.097901	0.617070
728.429473	0.616684
728.760996	0.615136
729.092471	0.615467
729.423897	0.619013
729.755276	0.618682
730.086606	0.618154
730.417887	0.612385
730.749120	0.603540
731.080305	0.594298
731.411442	0.590291
731.742530	0.595007
732.073570	0.593975
732.404562	0.586735
732.735506	0.587764
733.066401	0.593219
733.397249	0.602255
733.728048	0.612943
734.058798	0.625472
734.389501	0.636724
734.720156	0.646536
735.050762	0.654083
735.381320	0.654521
735.711831	0.664940
736.042293	0.669408
736.372707	0.664932
736.703073	0.669691
737.033391	0.672464
737.363661	0.668507
737.693883	0.664125
738.024056	0.663369
738.354182	0.663607
738.684260	0.652083
739.014290	0.648946
739.344272	0.649294
739.674207	0.643073
740.004093	0.642262
740.333931	0.642209
740.663722	0.642705
740.993464	0.643317
741.323159	0.647286
741.652806	0.651999
741.982405	0.656863
742.311956	0.661243
742.641460	0.663816
742.970915	0.667147
743.300323	0.675199
743.629683	0.680991
743.958996	0.683371
744.288260	0.687775
744.617477	0.693524
744.946647	0.695339
745.275768	0.700338
745.604842	0.700386
745.933869	0.710309
746.262847	0.710210
746.591778	0.703588
746.920662	0.711082
747.249498	0.717875
747.578286	0.707822
747.907027	0.704022
748.235720	0.705022
748.564365	0.700856
748.892963	0.699756
749.221514	0.703318
749.550017	0.708444
749.878473	0.707534
750.206881	0.714392
750.535242	0.716081
750.863555	0.715059
751.191821	0.716245
751.520039	0.719450
751.848210	0.724939
752.176334	0.715876
752.504411	0.716838
752.832440	0.724032
753.160421	0.728281
753.488356	0.727642
753.816243	0.724039
754.144082	0.731617
754.471875	0.735506
754.799620	0.730847
755.127318	0.731996
755.454969	0.732415
755.782572	0.732425
756.110129	0.737408
756.437638	0.739352
756.765100	0.735250
757.092515	0.734447
757.419882	0.732558
757.747203	0.737620
758.074477	0.736767
758.401703	0.733747
758.728882	0.730187
759.056014	0.727757
759.383099	0.727165
759.710138	0.728907
760.037129	0.725154
760.364073	0.719140
760.690970	0.721586
761.017820	0.726811
761.344623	0.723358
761.671379	0.713468
761.998088	0.702537
762.324751	0.679288
762.651366	0.637837
762.977935	0.570179
763.304456	0.518751
763.630931	0.509480
763.957359	0.548305
764.283740	0.593302
764.610074	0.619596
764.936362	0.650719
765.262602	0.677300
765.588796	0.698776
765.914943	0.716580
766.241044	0.734913
766.567097	0.741299
766.893104	0.751784
767.219064	0.757190
767.544978	0.763928
767.870845	0.776546
768.196665	0.781185
768.522438	0.779092
768.848165	0.780950
769.173846	0.789969
769.499479	0.793552
769.825066	0.797328
770.150607	0.802550
770.476101	0.797195
770.801548	0.799566
771.126949	0.810435
771.452303	0.814285
771.777611	0.813613
772.102872	0.812764
772.428087	0.818396
772.753256	0.821520
773.078378	0.822852
773.403453	0.831142
773.728482	0.836156
774.053465	0.829153
774.378401	0.833441
774.703291	0.841625
775.028135	0.840357
775.352932	0.842257
775.677683	0.846160
776.002388	0.846996
776.327046	0.845426
776.651658	0.849056
776.976224	0.851686
777.300743	0.854010
777.625216	0.855064
777.949643	0.856403
778.274024	0.857749
778.598359	0.858524
778.922647	0.857421
779.246889	0.857100
779.571086	0.860819
779.895236	0.863754
780.219339	0.860851
780.543397	0.858043
780.867409	0.856205
781.191374	0.859147
781.515294	0.860029
781.839167	0.859129
782.162995	0.861863
782.486776	0.859258
782.810511	0.860493
783.134201	0.863800
783.457844	0.861750
783.781441	0.863534
784.104993	0.870578
784.428498	0.870619
784.751958	0.866486
785.075372	0.869215
785.398739	0.871555
785.722061	0.868454
786.045337	0.864953
786.368568	0.868313
786.691752	0.871489
787.014891	0.857262
787.337983	0.847814
787.661030	0.840600
787.984031	0.822890
788.306987	0.810215
788.629897	0.812436
788.952760	0.817179
789.275579	0.820765
789.598351	0.836396
789.921078	0.848606
790.243759	0.850908
790.566395	0.856585
790.888984	0.862934
791.211529	0.867850
791.534027	0.871229
791.856480	0.874122
792.178888	0.878737
792.501249	0.881909
792.823566	0.882095
793.145836	0.882403
793.468062	0.884513
793.790241	0.884184
794.112375	0.883036
794.434464	0.878866
794.756507	0.875994
795.078505	0.877673
795.400457	0.871945
795.722364	0.860230
796.044226	0.852796
796.366042	0.852747
796.687812	0.855240
797.009538	0.852112
797.331218	0.853891
797.652852	0.858129
797.974442	0.864214
798.295986	0.863857
798.617484	0.866846
798.938938	0.870912
799.260346	0.876993
799.581709	0.877025
799.903026	0.879743
800.224299	0.880983
800.545526	0.883843
800.866708	0.888940
801.187845	0.892230
801.508936	0.891565
801.829983	0.889744
802.150984	0.892443
802.471940	0.897148
802.792851	0.896795
803.113717	0.897807
803.434538	0.895902
803.755314	0.898363
804.076045	0.900577
804.396731	0.898715
804.717372	0.899549
805.037967	0.901419
805.358518	0.898904
805.679024	0.897525
805.999485	0.896554
806.319901	0.896863
806.640272	0.898111
806.960598	0.896135
807.280879	0.893151
807.601115	0.891326
807.921306	0.895628
808.241453	0.896022
808.561554	0.894720
808.881611	0.893785
809.201623	0.895288
809.521590	0.896744
809.841513	0.897566
810.161390	0.896179
810.481223	0.897223
810.801011	0.901049
811.120755	0.902250
811.440453	0.900932
811.760107	0.900481
812.079716	0.900383
812.399281	0.904307
812.718801	0.906942
813.038276	0.907912
813.357707	0.905907
813.677093	0.904052
813.996434	0.906502
814.315731	0.908590
814.634983	0.909037
814.954191	0.907284
815.273354	0.905030
815.592473	0.901045
815.911547	0.901167
816.230577	0.898378
816.549562	0.895272
816.868502	0.896792
817.187399	0.892439
817.506250	0.888649
817.825058	0.889465
818.143821	0.886496
818.462539	0.880515
818.781213	0.872928
819.099843	0.861747
819.418429	0.846728
819.736970	0.829354
820.055466	0.809576
820.373919	0.783794
820.692327	0.751436
821.010691	0.716460
821.329011	0.638096
821.647286	0.523142
821.965517	0.409444
822.283704	0.366601
822.601847	0.367888
822.919945	0.403691
823.237999	0.437154
823.556010	0.484286
823.873976	0.540067
824.191897	0.590282
824.509775	0.633589
824.827609	0.678688
825.145398	0.701952
825.463144	0.704323
825.780845	0.687461
826.098502	0.667789
826.416116	0.622188
826.733685	0.578592
827.051210	0.569820
827.368692	0.584561
827.686129	0.622291
828.003522	0.675237
828.320872	0.722335
828.638177	0.766713
828.955439	0.799551
829.272656	0.821922
829.589830	0.838558
829.906960	0.854502
830.224046	0.865594
830.541088	0.877655
830.858086	0.881525
831.175041	0.887499
831.491952	0.886671
831.808819	0.883242
832.125642	0.878029
832.442421	0.861908
832.759157	0.840293
833.075849	0.793675
833.392497	0.729150
833.709101	0.688738
834.025662	0.698617
834.342179	0.729752
834.658653	0.768884
834.975083	0.805856
835.291469	0.830414
835.607811	0.854056
835.924110	0.869997
836.240366	0.887564
836.556578	0.901091
836.872746	0.909646
837.188871	0.915420
837.504952	0.919481
837.820990	0.922567
838.136984	0.927188
838.452935	0.929887
838.768842	0.931546
839.084706	0.923929
839.400526	0.899703
839.716303	0.859366
840.032037	0.836717
840.347727	0.840084
840.663373	0.858502
840.978977	0.879350
841.294537	0.901581
841.610054	0.917405
841.925527	0.926061
842.240957	0.933624
842.556344	0.940178
842.871687	0.945227
843.186987	0.950466
843.502244	0.951241
843.817458	0.952347
844.132629	0.956345
844.447756	0.959685
844.762840	0.960501
845.077881	0.960030
845.392879	0.959975
845.707833	0.962810
846.022745	0.964856
846.337613	0.965107
846.652438	0.965922
846.967221	0.964451
847.281960	0.966207
847.596656	0.968535
847.911309	0.965911
848.225919	0.967602
848.540485	0.967312
848.855009	0.969301
849.169490	0.968037
849.483928	0.968966
849.798323	0.969564
850.112675	0.970043
850.426984	0.969320
850.741251	0.970350
851.055474	0.970762
851.369654	0.968271
851.683792	0.968867
851.997887	0.970172
852.311938	0.970059
852.625947	0.970976
852.939914	0.967344
853.253837	0.969635
853.567718	0.971439
853.881555	0.970045
854.195350	0.967681
854.509103	0.969701
854.822812	0.969512
855.136479	0.970511
855.450103	0.968953
855.763685	0.969049
856.077224	0.969194
856.390720	0.970147
856.704173	0.970428
857.017584	0.968135
857.330953	0.966940
857.644278	0.968238
857.957561	0.968125
858.270802	0.968310
858.584000	0.967816
858.897155	0.966850
859.210268	0.967141
859.523339	0.968781
859.836367	0.970146
860.149352	0.971337
860.462295	0.968829
860.775195	0.969923
861.088054	0.969528
861.400869	0.969784
861.713642	0.969533
862.026373	0.969853
862.339062	0.972234
862.651708	0.967126
862.964312	0.968407
863.276873	0.969527
863.589392	0.967911
863.901869	0.966343
864.214303	0.965691
864.526696	0.964728
864.839045	0.963621
865.151353	0.961381
865.463619	0.962477
865.775842	0.962858
866.088023	0.962655
866.400162	0.963002
866.712258	0.962660
867.024313	0.963372
867.336325	0.963902
867.648296	0.963699
867.960224	0.962227
868.272110	0.962479
868.583954	0.964016
868.895755	0.964535
869.207515	0.961503
869.519233	0.959488
869.830909	0.961005
870.142542	0.962540
870.454134	0.962337
870.765684	0.960115
871.077191	0.957934
871.388657	0.959343
871.700081	0.957534
872.011463	0.959453
872.322803	0.957564
872.634101	0.956627
872.945357	0.953769
873.256571	0.953959
873.567744	0.953714
873.878874	0.954244
874.189963	0.951960
874.501010	0.951711
874.812015	0.949491
875.122979	0.950589
875.433900	0.952845
875.744780	0.952895
876.055618	0.951413
876.366415	0.949696
876.677169	0.950774
876.987882	0.951307
877.298554	0.951542
877.609183	0.947629
877.919771	0.945339
878.230317	0.943775
878.540822	0.940409
878.851285	0.934615
879.161707	0.927836
879.472087	0.913896
879.782425	0.899029
880.092722	0.865022
880.402977	0.812634
880.713191	0.751554
881.023363	0.692203
881.333494	0.658638
881.643583	0.630832
881.953631	0.630518
882.263637	0.659373
882.573602	0.697860
882.883526	0.723329
883.193408	0.747435
883.503248	0.770031
883.813048	0.797555
884.122806	0.826797
884.432522	0.850522
884.742197	0.870476
885.051831	0.881657
885.361424	0.891641
885.670975	0.903735
885.980485	0.913030
886.289954	0.919812
886.599382	0.925359
886.908768	0.928470
887.218113	0.935287
887.527417	0.938432
887.836680	0.940604
888.145901	0.944458
888.455082	0.946063
888.764221	0.950939
889.073319	0.953293
889.382376	0.953421
889.691392	0.953328
890.000366	0.953971
890.309300	0.953917
890.618193	0.953322
890.927044	0.951871
891.235855	0.951366
891.544625	0.950730
891.853353	0.952045
892.162041	0.949392
892.470687	0.942434
892.779293	0.938431
893.087858	0.933704
893.396381	0.925921
893.704864	0.913512
894.013306	0.888317
894.321707	0.862214
894.630068	0.848075
894.938387	0.843065
895.246665	0.844211
895.554903	0.856359
895.863100	0.870107
896.171256	0.887674
896.479371	0.906378
896.787446	0.918348
897.095480	0.925831
897.403473	0.928058
897.711425	0.932302
898.019336	0.939672
898.327207	0.943216
898.635038	0.945254
898.942827	0.944278
899.250576	0.947903
899.558284	0.951844
899.865952	0.954279
900.173579	0.955167
900.481165	0.956639
900.788711	0.959583
901.096216	0.961393
901.403681	0.961331
901.711105	0.963720
902.018489	0.963280
902.325832	0.962435
902.633135	0.962039
902.940397	0.955664
903.247619	0.943303
903.554800	0.917821
903.861941	0.878323
904.169041	0.842640
904.476101	0.824744
904.783121	0.827164
905.090100	0.842735
905.397039	0.864599
905.703938	0.886332
906.010796	0.906428
906.317614	0.922755
906.624391	0.934130
906.931129	0.944873
907.237826	0.952841
907.544483	0.959659
907.851099	0.963076
908.157675	0.967582
908.464211	0.970167
908.770707	0.973103
909.077163	0.974385
909.383578	0.974479
909.689954	0.974498
909.996289	0.975913
910.302584	0.978018
910.608839	0.979009
910.915054	0.978454
911.221229	0.977947
911.527363	0.977346
911.833458	0.977498
912.139513	0.976885
912.445527	0.975286
912.751502	0.973504
913.057436	0.972832
913.363331	0.971170
913.669186	0.966415
913.975000	0.961444
914.280775	0.954944
914.586510	0.948857
914.892205	0.935448
915.197859	0.914340
915.503475	0.885672
915.809050	0.867521
916.114585	0.861576
916.420081	0.859642
916.725536	0.854973
917.030952	0.864649
917.336328	0.876491
917.641665	0.891836
917.946961	0.906943
918.252218	0.918617
918.557435	0.927933
918.862612	0.937461
919.167750	0.942920
919.472848	0.947386
919.777906	0.952343
920.082925	0.958649
920.387904	0.961732
920.692843	0.962251
920.997743	0.964679
921.302603	0.967255
921.607423	0.969313
921.912204	0.972440
922.216946	0.972137
922.521647	0.973952
922.826310	0.974867
923.130932	0.977989
923.435516	0.978774
923.740059	0.979539
924.044564	0.978996
924.349028	0.979980
924.653454	0.982562
924.957840	0.985095
925.262186	0.984303
925.566493	0.985426
925.870761	0.985407
926.174989	0.986601
926.479178	0.988453
926.783328	0.987867
927.087438	0.988929
927.391509	0.988310
927.695541	0.989953
927.999533	0.990035
928.303486	0.989803
928.607400	0.991797
928.911275	0.989348
929.215110	0.989997
929.518906	0.991063
929.822663	0.990223
930.126381	0.991203
930.430060	0.989154
930.733699	0.990557
931.037299	0.988858
931.340861	0.991374
931.644383	0.990059
931.947866	0.989848
932.251309	0.990663
932.554714	0.990976
932.858080	0.990487
933.161407	0.989847
933.464694	0.991741
933.767943	0.991173
934.071153	0.990581
934.374323	0.991815
934.677455	0.990872
934.980548	0.992382
935.283602	0.991307
935.586617	0.991575
935.889593	0.991042
936.192530	0.990697
936.495428	0.992558
936.798287	0.990902
937.101108	0.990094
937.403890	0.989241
937.706632	0.988720
938.009336	0.987663
938.312002	0.985745
938.614628	0.985025
938.917216	0.982619
939.219765	0.982573
939.522275	0.982952
939.824747	0.983190
940.127179	0.983379
940.429573	0.983594
940.731929	0.984006
941.034246	0.985855
941.336524	0.985745
941.638763	0.988064
941.940964	0.986427
942.243126	0.986940
942.545250	0.987286
942.847335	0.988040
943.149381	0.989000
943.451389	0.987431
943.753359	0.988389
944.055290	0.991219
944.357182	0.990275
944.659036	0.989232
944.960851	0.989561
945.262628	0.989961
945.564367	0.990644
945.866067	0.990722
946.167729	0.991687
946.469352	0.990226
946.770937	0.989265
947.072484	0.990532
947.373992	0.990836
947.675462	0.989126
947.976893	0.991130
948.278286	0.990484
948.579641	0.992289
948.880958	0.991602
949.182236	0.991751
949.483476	0.991223
949.784678	0.989985
950.085841	0.991242
950.386967	0.991029
950.688054	0.990678
950.989103	0.991342
951.290114	0.989968
951.591087	0.988967
951.892021	0.988948
952.192917	0.988815
952.493776	0.988659
952.794596	0.988407
953.095378	0.987575
953.396122	0.987885
953.696828	0.987041
953.997496	0.989488
954.298126	0.991092
954.598718	0.991272
954.899272	0.990806
955.199788	0.990097
955.500266	0.991669
955.800706	0.993016
956.101108	0.993653
956.401472	0.993531
956.701798	0.994300
957.002087	0.993307
957.302337	0.992961
957.602550	0.994902
957.902724	0.995376
958.202861	0.995487
958.502960	0.996958
958.803022	0.993207
959.103045	0.995479
959.403031	0.995973
959.702979	0.995760
960.002889	0.996304
960.302762	0.995338
960.602596	0.996715
960.902393	0.994441
961.202153	0.997028
961.501875	0.997443
961.801559	0.995738
962.101205	0.996185
962.400814	0.996270
962.700385	0.997346
962.999918	0.996437
963.299414	0.996266
963.598873	0.995826
963.898293	0.997148
964.197677	0.996877
964.497022	0.997373
964.796331	0.998805
965.095601	0.997618
965.394835	0.996619
965.694030	0.997889
965.993189	0.997722
966.292309	0.997316
966.591393	0.997538
966.890439	0.997448
967.189447	0.997018
967.488419	0.999246
967.787353	0.996686
968.086249	0.996022
968.385108	0.997005
968.683930	0.997893
968.982714	0.996994
969.281462	0.997853
969.580172	0.995643
969.878844	0.997731
970.177480	0.996818
970.476078	0.998434
970.774639	0.997520
971.073162	0.997379
971.371649	0.996220
971.670098	0.997867
971.968510	0.996839
972.266885	0.996568
972.565223	0.996438
972.863524	0.996347
973.161788	0.996565
973.460014	0.998212
973.758204	0.995728
974.056356	0.996248
974.354471	0.994104
974.652550	0.996377
974.950591	0.996612
975.248595	0.996889
975.546563	0.997318
975.844493	0.998475
976.142386	0.996353
976.440243	0.997993
976.738062	0.997302
977.035845	0.998322
977.333590	0.997242
977.631299	0.998959
977.928971	0.997081
978.226606	0.996189
978.524204	0.996844
978.821765	0.997061
979.119290	0.996747
979.416777	0.997052
979.714228	0.997714
980.011642	0.996383
980.309020	0.997133
980.606360	0.997109
980.903664	0.997618
981.200931	0.997201
981.498162	0.995558
981.795356	0.995659
982.092513	0.993649
982.389633	0.994673
982.686717	0.991305
982.983764	0.991449
983.280775	0.990231
983.577749	0.991732
983.874686	0.991086
984.171587	0.991830
984.468451	0.994835
984.765279	0.995505
985.062070	0.993524
985.358824	0.995259
985.655543	0.995399
985.952224	0.995984
986.248869	0.996654
986.545478	0.997114
986.842050	0.997694
987.138586	0.996338
987.435086	0.997879
987.731549	0.998977
988.027975	0.999413
988.324366	0.998328
988.620719	0.997867
988.917037	0.996438
989.213318	0.997960
989.509563	0.999864
989.805772	0.999712
990.101944	0.998022
990.398080	0.997944
990.694180	0.998044
990.990244	0.997641
991.286271	0.998034
991.582262	0.998600
991.878217	0.998495
992.174136	0.998433
992.470019	0.998496
992.765865	0.999050
993.061676	0.998254
993.357450	0.998489
993.653188	0.997254
993.948890	0.998078
994.244556	0.998008
994.540186	0.998040
994.835780	0.996199
995.131337	0.997080
995.426859	0.995849
995.722345	0.997034
996.017795	0.996233
996.313208	0.996582
996.608586	0.995362
996.903928	0.997903
997.199234	0.997926
997.494504	0.997347
997.789738	0.996346
998.084936	0.996354
998.380099	0.998961
998.675225	0.997428
998.970316	0.997223
999.265371	0.998662
999.560390	0.998056
999.855373	0.998533
1000.150320	0.997862
1000.445232	0.998796
1000.740108	0.997898
1001.034948	0.997717
1001.329752	0.998823
1001.624521	0.999404
1001.919254	0.998922
1002.213951	0.997837
1002.508613	0.998067
1002.803239	0.998878
1003.097829	0.998729
1003.392384	0.999282
1003.686903	0.998722
1003.981386	0.999703
1004.275834	0.999724
1004.570246	0.999511
1004.864623	0.999166
1005.158964	0.998972
1005.453270	0.998129
1005.747540	0.998211
1006.041775	0.998391
1006.335974	0.999298
1006.630138	0.999915
1006.924266	1.000212
1007.218359	1.000866
1007.512416	1.000408
1007.806438	1.000012
1008.100425	0.999193
1008.394376	0.999133
1008.688292	0.999044
1008.982172	1.000853
1009.276017	0.999881
1009.569827	0.998933
1009.863602	0.998329
1010.157341	1.000710
1010.451045	0.999564
1010.744714	1.000258
1011.038347	0.999912
1011.331945	0.999197
1011.625508	0.998861
1011.919036	0.998152
1012.212528	0.998593
1012.505986	0.996829
1012.799408	0.999130
1013.092795	1.000012
1013.386147	0.999113
1013.679464	0.999727
1013.972745	0.999099
1014.265992	0.997566
1014.559204	0.999044
1014.852380	0.999307
1015.145521	0.999716
1015.438628	0.999116
1015.731699	0.998498
1016.024736	0.998620
1016.317737	0.998218
1016.610703	0.998405
1016.903635	0.999938
1017.196531	0.999266
1017.489393	0.999990
1017.782219	0.999341
1018.075011	0.998447
1018.367768	0.998606
1018.660490	1.000089
1018.953177	1.000089
1019.245829	1.000089
