Dividing Wavelength (nm)	Counts (n)	Blue Motor Position (mm): 0.000000	Red Motor Position (mm): 22.800000	
326.493990	1.001255
326.888308	1.001255
327.282561	1.001255
327.676750	1.000788
328.070874	0.999023
328.464933	0.999598
328.858929	0.998896
329.252859	1.000036
329.646726	0.998721
330.040528	1.000296
330.434265	0.999148
330.827938	1.001455
331.221547	1.000913
331.615091	0.999796
332.008571	1.001189
332.401986	0.999707
332.795338	1.000049
333.188625	0.999468
333.581847	1.000775
333.975006	1.000085
334.368100	0.999556
334.761129	0.998642
335.154095	1.000336
335.546996	0.998390
335.939833	0.994105
336.332606	0.994568
336.725315	0.994608
337.117960	0.997090
337.510540	0.994456
337.903056	0.993681
338.295508	0.993584
338.687896	0.993907
339.080220	0.994969
339.472480	0.994297
339.864676	0.993204
340.256807	0.994516
340.648875	0.994596
341.040879	0.995206
341.432818	0.994494
341.824694	0.995416
342.216506	0.995671
342.608253	0.995353
342.999937	0.994640
343.391557	0.994094
343.783113	0.995191
344.174605	0.994558
344.566033	0.994997
344.957397	0.994185
345.348697	0.993422
345.739934	0.995451
346.131106	0.994369
346.522215	0.993855
346.913260	0.995105
347.304241	0.993993
347.695159	0.994160
348.086012	0.993095
348.476802	0.994463
348.867528	0.995174
349.258191	0.994202
349.648789	0.995424
350.039324	0.994413
350.429796	0.994993
350.820203	0.994513
351.210548	0.994469
351.600828	0.994675
351.991045	0.993493
352.381198	0.994197
352.771288	0.994765
353.161314	0.993837
353.551276	0.995288
353.941175	0.993972
354.331010	0.994563
354.720782	0.994527
355.110490	0.994770
355.500135	0.994460
355.889717	0.994424
356.279235	0.994172
356.668689	0.993372
357.058080	0.993282
357.447408	0.995131
357.836672	0.994335
358.225873	0.994798
358.615010	0.995936
359.004084	0.994914
359.393095	0.995854
359.782043	0.994815
360.170927	0.996242
360.559748	0.994712
360.948505	0.994076
361.337199	0.994502
361.725830	0.994796
362.114398	0.995150
362.502903	0.995598
362.891344	0.995566
363.279722	0.993664
363.668037	0.995463
364.056289	0.993270
364.444478	0.995860
364.832603	0.994472
365.220665	0.994150
365.608665	0.995318
365.996601	0.994278
366.384474	0.994586
366.772284	0.995055
367.160031	0.993509
367.547715	0.993857
367.935336	0.994339
368.322893	0.994192
368.710388	0.992857
369.097820	0.994940
369.485189	0.993862
369.872495	0.994025
370.259738	0.992662
370.646918	0.994753
371.034035	0.994603
371.421090	0.993987
371.808081	0.993845
372.195010	0.995135
372.581875	0.994676
372.968678	0.994769
373.355418	0.994788
373.742096	0.994328
374.128710	0.995703
374.515262	0.994701
374.901751	0.995522
375.288177	0.994974
375.674540	0.995219
376.060841	0.994560
376.447079	0.995857
376.833254	0.993658
377.219367	0.995167
377.605417	0.995599
377.991404	0.995286
378.377329	0.993721
378.763191	0.994693
379.148991	0.996561
379.534727	0.995590
379.920402	0.995616
380.306013	0.995760
380.691563	0.996047
381.077049	0.994443
381.462474	0.995483
381.847835	0.996270
382.233134	0.995165
382.618371	0.996212
383.003545	0.995754
383.388657	0.995285
383.773706	0.997891
384.158693	0.996763
384.543618	0.995555
384.928480	0.996260
385.313280	0.996025
385.698017	0.997145
386.082692	0.996649
386.467305	0.996214
386.851856	0.996199
387.236344	0.995683
387.620770	0.994829
388.005133	0.997279
388.389435	0.996810
388.773674	0.996922
389.157851	0.997765
389.541965	0.996431
389.926018	0.995593
390.310008	0.997079
390.693936	0.996810
391.077802	0.996349
391.461606	0.996068
391.845348	0.996827
392.229027	0.996565
392.612645	0.996545
392.996200	0.997143
393.379694	0.996611
393.763125	0.997440
394.146494	0.997277
394.529801	0.996632
394.913047	0.997001
395.296230	0.996530
395.679351	0.996758
396.062410	0.995800
396.445408	0.997047
396.828343	0.996698
397.211217	0.996681
397.594028	0.997184
397.976778	0.996204
398.359466	0.996139
398.742092	0.996395
399.124656	0.996331
399.507158	0.997464
399.889598	0.997256
400.271977	0.997612
400.654294	0.997232
401.036549	0.996814
401.418742	0.997058
401.800874	0.996118
402.182944	0.996706
402.564952	0.996112
402.946898	0.997686
403.328783	0.997471
403.710606	0.996553
404.092367	0.997521
404.474067	0.996710
404.855705	0.996653
405.237282	0.996704
405.618797	0.996580
406.000250	0.996449
406.381642	0.996970
406.762972	0.996624
407.144240	0.997372
407.525447	0.997121
407.906593	0.997039
408.287677	0.996654
408.668700	0.997898
409.049661	0.995500
409.430560	0.996655
409.811399	0.996413
410.192176	0.995652
410.572891	0.996305
410.953545	0.996911
411.334138	0.995470
411.714669	0.996873
412.095139	0.995673
412.475547	0.997393
412.855894	0.995728
413.236180	0.996371
413.616405	0.996939
413.996568	0.996525
414.376670	0.996603
414.756711	0.996475
415.136691	0.996927
415.516609	0.996474
415.896466	0.996301
416.276262	0.996007
416.655997	0.996266
417.035670	0.995082
417.415283	0.996212
417.794834	0.996533
418.174324	0.995644
418.553753	0.995708
418.933121	0.996027
419.312428	0.995694
419.691674	0.995592
420.070859	0.996180
420.449983	0.995492
420.829045	0.996136
421.208047	0.995199
421.586988	0.995233
421.965867	0.993875
422.344686	0.994388
422.723444	0.992687
423.102141	0.992828
423.480777	0.991669
423.859352	0.990359
424.237866	0.988865
424.616319	0.988901
424.994712	0.987628
425.373044	0.986182
425.751314	0.985015
426.129524	0.983297
426.507673	0.981444
426.885762	0.980039
427.263789	0.977758
427.641756	0.976077
428.019662	0.973926
428.397508	0.970687
428.775292	0.967468
429.153016	0.965138
429.530679	0.963899
429.908282	0.960772
430.285824	0.957812
430.663305	0.951907
431.040726	0.950507
431.418086	0.948076
431.795385	0.942771
432.172624	0.938674
432.549802	0.935199
432.926920	0.930720
433.303977	0.924467
433.680974	0.920847
434.057910	0.915863
434.434786	0.910772
434.811601	0.905645
435.188355	0.897306
435.565050	0.893685
435.941683	0.888381
436.318257	0.879291
436.694770	0.872607
437.071222	0.866068
437.447614	0.860637
437.823946	0.856082
438.200218	0.846304
438.576429	0.841748
438.952580	0.832494
439.328670	0.823880
439.704700	0.819901
440.080670	0.812715
440.456580	0.797181
440.832429	0.791350
441.208218	0.788362
441.583947	0.776548
441.959616	0.768334
442.335224	0.762248
442.710773	0.750740
443.086261	0.740957
443.461689	0.738846
443.837057	0.725565
444.212365	0.712429
444.587612	0.707466
444.962800	0.694758
445.337927	0.686600
445.712995	0.691931
446.088002	0.662962
446.462949	0.660442
446.837837	0.654112
447.212664	0.640995
447.587431	0.625413
447.962139	0.599728
448.336786	0.566361
448.711374	0.565512
449.085901	0.584959
449.460369	0.578829
449.834776	0.573358
450.209124	0.551341
450.583412	0.537667
450.957640	0.527254
451.331808	0.526940
451.705917	0.536096
452.079965	0.532356
452.453954	0.516490
452.827883	0.515555
453.201752	0.504669
453.575562	0.508452
453.949311	0.491993
454.323001	0.491612
454.696632	0.483569
455.070202	0.470977
455.443713	0.459421
455.817164	0.450056
456.190556	0.440576
456.563888	0.432696
456.937160	0.426457
457.310373	0.436746
457.683526	0.430433
458.056619	0.431188
458.429653	0.427968
458.802628	0.426883
459.175542	0.418476
459.548398	0.399184
459.921194	0.389497
460.293930	0.386951
460.666607	0.363545
461.039224	0.350206
461.411782	0.343359
461.784280	0.339230
462.156719	0.340078
462.529099	0.341117
462.901419	0.353622
463.273680	0.355683
463.645882	0.352899
464.018024	0.356749
464.390106	0.348175
464.762130	0.332103
465.134094	0.314888
465.505999	0.284289
465.877845	0.254307
466.249631	0.240053
466.621358	0.245484
466.993026	0.257176
467.364634	0.262252
467.736184	0.270146
468.107674	0.277661
468.479105	0.276084
468.850477	0.282397
469.221790	0.288624
469.593043	0.297738
469.964238	0.302297
470.335373	0.301217
470.706449	0.298992
471.077467	0.299046
471.448425	0.261432
471.819324	0.237063
472.190164	0.235852
472.560945	0.264809
472.931667	0.286310
473.302330	0.289846
473.672934	0.301636
474.043479	0.289739
474.413965	0.291717
474.784393	0.294880
475.154761	0.289845
475.525070	0.286602
475.895321	0.292174
476.265513	0.286187
476.635645	0.281849
477.005719	0.281773
477.375734	0.277959
477.745691	0.271384
478.115588	0.267763
478.485427	0.261367
478.855207	0.248017
479.224928	0.230834
479.594591	0.218945
479.964194	0.222312
480.333739	0.223504
480.703226	0.224846
481.072653	0.223204
481.442022	0.218790
481.811333	0.215294
482.180584	0.218398
482.549777	0.224170
482.918912	0.227382
483.287988	0.226811
483.657005	0.226750
484.025964	0.233276
484.394864	0.230449
484.763706	0.231147
485.132489	0.236124
485.501213	0.236643
485.869879	0.234895
486.238487	0.238440
486.607036	0.235814
486.975527	0.240588
487.343959	0.236417
487.712333	0.235664
488.080648	0.236853
488.448905	0.235791
488.817104	0.237251
489.185244	0.231919
489.553326	0.228748
489.921350	0.218559
490.289315	0.201113
490.657222	0.196328
491.025070	0.197508
491.392861	0.199177
491.760593	0.205148
492.128267	0.210531
492.495883	0.216162
492.863440	0.222382
493.230939	0.228576
493.598380	0.230005
493.965763	0.232108
494.333088	0.234261
494.700354	0.235757
495.067563	0.235010
495.434713	0.238022
495.801805	0.235955
496.168839	0.237185
496.535815	0.238782
496.902733	0.238674
497.269593	0.240022
497.636395	0.238162
498.003139	0.238227
498.369825	0.241097
498.736453	0.237339
499.103023	0.239046
499.469535	0.238689
499.835989	0.238763
500.202385	0.239495
500.568723	0.242952
500.935003	0.237861
501.301226	0.242310
501.667390	0.236410
502.033497	0.234628
502.399546	0.237410
502.765537	0.239352
503.131470	0.237793
503.497345	0.234007
503.863163	0.242942
504.228923	0.235863
504.594625	0.234579
504.960269	0.239799
505.325856	0.234848
505.691385	0.239428
506.056856	0.236085
506.422270	0.235607
506.787625	0.238073
507.152924	0.235700
507.518164	0.235870
507.883347	0.237442
508.248472	0.239267
508.613540	0.234504
508.978550	0.236922
509.343503	0.236988
509.708398	0.235028
510.073236	0.232598
510.438016	0.232868
510.802738	0.233514
511.167403	0.232302
511.532010	0.234561
511.896561	0.229857
512.261053	0.228599
512.625488	0.230820
512.989866	0.231105
513.354186	0.231624
513.718449	0.233292
514.082655	0.229650
514.446803	0.231711
514.810894	0.229350
515.174927	0.232034
515.538904	0.231403
515.902822	0.228684
516.266684	0.230826
516.630488	0.232106
516.994235	0.230698
517.357925	0.229475
517.721558	0.227906
518.085133	0.227148
518.448651	0.227551
518.812112	0.229817
519.175516	0.229338
519.538863	0.227151
519.902152	0.228643
520.265385	0.225426
520.628560	0.227055
520.991678	0.227785
521.354739	0.226383
521.717743	0.227814
522.080690	0.228234
522.443580	0.225354
522.806413	0.226417
523.169189	0.225834
523.531908	0.224607
523.894569	0.228053
524.257174	0.228366
524.619722	0.225949
524.982213	0.226982
525.344647	0.225781
525.707025	0.226872
526.069345	0.224915
526.431608	0.226661
526.793815	0.224935
527.155964	0.228581
527.518057	0.227846
527.880093	0.228819
528.242072	0.227171
528.603995	0.229255
528.965860	0.230798
529.327669	0.229733
529.689421	0.230491
530.051117	0.231605
530.412755	0.229127
530.774337	0.231627
531.135862	0.231982
531.497331	0.231181
531.858743	0.234180
532.220098	0.230851
532.581396	0.233271
532.942638	0.233788
533.303824	0.234683
533.664953	0.234525
534.026025	0.236161
534.387040	0.234211
534.747999	0.234275
535.108902	0.233284
535.469748	0.237855
535.830537	0.235734
536.191270	0.236248
536.551947	0.236005
536.912567	0.235814
537.273131	0.237695
537.633638	0.237708
537.994089	0.238177
538.354483	0.239276
538.714821	0.235849
539.075103	0.236134
539.435328	0.236822
539.795497	0.240349
540.155609	0.236936
540.515665	0.235309
540.875665	0.240715
541.235609	0.239416
541.595496	0.239408
541.955328	0.236019
542.315102	0.238581
542.674821	0.239646
543.034483	0.239604
543.394090	0.239276
543.753640	0.241445
544.113134	0.236272
544.472571	0.239461
544.831953	0.236459
545.191278	0.240936
545.550548	0.240302
545.909761	0.237162
546.268918	0.237524
546.628019	0.236239
546.987064	0.238711
547.346053	0.240549
547.704986	0.238187
548.063863	0.238501
548.422684	0.238812
548.781449	0.240520
549.140158	0.238361
549.498811	0.241407
549.857408	0.244414
550.215949	0.239249
550.574434	0.242179
550.932864	0.240153
551.291237	0.238811
551.649555	0.240406
552.007817	0.239950
552.366022	0.240821
552.724173	0.240900
553.082267	0.241194
553.440305	0.238160
553.798288	0.242624
554.156215	0.239036
554.514086	0.240077
554.871902	0.243004
555.229661	0.242252
555.587365	0.242629
555.945014	0.245617
556.302606	0.242237
556.660143	0.244620
557.017625	0.241212
557.375050	0.243672
557.732421	0.240615
558.089735	0.242645
558.446994	0.242528
558.804197	0.241693
559.161345	0.241688
559.518437	0.245466
559.875474	0.242809
560.232455	0.242394
560.589381	0.243591
560.946251	0.243331
561.303065	0.241142
561.659825	0.242640
562.016528	0.243912
562.373177	0.246974
562.729770	0.244201
563.086307	0.246442
563.442789	0.244172
563.799216	0.246857
564.155587	0.245898
564.511904	0.246729
564.868164	0.247161
565.224370	0.246934
565.580520	0.248648
565.936615	0.248593
566.292654	0.251351
566.648638	0.248334
567.004567	0.249392
567.360441	0.250152
567.716260	0.252314
568.072023	0.249840
568.427732	0.250483
568.783385	0.253040
569.138982	0.250901
569.494525	0.250614
569.850013	0.253651
570.205445	0.251973
570.560823	0.254529
570.916145	0.256580
571.271412	0.254744
571.626625	0.256031
571.981782	0.256685
572.336884	0.257726
572.691931	0.257022
573.046923	0.258535
573.401860	0.259893
573.756743	0.261416
574.111570	0.260236
574.466342	0.260503
574.821059	0.259985
575.175722	0.262730
575.530330	0.262249
575.884882	0.262641
576.239380	0.264871
576.593823	0.265396
576.948211	0.264704
577.302544	0.267699
577.656823	0.267747
578.011047	0.267998
578.365216	0.268095
578.719330	0.270444
579.073389	0.270353
579.427394	0.271423
579.781344	0.272321
580.135239	0.273498
580.489080	0.273580
580.842866	0.276168
581.196597	0.276237
581.550273	0.274872
581.903895	0.275870
582.257463	0.273770
582.610975	0.277465
582.964434	0.276669
583.317837	0.278904
583.671186	0.279595
584.024481	0.279654
584.377721	0.282000
584.730906	0.282836
585.084037	0.281827
585.437113	0.283802
585.790135	0.283044
586.143103	0.286215
586.496016	0.287416
586.848874	0.284717
587.201679	0.285170
587.554428	0.289159
587.907124	0.287352
588.259765	0.287879
588.612352	0.288723
588.964884	0.291930
589.317362	0.292180
589.669786	0.291849
590.022155	0.290359
590.374470	0.289759
590.726731	0.292134
591.078937	0.296713
591.431090	0.293148
591.783188	0.297268
592.135232	0.297494
592.487222	0.297650
592.839157	0.295772
593.191038	0.298163
593.542866	0.299777
593.894639	0.303328
594.246358	0.301296
594.598022	0.300872
594.949633	0.304763
595.301190	0.305036
595.652692	0.304672
596.004141	0.300658
596.355535	0.308852
596.706876	0.308992
597.058162	0.311947
597.409395	0.308769
597.760573	0.306746
598.111698	0.309910
598.462768	0.310161
598.813785	0.311668
599.164748	0.312782
599.515657	0.313115
599.866511	0.316599
600.217312	0.311481
600.568060	0.317494
600.918753	0.313555
601.269392	0.314285
601.619978	0.317470
601.970510	0.315265
602.320988	0.315431
602.671412	0.313046
603.021783	0.315458
603.372100	0.316873
603.722363	0.316566
604.072572	0.317516
604.422728	0.317279
604.772830	0.319425
605.122878	0.319203
605.472872	0.319464
605.822813	0.317569
606.172701	0.320379
606.522534	0.317919
606.872314	0.317667
607.222041	0.318914
607.571714	0.316960
607.921333	0.318184
608.270899	0.318110
608.620411	0.314835
608.969870	0.318581
609.319276	0.318723
609.668627	0.318520
610.017926	0.317476
610.367171	0.316007
610.716362	0.316476
611.065500	0.316587
611.414585	0.315512
611.763616	0.315941
612.112594	0.316560
612.461518	0.315850
612.810389	0.313581
613.159207	0.315931
613.507971	0.317819
613.856682	0.313251
614.205340	0.315218
614.553945	0.311941
614.902496	0.315655
615.250994	0.313967
615.599439	0.314506
615.947830	0.313872
616.296169	0.315059
616.644454	0.314548
616.992686	0.314653
617.340864	0.312287
617.688990	0.315778
618.037063	0.312747
618.385082	0.314481
618.733048	0.311062
619.080961	0.313596
619.428821	0.312852
619.776628	0.312850
620.124382	0.314806
620.472083	0.314704
620.819731	0.314446
621.167326	0.317806
621.514868	0.317784
621.862357	0.322122
622.209793	0.321781
622.557176	0.323887
622.904506	0.324699
623.251783	0.327354
623.599007	0.329344
623.946179	0.329303
624.293297	0.331047
624.640363	0.334726
624.987376	0.335326
625.334336	0.338108
625.681243	0.340057
626.028097	0.340858
626.374899	0.341986
626.721647	0.341636
627.068343	0.345192
627.414987	0.345981
627.761577	0.348373
628.108115	0.346937
628.454600	0.352255
628.801032	0.349183
629.147412	0.351198
629.493739	0.351534
629.840014	0.354925
630.186236	0.351954
630.532405	0.357680
630.878521	0.355658
631.224585	0.357388
631.570597	0.360590
631.916556	0.359465
632.262462	0.359838
632.608316	0.361629
632.954117	0.362543
633.299866	0.363429
633.645562	0.364253
633.991206	0.367835
634.336797	0.371199
634.682336	0.373446
635.027823	0.374853
635.373257	0.375304
635.718639	0.378847
636.063968	0.378035
636.409245	0.384323
636.754470	0.384571
637.099642	0.386833
637.444762	0.390157
637.789829	0.389367
638.134845	0.392889
638.479808	0.393438
638.824719	0.393573
639.169577	0.397566
639.514383	0.396195
639.859137	0.400533
640.203839	0.400629
640.548489	0.400846
640.893086	0.402284
641.237632	0.404061
641.582125	0.402300
641.926566	0.403934
642.270955	0.403898
642.615292	0.404189
642.959576	0.402917
643.303809	0.403868
643.647990	0.403283
643.992118	0.404115
644.336195	0.407755
644.680219	0.406185
645.024192	0.406700
645.368112	0.400220
645.711981	0.399393
646.055797	0.394531
646.399562	0.396745
646.743274	0.388853
647.086935	0.386501
647.430544	0.386711
647.774101	0.385342
648.117606	0.385100
648.461059	0.385530
648.804460	0.388017
649.147810	0.393472
649.491108	0.395262
649.834354	0.396490
650.177548	0.402271
650.520690	0.407338
650.863781	0.408273
651.206820	0.408074
651.549807	0.412402
651.892742	0.416161
652.235626	0.415977
652.578458	0.416661
652.921238	0.422565
653.263967	0.420503
653.606644	0.424753
653.949269	0.424316
654.291843	0.428292
654.634365	0.424726
654.976836	0.428020
655.319255	0.428049
655.661622	0.429832
656.003938	0.429906
656.346203	0.432566
656.688416	0.430689
657.030577	0.434353
657.372687	0.435943
657.714746	0.436977
658.056753	0.433527
658.398708	0.437641
658.740612	0.439216
659.082465	0.435264
659.424266	0.436049
659.766016	0.435054
660.107715	0.437853
660.449362	0.436804
660.790958	0.437152
661.132503	0.438168
661.473996	0.435514
661.815438	0.436294
662.156829	0.436518
662.498168	0.437337
662.839456	0.438592
663.180693	0.436688
663.521879	0.436138
663.863013	0.437471
664.204097	0.436057
664.545129	0.432556
664.886110	0.433279
665.227040	0.430380
665.567918	0.433293
665.908746	0.430962
666.249522	0.430886
666.590248	0.431562
666.930922	0.429769
667.271545	0.428699
667.612118	0.429155
667.952639	0.430878
668.293109	0.429161
668.633528	0.432115
668.973896	0.431619
669.314213	0.432695
669.654480	0.434157
669.994695	0.433979
670.334859	0.434566
670.674973	0.435376
671.015035	0.435404
671.355047	0.435192
671.695008	0.436469
672.034918	0.438175
672.374777	0.437422
672.714585	0.438467
673.054342	0.438482
673.394049	0.438508
673.733705	0.436232
674.073310	0.437550
674.412864	0.440573
674.752368	0.441602
675.091820	0.441151
675.431223	0.445774
675.770574	0.445798
676.109875	0.448590
676.449125	0.448835
676.788324	0.450464
677.127473	0.455933
677.466571	0.455786
677.805619	0.457738
678.144616	0.458585
678.483562	0.460782
678.822458	0.462908
679.161303	0.464517
679.500098	0.463890
679.838842	0.466114
680.177535	0.465791
680.516179	0.464347
680.854771	0.463078
681.193314	0.456613
681.531805	0.448089
681.870247	0.436447
682.208638	0.429247
682.546978	0.427962
682.885268	0.429909
683.223508	0.435639
683.561697	0.439836
683.899836	0.442268
684.237925	0.445718
684.575963	0.448263
684.913951	0.451432
685.251889	0.446924
685.589776	0.449107
685.927614	0.451266
686.265401	0.445578
686.603137	0.447245
686.940824	0.441224
687.278460	0.439660
687.616046	0.438365
687.953582	0.433817
688.291068	0.435017
688.628504	0.431263
688.965889	0.432731
689.303224	0.437391
689.640510	0.440913
689.977745	0.446815
690.314930	0.454681
690.652065	0.459056
690.989150	0.467047
691.326185	0.473057
691.663170	0.478073
692.000105	0.484584
692.336990	0.492137
692.673825	0.494393
693.010610	0.501492
693.347345	0.506408
693.684030	0.508430
694.020665	0.512972
694.357251	0.521699
694.693786	0.521320
695.030272	0.525315
695.366707	0.528841
695.703093	0.532208
696.039429	0.530332
696.375716	0.531921
696.711952	0.534621
697.048139	0.536126
697.384276	0.538391
697.720363	0.536926
698.056400	0.536064
698.392388	0.541763
698.728326	0.544998
699.064214	0.547003
699.400053	0.547625
699.735842	0.551668
700.071581	0.554006
700.407270	0.557024
700.742910	0.559404
701.078501	0.566531
701.414042	0.566787
701.749533	0.569845
702.084974	0.578431
702.420366	0.570444
702.755709	0.577883
703.091002	0.586473
703.426246	0.580148
703.761440	0.585653
704.096584	0.590262
704.431679	0.587542
704.766725	0.589734
705.101721	0.591120
705.436668	0.587207
705.771565	0.594353
706.106413	0.591060
706.441212	0.586062
706.775961	0.584169
707.110661	0.587968
707.445311	0.584158
707.779913	0.581481
708.114465	0.580334
708.448967	0.576082
708.783421	0.568349
709.117825	0.563070
709.452180	0.563251
709.786485	0.556908
710.120742	0.546915
710.454949	0.549092
710.789107	0.540911
711.123216	0.532175
711.457275	0.534117
711.791286	0.524939
712.125247	0.523515
712.459159	0.534055
712.793023	0.526925
713.126837	0.530826
713.460602	0.531576
713.794318	0.541215
714.127985	0.539414
714.461602	0.549294
714.795171	0.551994
715.128691	0.561223
715.462162	0.568176
715.795584	0.573707
716.128957	0.576612
716.462281	0.583449
716.795556	0.586054
717.128782	0.592289
717.461960	0.601521
717.795088	0.600289
718.128167	0.605797
718.461198	0.614921
718.794180	0.615397
719.127113	0.617908
719.459997	0.622019
719.792833	0.627376
720.125619	0.628613
720.458357	0.634758
720.791046	0.634380
721.123686	0.637847
721.456278	0.645260
721.788821	0.642412
722.121315	0.646069
722.453761	0.650894
722.786158	0.648142
723.118506	0.644546
723.450805	0.652535
723.783056	0.648523
724.115259	0.645717
724.447412	0.645075
724.779518	0.646097
725.111574	0.646369
725.443582	0.641774
725.775542	0.643714
726.107453	0.635829
726.439315	0.635473
726.771129	0.634060
727.102895	0.627694
727.434612	0.619967
727.766281	0.618328
728.097901	0.617539
728.429473	0.616664
728.760996	0.616326
729.092471	0.615746
729.423897	0.619541
729.755276	0.619612
730.086606	0.618718
730.417887	0.612939
730.749120	0.604036
731.080305	0.594884
731.411442	0.591091
731.742530	0.595938
732.073570	0.595069
732.404562	0.587793
732.735506	0.588998
733.066401	0.593654
733.397249	0.602895
733.728048	0.613300
734.058798	0.627200
734.389501	0.637212
734.720156	0.646829
735.050762	0.654952
735.381320	0.655790
735.711831	0.665127
736.042293	0.669487
736.372707	0.665435
736.703073	0.669816
737.033391	0.672976
737.363661	0.668985
737.693883	0.665633
738.024056	0.663867
738.354182	0.664087
738.684260	0.653488
739.014290	0.648948
739.344272	0.650430
739.674207	0.643726
740.004093	0.643149
740.333931	0.643281
740.663722	0.643316
740.993464	0.643553
741.323159	0.648218
741.652806	0.652532
741.982405	0.657333
742.311956	0.662041
742.641460	0.663822
742.970915	0.668261
743.300323	0.675162
743.629683	0.682648
743.958996	0.683939
744.288260	0.688762
744.617477	0.694465
744.946647	0.695632
745.275768	0.700717
745.604842	0.700794
745.933869	0.711529
746.262847	0.711234
746.591778	0.705680
746.920662	0.711849
747.249498	0.717668
747.578286	0.709892
747.907027	0.704673
748.235720	0.705736
748.564365	0.700750
748.892963	0.700702
749.221514	0.703114
749.550017	0.708115
749.878473	0.709020
750.206881	0.714969
750.535242	0.715990
750.863555	0.715720
751.191821	0.717160
751.520039	0.720565
751.848210	0.724905
752.176334	0.716856
752.504411	0.716951
752.832440	0.724261
753.160421	0.728318
753.488356	0.726444
753.816243	0.724328
754.144082	0.732394
754.471875	0.736496
754.799620	0.731084
755.127318	0.732725
755.454969	0.733713
755.782572	0.732015
756.110129	0.737184
756.437638	0.740071
756.765100	0.736850
757.092515	0.733973
757.419882	0.732575
757.747203	0.738809
758.074477	0.737721
758.401703	0.735242
758.728882	0.730354
759.056014	0.729007
759.383099	0.727484
759.710138	0.729110
760.037129	0.725499
760.364073	0.719747
760.690970	0.721610
761.017820	0.727721
761.344623	0.723496
761.671379	0.714282
761.998088	0.702673
762.324751	0.679831
762.651366	0.637964
762.977935	0.571996
763.304456	0.519681
763.630931	0.509970
763.957359	0.549205
764.283740	0.594055
764.610074	0.621017
764.936362	0.651363
765.262602	0.677638
765.588796	0.700090
765.914943	0.717220
766.241044	0.734718
766.567097	0.741679
766.893104	0.751451
767.219064	0.757279
767.544978	0.764044
767.870845	0.779164
768.196665	0.782118
768.522438	0.779177
768.848165	0.780432
769.173846	0.790031
769.499479	0.793998
769.825066	0.798485
770.150607	0.803904
770.476101	0.798253
770.801548	0.798698
771.126949	0.810557
771.452303	0.813971
771.777611	0.813981
772.102872	0.813329
772.428087	0.817656
772.753256	0.821409
773.078378	0.822771
773.403453	0.831713
773.728482	0.836567
774.053465	0.829821
774.378401	0.833426
774.703291	0.842961
775.028135	0.841118
775.352932	0.843075
775.677683	0.846152
776.002388	0.846806
776.327046	0.845862
776.651658	0.849578
776.976224	0.853234
777.300743	0.853128
777.625216	0.855699
777.949643	0.856651
778.274024	0.857706
778.598359	0.858627
778.922647	0.857514
779.246889	0.857737
779.571086	0.861315
779.895236	0.863770
780.219339	0.861067
780.543397	0.857564
780.867409	0.856878
781.191374	0.859855
781.515294	0.860496
781.839167	0.860594
782.162995	0.861672
782.486776	0.859264
782.810511	0.860518
783.134201	0.863884
783.457844	0.861922
783.781441	0.864988
784.104993	0.871293
784.428498	0.870117
784.751958	0.866591
785.075372	0.869216
785.398739	0.872344
785.722061	0.868459
786.045337	0.864378
786.368568	0.869012
786.691752	0.872606
787.014891	0.857218
787.337983	0.848699
787.661030	0.841256
787.984031	0.823804
788.306987	0.811176
788.629897	0.813528
788.952760	0.817475
789.275579	0.821669
789.598351	0.836317
789.921078	0.849876
790.243759	0.851528
790.566395	0.855605
790.888984	0.863736
791.211529	0.869236
791.534027	0.871855
791.856480	0.874214
792.178888	0.879562
792.501249	0.881712
792.823566	0.883776
793.145836	0.881983
793.468062	0.885445
793.790241	0.884284
794.112375	0.883948
794.434464	0.878907
794.756507	0.877552
795.078505	0.877912
795.400457	0.871953
795.722364	0.860493
796.044226	0.853572
796.366042	0.851845
796.687812	0.855557
797.009538	0.852345
797.331218	0.854502
797.652852	0.859057
797.974442	0.865039
798.295986	0.863717
798.617484	0.867101
798.938938	0.870922
799.260346	0.875883
799.581709	0.878088
799.903026	0.880606
800.224299	0.880339
800.545526	0.885164
800.866708	0.889531
801.187845	0.892644
801.508936	0.891996
801.829983	0.890023
802.150984	0.893372
802.471940	0.898000
802.792851	0.898163
803.113717	0.898537
803.434538	0.895584
803.755314	0.899188
804.076045	0.899450
804.396731	0.900613
804.717372	0.899388
805.037967	0.902608
805.358518	0.900504
805.679024	0.896835
805.999485	0.898204
806.319901	0.897098
806.640272	0.898232
806.960598	0.895989
807.280879	0.893601
807.601115	0.892745
807.921306	0.896023
808.241453	0.896566
808.561554	0.893502
808.881611	0.893982
809.201623	0.896108
809.521590	0.897455
809.841513	0.897058
810.161390	0.895647
810.481223	0.898075
810.801011	0.899763
811.120755	0.903651
811.440453	0.901798
811.760107	0.900804
812.079716	0.900493
812.399281	0.904823
812.718801	0.906207
813.038276	0.907635
813.357707	0.906651
813.677093	0.903806
813.996434	0.906969
814.315731	0.908270
814.634983	0.910396
814.954191	0.907625
815.273354	0.904933
815.592473	0.901501
815.911547	0.900279
816.230577	0.898360
816.549562	0.895445
816.868502	0.897059
817.187399	0.893900
817.506250	0.888710
817.825058	0.890646
818.143821	0.885547
818.462539	0.881745
818.781213	0.874228
819.099843	0.861289
819.418429	0.846967
819.736970	0.830189
820.055466	0.810349
820.373919	0.784531
820.692327	0.751567
821.010691	0.717010
821.329011	0.640123
821.647286	0.525312
821.965517	0.411783
822.283704	0.369683
822.601847	0.370933
822.919945	0.406743
823.237999	0.440176
823.556010	0.486778
823.873976	0.542436
824.191897	0.593071
824.509775	0.634943
824.827609	0.680079
825.145398	0.702730
825.463144	0.706347
825.780845	0.688177
826.098502	0.669377
826.416116	0.624133
826.733685	0.580484
827.051210	0.572236
827.368692	0.586510
827.686129	0.624169
828.003522	0.676501
828.320872	0.723425
828.638177	0.767543
828.955439	0.800921
829.272656	0.821784
829.589830	0.838924
829.906960	0.854885
830.224046	0.866978
830.541088	0.878092
830.858086	0.882020
831.175041	0.887940
831.491952	0.886780
831.808819	0.883526
832.125642	0.876739
832.442421	0.862518
832.759157	0.840381
833.075849	0.795550
833.392497	0.731282
833.709101	0.689552
834.025662	0.700201
834.342179	0.731672
834.658653	0.770738
834.975083	0.806240
835.291469	0.832578
835.607811	0.855846
835.924110	0.870642
836.240366	0.887773
836.556578	0.901978
836.872746	0.909005
837.188871	0.915898
837.504952	0.921151
837.820990	0.922554
838.136984	0.926737
838.452935	0.929686
838.768842	0.931062
839.084706	0.924596
839.400526	0.900133
839.716303	0.859467
840.032037	0.837142
840.347727	0.840649
840.663373	0.859734
840.978977	0.880367
841.294537	0.903037
841.610054	0.919022
841.925527	0.926452
842.240957	0.932712
842.556344	0.940471
842.871687	0.945900
843.186987	0.950832
843.502244	0.950193
843.817458	0.951989
844.132629	0.955555
844.447756	0.960623
844.762840	0.961499
845.077881	0.960566
845.392879	0.959678
845.707833	0.963246
846.022745	0.965287
846.337613	0.963975
846.652438	0.966073
846.967221	0.964942
847.281960	0.965782
847.596656	0.967263
847.911309	0.966097
848.225919	0.968517
848.540485	0.968760
848.855009	0.969842
849.169490	0.968556
849.483928	0.969622
849.798323	0.968768
850.112675	0.970186
850.426984	0.969512
850.741251	0.969759
851.055474	0.970597
851.369654	0.968681
851.683792	0.970266
851.997887	0.970181
852.311938	0.970375
852.625947	0.969730
852.939914	0.968350
853.253837	0.969869
853.567718	0.970502
853.881555	0.970448
854.195350	0.967780
854.509103	0.969573
854.822812	0.970152
855.136479	0.970867
855.450103	0.969909
855.763685	0.968456
856.077224	0.969429
856.390720	0.970304
856.704173	0.971527
857.017584	0.968717
857.330953	0.967324
857.644278	0.967865
857.957561	0.969156
858.270802	0.968342
858.584000	0.968754
858.897155	0.966226
859.210268	0.967432
859.523339	0.968819
859.836367	0.969392
860.149352	0.970735
860.462295	0.969509
860.775195	0.969534
861.088054	0.969085
861.400869	0.969936
861.713642	0.969643
862.026373	0.970887
862.339062	0.972143
862.651708	0.967384
862.964312	0.967252
863.276873	0.970274
863.589392	0.967540
863.901869	0.967165
864.214303	0.965468
864.526696	0.964180
864.839045	0.964071
865.151353	0.962254
865.463619	0.963629
865.775842	0.963144
866.088023	0.962536
866.400162	0.962676
866.712258	0.962928
867.024313	0.962838
867.336325	0.964487
867.648296	0.962966
867.960224	0.963185
868.272110	0.961260
868.583954	0.964227
868.895755	0.963550
869.207515	0.961742
869.519233	0.959664
869.830909	0.961198
870.142542	0.962082
870.454134	0.961722
870.765684	0.961807
871.077191	0.958611
871.388657	0.959381
871.700081	0.958332
872.011463	0.958381
872.322803	0.957682
872.634101	0.957269
872.945357	0.954390
873.256571	0.952447
873.567744	0.953950
873.878874	0.953422
874.189963	0.952652
874.501010	0.951758
874.812015	0.949926
875.122979	0.951771
875.433900	0.953811
875.744780	0.954740
876.055618	0.951344
876.366415	0.950057
876.677169	0.950179
876.987882	0.951700
877.298554	0.951455
877.609183	0.947576
877.919771	0.945838
878.230317	0.943498
878.540822	0.941472
878.851285	0.935139
879.161707	0.928902
879.472087	0.915570
879.782425	0.898552
880.092722	0.866001
880.402977	0.813859
880.713191	0.753004
881.023363	0.695251
881.333494	0.661924
881.643583	0.634138
881.953631	0.633066
882.263637	0.661875
882.573602	0.701590
882.883526	0.727611
883.193408	0.750095
883.503248	0.772480
883.813048	0.799366
884.122806	0.828899
884.432522	0.852134
884.742197	0.871212
885.051831	0.883218
885.361424	0.892402
885.670975	0.904289
885.980485	0.913977
886.289954	0.919610
886.599382	0.925556
886.908768	0.928865
887.218113	0.934282
887.527417	0.938795
887.836680	0.942657
888.145901	0.944536
888.455082	0.945265
888.764221	0.951650
889.073319	0.952541
889.382376	0.953280
889.691392	0.954438
890.000366	0.953635
890.309300	0.953224
890.618193	0.953837
890.927044	0.951714
891.235855	0.951044
891.544625	0.953277
891.853353	0.952275
892.162041	0.949382
892.470687	0.943541
892.779293	0.938526
893.087858	0.933857
893.396381	0.926057
893.704864	0.914430
894.013306	0.890524
894.321707	0.863861
894.630068	0.848958
894.938387	0.845724
895.246665	0.846515
895.554903	0.858580
895.863100	0.871688
896.171256	0.887246
896.479371	0.907412
896.787446	0.921060
897.095480	0.926125
897.403473	0.929454
897.711425	0.933622
898.019336	0.940903
898.327207	0.943906
898.635038	0.946185
898.942827	0.946441
899.250576	0.949677
899.558284	0.952869
899.865952	0.953722
900.173579	0.955155
900.481165	0.956928
900.788711	0.959077
901.096216	0.961528
901.403681	0.962316
901.711105	0.962800
902.018489	0.964591
902.325832	0.962469
902.633135	0.962428
902.940397	0.956107
903.247619	0.944481
903.554800	0.919596
903.861941	0.880523
904.169041	0.844520
904.476101	0.827128
904.783121	0.828515
905.090100	0.844773
905.397039	0.865381
905.703938	0.888259
906.010796	0.906955
906.317614	0.923744
906.624391	0.934401
906.931129	0.944093
907.237826	0.952462
907.544483	0.959869
907.851099	0.964311
908.157675	0.967124
908.464211	0.970934
908.770707	0.973345
909.077163	0.974034
909.383578	0.974949
909.689954	0.975618
909.996289	0.975525
910.302584	0.977706
910.608839	0.979729
910.915054	0.978228
911.221229	0.978340
911.527363	0.976919
911.833458	0.978306
912.139513	0.977898
912.445527	0.974519
912.751502	0.974613
913.057436	0.972545
913.363331	0.971047
913.669186	0.966609
913.975000	0.962191
914.280775	0.956242
914.586510	0.949534
914.892205	0.936319
915.197859	0.915285
915.503475	0.888576
915.809050	0.868830
916.114585	0.863824
916.420081	0.861258
916.725536	0.857604
917.030952	0.865861
917.336328	0.878715
917.641665	0.893396
917.946961	0.908728
918.252218	0.921148
918.557435	0.927662
918.862612	0.937193
919.167750	0.943253
919.472848	0.947478
919.777906	0.952090
920.082925	0.958850
920.387904	0.962496
920.692843	0.963036
920.997743	0.964182
921.302603	0.968006
921.607423	0.968706
921.912204	0.971718
922.216946	0.971968
922.521647	0.974376
922.826310	0.976440
923.130932	0.976788
923.435516	0.979029
923.740059	0.979535
924.044564	0.978716
924.349028	0.980713
924.653454	0.982690
924.957840	0.984677
925.262186	0.984786
925.566493	0.983602
925.870761	0.984962
926.174989	0.986675
926.479178	0.987840
926.783328	0.987012
927.087438	0.988947
927.391509	0.988105
927.695541	0.990171
927.999533	0.989135
928.303486	0.988745
928.607400	0.990868
928.911275	0.989708
929.215110	0.991627
929.518906	0.990637
929.822663	0.989000
930.126381	0.991172
930.430060	0.990301
930.733699	0.989557
931.037299	0.990884
931.340861	0.990155
931.644383	0.988587
931.947866	0.988565
932.251309	0.992172
932.554714	0.991320
932.858080	0.990643
933.161407	0.991249
933.464694	0.991317
933.767943	0.990066
934.071153	0.991279
934.374323	0.992486
934.677455	0.991632
934.980548	0.992015
935.283602	0.990412
935.586617	0.991430
935.889593	0.989710
936.192530	0.990865
936.495428	0.991185
936.798287	0.990931
937.101108	0.990038
937.403890	0.988502
937.706632	0.988406
938.009336	0.988199
938.312002	0.987109
938.614628	0.984217
938.917216	0.982259
939.219765	0.981903
939.522275	0.983384
939.824747	0.982726
940.127179	0.983150
940.429573	0.984905
940.731929	0.984550
941.034246	0.985297
941.336524	0.985944
941.638763	0.986076
941.940964	0.986612
942.243126	0.987402
942.545250	0.986679
942.847335	0.987994
943.149381	0.987931
943.451389	0.987643
943.753359	0.988640
944.055290	0.991206
944.357182	0.989711
944.659036	0.988062
944.960851	0.989569
945.262628	0.990569
945.564367	0.991301
945.866067	0.989860
946.167729	0.990775
946.469352	0.989640
946.770937	0.988773
947.072484	0.990120
947.373992	0.990810
947.675462	0.989794
947.976893	0.989937
948.278286	0.991081
948.579641	0.991589
948.880958	0.990551
949.182236	0.990564
949.483476	0.991821
949.784678	0.991590
950.085841	0.992213
950.386967	0.991451
950.688054	0.990964
950.989103	0.991767
951.290114	0.989786
951.591087	0.989468
951.892021	0.989319
952.192917	0.988437
952.493776	0.989293
952.794596	0.989198
953.095378	0.987433
953.396122	0.988284
953.696828	0.987117
953.997496	0.990083
954.298126	0.991444
954.598718	0.989479
954.899272	0.990584
955.199788	0.991676
955.500266	0.992359
955.800706	0.992661
956.101108	0.993220
956.401472	0.991999
956.701798	0.994530
957.002087	0.993435
957.302337	0.993486
957.602550	0.995613
957.902724	0.994696
958.202861	0.995370
958.502960	0.995756
958.803022	0.994990
959.103045	0.996788
959.403031	0.996196
959.702979	0.994216
960.002889	0.995839
960.302762	0.995023
960.602596	0.996483
960.902393	0.995702
961.202153	0.996990
961.501875	0.996995
961.801559	0.995897
962.101205	0.996489
962.400814	0.996769
962.700385	0.997150
962.999918	0.995288
963.299414	0.996271
963.598873	0.995515
963.898293	0.995903
964.197677	0.996598
964.497022	0.996086
964.796331	0.996983
965.095601	0.997823
965.394835	0.996140
965.694030	0.996555
965.993189	0.997476
966.292309	0.996068
966.591393	0.997380
966.890439	0.997105
967.189447	0.995536
967.488419	0.997556
967.787353	0.996073
968.086249	0.996752
968.385108	0.998249
968.683930	0.996894
968.982714	0.997441
969.281462	0.997946
969.580172	0.996344
969.878844	0.996624
970.177480	0.995949
970.476078	0.998200
970.774639	0.997854
971.073162	0.997132
971.371649	0.996631
971.670098	0.997002
971.968510	0.997619
972.266885	0.995895
972.565223	0.995750
972.863524	0.996720
973.161788	0.995953
973.460014	0.997694
973.758204	0.995943
974.056356	0.996609
974.354471	0.994962
974.652550	0.995559
974.950591	0.996501
975.248595	0.996425
975.546563	0.996854
975.844493	0.997826
976.142386	0.996863
976.440243	0.997948
976.738062	0.996814
977.035845	0.997624
977.333590	0.997340
977.631299	0.998300
977.928971	0.996762
978.226606	0.996423
978.524204	0.996677
978.821765	0.998235
979.119290	0.996394
979.416777	0.996786
979.714228	0.997072
980.011642	0.995626
980.309020	0.998295
980.606360	0.996748
980.903664	0.998901
981.200931	0.996573
981.498162	0.995299
981.795356	0.994251
982.092513	0.993631
982.389633	0.994599
982.686717	0.990621
982.983764	0.992243
983.280775	0.990461
983.577749	0.990524
983.874686	0.991873
984.171587	0.992304
984.468451	0.994650
984.765279	0.994306
985.062070	0.994132
985.358824	0.994641
985.655543	0.995316
985.952224	0.995493
986.248869	0.995649
986.545478	0.997733
986.842050	0.999141
987.138586	0.996182
987.435086	0.997924
987.731549	0.998653
988.027975	0.998394
988.324366	0.996877
988.620719	0.997554
988.917037	0.996374
989.213318	0.998281
989.509563	0.998107
989.805772	0.997970
990.101944	0.997965
990.398080	0.997660
990.694180	0.997825
990.990244	0.997494
991.286271	0.997241
991.582262	0.998293
991.878217	0.999277
992.174136	0.998530
992.470019	0.999308
992.765865	0.997313
993.061676	0.997835
993.357450	0.997251
993.653188	0.997082
993.948890	0.996951
994.244556	0.997714
994.540186	0.998303
994.835780	0.996205
995.131337	0.997600
995.426859	0.996007
995.722345	0.997083
996.017795	0.996031
996.313208	0.995893
996.608586	0.995422
996.903928	0.997488
997.199234	0.995262
997.494504	0.997946
997.789738	0.996488
998.084936	0.995879
998.380099	0.997414
998.675225	0.997357
998.970316	0.997905
999.265371	0.997338
999.560390	0.998557
999.855373	0.998036
1000.150320	0.998204
1000.445232	0.997863
1000.740108	0.997815
1001.034948	0.997465
1001.329752	0.999427
1001.624521	0.998591
1001.919254	0.998232
1002.213951	0.998452
1002.508613	0.997357
1002.803239	0.998825
1003.097829	0.998358
1003.392384	1.000124
1003.686903	0.998691
1003.981386	0.998183
1004.275834	0.999231
1004.570246	0.999257
1004.864623	0.999770
1005.158964	0.999540
1005.453270	0.998764
1005.747540	0.996811
1006.041775	0.998307
1006.335974	0.998965
1006.630138	0.998585
1006.924266	1.000021
1007.218359	0.999842
1007.512416	0.998218
1007.806438	0.998874
1008.100425	0.999326
1008.394376	0.998560
1008.688292	0.998631
1008.982172	1.000737
1009.276017	0.999416
1009.569827	0.998157
1009.863602	0.998070
1010.157341	0.999070
1010.451045	0.998636
1010.744714	0.999381
1011.038347	0.999027
1011.331945	0.998402
1011.625508	0.997669
1011.919036	0.998784
1012.212528	0.998636
1012.505986	0.997787
1012.799408	0.999428
1013.092795	0.999287
1013.386147	1.000283
1013.679464	0.999298
1013.972745	0.998261
1014.265992	0.998282
1014.559204	0.997822
1014.852380	0.998614
1015.145521	0.998474
1015.438628	0.998977
1015.731699	0.998337
1016.024736	0.997798
1016.317737	0.999378
1016.610703	1.000012
1016.903635	0.999777
1017.196531	0.999352
1017.489393	0.999597
1017.782219	0.998303
1018.075011	0.998545
1018.367768	0.998734
1018.660490	1.000900
1018.953177	1.000900
1019.245829	1.000900
