Dividing Wavelength (nm)	Counts (n)	Blue Motor Position (mm): 0.000000	Red Motor Position (mm): 29.100000	
326.493990	1.000168
326.888308	1.000168
327.282561	1.000168
327.676750	1.000390
328.070874	0.999359
328.464933	1.000392
328.858929	0.998788
329.252859	0.999717
329.646726	0.999203
330.040528	0.999571
330.434265	1.000041
330.827938	1.001439
331.221547	0.999942
331.615091	1.001295
332.008571	0.999013
332.401986	1.000117
332.795338	0.999848
333.188625	0.998753
333.581847	1.000254
333.975006	0.999114
334.368100	0.999749
334.761129	0.998604
335.154095	1.000776
335.546996	0.998201
335.939833	0.994402
336.332606	0.994138
336.725315	0.996209
337.117960	0.996679
337.510540	0.995505
337.903056	0.995363
338.295508	0.994867
338.687896	0.995052
339.080220	0.995220
339.472480	0.994778
339.864676	0.995062
340.256807	0.996059
340.648875	0.995461
341.040879	0.995473
341.432818	0.996350
341.824694	0.995515
342.216506	0.996653
342.608253	0.995682
342.999937	0.994303
343.391557	0.996081
343.783113	0.995165
344.174605	0.994877
344.566033	0.996815
344.957397	0.995090
345.348697	0.994525
345.739934	0.995845
346.131106	0.995121
346.522215	0.993779
346.913260	0.996120
347.304241	0.994988
347.695159	0.994888
348.086012	0.994493
348.476802	0.994892
348.867528	0.994773
349.258191	0.994453
349.648789	0.995265
350.039324	0.995487
350.429796	0.995533
350.820203	0.995783
351.210548	0.995035
351.600828	0.995746
351.991045	0.994557
352.381198	0.994203
352.771288	0.995371
353.161314	0.995641
353.551276	0.996536
353.941175	0.995412
354.331010	0.995867
354.720782	0.995108
355.110490	0.995329
355.500135	0.994154
355.889717	0.996298
356.279235	0.996272
356.668689	0.996333
357.058080	0.995688
357.447408	0.996733
357.836672	0.995216
358.225873	0.995574
358.615010	0.995269
359.004084	0.996230
359.393095	0.995234
359.782043	0.994764
360.170927	0.996612
360.559748	0.996320
360.948505	0.994421
361.337199	0.995568
361.725830	0.995750
362.114398	0.995558
362.502903	0.995612
362.891344	0.995910
363.279722	0.995265
363.668037	0.995317
364.056289	0.994859
364.444478	0.996070
364.832603	0.995033
365.220665	0.995307
365.608665	0.995256
365.996601	0.996003
366.384474	0.995687
366.772284	0.995476
367.160031	0.993981
367.547715	0.993671
367.935336	0.995468
368.322893	0.995767
368.710388	0.994400
369.097820	0.996326
369.485189	0.995205
369.872495	0.994804
370.259738	0.993771
370.646918	0.996371
371.034035	0.996114
371.421090	0.996247
371.808081	0.995185
372.195010	0.996635
372.581875	0.995485
372.968678	0.995139
373.355418	0.996614
373.742096	0.995397
374.128710	0.996651
374.515262	0.994942
374.901751	0.996105
375.288177	0.996093
375.674540	0.996790
376.060841	0.994816
376.447079	0.996617
376.833254	0.995581
377.219367	0.996322
377.605417	0.996278
377.991404	0.996266
378.377329	0.996076
378.763191	0.995323
379.148991	0.997710
379.534727	0.997095
379.920402	0.996163
380.306013	0.996970
380.691563	0.997468
381.077049	0.996836
381.462474	0.997035
381.847835	0.996316
382.233134	0.996198
382.618371	0.997521
383.003545	0.997148
383.388657	0.997298
383.773706	0.997635
384.158693	0.997172
384.543618	0.996616
384.928480	0.998789
385.313280	0.996732
385.698017	0.998039
386.082692	0.998134
386.467305	0.997733
386.851856	0.996702
387.236344	0.996336
387.620770	0.996622
388.005133	0.996861
388.389435	0.997988
388.773674	0.997463
389.157851	0.997823
389.541965	0.997752
389.926018	0.995912
390.310008	0.998142
390.693936	0.997034
391.077802	0.997475
391.461606	0.998023
391.845348	0.997333
392.229027	0.998542
392.612645	0.997614
392.996200	0.997932
393.379694	0.997707
393.763125	0.999053
394.146494	0.997445
394.529801	0.997381
394.913047	0.998856
395.296230	0.998270
395.679351	0.997865
396.062410	0.996795
396.445408	0.998267
396.828343	0.998172
397.211217	0.997749
397.594028	0.998127
397.976778	0.997048
398.359466	0.998156
398.742092	0.997565
399.124656	0.996948
399.507158	0.997789
399.889598	0.997893
400.271977	0.998324
400.654294	0.998096
401.036549	0.998286
401.418742	0.998203
401.800874	0.996976
402.182944	0.998264
402.564952	0.997359
402.946898	0.998468
403.328783	0.998490
403.710606	0.997724
404.092367	0.998107
404.474067	0.998304
404.855705	0.996810
405.237282	0.998400
405.618797	0.997746
406.000250	0.997643
406.381642	0.998556
406.762972	0.998266
407.144240	0.998981
407.525447	0.997914
407.906593	0.997397
408.287677	0.998099
408.668700	0.997891
409.049661	0.997961
409.430560	0.998156
409.811399	0.997849
410.192176	0.998398
410.572891	0.997559
410.953545	0.997959
411.334138	0.997360
411.714669	0.998193
412.095139	0.997809
412.475547	0.998433
412.855894	0.998546
413.236180	0.998453
413.616405	0.998565
413.996568	0.998729
414.376670	0.998057
414.756711	0.997376
415.136691	0.997512
415.516609	0.998364
415.896466	0.998246
416.276262	0.997380
416.655997	0.998174
417.035670	0.997445
417.415283	0.998732
417.794834	0.997960
418.174324	0.998181
418.553753	0.998107
418.933121	0.998429
419.312428	0.997956
419.691674	0.998350
420.070859	0.998758
420.449983	0.997847
420.829045	0.998183
421.208047	0.998503
421.586988	1.000181
421.965867	0.998227
422.344686	0.999389
422.723444	0.998003
423.102141	0.998516
423.480777	0.998716
423.859352	0.998282
424.237866	0.998414
424.616319	0.998362
424.994712	0.998732
425.373044	0.998347
425.751314	0.998894
426.129524	0.997843
426.507673	0.999157
426.885762	0.998795
427.263789	0.998603
427.641756	0.998605
428.019662	0.998942
428.397508	0.998310
428.775292	0.997505
429.153016	0.997777
429.530679	0.998819
429.908282	0.999603
430.285824	0.998188
430.663305	0.997763
431.040726	0.998308
431.418086	1.000141
431.795385	0.998628
432.172624	0.997919
432.549802	0.998512
432.926920	0.998164
433.303977	0.997386
433.680974	0.998455
434.057910	0.998604
434.434786	0.998923
434.811601	0.997753
435.188355	0.998184
435.565050	0.997908
435.941683	0.998423
436.318257	0.998980
436.694770	0.997333
437.071222	0.999071
437.447614	0.998189
437.823946	0.998294
438.200218	0.998453
438.576429	0.998421
438.952580	0.998724
439.328670	0.998877
439.704700	0.998911
440.080670	0.998212
440.456580	0.998066
440.832429	0.998281
441.208218	0.999165
441.583947	0.998279
441.959616	0.998006
442.335224	0.997604
442.710773	0.998545
443.086261	0.997678
443.461689	0.998631
443.837057	0.997862
444.212365	0.998699
444.587612	0.998024
444.962800	0.997316
445.337927	0.998393
445.712995	0.998327
446.088002	0.998653
446.462949	0.998095
446.837837	0.998416
447.212664	0.998991
447.587431	0.998276
447.962139	0.998787
448.336786	0.998840
448.711374	0.998657
449.085901	0.998002
449.460369	0.998713
449.834776	0.997717
450.209124	0.998595
450.583412	0.997811
450.957640	0.998136
451.331808	0.997742
451.705917	0.997489
452.079965	0.997248
452.453954	0.997421
452.827883	0.997960
453.201752	0.997677
453.575562	0.997500
453.949311	0.997011
454.323001	0.996666
454.696632	0.995896
455.070202	0.996535
455.443713	0.995509
455.817164	0.996055
456.190556	0.996138
456.563888	0.995812
456.937160	0.995378
457.310373	0.994369
457.683526	0.993624
458.056619	0.993823
458.429653	0.993469
458.802628	0.991854
459.175542	0.991767
459.548398	0.991054
459.921194	0.989866
460.293930	0.989512
460.666607	0.988270
461.039224	0.985675
461.411782	0.985624
461.784280	0.984373
462.156719	0.984867
462.529099	0.984049
462.901419	0.982479
463.273680	0.980720
463.645882	0.980205
464.018024	0.978233
464.390106	0.977143
464.762130	0.976876
465.134094	0.972318
465.505999	0.968739
465.877845	0.964545
466.249631	0.963630
466.621358	0.962151
466.993026	0.961236
467.364634	0.959885
467.736184	0.957992
468.107674	0.955906
468.479105	0.952716
468.850477	0.951510
469.221790	0.949372
469.593043	0.947570
469.964238	0.945824
470.335373	0.941807
470.706449	0.938428
471.077467	0.934914
471.448425	0.926965
471.819324	0.920298
472.190164	0.917958
472.560945	0.918085
472.931667	0.915667
473.302330	0.912784
473.672934	0.909414
474.043479	0.904214
474.413965	0.899978
474.784393	0.895690
475.154761	0.890163
475.525070	0.884900
475.895321	0.881300
476.265513	0.875847
476.635645	0.870020
477.005719	0.863829
477.375734	0.858459
477.745691	0.851298
478.115588	0.844993
478.485427	0.837398
478.855207	0.828135
479.224928	0.816063
479.594591	0.806292
479.964194	0.801431
480.333739	0.797265
480.703226	0.789770
481.072653	0.783236
481.442022	0.773154
481.811333	0.765218
482.180584	0.760458
482.549777	0.753655
482.918912	0.748166
483.287988	0.740289
483.657005	0.733223
484.025964	0.728013
484.394864	0.719941
484.763706	0.712118
485.132489	0.706706
485.501213	0.698374
485.869879	0.691978
486.238487	0.683050
486.607036	0.677075
486.975527	0.669392
487.343959	0.660526
487.712333	0.651714
488.080648	0.645498
488.448905	0.636748
488.817104	0.630196
489.185244	0.620184
489.553326	0.609986
489.921350	0.597423
490.289315	0.578977
490.657222	0.569898
491.025070	0.562326
491.392861	0.556439
491.760593	0.552203
492.128267	0.547138
492.495883	0.542625
492.863440	0.538451
493.230939	0.534009
493.598380	0.527155
493.965763	0.520672
494.333088	0.516693
494.700354	0.509325
495.067563	0.502515
495.434713	0.496835
495.801805	0.489031
496.168839	0.482946
496.535815	0.476537
496.902733	0.470630
497.269593	0.464041
497.636395	0.457066
498.003139	0.450140
498.369825	0.446782
498.736453	0.436958
499.103023	0.432886
499.469535	0.426528
499.835989	0.421311
500.202385	0.415807
500.568723	0.412972
500.935003	0.404581
501.301226	0.401112
501.667390	0.392522
502.033497	0.384997
502.399546	0.382751
502.765537	0.378665
503.131470	0.372405
503.497345	0.363868
503.863163	0.367542
504.228923	0.356236
504.594625	0.351266
504.960269	0.351218
505.325856	0.342806
505.691385	0.342388
506.056856	0.335504
506.422270	0.330664
506.787625	0.329962
507.152924	0.323509
507.518164	0.320510
507.883347	0.318406
508.248472	0.316718
508.613540	0.308973
508.978550	0.307825
509.343503	0.305400
509.708398	0.300284
510.073236	0.295067
510.438016	0.292020
510.802738	0.290555
511.167403	0.287069
511.532010	0.286320
511.896561	0.279962
512.261053	0.276099
512.625488	0.275816
512.989866	0.273784
513.354186	0.271988
513.718449	0.271535
514.082655	0.266546
514.446803	0.266684
514.810894	0.262952
515.174927	0.263575
515.538904	0.261608
515.902822	0.256810
516.266684	0.257847
516.630488	0.257634
516.994235	0.255284
517.357925	0.252267
517.721558	0.249825
518.085133	0.248051
518.448651	0.247091
518.812112	0.248427
519.175516	0.246851
519.538863	0.243862
519.902152	0.244495
520.265385	0.240546
520.628560	0.241673
520.991678	0.241364
521.354739	0.239665
521.717743	0.240267
522.080690	0.239933
522.443580	0.236696
522.806413	0.237149
523.169189	0.236037
523.531908	0.234488
523.894569	0.237661
524.257174	0.237522
524.619722	0.234649
524.982213	0.235405
525.344647	0.233859
525.707025	0.234261
526.069345	0.232158
526.431608	0.233596
526.793815	0.231394
527.155964	0.235193
527.518057	0.233930
527.880093	0.234764
528.242072	0.233154
528.603995	0.234677
528.965860	0.236557
529.327669	0.234989
529.689421	0.235818
530.051117	0.236495
530.412755	0.233987
530.774337	0.236374
531.135862	0.236306
531.497331	0.235753
531.858743	0.238392
532.220098	0.235045
532.581396	0.237410
532.942638	0.237864
533.303824	0.238763
533.664953	0.238401
534.026025	0.239977
534.387040	0.237615
534.747999	0.237616
535.108902	0.236552
535.469748	0.241252
535.830537	0.239062
536.191270	0.239551
536.551947	0.239112
536.912567	0.239048
537.273131	0.240554
537.633638	0.240735
537.994089	0.240922
538.354483	0.241935
538.714821	0.239181
539.075103	0.238591
539.435328	0.239405
539.795497	0.243067
540.155609	0.239864
540.515665	0.237687
540.875665	0.243443
541.235609	0.241705
541.595496	0.242041
541.955328	0.238372
542.315102	0.241230
542.674821	0.242045
543.034483	0.242079
543.394090	0.241738
543.753640	0.243572
544.113134	0.238608
544.472571	0.241901
544.831953	0.238663
545.191278	0.242988
545.550548	0.242088
545.909761	0.238939
546.268918	0.239907
546.628019	0.238006
546.987064	0.240802
547.346053	0.242568
547.704986	0.240655
548.063863	0.240887
548.422684	0.240867
548.781449	0.242591
549.140158	0.240165
549.498811	0.243351
549.857408	0.246244
550.215949	0.241197
550.574434	0.244173
550.932864	0.242139
551.291237	0.240768
551.649555	0.242080
552.007817	0.242039
552.366022	0.242663
552.724173	0.242937
553.082267	0.243304
553.440305	0.240242
553.798288	0.244407
554.156215	0.241201
554.514086	0.241730
554.871902	0.244802
555.229661	0.244198
555.587365	0.244717
555.945014	0.247280
556.302606	0.244225
556.660143	0.246839
557.017625	0.243110
557.375050	0.245260
557.732421	0.242280
558.089735	0.244168
558.446994	0.244412
558.804197	0.243934
559.161345	0.243811
559.518437	0.247180
559.875474	0.244516
560.232455	0.244033
560.589381	0.245228
560.946251	0.245362
561.303065	0.242704
561.659825	0.244488
562.016528	0.245986
562.373177	0.248546
562.729770	0.245893
563.086307	0.247989
563.442789	0.245839
563.799216	0.248595
564.155587	0.247573
564.511904	0.248425
564.868164	0.248808
565.224370	0.248589
565.580520	0.250275
565.936615	0.250104
566.292654	0.253017
566.648638	0.250364
567.004567	0.250961
567.360441	0.251719
567.716260	0.253720
568.072023	0.251388
568.427732	0.252403
568.783385	0.254834
569.138982	0.252804
569.494525	0.252510
569.850013	0.254929
570.205445	0.253579
570.560823	0.255957
570.916145	0.258118
571.271412	0.256468
571.626625	0.257715
571.981782	0.258261
572.336884	0.259165
572.691931	0.258733
573.046923	0.260039
573.401860	0.261446
573.756743	0.263009
574.111570	0.261822
574.466342	0.262392
574.821059	0.261558
575.175722	0.264208
575.530330	0.264432
575.884882	0.264124
576.239380	0.265999
576.593823	0.267051
576.948211	0.266303
577.302544	0.269704
577.656823	0.269495
578.011047	0.269413
578.365216	0.270049
578.719330	0.271962
579.073389	0.271789
579.427394	0.272950
579.781344	0.273854
580.135239	0.275205
580.489080	0.275052
580.842866	0.277843
581.196597	0.277809
581.550273	0.276448
581.903895	0.277162
582.257463	0.275579
582.610975	0.278907
582.964434	0.278066
583.317837	0.280769
583.671186	0.281143
584.024481	0.281457
584.377721	0.283528
584.730906	0.284015
585.084037	0.283387
585.437113	0.285085
585.790135	0.284833
586.143103	0.287903
586.496016	0.289043
586.848874	0.286723
587.201679	0.286691
587.554428	0.290452
587.907124	0.289149
588.259765	0.289607
588.612352	0.290213
588.964884	0.293948
589.317362	0.293990
589.669786	0.293667
590.022155	0.292471
590.374470	0.291425
590.726731	0.293821
591.078937	0.298422
591.431090	0.294537
591.783188	0.299082
592.135232	0.298985
592.487222	0.299292
592.839157	0.297221
593.191038	0.299598
593.542866	0.301439
593.894639	0.304954
594.246358	0.303286
594.598022	0.302727
594.949633	0.306051
595.301190	0.307007
595.652692	0.306090
596.004141	0.302657
596.355535	0.310378
596.706876	0.311256
597.058162	0.313366
597.409395	0.310507
597.760573	0.308197
598.111698	0.311390
598.462768	0.311925
598.813785	0.313567
599.164748	0.314729
599.515657	0.314821
599.866511	0.318479
600.217312	0.313683
600.568060	0.318673
600.918753	0.315353
601.269392	0.315884
601.619978	0.319320
601.970510	0.316892
602.320988	0.317040
602.671412	0.314923
603.021783	0.317228
603.372100	0.318644
603.722363	0.318384
604.072572	0.319409
604.422728	0.319158
604.772830	0.321314
605.122878	0.320473
605.472872	0.321240
605.822813	0.319610
606.172701	0.322320
606.522534	0.319702
606.872314	0.319971
607.222041	0.320482
607.571714	0.318858
607.921333	0.320190
608.270899	0.319401
608.620411	0.316588
608.969870	0.320447
609.319276	0.320856
609.668627	0.320629
610.017926	0.318860
610.367171	0.317737
610.716362	0.318428
611.065500	0.318766
611.414585	0.317506
611.763616	0.317904
612.112594	0.318484
612.461518	0.317821
612.810389	0.315350
613.159207	0.317850
613.507971	0.319344
613.856682	0.315304
614.205340	0.317120
614.553945	0.313656
614.902496	0.317337
615.250994	0.315731
615.599439	0.316471
615.947830	0.315695
616.296169	0.316681
616.644454	0.316051
616.992686	0.316378
617.340864	0.314265
617.688990	0.317939
618.037063	0.314504
618.385082	0.316280
618.733048	0.313260
619.080961	0.315214
619.428821	0.314802
619.776628	0.314238
620.124382	0.316443
620.472083	0.316827
620.819731	0.316070
621.167326	0.319855
621.514868	0.319288
621.862357	0.324071
622.209793	0.323283
622.557176	0.325981
622.904506	0.326613
623.251783	0.329322
623.599007	0.330812
623.946179	0.331073
624.293297	0.332688
624.640363	0.336306
624.987376	0.337369
625.334336	0.339548
625.681243	0.342232
626.028097	0.342591
626.374899	0.344139
626.721647	0.343921
627.068343	0.347356
627.414987	0.348378
627.761577	0.350453
628.108115	0.348637
628.454600	0.353796
628.801032	0.351373
629.147412	0.353423
629.493739	0.353279
629.840014	0.356580
630.186236	0.354476
630.532405	0.359348
630.878521	0.356791
631.224585	0.359195
631.570597	0.363125
631.916556	0.361430
632.262462	0.361481
632.608316	0.363502
632.954117	0.364559
633.299866	0.365366
633.645562	0.365727
633.991206	0.370009
634.336797	0.372850
634.682336	0.375171
635.027823	0.376868
635.373257	0.377317
635.718639	0.380856
636.063968	0.379690
636.409245	0.385873
636.754470	0.386119
637.099642	0.388750
637.444762	0.391937
637.789829	0.391299
638.134845	0.394728
638.479808	0.395538
638.824719	0.394917
639.169577	0.399553
639.514383	0.398003
639.859137	0.402611
640.203839	0.402255
640.548489	0.402851
640.893086	0.404168
641.237632	0.405850
641.582125	0.404332
641.926566	0.405866
642.270955	0.406111
642.615292	0.406177
642.959576	0.405331
643.303809	0.405798
643.647990	0.405326
643.992118	0.406080
644.336195	0.409572
644.680219	0.407925
645.024192	0.408419
645.368112	0.402412
645.711981	0.400952
646.055797	0.396372
646.399562	0.398849
646.743274	0.391020
647.086935	0.388362
647.430544	0.388622
647.774101	0.387501
648.117606	0.386927
648.461059	0.387256
648.804460	0.389788
649.147810	0.395112
649.491108	0.397208
649.834354	0.398268
650.177548	0.403526
650.520690	0.409260
650.863781	0.410646
651.206820	0.409704
651.549807	0.414615
651.892742	0.418356
652.235626	0.417577
652.578458	0.419242
652.921238	0.424299
653.263967	0.422734
653.606644	0.427011
653.949269	0.426169
654.291843	0.430276
654.634365	0.426850
654.976836	0.430089
655.319255	0.430577
655.661622	0.432037
656.003938	0.432421
656.346203	0.435252
656.688416	0.432776
657.030577	0.436183
657.372687	0.438728
657.714746	0.439061
658.056753	0.436158
658.398708	0.439674
658.740612	0.440418
659.082465	0.437138
659.424266	0.438056
659.766016	0.436926
660.107715	0.439432
660.449362	0.438886
660.790958	0.439149
661.132503	0.439782
661.473996	0.437382
661.815438	0.438242
662.156829	0.438508
662.498168	0.439199
662.839456	0.440903
663.180693	0.438171
663.521879	0.437971
663.863013	0.439093
664.204097	0.438016
664.545129	0.434159
664.886110	0.435106
665.227040	0.433141
665.567918	0.434745
665.908746	0.433301
666.249522	0.432250
666.590248	0.433487
666.930922	0.432237
667.271545	0.430862
667.612118	0.431242
667.952639	0.432854
668.293109	0.430771
668.633528	0.434104
668.973896	0.433853
669.314213	0.434701
669.654480	0.436131
669.994695	0.435917
670.334859	0.436841
670.674973	0.436977
671.015035	0.437397
671.355047	0.437345
671.695008	0.438415
672.034918	0.440238
672.374777	0.439582
672.714585	0.440993
673.054342	0.440733
673.394049	0.441038
673.733705	0.438257
674.073310	0.439856
674.412864	0.442892
674.752368	0.443165
675.091820	0.442905
675.431223	0.447833
675.770574	0.447521
676.109875	0.450291
676.449125	0.450322
676.788324	0.452899
677.127473	0.458183
677.466571	0.457600
677.805619	0.459893
678.144616	0.460767
678.483562	0.462787
678.822458	0.465110
679.161303	0.466127
679.500098	0.466453
679.838842	0.467817
680.177535	0.467897
680.516179	0.466367
680.854771	0.465746
681.193314	0.458699
681.531805	0.450102
681.870247	0.438678
682.208638	0.430854
682.546978	0.430612
682.885268	0.431497
683.223508	0.438117
683.561697	0.441799
683.899836	0.444496
684.237925	0.448192
684.575963	0.450755
684.913951	0.453251
685.251889	0.449313
685.589776	0.450790
685.927614	0.453448
686.265401	0.447763
686.603137	0.449075
686.940824	0.442867
687.278460	0.441601
687.616046	0.440713
687.953582	0.435831
688.291068	0.437332
688.628504	0.432856
688.965889	0.435442
689.303224	0.439215
689.640510	0.443685
689.977745	0.448946
690.314930	0.456570
690.652065	0.461227
690.989150	0.468529
691.326185	0.475023
691.663170	0.479395
692.000105	0.487334
692.336990	0.494429
692.673825	0.495952
693.010610	0.503812
693.347345	0.508403
693.684030	0.510391
694.020665	0.515088
694.357251	0.523106
694.693786	0.523411
695.030272	0.527992
695.366707	0.530701
695.703093	0.534525
696.039429	0.531957
696.375716	0.533722
696.711952	0.536451
697.048139	0.538197
697.384276	0.541405
697.720363	0.538916
698.056400	0.537897
698.392388	0.543326
698.728326	0.546456
699.064214	0.549056
699.400053	0.549987
699.735842	0.553304
700.071581	0.556096
700.407270	0.559282
700.742910	0.561931
701.078501	0.568552
701.414042	0.568924
701.749533	0.571835
702.084974	0.580880
702.420366	0.572574
702.755709	0.581136
703.091002	0.587847
703.426246	0.580851
703.761440	0.587435
704.096584	0.591849
704.431679	0.588934
704.766725	0.591647
705.101721	0.592685
705.436668	0.588474
705.771565	0.596255
706.106413	0.592393
706.441212	0.587822
706.775961	0.586545
707.110661	0.589684
707.445311	0.585655
707.779913	0.582504
708.114465	0.581240
708.448967	0.578330
708.783421	0.570598
709.117825	0.564913
709.452180	0.565246
709.786485	0.559186
710.120742	0.548823
710.454949	0.550852
710.789107	0.543179
711.123216	0.533884
711.457275	0.535765
711.791286	0.526779
712.125247	0.525352
712.459159	0.536552
712.793023	0.528806
713.126837	0.533036
713.460602	0.533839
713.794318	0.543137
714.127985	0.541657
714.461602	0.551941
714.795171	0.555009
715.128691	0.562423
715.462162	0.570856
715.795584	0.575410
716.128957	0.578908
716.462281	0.584922
716.795556	0.588476
717.128782	0.593572
717.461960	0.603491
717.795088	0.601324
718.128167	0.607534
718.461198	0.616443
718.794180	0.617380
719.127113	0.620166
719.459997	0.623101
719.792833	0.628982
720.125619	0.631266
720.458357	0.636077
720.791046	0.635838
721.123686	0.640343
721.456278	0.646107
721.788821	0.643903
722.121315	0.647627
722.453761	0.652164
722.786158	0.650176
723.118506	0.646903
723.450805	0.654523
723.783056	0.651319
724.115259	0.647462
724.447412	0.647421
724.779518	0.649225
725.111574	0.647040
725.443582	0.643229
725.775542	0.645701
726.107453	0.637457
726.439315	0.637317
726.771129	0.635372
727.102895	0.629714
727.434612	0.622369
727.766281	0.620561
728.097901	0.619248
728.429473	0.619210
728.760996	0.618129
729.092471	0.617146
729.423897	0.621109
729.755276	0.620573
730.086606	0.620590
730.417887	0.614904
730.749120	0.606154
731.080305	0.597321
731.411442	0.593309
731.742530	0.597773
732.073570	0.596991
732.404562	0.589892
732.735506	0.591311
733.066401	0.595989
733.397249	0.604491
733.728048	0.616675
734.058798	0.627925
734.389501	0.638934
734.720156	0.648671
735.050762	0.657009
735.381320	0.657240
735.711831	0.667202
736.042293	0.672201
736.372707	0.667715
736.703073	0.672253
737.033391	0.674801
737.363661	0.670936
737.693883	0.666694
738.024056	0.666050
738.354182	0.665648
738.684260	0.654646
739.014290	0.651468
739.344272	0.652135
739.674207	0.645857
740.004093	0.644539
740.333931	0.645727
740.663722	0.645482
740.993464	0.645380
741.323159	0.649796
741.652806	0.655024
741.982405	0.659867
742.311956	0.663910
742.641460	0.666107
742.970915	0.670409
743.300323	0.677739
743.629683	0.684554
743.958996	0.686738
744.288260	0.690119
744.617477	0.696731
744.946647	0.697287
745.275768	0.702821
745.604842	0.703308
745.933869	0.712677
746.262847	0.713711
746.591778	0.707474
746.920662	0.713193
747.249498	0.720056
747.578286	0.710221
747.907027	0.706591
748.235720	0.707217
748.564365	0.702485
748.892963	0.702115
749.221514	0.705281
749.550017	0.710500
749.878473	0.709756
750.206881	0.716196
750.535242	0.717755
750.863555	0.717949
751.191821	0.718739
751.520039	0.721871
751.848210	0.727237
752.176334	0.719371
752.504411	0.717896
752.832440	0.726010
753.160421	0.730755
753.488356	0.727621
753.816243	0.726824
754.144082	0.734334
754.471875	0.738040
754.799620	0.733395
755.127318	0.734255
755.454969	0.734927
755.782572	0.734162
756.110129	0.738709
756.437638	0.740489
756.765100	0.737726
757.092515	0.735906
757.419882	0.735209
757.747203	0.739942
758.074477	0.740173
758.401703	0.737116
758.728882	0.731991
759.056014	0.730809
759.383099	0.729632
759.710138	0.731050
760.037129	0.728017
760.364073	0.721572
760.690970	0.723527
761.017820	0.729687
761.344623	0.724689
761.671379	0.716052
761.998088	0.703780
762.324751	0.681088
762.651366	0.640513
762.977935	0.573876
763.304456	0.522299
763.630931	0.512713
763.957359	0.551560
764.283740	0.595698
764.610074	0.622953
764.936362	0.654237
765.262602	0.680526
765.588796	0.701662
765.914943	0.719337
766.241044	0.737350
766.567097	0.743789
766.893104	0.753541
767.219064	0.759152
767.544978	0.765514
767.870845	0.779888
768.196665	0.783064
768.522438	0.781395
768.848165	0.781997
769.173846	0.791167
769.499479	0.795876
769.825066	0.798661
770.150607	0.804919
770.476101	0.799173
770.801548	0.800494
771.126949	0.812046
771.452303	0.815713
771.777611	0.815457
772.102872	0.813929
772.428087	0.819483
772.753256	0.822607
773.078378	0.824640
773.403453	0.833597
773.728482	0.838767
774.053465	0.831910
774.378401	0.835431
774.703291	0.843646
775.028135	0.843307
775.352932	0.844709
775.677683	0.847006
776.002388	0.849519
776.327046	0.847163
776.651658	0.850940
776.976224	0.854254
777.300743	0.853540
777.625216	0.856657
777.949643	0.858003
778.274024	0.857861
778.598359	0.859528
778.922647	0.858153
779.246889	0.859256
779.571086	0.862678
779.895236	0.865492
780.219339	0.862402
780.543397	0.859033
780.867409	0.857897
781.191374	0.861295
781.515294	0.861285
781.839167	0.859874
782.162995	0.864065
782.486776	0.860339
782.810511	0.860758
783.134201	0.864865
783.457844	0.863232
783.781441	0.865740
784.104993	0.871846
784.428498	0.871018
784.751958	0.867046
785.075372	0.869787
785.398739	0.874690
785.722061	0.871204
786.045337	0.865499
786.368568	0.870773
786.691752	0.873762
787.014891	0.858733
787.337983	0.849410
787.661030	0.843449
787.984031	0.825281
788.306987	0.812791
788.629897	0.813732
788.952760	0.817930
789.275579	0.822418
789.598351	0.838440
789.921078	0.851412
790.243759	0.853037
790.566395	0.858394
790.888984	0.866090
791.211529	0.870403
791.534027	0.873015
791.856480	0.875162
792.178888	0.880271
792.501249	0.882689
792.823566	0.884742
793.145836	0.883883
793.468062	0.886425
793.790241	0.886548
794.112375	0.884948
794.434464	0.879749
794.756507	0.878707
795.078505	0.878915
795.400457	0.873146
795.722364	0.862789
796.044226	0.854507
796.366042	0.853641
796.687812	0.857482
797.009538	0.853186
797.331218	0.856199
797.652852	0.861805
797.974442	0.865963
798.295986	0.865818
798.617484	0.867848
798.938938	0.872744
799.260346	0.877480
799.581709	0.879281
799.903026	0.881686
800.224299	0.881812
800.545526	0.885761
800.866708	0.888686
801.187845	0.894224
801.508936	0.893249
801.829983	0.891243
802.150984	0.893640
802.471940	0.898720
802.792851	0.898181
803.113717	0.899623
803.434538	0.897521
803.755314	0.899380
804.076045	0.902039
804.396731	0.901278
804.717372	0.900855
805.037967	0.902200
805.358518	0.901046
805.679024	0.898014
805.999485	0.897676
806.319901	0.897841
806.640272	0.899097
806.960598	0.897916
807.280879	0.894870
807.601115	0.892931
807.921306	0.897472
808.241453	0.897394
808.561554	0.895413
808.881611	0.895780
809.201623	0.897193
809.521590	0.897373
809.841513	0.898128
810.161390	0.898146
810.481223	0.898019
810.801011	0.902321
811.120755	0.904147
811.440453	0.903182
811.760107	0.902030
812.079716	0.900866
812.399281	0.905032
812.718801	0.907617
813.038276	0.908877
813.357707	0.907780
813.677093	0.904611
813.996434	0.909360
814.315731	0.910045
814.634983	0.910039
814.954191	0.908712
815.273354	0.906533
815.592473	0.903036
815.911547	0.902848
816.230577	0.902169
816.549562	0.897251
816.868502	0.898500
817.187399	0.894842
817.506250	0.890162
817.825058	0.890979
818.143821	0.888224
818.462539	0.882188
818.781213	0.875987
819.099843	0.862601
819.418429	0.848760
819.736970	0.831565
820.055466	0.812234
820.373919	0.787036
820.692327	0.754295
821.010691	0.720455
821.329011	0.644268
821.647286	0.530856
821.965517	0.417443
822.283704	0.375293
822.601847	0.377056
822.919945	0.412729
823.237999	0.445268
823.556010	0.491569
823.873976	0.546368
824.191897	0.596656
824.509775	0.638557
824.827609	0.683434
825.145398	0.706022
825.463144	0.708616
825.780845	0.691092
826.098502	0.673205
826.416116	0.627871
826.733685	0.584002
827.051210	0.576743
827.368692	0.590602
827.686129	0.627680
828.003522	0.680044
828.320872	0.727501
828.638177	0.770054
828.955439	0.802373
829.272656	0.824644
829.589830	0.840737
829.906960	0.855780
830.224046	0.868857
830.541088	0.879726
830.858086	0.883109
831.175041	0.889767
831.491952	0.889016
831.808819	0.885045
832.125642	0.879010
832.442421	0.864440
832.759157	0.841602
833.075849	0.797298
833.392497	0.734029
833.709101	0.693126
834.025662	0.702647
834.342179	0.735093
834.658653	0.773085
834.975083	0.809082
835.291469	0.834453
835.607811	0.856595
835.924110	0.872062
836.240366	0.890094
836.556578	0.903239
836.872746	0.910509
837.188871	0.915908
837.504952	0.921000
837.820990	0.925685
838.136984	0.927447
838.452935	0.930549
838.768842	0.932744
839.084706	0.925178
839.400526	0.900789
839.716303	0.860349
840.032037	0.839015
840.347727	0.843198
840.663373	0.860236
840.978977	0.881711
841.294537	0.904039
841.610054	0.919698
841.925527	0.927398
842.240957	0.934886
842.556344	0.941012
842.871687	0.946798
843.186987	0.950854
843.502244	0.950508
843.817458	0.953426
844.132629	0.956812
844.447756	0.960840
844.762840	0.961115
845.077881	0.961232
845.392879	0.960426
845.707833	0.963406
846.022745	0.965306
846.337613	0.965693
846.652438	0.967417
846.967221	0.964731
847.281960	0.966517
847.596656	0.967321
847.911309	0.966452
848.225919	0.968561
848.540485	0.969099
848.855009	0.969572
849.169490	0.968915
849.483928	0.969838
849.798323	0.969875
850.112675	0.970794
850.426984	0.970414
850.741251	0.970339
851.055474	0.971783
851.369654	0.968593
851.683792	0.970048
851.997887	0.969415
852.311938	0.972024
852.625947	0.970929
852.939914	0.967985
853.253837	0.970694
853.567718	0.970750
853.881555	0.971119
854.195350	0.967935
854.509103	0.969985
854.822812	0.971002
855.136479	0.970941
855.450103	0.970439
855.763685	0.968746
856.077224	0.968904
856.390720	0.970134
856.704173	0.970300
857.017584	0.969081
857.330953	0.967353
857.644278	0.968438
857.957561	0.969449
858.270802	0.969864
858.584000	0.968483
858.897155	0.967138
859.210268	0.968094
859.523339	0.968021
859.836367	0.970568
860.149352	0.971494
860.462295	0.970107
860.775195	0.971211
861.088054	0.970501
861.400869	0.970666
861.713642	0.970593
862.026373	0.970654
862.339062	0.971781
862.651708	0.968543
862.964312	0.968300
863.276873	0.970763
863.589392	0.969923
863.901869	0.967380
864.214303	0.965799
864.526696	0.966083
864.839045	0.964406
865.151353	0.961848
865.463619	0.963534
865.775842	0.963540
866.088023	0.963987
866.400162	0.962079
866.712258	0.964345
867.024313	0.963602
867.336325	0.964866
867.648296	0.964351
867.960224	0.962807
868.272110	0.963106
868.583954	0.964318
868.895755	0.964748
869.207515	0.962540
869.519233	0.960838
869.830909	0.961656
870.142542	0.964046
870.454134	0.962546
870.765684	0.962137
871.077191	0.959265
871.388657	0.959748
871.700081	0.959241
872.011463	0.961225
872.322803	0.958731
872.634101	0.957817
872.945357	0.956470
873.256571	0.954139
873.567744	0.953820
873.878874	0.954384
874.189963	0.953626
874.501010	0.952403
874.812015	0.950677
875.122979	0.952354
875.433900	0.955404
875.744780	0.954794
876.055618	0.951659
876.366415	0.951874
876.677169	0.951271
876.987882	0.953255
877.298554	0.952796
877.609183	0.948805
877.919771	0.945853
878.230317	0.944947
878.540822	0.942936
878.851285	0.935947
879.161707	0.929555
879.472087	0.917440
879.782425	0.901529
880.092722	0.868317
880.402977	0.817409
880.713191	0.758454
881.023363	0.700147
881.333494	0.668429
881.643583	0.639468
881.953631	0.638967
882.263637	0.667966
882.573602	0.706927
882.883526	0.731494
883.193408	0.754799
883.503248	0.776351
883.813048	0.804190
884.122806	0.832208
884.432522	0.855439
884.742197	0.874194
885.051831	0.885115
885.361424	0.895560
885.670975	0.906932
885.980485	0.915245
886.289954	0.921563
886.599382	0.927018
886.908768	0.931516
887.218113	0.936415
887.527417	0.939975
887.836680	0.944220
888.145901	0.944640
888.455082	0.947955
888.764221	0.952026
889.073319	0.954477
889.382376	0.954290
889.691392	0.954641
890.000366	0.955032
890.309300	0.955148
890.618193	0.955416
890.927044	0.952819
891.235855	0.952930
891.544625	0.953488
891.853353	0.952531
892.162041	0.951008
892.470687	0.944908
892.779293	0.939974
893.087858	0.936167
893.396381	0.928601
893.704864	0.916369
894.013306	0.891318
894.321707	0.866431
894.630068	0.852983
894.938387	0.848589
895.246665	0.850353
895.554903	0.861462
895.863100	0.873656
896.171256	0.890302
896.479371	0.909677
896.787446	0.921860
897.095480	0.927413
897.403473	0.929988
897.711425	0.934479
898.019336	0.942149
898.327207	0.944626
898.635038	0.947028
898.942827	0.947619
899.250576	0.949264
899.558284	0.954328
899.865952	0.955006
900.173579	0.957049
900.481165	0.956876
900.788711	0.960192
901.096216	0.963443
901.403681	0.963458
901.711105	0.964051
902.018489	0.965369
902.325832	0.963276
902.633135	0.963373
902.940397	0.956367
903.247619	0.944442
903.554800	0.921613
903.861941	0.883175
904.169041	0.848625
904.476101	0.830973
904.783121	0.833030
905.090100	0.847901
905.397039	0.868830
905.703938	0.889722
906.010796	0.909017
906.317614	0.926301
906.624391	0.937040
906.931129	0.946347
907.237826	0.953167
907.544483	0.960032
907.851099	0.963965
908.157675	0.967475
908.464211	0.971234
908.770707	0.973640
909.077163	0.975618
909.383578	0.975565
909.689954	0.975855
909.996289	0.976336
910.302584	0.979288
910.608839	0.980572
910.915054	0.979173
911.221229	0.979820
911.527363	0.976703
911.833458	0.977873
912.139513	0.978571
912.445527	0.975561
912.751502	0.975645
913.057436	0.973078
913.363331	0.971753
913.669186	0.967324
913.975000	0.962679
914.280775	0.957426
914.586510	0.951657
914.892205	0.939106
915.197859	0.916795
915.503475	0.890736
915.809050	0.872200
916.114585	0.867417
916.420081	0.864902
916.725536	0.860841
917.030952	0.868366
917.336328	0.881575
917.641665	0.897477
917.946961	0.910519
918.252218	0.923003
918.557435	0.930784
918.862612	0.938895
919.167750	0.944841
919.472848	0.949677
919.777906	0.955540
920.082925	0.959821
920.387904	0.962695
920.692843	0.965681
920.997743	0.964627
921.302603	0.969958
921.607423	0.970619
921.912204	0.972829
922.216946	0.973093
922.521647	0.974636
922.826310	0.976210
923.130932	0.978396
923.435516	0.978716
923.740059	0.981044
924.044564	0.979509
924.349028	0.981992
924.653454	0.984698
924.957840	0.985492
925.262186	0.985016
925.566493	0.985917
925.870761	0.984917
926.174989	0.986076
926.479178	0.989030
926.783328	0.989506
927.087438	0.988758
927.391509	0.988623
927.695541	0.990710
927.999533	0.990903
928.303486	0.989991
928.607400	0.991835
928.911275	0.990849
929.215110	0.991474
929.518906	0.990949
929.822663	0.990680
930.126381	0.991102
930.430060	0.990615
930.733699	0.990757
931.037299	0.990363
931.340861	0.990831
931.644383	0.990315
931.947866	0.990061
932.251309	0.991344
932.554714	0.991225
932.858080	0.989623
933.161407	0.990920
933.464694	0.991251
933.767943	0.990028
934.071153	0.992074
934.374323	0.991856
934.677455	0.991561
934.980548	0.991721
935.283602	0.991721
935.586617	0.991242
935.889593	0.991539
936.192530	0.991980
936.495428	0.991292
936.798287	0.991986
937.101108	0.991771
937.403890	0.988591
937.706632	0.990136
938.009336	0.987460
938.312002	0.986021
938.614628	0.985439
938.917216	0.982864
939.219765	0.982749
939.522275	0.984537
939.824747	0.983639
940.127179	0.984253
940.429573	0.985835
940.731929	0.985116
941.034246	0.986110
941.336524	0.986830
941.638763	0.986543
941.940964	0.988202
942.243126	0.986468
942.545250	0.987892
942.847335	0.989086
943.149381	0.989052
943.451389	0.989309
943.753359	0.989535
944.055290	0.992429
944.357182	0.989356
944.659036	0.988745
944.960851	0.989326
945.262628	0.990243
945.564367	0.991120
945.866067	0.989492
946.167729	0.990790
946.469352	0.990454
946.770937	0.989525
947.072484	0.990867
947.373992	0.990700
947.675462	0.990503
947.976893	0.990830
948.278286	0.991569
948.579641	0.992727
948.880958	0.990273
949.182236	0.991140
949.483476	0.990596
949.784678	0.990855
950.085841	0.991308
950.386967	0.990618
950.688054	0.990915
950.989103	0.991161
951.290114	0.990032
951.591087	0.989755
951.892021	0.991059
952.192917	0.990176
952.493776	0.988567
952.794596	0.989606
953.095378	0.988321
953.396122	0.989675
953.696828	0.987671
953.997496	0.990396
954.298126	0.991683
954.598718	0.991115
954.899272	0.991857
955.199788	0.991373
955.500266	0.992147
955.800706	0.992455
956.101108	0.993882
956.401472	0.994399
956.701798	0.994061
957.002087	0.993287
957.302337	0.993938
957.602550	0.995993
957.902724	0.995074
958.202861	0.996023
958.502960	0.995081
958.803022	0.994642
959.103045	0.996772
959.403031	0.996773
959.702979	0.994595
960.002889	0.996425
960.302762	0.993940
960.602596	0.995551
960.902393	0.994596
961.202153	0.997585
961.501875	0.996987
961.801559	0.995697
962.101205	0.996389
962.400814	0.996597
962.700385	0.996860
962.999918	0.996459
963.299414	0.995929
963.598873	0.995712
963.898293	0.996043
964.197677	0.995646
964.497022	0.996808
964.796331	0.997388
965.095601	0.996794
965.394835	0.997445
965.694030	0.996653
965.993189	0.996651
966.292309	0.995708
966.591393	0.997965
966.890439	0.998047
967.189447	0.996590
967.488419	0.997959
967.787353	0.996045
968.086249	0.997021
968.385108	0.998044
968.683930	0.996432
968.982714	0.997846
969.281462	0.998182
969.580172	0.996954
969.878844	0.996957
970.177480	0.995599
970.476078	0.997070
970.774639	0.997998
971.073162	0.997685
971.371649	0.996991
971.670098	0.995517
971.968510	0.997608
972.266885	0.995833
972.565223	0.996356
972.863524	0.996864
973.161788	0.995658
973.460014	0.997515
973.758204	0.996121
974.056356	0.996236
974.354471	0.994493
974.652550	0.997069
974.950591	0.996357
975.248595	0.997582
975.546563	0.996486
975.844493	0.998880
976.142386	0.998216
976.440243	0.997462
976.738062	0.997103
977.035845	0.998231
977.333590	0.996346
977.631299	0.997550
977.928971	0.997297
978.226606	0.996694
978.524204	0.996066
978.821765	0.998348
979.119290	0.997587
979.416777	0.996949
979.714228	0.997095
980.011642	0.996213
980.309020	0.997074
980.606360	0.997225
980.903664	0.998950
981.200931	0.996612
981.498162	0.995713
981.795356	0.994335
982.092513	0.994184
982.389633	0.995280
982.686717	0.991787
982.983764	0.992233
983.280775	0.989999
983.577749	0.990131
983.874686	0.992063
984.171587	0.992230
984.468451	0.994434
984.765279	0.994742
985.062070	0.995053
985.358824	0.996617
985.655543	0.993854
985.952224	0.996307
986.248869	0.996109
986.545478	0.996703
986.842050	0.998740
987.138586	0.995777
987.435086	0.998081
987.731549	0.999298
988.027975	0.997297
988.324366	0.996552
988.620719	0.997858
988.917037	0.997024
989.213318	0.998330
989.509563	0.998358
989.805772	0.998365
990.101944	0.998472
990.398080	0.998012
990.694180	0.998625
990.990244	0.998074
991.286271	0.997082
991.582262	0.998624
991.878217	0.997218
992.174136	0.999419
992.470019	0.999039
992.765865	0.997868
993.061676	0.999057
993.357450	0.997923
993.653188	0.997516
993.948890	0.997424
994.244556	0.997898
994.540186	0.997648
994.835780	0.996470
995.131337	0.997562
995.426859	0.996337
995.722345	0.997229
996.017795	0.996261
996.313208	0.995847
996.608586	0.996353
996.903928	0.996413
997.199234	0.997888
997.494504	0.996920
997.789738	0.996121
998.084936	0.996542
998.380099	0.997853
998.675225	0.997264
998.970316	0.997570
999.265371	0.998114
999.560390	0.997746
999.855373	0.998359
1000.150320	0.997270
1000.445232	0.999357
1000.740108	0.998544
1001.034948	0.998498
1001.329752	0.999101
1001.624521	0.999505
1001.919254	0.998834
1002.213951	0.998076
1002.508613	0.998826
1002.803239	0.998663
1003.097829	0.999169
1003.392384	0.998789
1003.686903	0.998686
1003.981386	0.998312
1004.275834	0.998084
1004.570246	0.998287
1004.864623	0.999914
1005.158964	1.000464
1005.453270	0.998725
1005.747540	0.997697
1006.041775	0.998311
1006.335974	0.998880
1006.630138	0.998503
1006.924266	0.999787
1007.218359	1.001197
1007.512416	1.000769
1007.806438	0.999188
1008.100425	0.998964
1008.394376	1.000147
1008.688292	0.998609
1008.982172	1.001112
1009.276017	0.999865
1009.569827	0.998712
1009.863602	0.998934
1010.157341	1.000005
1010.451045	0.999112
1010.744714	0.997856
1011.038347	0.998886
1011.331945	0.999578
1011.625508	0.997483
1011.919036	0.999513
1012.212528	0.998732
1012.505986	0.998673
1012.799408	0.998481
1013.092795	1.000003
1013.386147	0.998480
1013.679464	0.999318
1013.972745	0.998657
1014.265992	0.996627
1014.559204	0.998190
1014.852380	0.998831
1015.145521	0.999332
1015.438628	0.999927
1015.731699	0.998104
1016.024736	0.999400
1016.317737	0.998437
1016.610703	0.999769
1016.903635	0.999096
1017.196531	0.997490
1017.489393	0.999830
1017.782219	0.998540
1018.075011	0.999384
1018.367768	0.998379
1018.660490	0.998367
1018.953177	0.998367
1019.245829	0.998367
