Dividing Wavelength (nm)	Counts (n)	Blue Motor Position (mm): 0.000000	Red Motor Position (mm): 31.600000	
326.493990	1.000906
326.888308	1.000906
327.282561	1.000906
327.676750	0.999362
328.070874	0.999627
328.464933	1.000265
328.858929	1.000217
329.252859	1.000129
329.646726	0.999274
330.040528	1.000806
330.434265	0.999606
330.827938	1.000811
331.221547	0.999884
331.615091	1.000266
332.008571	1.000130
332.401986	0.999373
332.795338	0.999726
333.188625	0.998730
333.581847	1.000675
333.975006	0.999433
334.368100	1.000042
334.761129	0.999964
335.154095	1.001032
335.546996	0.998184
335.939833	0.994482
336.332606	0.995331
336.725315	0.996145
337.117960	0.997808
337.510540	0.995559
337.903056	0.996571
338.295508	0.995068
338.687896	0.996603
339.080220	0.996032
339.472480	0.996389
339.864676	0.994829
340.256807	0.996976
340.648875	0.997304
341.040879	0.996520
341.432818	0.995513
341.824694	0.995722
342.216506	0.996342
342.608253	0.996311
342.999937	0.994665
343.391557	0.996410
343.783113	0.995392
344.174605	0.996800
344.566033	0.997157
344.957397	0.995071
345.348697	0.996204
345.739934	0.995782
346.131106	0.994751
346.522215	0.995304
346.913260	0.995154
347.304241	0.996573
347.695159	0.995395
348.086012	0.994537
348.476802	0.996372
348.867528	0.994949
349.258191	0.994989
349.648789	0.995688
350.039324	0.996204
350.429796	0.997144
350.820203	0.995565
351.210548	0.994763
351.600828	0.995024
351.991045	0.996413
352.381198	0.995307
352.771288	0.994899
353.161314	0.995667
353.551276	0.995586
353.941175	0.996706
354.331010	0.996630
354.720782	0.995840
355.110490	0.996663
355.500135	0.997107
355.889717	0.995844
356.279235	0.995361
356.668689	0.995854
357.058080	0.995717
357.447408	0.996246
357.836672	0.996354
358.225873	0.996873
358.615010	0.996718
359.004084	0.997175
359.393095	0.995958
359.782043	0.996571
360.170927	0.996587
360.559748	0.997566
360.948505	0.994439
361.337199	0.997464
361.725830	0.996454
362.114398	0.995481
362.502903	0.995784
362.891344	0.997506
363.279722	0.995115
363.668037	0.996930
364.056289	0.996220
364.444478	0.996757
364.832603	0.996948
365.220665	0.995610
365.608665	0.995785
365.996601	0.995986
366.384474	0.996233
366.772284	0.996055
367.160031	0.995349
367.547715	0.995079
367.935336	0.995384
368.322893	0.995920
368.710388	0.996000
369.097820	0.995995
369.485189	0.995647
369.872495	0.995535
370.259738	0.993724
370.646918	0.996194
371.034035	0.996395
371.421090	0.997416
371.808081	0.995928
372.195010	0.996072
372.581875	0.996667
372.968678	0.995242
373.355418	0.995908
373.742096	0.996539
374.128710	0.996414
374.515262	0.996380
374.901751	0.996957
375.288177	0.995984
375.674540	0.997338
376.060841	0.995999
376.447079	0.996622
376.833254	0.996568
377.219367	0.996443
377.605417	0.996969
377.991404	0.996478
378.377329	0.995285
378.763191	0.996186
379.148991	0.997055
379.534727	0.996424
379.920402	0.997512
380.306013	0.997394
380.691563	0.997853
381.077049	0.996865
381.462474	0.997546
381.847835	0.997190
382.233134	0.996391
382.618371	0.996259
383.003545	0.997827
383.388657	0.997966
383.773706	0.998419
384.158693	0.997751
384.543618	0.996733
384.928480	0.997411
385.313280	0.996539
385.698017	0.998110
386.082692	0.998063
386.467305	0.996998
386.851856	0.997834
387.236344	0.996626
387.620770	0.996985
388.005133	0.997801
388.389435	0.998679
388.773674	0.997575
389.157851	0.997989
389.541965	0.997655
389.926018	0.997493
390.310008	0.998457
390.693936	0.996570
391.077802	0.998270
391.461606	0.997045
391.845348	0.997712
392.229027	0.998833
392.612645	0.998258
392.996200	0.999488
393.379694	0.998115
393.763125	0.999272
394.146494	0.998092
394.529801	0.997424
394.913047	0.997936
395.296230	0.998120
395.679351	0.998146
396.062410	0.997420
396.445408	0.998031
396.828343	0.998263
397.211217	0.997686
397.594028	0.998189
397.976778	0.998376
398.359466	0.998287
398.742092	0.997239
399.124656	0.996787
399.507158	0.998090
399.889598	0.998205
400.271977	0.998404
400.654294	0.998390
401.036549	0.999483
401.418742	0.998359
401.800874	0.996710
402.182944	0.998544
402.564952	0.997217
402.946898	0.998909
403.328783	0.997745
403.710606	0.998626
404.092367	0.998761
404.474067	0.998792
404.855705	0.998184
405.237282	0.998982
405.618797	0.998377
406.000250	0.997432
406.381642	0.998428
406.762972	0.998173
407.144240	0.998354
407.525447	0.998864
407.906593	0.998972
408.287677	0.998684
408.668700	0.999272
409.049661	0.997503
409.430560	0.998713
409.811399	0.998120
410.192176	0.998404
410.572891	0.997740
410.953545	0.997734
411.334138	0.997414
411.714669	0.998164
412.095139	0.997200
412.475547	0.998679
412.855894	0.998291
413.236180	0.998757
413.616405	0.997993
413.996568	0.998838
414.376670	0.997538
414.756711	0.998716
415.136691	0.998942
415.516609	0.998985
415.896466	0.997879
416.276262	0.996919
416.655997	0.998308
417.035670	0.998868
417.415283	0.999162
417.794834	0.998280
418.174324	0.998521
418.553753	0.999123
418.933121	0.998542
419.312428	0.998232
419.691674	0.998220
420.070859	0.998725
420.449983	0.999213
420.829045	0.998191
421.208047	0.999004
421.586988	0.999870
421.965867	0.998091
422.344686	0.998798
422.723444	0.998071
423.102141	0.998819
423.480777	0.998200
423.859352	0.998437
424.237866	0.998124
424.616319	0.998897
424.994712	0.999158
425.373044	0.998868
425.751314	0.998740
426.129524	0.998463
426.507673	0.998527
426.885762	0.999795
427.263789	0.998824
427.641756	0.998727
428.019662	0.999428
428.397508	0.998214
428.775292	0.997762
429.153016	0.998632
429.530679	0.998774
429.908282	1.000302
430.285824	0.999003
430.663305	0.997991
431.040726	0.997686
431.418086	0.999720
431.795385	0.999049
432.172624	0.998380
432.549802	0.998423
432.926920	0.998690
433.303977	0.998092
433.680974	0.999721
434.057910	0.998778
434.434786	0.999746
434.811601	0.999036
435.188355	0.997519
435.565050	0.998102
435.941683	0.997604
436.318257	0.999467
436.694770	0.998126
437.071222	0.998472
437.447614	0.997837
437.823946	0.999470
438.200218	0.998765
438.576429	0.998892
438.952580	0.999035
439.328670	0.998242
439.704700	0.999049
440.080670	0.999052
440.456580	0.998675
440.832429	0.997713
441.208218	0.998894
441.583947	0.999484
441.959616	0.998349
442.335224	0.997991
442.710773	0.998851
443.086261	0.997646
443.461689	0.998523
443.837057	0.997820
444.212365	0.999458
444.587612	0.997765
444.962800	0.998326
445.337927	0.998618
445.712995	0.998878
446.088002	0.999155
446.462949	0.999533
446.837837	0.998447
447.212664	0.998572
447.587431	0.998304
447.962139	0.998361
448.336786	0.998024
448.711374	0.999041
449.085901	0.997306
449.460369	0.999501
449.834776	0.997573
450.209124	0.998606
450.583412	0.999398
450.957640	0.999030
451.331808	0.998511
451.705917	0.998704
452.079965	0.998371
452.453954	0.998258
452.827883	0.998121
453.201752	0.998502
453.575562	0.998854
453.949311	0.998396
454.323001	0.998177
454.696632	0.998495
455.070202	0.998713
455.443713	0.997967
455.817164	0.999044
456.190556	0.998226
456.563888	0.999089
456.937160	0.998064
457.310373	0.998310
457.683526	0.998405
458.056619	0.998585
458.429653	0.999129
458.802628	0.997318
459.175542	0.998025
459.548398	0.999192
459.921194	0.998564
460.293930	0.998631
460.666607	0.997838
461.039224	0.997174
461.411782	0.998771
461.784280	0.997585
462.156719	0.998760
462.529099	0.998940
462.901419	0.997897
463.273680	0.997899
463.645882	0.997986
464.018024	0.997719
464.390106	0.998543
464.762130	0.999211
465.134094	0.998378
465.505999	0.998547
465.877845	0.998426
466.249631	0.998855
466.621358	0.998574
466.993026	0.998602
467.364634	0.998333
467.736184	0.998717
468.107674	0.998008
468.479105	0.997757
468.850477	0.999035
469.221790	0.998224
469.593043	0.998268
469.964238	0.998394
470.335373	0.997890
470.706449	0.997842
471.077467	0.998083
471.448425	0.997666
471.819324	0.998303
472.190164	0.997134
472.560945	0.997242
472.931667	0.996436
473.302330	0.996226
473.672934	0.997105
474.043479	0.996481
474.413965	0.996186
474.784393	0.996119
475.154761	0.995082
475.525070	0.994560
475.895321	0.994452
476.265513	0.994038
476.635645	0.993694
477.005719	0.993167
477.375734	0.991856
477.745691	0.991751
478.115588	0.991563
478.485427	0.990793
478.855207	0.989930
479.224928	0.988699
479.594591	0.987961
479.964194	0.987114
480.333739	0.986585
480.703226	0.985421
481.072653	0.985075
481.442022	0.983882
481.811333	0.982042
482.180584	0.981699
482.549777	0.979949
482.918912	0.979007
483.287988	0.977749
483.657005	0.976300
484.025964	0.974856
484.394864	0.973785
484.763706	0.972614
485.132489	0.971239
485.501213	0.969516
485.869879	0.967836
486.238487	0.965618
486.607036	0.964473
486.975527	0.961619
487.343959	0.959875
487.712333	0.957691
488.080648	0.955815
488.448905	0.953928
488.817104	0.951378
489.185244	0.948662
489.553326	0.945643
489.921350	0.941346
490.289315	0.933908
490.657222	0.931208
491.025070	0.928068
491.392861	0.926085
491.760593	0.925240
492.128267	0.923426
492.495883	0.921069
492.863440	0.919017
493.230939	0.915574
493.598380	0.912275
493.965763	0.908026
494.333088	0.905485
494.700354	0.900559
495.067563	0.898016
495.434713	0.893597
495.801805	0.889710
496.168839	0.885237
496.535815	0.880174
496.902733	0.877133
497.269593	0.872184
497.636395	0.868272
498.003139	0.862333
498.369825	0.859217
498.736453	0.852731
499.103023	0.848182
499.469535	0.842782
499.835989	0.838078
500.202385	0.833476
500.568723	0.828343
500.935003	0.823216
501.301226	0.815767
501.667390	0.811198
502.033497	0.804663
502.399546	0.800407
502.765537	0.794529
503.131470	0.788120
503.497345	0.780859
503.863163	0.778938
504.228923	0.770170
504.594625	0.764279
504.960269	0.759749
505.325856	0.752097
505.691385	0.746421
506.056856	0.739702
506.422270	0.732743
506.787625	0.728483
507.152924	0.720571
507.518164	0.715415
507.883347	0.708699
508.248472	0.702983
508.613540	0.695211
508.978550	0.689100
509.343503	0.682993
509.708398	0.675406
510.073236	0.668026
510.438016	0.661403
510.802738	0.655049
511.167403	0.648425
511.532010	0.642396
511.896561	0.634933
512.261053	0.628063
512.625488	0.621643
512.989866	0.615213
513.354186	0.608523
513.718449	0.602679
514.082655	0.595678
514.446803	0.590010
514.810894	0.582091
515.174927	0.576868
515.538904	0.570167
515.902822	0.561470
516.266684	0.557777
516.630488	0.550957
516.994235	0.545220
517.357925	0.537419
517.721558	0.530696
518.085133	0.523680
518.448651	0.518889
518.812112	0.514219
519.175516	0.506751
519.538863	0.499879
519.902152	0.495350
520.265385	0.486508
520.628560	0.483389
520.991678	0.476730
521.354739	0.471090
521.717743	0.466280
522.080690	0.461520
522.443580	0.453449
522.806413	0.448421
523.169189	0.442885
523.531908	0.436804
523.894569	0.434776
524.257174	0.428789
524.619722	0.421612
524.982213	0.418660
525.344647	0.411557
525.707025	0.408081
526.069345	0.401823
526.431608	0.398060
526.793815	0.392059
527.155964	0.390514
527.518057	0.385656
527.880093	0.381844
528.242072	0.376680
528.603995	0.373422
528.965860	0.371184
529.327669	0.365551
529.689421	0.362850
530.051117	0.359719
530.412755	0.353016
530.774337	0.352091
531.135862	0.347919
531.497331	0.344203
531.858743	0.342803
532.220098	0.337320
532.581396	0.335865
532.942638	0.333262
533.303824	0.330692
533.664953	0.327249
534.026025	0.325542
534.387040	0.320878
534.747999	0.318203
535.108902	0.314098
535.469748	0.315923
535.830537	0.311275
536.191270	0.308790
536.551947	0.305967
536.912567	0.303421
537.273131	0.303048
537.633638	0.300500
537.994089	0.298493
538.354483	0.297390
538.714821	0.292584
539.075103	0.289780
539.435328	0.288798
539.795497	0.290529
540.155609	0.285154
540.515665	0.281652
540.875665	0.285158
541.235609	0.282053
541.595496	0.280614
541.955328	0.275616
542.315102	0.276769
542.674821	0.276491
543.034483	0.274512
543.394090	0.273147
543.753640	0.273370
544.113134	0.267415
544.472571	0.269413
544.831953	0.265190
545.191278	0.268062
545.550548	0.266032
545.909761	0.261925
546.268918	0.261705
546.628019	0.259119
546.987064	0.260982
547.346053	0.261793
547.704986	0.258716
548.063863	0.258360
548.422684	0.257680
548.781449	0.258662
549.140158	0.255487
549.498811	0.258036
549.857408	0.260038
550.215949	0.254319
550.574434	0.256799
550.932864	0.254300
551.291237	0.252400
551.649555	0.253204
552.007817	0.252544
552.366022	0.252636
552.724173	0.252308
553.082267	0.252554
553.440305	0.248906
553.798288	0.253225
554.156215	0.249248
554.514086	0.249572
554.871902	0.252381
555.229661	0.251260
555.587365	0.251719
555.945014	0.254029
556.302606	0.250576
556.660143	0.252764
557.017625	0.249025
557.375050	0.251265
557.732421	0.247987
558.089735	0.249737
558.446994	0.249744
558.804197	0.248431
559.161345	0.248462
559.518437	0.251713
559.875474	0.249190
560.232455	0.248532
560.589381	0.249649
560.946251	0.249487
561.303065	0.246934
561.659825	0.248528
562.016528	0.249629
562.373177	0.252511
562.729770	0.249687
563.086307	0.251437
563.442789	0.249208
563.799216	0.251902
564.155587	0.250631
564.511904	0.251657
564.868164	0.251801
565.224370	0.251568
565.580520	0.253107
565.936615	0.253088
566.292654	0.255729
566.648638	0.252873
567.004567	0.253880
567.360441	0.254124
567.716260	0.256147
568.072023	0.253863
568.427732	0.254515
568.783385	0.257116
569.138982	0.255135
569.494525	0.254441
569.850013	0.257193
570.205445	0.255725
570.560823	0.258277
570.916145	0.260251
571.271412	0.258290
571.626625	0.259607
571.981782	0.260272
572.336884	0.260979
572.691931	0.260603
573.046923	0.261471
573.401860	0.262862
573.756743	0.264539
574.111570	0.263544
574.466342	0.264119
574.821059	0.263265
575.175722	0.265946
575.530330	0.265389
575.884882	0.266046
576.239380	0.267471
576.593823	0.268472
576.948211	0.267623
577.302544	0.271250
577.656823	0.270629
578.011047	0.270792
578.365216	0.271097
578.719330	0.273164
579.073389	0.273033
579.427394	0.274546
579.781344	0.274767
580.135239	0.276873
580.489080	0.276076
580.842866	0.279139
581.196597	0.278879
581.550273	0.277419
581.903895	0.278767
582.257463	0.276839
582.610975	0.280121
582.964434	0.279609
583.317837	0.282033
583.671186	0.282287
584.024481	0.282351
584.377721	0.284993
584.730906	0.285370
585.084037	0.284462
585.437113	0.286343
585.790135	0.285725
586.143103	0.288805
586.496016	0.290141
586.848874	0.287396
587.201679	0.288090
587.554428	0.290883
587.907124	0.290128
588.259765	0.290974
588.612352	0.291249
588.964884	0.295193
589.317362	0.294810
589.669786	0.294555
590.022155	0.292776
590.374470	0.292437
590.726731	0.294533
591.078937	0.299229
591.431090	0.295387
591.783188	0.299602
592.135232	0.300132
592.487222	0.300198
592.839157	0.298224
593.191038	0.300880
593.542866	0.302270
593.894639	0.306106
594.246358	0.303765
594.598022	0.303489
594.949633	0.307034
595.301190	0.308000
595.652692	0.307140
596.004141	0.303494
596.355535	0.311265
596.706876	0.311504
597.058162	0.314390
597.409395	0.311374
597.760573	0.309186
598.111698	0.311975
598.462768	0.312527
598.813785	0.314017
599.164748	0.315247
599.515657	0.315849
599.866511	0.319087
600.217312	0.314058
600.568060	0.319465
600.918753	0.315996
601.269392	0.316813
601.619978	0.320172
601.970510	0.317985
602.320988	0.317832
602.671412	0.315365
603.021783	0.318076
603.372100	0.319596
603.722363	0.319194
604.072572	0.320290
604.422728	0.319596
604.772830	0.321953
605.122878	0.321275
605.472872	0.322063
605.822813	0.320508
606.172701	0.323079
606.522534	0.320225
606.872314	0.320284
607.222041	0.321264
607.571714	0.319517
607.921333	0.320922
608.270899	0.320478
608.620411	0.317286
608.969870	0.321060
609.319276	0.321434
609.668627	0.321287
610.017926	0.319688
610.367171	0.318238
610.716362	0.319263
611.065500	0.319339
611.414585	0.317842
611.763616	0.318478
612.112594	0.318898
612.461518	0.317876
612.810389	0.316189
613.159207	0.318445
613.507971	0.320358
613.856682	0.315875
614.205340	0.317625
614.553945	0.313970
614.902496	0.318091
615.250994	0.316336
615.599439	0.317191
615.947830	0.316222
616.296169	0.317508
616.644454	0.316414
616.992686	0.316760
617.340864	0.314820
617.688990	0.318947
618.037063	0.315072
618.385082	0.317072
618.733048	0.313930
619.080961	0.316110
619.428821	0.315488
619.776628	0.314993
620.124382	0.317311
620.472083	0.317321
620.819731	0.316889
621.167326	0.320393
621.514868	0.320436
621.862357	0.324763
622.209793	0.324107
622.557176	0.326293
622.904506	0.327383
623.251783	0.329652
623.599007	0.332122
623.946179	0.331382
624.293297	0.333636
624.640363	0.337439
624.987376	0.338046
625.334336	0.340596
625.681243	0.343009
626.028097	0.343011
626.374899	0.344570
626.721647	0.344542
627.068343	0.347957
627.414987	0.348821
627.761577	0.351259
628.108115	0.349297
628.454600	0.354025
628.801032	0.351602
629.147412	0.353913
629.493739	0.354060
629.840014	0.357530
630.186236	0.354707
630.532405	0.360007
630.878521	0.357718
631.224585	0.360007
631.570597	0.363819
631.916556	0.362249
632.262462	0.362295
632.608316	0.364274
632.954117	0.365072
633.299866	0.365633
633.645562	0.366279
633.991206	0.370502
634.336797	0.373730
634.682336	0.375685
635.027823	0.377381
635.373257	0.377941
635.718639	0.381388
636.063968	0.380693
636.409245	0.386576
636.754470	0.386931
637.099642	0.389108
637.444762	0.392648
637.789829	0.391714
638.134845	0.395381
638.479808	0.396040
638.824719	0.395606
639.169577	0.400093
639.514383	0.398495
639.859137	0.403256
640.203839	0.402732
640.548489	0.403686
640.893086	0.405193
641.237632	0.406615
641.582125	0.404649
641.926566	0.406467
642.270955	0.406336
642.615292	0.406850
642.959576	0.406545
643.303809	0.406408
643.647990	0.406304
643.992118	0.406355
644.336195	0.410344
644.680219	0.408057
645.024192	0.409231
645.368112	0.402818
645.711981	0.401602
646.055797	0.396966
646.399562	0.399322
646.743274	0.391603
647.086935	0.389098
647.430544	0.389249
647.774101	0.388278
648.117606	0.387885
648.461059	0.388076
648.804460	0.390470
649.147810	0.395806
649.491108	0.397984
649.834354	0.399246
650.177548	0.404335
650.520690	0.409422
650.863781	0.411366
651.206820	0.410521
651.549807	0.415041
651.892742	0.418658
652.235626	0.418727
652.578458	0.419022
652.921238	0.425507
653.263967	0.423197
653.606644	0.426513
653.949269	0.426807
654.291843	0.430622
654.634365	0.427241
654.976836	0.430769
655.319255	0.431095
655.661622	0.432745
656.003938	0.432510
656.346203	0.435887
656.688416	0.433071
657.030577	0.436961
657.372687	0.438636
657.714746	0.439516
658.056753	0.436779
658.398708	0.439945
658.740612	0.441515
659.082465	0.437851
659.424266	0.438201
659.766016	0.437309
660.107715	0.440268
660.449362	0.438900
660.790958	0.439800
661.132503	0.440745
661.473996	0.438033
661.815438	0.438624
662.156829	0.439265
662.498168	0.439975
662.839456	0.440986
663.180693	0.439126
663.521879	0.438928
663.863013	0.439784
664.204097	0.438552
664.545129	0.435095
664.886110	0.435506
665.227040	0.432928
665.567918	0.435657
665.908746	0.433900
666.249522	0.433545
666.590248	0.434354
666.930922	0.432486
667.271545	0.430984
667.612118	0.431352
667.952639	0.432966
668.293109	0.432061
668.633528	0.434693
668.973896	0.434057
669.314213	0.434576
669.654480	0.436156
669.994695	0.436718
670.334859	0.437491
670.674973	0.438063
671.015035	0.437883
671.355047	0.437767
671.695008	0.439198
672.034918	0.440637
672.374777	0.440567
672.714585	0.441273
673.054342	0.441279
673.394049	0.441316
673.733705	0.438995
674.073310	0.440175
674.412864	0.443493
674.752368	0.444065
675.091820	0.444115
675.431223	0.448354
675.770574	0.448221
676.109875	0.451013
676.449125	0.451110
676.788324	0.453490
677.127473	0.458623
677.466571	0.458652
677.805619	0.460178
678.144616	0.461376
678.483562	0.463293
678.822458	0.465467
679.161303	0.466527
679.500098	0.466885
679.838842	0.468659
680.177535	0.468125
680.516179	0.466660
680.854771	0.466009
681.193314	0.458856
681.531805	0.450694
681.870247	0.439018
682.208638	0.431700
682.546978	0.430514
682.885268	0.432786
683.223508	0.438644
683.561697	0.441775
683.899836	0.444927
684.237925	0.448617
684.575963	0.450646
684.913951	0.454181
685.251889	0.449705
685.589776	0.451518
685.927614	0.454673
686.265401	0.448173
686.603137	0.450015
686.940824	0.444055
687.278460	0.441887
687.616046	0.441907
687.953582	0.436333
688.291068	0.438091
688.628504	0.433726
688.965889	0.435941
689.303224	0.439827
689.640510	0.443392
689.977745	0.449352
690.314930	0.456985
690.652065	0.462146
690.989150	0.469376
691.326185	0.475528
691.663170	0.480642
692.000105	0.487969
692.336990	0.494255
692.673825	0.496865
693.010610	0.503477
693.347345	0.509233
693.684030	0.511110
694.020665	0.515174
694.357251	0.524111
694.693786	0.524249
695.030272	0.528013
695.366707	0.530891
695.703093	0.535583
696.039429	0.532351
696.375716	0.534297
696.711952	0.537302
697.048139	0.538663
697.384276	0.541341
697.720363	0.539730
698.056400	0.538392
698.392388	0.543495
698.728326	0.547231
699.064214	0.549696
699.400053	0.550143
699.735842	0.553841
700.071581	0.557096
700.407270	0.559894
700.742910	0.561821
701.078501	0.568801
701.414042	0.569941
701.749533	0.572335
702.084974	0.580990
702.420366	0.572867
702.755709	0.580819
703.091002	0.588697
703.426246	0.582784
703.761440	0.587486
704.096584	0.593061
704.431679	0.589510
704.766725	0.591470
705.101721	0.593170
705.436668	0.589318
705.771565	0.596713
706.106413	0.592693
706.441212	0.588467
706.775961	0.586994
707.110661	0.590034
707.445311	0.586581
707.779913	0.583776
708.114465	0.582043
708.448967	0.579423
708.783421	0.570879
709.117825	0.565826
709.452180	0.566204
709.786485	0.559444
710.120742	0.549260
710.454949	0.551238
710.789107	0.543863
711.123216	0.534153
711.457275	0.536666
711.791286	0.527430
712.125247	0.526036
712.459159	0.536121
712.793023	0.529909
713.126837	0.533334
713.460602	0.534458
713.794318	0.543924
714.127985	0.542378
714.461602	0.552426
714.795171	0.556102
715.128691	0.563274
715.462162	0.570785
715.795584	0.575999
716.128957	0.579815
716.462281	0.586057
716.795556	0.590465
717.128782	0.594062
717.461960	0.604005
717.795088	0.602287
718.128167	0.607694
718.461198	0.616717
718.794180	0.618300
719.127113	0.620761
719.459997	0.623793
719.792833	0.630668
720.125619	0.631792
720.458357	0.637144
720.791046	0.637355
721.123686	0.640594
721.456278	0.647961
721.788821	0.644463
722.121315	0.647998
722.453761	0.652881
722.786158	0.650636
723.118506	0.646932
723.450805	0.655543
723.783056	0.651263
724.115259	0.648317
724.447412	0.647837
724.779518	0.649643
725.111574	0.648166
725.443582	0.644081
725.775542	0.645839
726.107453	0.638239
726.439315	0.636884
726.771129	0.636574
727.102895	0.629443
727.434612	0.623118
727.766281	0.620725
728.097901	0.620469
728.429473	0.619835
728.760996	0.618520
729.092471	0.618533
729.423897	0.622612
729.755276	0.620940
730.086606	0.621034
730.417887	0.616292
730.749120	0.607043
731.080305	0.597899
731.411442	0.594455
731.742530	0.598216
732.073570	0.598071
732.404562	0.590348
732.735506	0.591731
733.066401	0.596226
733.397249	0.605007
733.728048	0.616994
734.058798	0.628761
734.389501	0.640050
734.720156	0.650017
735.050762	0.657065
735.381320	0.658338
735.711831	0.667488
736.042293	0.671691
736.372707	0.668036
736.703073	0.672923
737.033391	0.675241
737.363661	0.671464
737.693883	0.667425
738.024056	0.666199
738.354182	0.666675
738.684260	0.656089
739.014290	0.651719
739.344272	0.653137
739.674207	0.645729
740.004093	0.645347
740.333931	0.646380
740.663722	0.646263
740.993464	0.646804
741.323159	0.650659
741.652806	0.655546
741.982405	0.661032
742.311956	0.665490
742.641460	0.666186
742.970915	0.670547
743.300323	0.677981
743.629683	0.684544
743.958996	0.686704
744.288260	0.690538
744.617477	0.696731
744.946647	0.697968
745.275768	0.704286
745.604842	0.703404
745.933869	0.713149
746.262847	0.714070
746.591778	0.707628
746.920662	0.713123
747.249498	0.719968
747.578286	0.711174
747.907027	0.707019
748.235720	0.708163
748.564365	0.703061
748.892963	0.702345
749.221514	0.705687
749.550017	0.711693
749.878473	0.709493
750.206881	0.716508
750.535242	0.718774
750.863555	0.716975
751.191821	0.719970
751.520039	0.722691
751.848210	0.728061
752.176334	0.719116
752.504411	0.718710
752.832440	0.726781
753.160421	0.730531
753.488356	0.728403
753.816243	0.726233
754.144082	0.734483
754.471875	0.738670
754.799620	0.733394
755.127318	0.734942
755.454969	0.735480
755.782572	0.734546
756.110129	0.739368
756.437638	0.742157
756.765100	0.738267
757.092515	0.736826
757.419882	0.735995
757.747203	0.740612
758.074477	0.739992
758.401703	0.738021
758.728882	0.731845
759.056014	0.731637
759.383099	0.729983
759.710138	0.731880
760.037129	0.727660
760.364073	0.721789
760.690970	0.724539
761.017820	0.730342
761.344623	0.725679
761.671379	0.717186
761.998088	0.705082
762.324751	0.682931
762.651366	0.641390
762.977935	0.575080
763.304456	0.523232
763.630931	0.514099
763.957359	0.552657
764.283740	0.597312
764.610074	0.623743
764.936362	0.654635
765.262602	0.681265
765.588796	0.701404
765.914943	0.720238
766.241044	0.737826
766.567097	0.743978
766.893104	0.754383
767.219064	0.760295
767.544978	0.766302
767.870845	0.779900
768.196665	0.783404
768.522438	0.780738
768.848165	0.783113
769.173846	0.792676
769.499479	0.796215
769.825066	0.799787
770.150607	0.805192
770.476101	0.799827
770.801548	0.801451
771.126949	0.813630
771.452303	0.816079
771.777611	0.815606
772.102872	0.815552
772.428087	0.819939
772.753256	0.823756
773.078378	0.824375
773.403453	0.834373
773.728482	0.838150
774.053465	0.832245
774.378401	0.834717
774.703291	0.843356
775.028135	0.843851
775.352932	0.844700
775.677683	0.848661
776.002388	0.848870
776.327046	0.847891
776.651658	0.851381
776.976224	0.854757
777.300743	0.855008
777.625216	0.857066
777.949643	0.857949
778.274024	0.859208
778.598359	0.860824
778.922647	0.858955
779.246889	0.859402
779.571086	0.863686
779.895236	0.865439
780.219339	0.863273
780.543397	0.859271
780.867409	0.858040
781.191374	0.860986
781.515294	0.862347
781.839167	0.861676
782.162995	0.864002
782.486776	0.861434
782.810511	0.862070
783.134201	0.866313
783.457844	0.862846
783.781441	0.865938
784.104993	0.872238
784.428498	0.872858
784.751958	0.868326
785.075372	0.870027
785.398739	0.874889
785.722061	0.870775
786.045337	0.865967
786.368568	0.871128
786.691752	0.873843
787.014891	0.858841
787.337983	0.850552
787.661030	0.843786
787.984031	0.825330
788.306987	0.812759
788.629897	0.815648
788.952760	0.818869
789.275579	0.823660
789.598351	0.838725
789.921078	0.851382
790.243759	0.853267
790.566395	0.858605
790.888984	0.864728
791.211529	0.870438
791.534027	0.873413
791.856480	0.875661
792.178888	0.880278
792.501249	0.882902
792.823566	0.885061
793.145836	0.884594
793.468062	0.886683
793.790241	0.886323
794.112375	0.885426
794.434464	0.879994
794.756507	0.879713
795.078505	0.879021
795.400457	0.873096
795.722364	0.861530
796.044226	0.855989
796.366042	0.854827
796.687812	0.858036
797.009538	0.854422
797.331218	0.856458
797.652852	0.861958
797.974442	0.866551
798.295986	0.865411
798.617484	0.868122
798.938938	0.872464
799.260346	0.877856
799.581709	0.880148
799.903026	0.881334
800.224299	0.882145
800.545526	0.886639
800.866708	0.890002
801.187845	0.894731
801.508936	0.893585
801.829983	0.891591
802.150984	0.894165
802.471940	0.899751
802.792851	0.899426
803.113717	0.899780
803.434538	0.897395
803.755314	0.899929
804.076045	0.902549
804.396731	0.902157
804.717372	0.900520
805.037967	0.902863
805.358518	0.900883
805.679024	0.898849
805.999485	0.899644
806.319901	0.898282
806.640272	0.899471
806.960598	0.898378
807.280879	0.895042
807.601115	0.893633
807.921306	0.898006
808.241453	0.897884
808.561554	0.895351
808.881611	0.895925
809.201623	0.897689
809.521590	0.897697
809.841513	0.898578
810.161390	0.898282
810.481223	0.899508
810.801011	0.903166
811.120755	0.903758
811.440453	0.903537
811.760107	0.901853
812.079716	0.902140
812.399281	0.905186
812.718801	0.906996
813.038276	0.908584
813.357707	0.908925
813.677093	0.905589
813.996434	0.908321
814.315731	0.910375
814.634983	0.911837
814.954191	0.910214
815.273354	0.906885
815.592473	0.902531
815.911547	0.903569
816.230577	0.900398
816.549562	0.897254
816.868502	0.898598
817.187399	0.894739
817.506250	0.889263
817.825058	0.891448
818.143821	0.889089
818.462539	0.883359
818.781213	0.875214
819.099843	0.864120
819.418429	0.848858
819.736970	0.831934
820.055466	0.812687
820.373919	0.788033
820.692327	0.755854
821.010691	0.722041
821.329011	0.645435
821.647286	0.532499
821.965517	0.420130
822.283704	0.377483
822.601847	0.379225
822.919945	0.414853
823.237999	0.447616
823.556010	0.493690
823.873976	0.549296
824.191897	0.598461
824.509775	0.640422
824.827609	0.685226
825.145398	0.706948
825.463144	0.709274
825.780845	0.693595
826.098502	0.674339
826.416116	0.630331
826.733685	0.586415
827.051210	0.578381
827.368692	0.592893
827.686129	0.628648
828.003522	0.681348
828.320872	0.727662
828.638177	0.771340
828.955439	0.803691
829.272656	0.824811
829.589830	0.842603
829.906960	0.857843
830.224046	0.869309
830.541088	0.879937
830.858086	0.883565
831.175041	0.890824
831.491952	0.889226
831.808819	0.886179
832.125642	0.879063
832.442421	0.864529
832.759157	0.843251
833.075849	0.798359
833.392497	0.734376
833.709101	0.695761
834.025662	0.704688
834.342179	0.736325
834.658653	0.774143
834.975083	0.809233
835.291469	0.836074
835.607811	0.858169
835.924110	0.872666
836.240366	0.890093
836.556578	0.903650
836.872746	0.910941
837.188871	0.916863
837.504952	0.922581
837.820990	0.925441
838.136984	0.928369
838.452935	0.932195
838.768842	0.933142
839.084706	0.926191
839.400526	0.901565
839.716303	0.861924
840.032037	0.840038
840.347727	0.843878
840.663373	0.860967
840.978977	0.882679
841.294537	0.904846
841.610054	0.920833
841.925527	0.927685
842.240957	0.934114
842.556344	0.940928
842.871687	0.946609
843.186987	0.951320
843.502244	0.951989
843.817458	0.952312
844.132629	0.956513
844.447756	0.962343
844.762840	0.961359
845.077881	0.961478
845.392879	0.961462
845.707833	0.962489
846.022745	0.965346
846.337613	0.965942
846.652438	0.967876
846.967221	0.966168
847.281960	0.965641
847.596656	0.967465
847.911309	0.967556
848.225919	0.969012
848.540485	0.969496
848.855009	0.969901
849.169490	0.969828
849.483928	0.970219
849.798323	0.970347
850.112675	0.971258
850.426984	0.971263
850.741251	0.970840
851.055474	0.970377
851.369654	0.968725
851.683792	0.971023
851.997887	0.969347
852.311938	0.970849
852.625947	0.970431
852.939914	0.968525
853.253837	0.969791
853.567718	0.970727
853.881555	0.972380
854.195350	0.969342
854.509103	0.969340
854.822812	0.970497
855.136479	0.970413
855.450103	0.969712
855.763685	0.970243
856.077224	0.969680
856.390720	0.971148
856.704173	0.970385
857.017584	0.969530
857.330953	0.967600
857.644278	0.970078
857.957561	0.969686
858.270802	0.969856
858.584000	0.968746
858.897155	0.968347
859.210268	0.968294
859.523339	0.968833
859.836367	0.970663
860.149352	0.972520
860.462295	0.969658
860.775195	0.970735
861.088054	0.969421
861.400869	0.971338
861.713642	0.971075
862.026373	0.972008
862.339062	0.971855
862.651708	0.968967
862.964312	0.968826
863.276873	0.969800
863.589392	0.969004
863.901869	0.968101
864.214303	0.966038
864.526696	0.964344
864.839045	0.965298
865.151353	0.963517
865.463619	0.964146
865.775842	0.963191
866.088023	0.962926
866.400162	0.964857
866.712258	0.963836
867.024313	0.964756
867.336325	0.964457
867.648296	0.965861
867.960224	0.964385
868.272110	0.964010
868.583954	0.965197
868.895755	0.965057
869.207515	0.963783
869.519233	0.960221
869.830909	0.962301
870.142542	0.964205
870.454134	0.963481
870.765684	0.961958
871.077191	0.959115
871.388657	0.961026
871.700081	0.959778
872.011463	0.960818
872.322803	0.959801
872.634101	0.958593
872.945357	0.956084
873.256571	0.954559
873.567744	0.954941
873.878874	0.954960
874.189963	0.954210
874.501010	0.952928
874.812015	0.951481
875.122979	0.953074
875.433900	0.955520
875.744780	0.955681
876.055618	0.952822
876.366415	0.951587
876.677169	0.951269
876.987882	0.953232
877.298554	0.953667
877.609183	0.950002
877.919771	0.946959
878.230317	0.945169
878.540822	0.942573
878.851285	0.937665
879.161707	0.929781
879.472087	0.917520
879.782425	0.902242
880.092722	0.869064
880.402977	0.818777
880.713191	0.759742
881.023363	0.702427
881.333494	0.670039
881.643583	0.642464
881.953631	0.641870
882.263637	0.670557
882.573602	0.709658
882.883526	0.734787
883.193408	0.757435
883.503248	0.778361
883.813048	0.805893
884.122806	0.833875
884.432522	0.856368
884.742197	0.875134
885.051831	0.885107
885.361424	0.895666
885.670975	0.907386
885.980485	0.917216
886.289954	0.923485
886.599382	0.927408
886.908768	0.931308
887.218113	0.937438
887.527417	0.942142
887.836680	0.944482
888.145901	0.945919
888.455082	0.948805
888.764221	0.953239
889.073319	0.955935
889.382376	0.956403
889.691392	0.954784
890.000366	0.954457
890.309300	0.955831
890.618193	0.954622
890.927044	0.953737
891.235855	0.953414
891.544625	0.953768
891.853353	0.954199
892.162041	0.951212
892.470687	0.944552
892.779293	0.940774
893.087858	0.937260
893.396381	0.929682
893.704864	0.916600
894.013306	0.892681
894.321707	0.868465
894.630068	0.854537
894.938387	0.850522
895.246665	0.850721
895.554903	0.863098
895.863100	0.875245
896.171256	0.892053
896.479371	0.911403
896.787446	0.923750
897.095480	0.928503
897.403473	0.930644
897.711425	0.935123
898.019336	0.942726
898.327207	0.945648
898.635038	0.948122
898.942827	0.947541
899.250576	0.951231
899.558284	0.955580
899.865952	0.956126
900.173579	0.957619
900.481165	0.957826
900.788711	0.961884
901.096216	0.963809
901.403681	0.963451
901.711105	0.964652
902.018489	0.965493
902.325832	0.963540
902.633135	0.963539
902.940397	0.958337
903.247619	0.946896
903.554800	0.921935
903.861941	0.883304
904.169041	0.850309
904.476101	0.834090
904.783121	0.834499
905.090100	0.849754
905.397039	0.870308
905.703938	0.890776
906.010796	0.911000
906.317614	0.927351
906.624391	0.938700
906.931129	0.946814
907.237826	0.953873
907.544483	0.961314
907.851099	0.964255
908.157675	0.969575
908.464211	0.971409
908.770707	0.974438
909.077163	0.975557
909.383578	0.976010
909.689954	0.977049
909.996289	0.977421
910.302584	0.978453
910.608839	0.980373
910.915054	0.979891
911.221229	0.978885
911.527363	0.979178
911.833458	0.978215
912.139513	0.978739
912.445527	0.975767
912.751502	0.975764
913.057436	0.973249
913.363331	0.972759
913.669186	0.968749
913.975000	0.963709
914.280775	0.958068
914.586510	0.952770
914.892205	0.938506
915.197859	0.918954
915.503475	0.892307
915.809050	0.874612
916.114585	0.868639
916.420081	0.867005
916.725536	0.864562
917.030952	0.870651
917.336328	0.883280
917.641665	0.896661
917.946961	0.912457
918.252218	0.924245
918.557435	0.932857
918.862612	0.939697
919.167750	0.944919
919.472848	0.949312
919.777906	0.955511
920.082925	0.960665
920.387904	0.963790
920.692843	0.965119
920.997743	0.966615
921.302603	0.969768
921.607423	0.970806
921.912204	0.973627
922.216946	0.973137
922.521647	0.975369
922.826310	0.976657
923.130932	0.977291
923.435516	0.980137
923.740059	0.980354
924.044564	0.979237
924.349028	0.981303
924.653454	0.983827
924.957840	0.985915
925.262186	0.985888
925.566493	0.983958
925.870761	0.985226
926.174989	0.987319
926.479178	0.988353
926.783328	0.989822
927.087438	0.989844
927.391509	0.988650
927.695541	0.990371
927.999533	0.990925
928.303486	0.990033
928.607400	0.992987
928.911275	0.989224
929.215110	0.991035
929.518906	0.991501
929.822663	0.990072
930.126381	0.993122
930.430060	0.991584
930.733699	0.990972
931.037299	0.990170
931.340861	0.991621
931.644383	0.989970
931.947866	0.989146
932.251309	0.991138
932.554714	0.990365
932.858080	0.990331
933.161407	0.991354
933.464694	0.991932
933.767943	0.991088
934.071153	0.990439
934.374323	0.992377
934.677455	0.991662
934.980548	0.990925
935.283602	0.991242
935.586617	0.992790
935.889593	0.991749
936.192530	0.991195
936.495428	0.991949
936.798287	0.992742
937.101108	0.991153
937.403890	0.989816
937.706632	0.990594
938.009336	0.988377
938.312002	0.988150
938.614628	0.985602
938.917216	0.984324
939.219765	0.983153
939.522275	0.984246
939.824747	0.983419
940.127179	0.985916
940.429573	0.985845
940.731929	0.985689
941.034246	0.986224
941.336524	0.986476
941.638763	0.988097
941.940964	0.987445
942.243126	0.987966
942.545250	0.988155
942.847335	0.990120
943.149381	0.988646
943.451389	0.989475
943.753359	0.988354
944.055290	0.991055
944.357182	0.990993
944.659036	0.990215
944.960851	0.990477
945.262628	0.990497
945.564367	0.991113
945.866067	0.991547
946.167729	0.991266
946.469352	0.990868
946.770937	0.989189
947.072484	0.991079
947.373992	0.990117
947.675462	0.990928
947.976893	0.990507
948.278286	0.991306
948.579641	0.991663
948.880958	0.991771
949.182236	0.990892
949.483476	0.991895
949.784678	0.991202
950.085841	0.991676
950.386967	0.992375
950.688054	0.991702
950.989103	0.992297
951.290114	0.989140
951.591087	0.990178
951.892021	0.991155
952.192917	0.989428
952.493776	0.989127
952.794596	0.989260
953.095378	0.988664
953.396122	0.989146
953.696828	0.987925
953.997496	0.989517
954.298126	0.991789
954.598718	0.991113
954.899272	0.992290
955.199788	0.991588
955.500266	0.991983
955.800706	0.993073
956.101108	0.994378
956.401472	0.995305
956.701798	0.994376
957.002087	0.993292
957.302337	0.993718
957.602550	0.995614
957.902724	0.994772
958.202861	0.996769
958.502960	0.995640
958.803022	0.993988
959.103045	0.996636
959.403031	0.996240
959.702979	0.996534
960.002889	0.996284
960.302762	0.994948
960.602596	0.996397
960.902393	0.995129
961.202153	0.997064
961.501875	0.996940
961.801559	0.995696
962.101205	0.995944
962.400814	0.996714
962.700385	0.996283
962.999918	0.996751
963.299414	0.995779
963.598873	0.995997
963.898293	0.996526
964.197677	0.996620
964.497022	0.996310
964.796331	0.997925
965.095601	0.996562
965.394835	0.996469
965.694030	0.996881
965.993189	0.997467
966.292309	0.997177
966.591393	0.998563
966.890439	0.998028
967.189447	0.997425
967.488419	0.998210
967.787353	0.996069
968.086249	0.996833
968.385108	0.998150
968.683930	0.996987
968.982714	0.998135
969.281462	0.997568
969.580172	0.996302
969.878844	0.997647
970.177480	0.996738
970.476078	0.997800
970.774639	0.997768
971.073162	0.997395
971.371649	0.996313
971.670098	0.996954
971.968510	0.998131
972.266885	0.995007
972.565223	0.996510
972.863524	0.996159
973.161788	0.997150
973.460014	0.997819
973.758204	0.995414
974.056356	0.997493
974.354471	0.994998
974.652550	0.996750
974.950591	0.996872
975.248595	0.996487
975.546563	0.996899
975.844493	0.998037
976.142386	0.996378
976.440243	0.996658
976.738062	0.997986
977.035845	0.998120
977.333590	0.997488
977.631299	0.997461
977.928971	0.996862
978.226606	0.996326
978.524204	0.997330
978.821765	0.998082
979.119290	0.996391
979.416777	0.996469
979.714228	0.998060
980.011642	0.995535
980.309020	0.998167
980.606360	0.997289
980.903664	0.997823
981.200931	0.996349
981.498162	0.995552
981.795356	0.996128
982.092513	0.994346
982.389633	0.995153
982.686717	0.992558
982.983764	0.993197
983.280775	0.991234
983.577749	0.991226
983.874686	0.992863
984.171587	0.992840
984.468451	0.993480
984.765279	0.995882
985.062070	0.994280
985.358824	0.995841
985.655543	0.994401
985.952224	0.995563
986.248869	0.996203
986.545478	0.997750
986.842050	0.998566
987.138586	0.996486
987.435086	0.997047
987.731549	0.998054
988.027975	0.997258
988.324366	0.997624
988.620719	0.998051
988.917037	0.996740
989.213318	0.998907
989.509563	0.998885
989.805772	0.998726
990.101944	0.998542
990.398080	0.996874
990.694180	0.999011
990.990244	0.997528
991.286271	0.997887
991.582262	0.997529
991.878217	0.998338
992.174136	0.999349
992.470019	0.999862
992.765865	0.997829
993.061676	0.999240
993.357450	0.998356
993.653188	0.997505
993.948890	0.997708
994.244556	0.998440
994.540186	0.997942
994.835780	0.995826
995.131337	0.998142
995.426859	0.997158
995.722345	0.997869
996.017795	0.997193
996.313208	0.996038
996.608586	0.996310
996.903928	0.997665
997.199234	0.996148
997.494504	0.997059
997.789738	0.995927
998.084936	0.995849
998.380099	0.998197
998.675225	0.997790
998.970316	0.997544
999.265371	0.997793
999.560390	0.998441
999.855373	0.998872
1000.150320	0.997396
1000.445232	0.997798
1000.740108	0.998252
1001.034948	0.998543
1001.329752	0.999356
1001.624521	0.996941
1001.919254	0.998189
1002.213951	0.998364
1002.508613	0.998689
1002.803239	0.998819
1003.097829	0.999052
1003.392384	1.000026
1003.686903	0.998480
1003.981386	0.998942
1004.275834	0.998268
1004.570246	0.997946
1004.864623	0.999255
1005.158964	0.999110
1005.453270	0.998526
1005.747540	0.997210
1006.041775	0.998269
1006.335974	0.999291
1006.630138	0.999488
1006.924266	0.999273
1007.218359	1.000608
1007.512416	0.999565
1007.806438	1.000099
1008.100425	0.999494
1008.394376	0.999569
1008.688292	0.999272
1008.982172	0.999472
1009.276017	0.999680
1009.569827	0.999274
1009.863602	0.999192
1010.157341	0.998388
1010.451045	0.998097
1010.744714	0.998761
1011.038347	0.998704
1011.331945	0.998262
1011.625508	0.997136
1011.919036	0.998125
1012.212528	0.998655
1012.505986	0.997716
1012.799408	0.999260
1013.092795	0.999485
1013.386147	0.998301
1013.679464	0.999224
1013.972745	0.998702
1014.265992	0.998184
1014.559204	0.998778
1014.852380	0.999745
1015.145521	0.998838
1015.438628	0.998480
1015.731699	0.998464
1016.024736	0.998789
1016.317737	0.997941
1016.610703	0.999246
1016.903635	0.999206
1017.196531	0.998718
1017.489393	1.000306
1017.782219	0.998858
1018.075011	0.999480
1018.367768	0.998910
1018.660490	0.999345
1018.953177	0.999345
1019.245829	0.999345
