Dividing Wavelength (nm)	Counts (n)	Blue Motor Position (mm): 0.000000	Red Motor Position (mm): 4.900000	
326.493990	1.000702
326.888308	1.000702
327.282561	1.000702
327.676750	1.000522
328.070874	1.000947
328.464933	0.999790
328.858929	0.999872
329.252859	0.999845
329.646726	0.999630
330.040528	1.000813
330.434265	0.999359
330.827938	1.000490
331.221547	1.000751
331.615091	1.000516
332.008571	1.000406
332.401986	1.000688
332.795338	1.001575
333.188625	0.999099
333.581847	1.001222
333.975006	0.999183
334.368100	0.999831
334.761129	1.000191
335.154095	1.000615
335.546996	0.998287
335.939833	0.992806
336.332606	0.992584
336.725315	0.994192
337.117960	0.993958
337.510540	0.993719
337.903056	0.994652
338.295508	0.992308
338.687896	0.993989
339.080220	0.994578
339.472480	0.992689
339.864676	0.993263
340.256807	0.993641
340.648875	0.994249
341.040879	0.994469
341.432818	0.992377
341.824694	0.992991
342.216506	0.994068
342.608253	0.992600
342.999937	0.993230
343.391557	0.993409
343.783113	0.993129
344.174605	0.993297
344.566033	0.995037
344.957397	0.992709
345.348697	0.993122
345.739934	0.993311
346.131106	0.993068
346.522215	0.993159
346.913260	0.993078
347.304241	0.992476
347.695159	0.992984
348.086012	0.992686
348.476802	0.993518
348.867528	0.993262
349.258191	0.992263
349.648789	0.993433
350.039324	0.993151
350.429796	0.994188
350.820203	0.994031
351.210548	0.992608
351.600828	0.994223
351.991045	0.992035
352.381198	0.992966
352.771288	0.992067
353.161314	0.992620
353.551276	0.993671
353.941175	0.992327
354.331010	0.991709
354.720782	0.992671
355.110490	0.991971
355.500135	0.992986
355.889717	0.992457
356.279235	0.992542
356.668689	0.992916
357.058080	0.992769
357.447408	0.993706
357.836672	0.993394
358.225873	0.992532
358.615010	0.992389
359.004084	0.993296
359.393095	0.992653
359.782043	0.992621
360.170927	0.994086
360.559748	0.993741
360.948505	0.991931
361.337199	0.992446
361.725830	0.991770
362.114398	0.991701
362.502903	0.992772
362.891344	0.993878
363.279722	0.991694
363.668037	0.992810
364.056289	0.992088
364.444478	0.991681
364.832603	0.991746
365.220665	0.991343
365.608665	0.992712
365.996601	0.991491
366.384474	0.991268
366.772284	0.991680
367.160031	0.989477
367.547715	0.990232
367.935336	0.991075
368.322893	0.990298
368.710388	0.989641
369.097820	0.989830
369.485189	0.989681
369.872495	0.988397
370.259738	0.985262
370.646918	0.986713
371.034035	0.986131
371.421090	0.982609
371.808081	0.980845
372.195010	0.980099
372.581875	0.975556
372.968678	0.973392
373.355418	0.969034
373.742096	0.965103
374.128710	0.963368
374.515262	0.956797
374.901751	0.953327
375.288177	0.949778
375.674540	0.943286
376.060841	0.936658
376.447079	0.932715
376.833254	0.924389
377.219367	0.920171
377.605417	0.910979
377.991404	0.906984
378.377329	0.898919
378.763191	0.893390
379.148991	0.884260
379.534727	0.877979
379.920402	0.867242
380.306013	0.863567
380.691563	0.850047
381.077049	0.842811
381.462474	0.837719
381.847835	0.826384
382.233134	0.818549
382.618371	0.817766
383.003545	0.799873
383.388657	0.796880
383.773706	0.788892
384.158693	0.783172
384.543618	0.774661
384.928480	0.766343
385.313280	0.755027
385.698017	0.754270
386.082692	0.742254
386.467305	0.739356
386.851856	0.731502
387.236344	0.725081
387.620770	0.718893
388.005133	0.712271
388.389435	0.706907
388.773674	0.703631
389.157851	0.695177
389.541965	0.691729
389.926018	0.697509
390.310008	0.685417
390.693936	0.680647
391.077802	0.672499
391.461606	0.675101
391.845348	0.663560
392.229027	0.664306
392.612645	0.661470
392.996200	0.648936
393.379694	0.641683
393.763125	0.631148
394.146494	0.636424
394.529801	0.626277
394.913047	0.618764
395.296230	0.625202
395.679351	0.615538
396.062410	0.611830
396.445408	0.615313
396.828343	0.609531
397.211217	0.605767
397.594028	0.618750
397.976778	0.607602
398.359466	0.604345
398.742092	0.599783
399.124656	0.611821
399.507158	0.600496
399.889598	0.596664
400.271977	0.588353
400.654294	0.592757
401.036549	0.591782
401.418742	0.595986
401.800874	0.581322
402.182944	0.578734
402.564952	0.570512
402.946898	0.572197
403.328783	0.572465
403.710606	0.584324
404.092367	0.558794
404.474067	0.563546
404.855705	0.562213
405.237282	0.571777
405.618797	0.558088
406.000250	0.553537
406.381642	0.544641
406.762972	0.548454
407.144240	0.547861
407.525447	0.547628
407.906593	0.540362
408.287677	0.535730
408.668700	0.544344
409.049661	0.537739
409.430560	0.533196
409.811399	0.541448
410.192176	0.523804
410.572891	0.530620
410.953545	0.519109
411.334138	0.531968
411.714669	0.524858
412.095139	0.537092
412.475547	0.521058
412.855894	0.523167
413.236180	0.522022
413.616405	0.527682
413.996568	0.517961
414.376670	0.524407
414.756711	0.528739
415.136691	0.525394
415.516609	0.517989
415.896466	0.513040
416.276262	0.509181
416.655997	0.511437
417.035670	0.492615
417.415283	0.484960
417.794834	0.489492
418.174324	0.494929
418.553753	0.504350
418.933121	0.486332
419.312428	0.479220
419.691674	0.485295
420.070859	0.474134
420.449983	0.482152
420.829045	0.471785
421.208047	0.480729
421.586988	0.473876
421.965867	0.472365
422.344686	0.461258
422.723444	0.473991
423.102141	0.490796
423.480777	0.464241
423.859352	0.484050
424.237866	0.461619
424.616319	0.461749
424.994712	0.453261
425.373044	0.463386
425.751314	0.451606
426.129524	0.468155
426.507673	0.451834
426.885762	0.445658
427.263789	0.450267
427.641756	0.460445
428.019662	0.450714
428.397508	0.449460
428.775292	0.454170
429.153016	0.445814
429.530679	0.452616
429.908282	0.445702
430.285824	0.456004
430.663305	0.434187
431.040726	0.454882
431.418086	0.455623
431.795385	0.446647
432.172624	0.445465
432.549802	0.446125
432.926920	0.445040
433.303977	0.444598
433.680974	0.441575
434.057910	0.439934
434.434786	0.439737
434.811601	0.441763
435.188355	0.424218
435.565050	0.433626
435.941683	0.434808
436.318257	0.419771
436.694770	0.420107
437.071222	0.418852
437.447614	0.422799
437.823946	0.429070
438.200218	0.418506
438.576429	0.428556
438.952580	0.421103
439.328670	0.418091
439.704700	0.424912
440.080670	0.425552
440.456580	0.407004
440.832429	0.414978
441.208218	0.425812
441.583947	0.415280
441.959616	0.414836
442.335224	0.419404
442.710773	0.410475
443.086261	0.408448
443.461689	0.422381
443.837057	0.412505
444.212365	0.402563
444.587612	0.409416
444.962800	0.399362
445.337927	0.400762
445.712995	0.427324
446.088002	0.389665
446.462949	0.399607
446.837837	0.404031
447.212664	0.393490
447.587431	0.384683
447.962139	0.355228
448.336786	0.314606
448.711374	0.325105
449.085901	0.368287
449.460369	0.372945
449.834776	0.376782
450.209124	0.355764
450.583412	0.348848
450.957640	0.341519
451.331808	0.353199
451.705917	0.376488
452.079965	0.380993
452.453954	0.369250
452.827883	0.375833
453.201752	0.371066
453.575562	0.382282
453.949311	0.370668
454.323001	0.376832
454.696632	0.372606
455.070202	0.365243
455.443713	0.357024
455.817164	0.351861
456.190556	0.347668
456.563888	0.344220
456.937160	0.342194
457.310373	0.358808
457.683526	0.358362
458.056619	0.363962
458.429653	0.364398
458.802628	0.367748
459.175542	0.361974
459.548398	0.344532
459.921194	0.337071
460.293930	0.337282
460.666607	0.314768
461.039224	0.302997
461.411782	0.298631
461.784280	0.298014
462.156719	0.302198
462.529099	0.306588
462.901419	0.322470
463.273680	0.327101
463.645882	0.326384
464.018024	0.332463
464.390106	0.325048
464.762130	0.310276
465.134094	0.293137
465.505999	0.262414
465.877845	0.232640
466.249631	0.219836
466.621358	0.227208
466.993026	0.240739
467.364634	0.247147
467.736184	0.255699
468.107674	0.264332
468.479105	0.263500
468.850477	0.270399
469.221790	0.277331
469.593043	0.287500
469.964238	0.292309
470.335373	0.291712
470.706449	0.289958
471.077467	0.290409
471.448425	0.252589
471.819324	0.228214
472.190164	0.227619
472.560945	0.256393
472.931667	0.278402
473.302330	0.282579
473.672934	0.294520
474.043479	0.282693
474.413965	0.284625
474.784393	0.288172
475.154761	0.283090
475.525070	0.280027
475.895321	0.286081
476.265513	0.280238
476.635645	0.275209
477.005719	0.275376
477.375734	0.271801
477.745691	0.265344
478.115588	0.261940
478.485427	0.255070
478.855207	0.242041
479.224928	0.224769
479.594591	0.212764
479.964194	0.216271
480.333739	0.217419
480.703226	0.218949
481.072653	0.217655
481.442022	0.212856
481.811333	0.209270
482.180584	0.212739
482.549777	0.218288
482.918912	0.221760
483.287988	0.221770
483.657005	0.221027
484.025964	0.227658
484.394864	0.224958
484.763706	0.225605
485.132489	0.230733
485.501213	0.231039
485.869879	0.229574
486.238487	0.233114
486.607036	0.230715
486.975527	0.235184
487.343959	0.231204
487.712333	0.230073
488.080648	0.231822
488.448905	0.230705
488.817104	0.232283
489.185244	0.226440
489.553326	0.223632
489.921350	0.213327
490.289315	0.195949
490.657222	0.190770
491.025070	0.192053
491.392861	0.194139
491.760593	0.199722
492.128267	0.205435
492.495883	0.211088
492.863440	0.217001
493.230939	0.223735
493.598380	0.224898
493.965763	0.227327
494.333088	0.229252
494.700354	0.230786
495.067563	0.229911
495.434713	0.233101
495.801805	0.231192
496.168839	0.232305
496.535815	0.233891
496.902733	0.233948
497.269593	0.235542
497.636395	0.233435
498.003139	0.233262
498.369825	0.236480
498.736453	0.233086
499.103023	0.234282
499.469535	0.233756
499.835989	0.234079
500.202385	0.234956
500.568723	0.238164
500.935003	0.233479
501.301226	0.237595
501.667390	0.232015
502.033497	0.230046
502.399546	0.233075
502.765537	0.234792
503.131470	0.233100
503.497345	0.229509
503.863163	0.238391
504.228923	0.231241
504.594625	0.230120
504.960269	0.235443
505.325856	0.230727
505.691385	0.234826
506.056856	0.231919
506.422270	0.231205
506.787625	0.233983
507.152924	0.231085
507.518164	0.231480
507.883347	0.232928
508.248472	0.234847
508.613540	0.229926
508.978550	0.232513
509.343503	0.233087
509.708398	0.230692
510.073236	0.228154
510.438016	0.228109
510.802738	0.229024
511.167403	0.227912
511.532010	0.230096
511.896561	0.225710
512.261053	0.224243
512.625488	0.226468
512.989866	0.226658
513.354186	0.226806
513.718449	0.228605
514.082655	0.225067
514.446803	0.227388
514.810894	0.225198
515.174927	0.227835
515.538904	0.227097
515.902822	0.224080
516.266684	0.226496
516.630488	0.227579
516.994235	0.226388
517.357925	0.225289
517.721558	0.223372
518.085133	0.222845
518.448651	0.222960
518.812112	0.225528
519.175516	0.224825
519.538863	0.222668
519.902152	0.224076
520.265385	0.221199
520.628560	0.222858
520.991678	0.223273
521.354739	0.221964
521.717743	0.223069
522.080690	0.223845
522.443580	0.220945
522.806413	0.222214
523.169189	0.221357
523.531908	0.220414
523.894569	0.223782
524.257174	0.223832
524.619722	0.221449
524.982213	0.222739
525.344647	0.221554
525.707025	0.222281
526.069345	0.220344
526.431608	0.222092
526.793815	0.220024
527.155964	0.224155
527.518057	0.223112
527.880093	0.224150
528.242072	0.222694
528.603995	0.224720
528.965860	0.226190
529.327669	0.225166
529.689421	0.226201
530.051117	0.226845
530.412755	0.224751
530.774337	0.227056
531.135862	0.227427
531.497331	0.226588
531.858743	0.229650
532.220098	0.226337
532.581396	0.228835
532.942638	0.229269
533.303824	0.230011
533.664953	0.230270
534.026025	0.231672
534.387040	0.229710
534.747999	0.229563
535.108902	0.228387
535.469748	0.233314
535.830537	0.231162
536.191270	0.231909
536.551947	0.231429
536.912567	0.231193
537.273131	0.233258
537.633638	0.233209
537.994089	0.233697
538.354483	0.234676
538.714821	0.231640
539.075103	0.231198
539.435328	0.231977
539.795497	0.236028
540.155609	0.232367
540.515665	0.230456
540.875665	0.236145
541.235609	0.234931
541.595496	0.234517
541.955328	0.231558
542.315102	0.234177
542.674821	0.235214
543.034483	0.235152
543.394090	0.234719
543.753640	0.236645
544.113134	0.231768
544.472571	0.235000
544.831953	0.231798
545.191278	0.236121
545.550548	0.235742
545.909761	0.232503
546.268918	0.232922
546.628019	0.231345
546.987064	0.234314
547.346053	0.235918
547.704986	0.233831
548.063863	0.234061
548.422684	0.234222
548.781449	0.236046
549.140158	0.233678
549.498811	0.236547
549.857408	0.239490
550.215949	0.234687
550.574434	0.237477
550.932864	0.235487
551.291237	0.233831
551.649555	0.235471
552.007817	0.235236
552.366022	0.236123
552.724173	0.236335
553.082267	0.236537
553.440305	0.233393
553.798288	0.237990
554.156215	0.234697
554.514086	0.235444
554.871902	0.238456
555.229661	0.237392
555.587365	0.238083
555.945014	0.240888
556.302606	0.237535
556.660143	0.240055
557.017625	0.236596
557.375050	0.239030
557.732421	0.235686
558.089735	0.237882
558.446994	0.237971
558.804197	0.237179
559.161345	0.237102
559.518437	0.240664
559.875474	0.238444
560.232455	0.237781
560.589381	0.238700
560.946251	0.238851
561.303065	0.236470
561.659825	0.238161
562.016528	0.239300
562.373177	0.242342
562.729770	0.239628
563.086307	0.241757
563.442789	0.239489
563.799216	0.242326
564.155587	0.240750
564.511904	0.242008
564.868164	0.242040
565.224370	0.242152
565.580520	0.244052
565.936615	0.243544
566.292654	0.246538
566.648638	0.243880
567.004567	0.244613
567.360441	0.245157
567.716260	0.247170
568.072023	0.244978
568.427732	0.245703
568.783385	0.247965
569.138982	0.246264
569.494525	0.245853
569.850013	0.248922
570.205445	0.247270
570.560823	0.249683
570.916145	0.251698
571.271412	0.250218
571.626625	0.251600
571.981782	0.251784
572.336884	0.252905
572.691931	0.252509
573.046923	0.253654
573.401860	0.254796
573.756743	0.256737
574.111570	0.255183
574.466342	0.255946
574.821059	0.254938
575.175722	0.257925
575.530330	0.257944
575.884882	0.257879
576.239380	0.259951
576.593823	0.260653
576.948211	0.260091
577.302544	0.263401
577.656823	0.263016
578.011047	0.262913
578.365216	0.263408
578.719330	0.265371
579.073389	0.265424
579.427394	0.266853
579.781344	0.267585
580.135239	0.269079
580.489080	0.268662
580.842866	0.271393
581.196597	0.271745
581.550273	0.270129
581.903895	0.271222
582.257463	0.269020
582.610975	0.272798
582.964434	0.271875
583.317837	0.274260
583.671186	0.275007
584.024481	0.275043
584.377721	0.277483
584.730906	0.278279
585.084037	0.277075
585.437113	0.279049
585.790135	0.278321
586.143103	0.281749
586.496016	0.282635
586.848874	0.280230
587.201679	0.280830
587.554428	0.284406
587.907124	0.282857
588.259765	0.283435
588.612352	0.284051
588.964884	0.288013
589.317362	0.286981
589.669786	0.287465
590.022155	0.286206
590.374470	0.285086
590.726731	0.287244
591.078937	0.291896
591.431090	0.288457
591.783188	0.292614
592.135232	0.292987
592.487222	0.292866
592.839157	0.291403
593.191038	0.293325
593.542866	0.295472
593.894639	0.298874
594.246358	0.297037
594.598022	0.296409
594.949633	0.299911
595.301190	0.300637
595.652692	0.299749
596.004141	0.296360
596.355535	0.304213
596.706876	0.304697
597.058162	0.307001
597.409395	0.304024
597.760573	0.302138
598.111698	0.305321
598.462768	0.305884
598.813785	0.306804
599.164748	0.308585
599.515657	0.309064
599.866511	0.311989
600.217312	0.307224
600.568060	0.312738
600.918753	0.308898
601.269392	0.310003
601.619978	0.313155
601.970510	0.311003
602.320988	0.310923
602.671412	0.308408
603.021783	0.311030
603.372100	0.312637
603.722363	0.312302
604.072572	0.313022
604.422728	0.312994
604.772830	0.314861
605.122878	0.314546
605.472872	0.314907
605.822813	0.313439
606.172701	0.316048
606.522534	0.313407
606.872314	0.313384
607.222041	0.314075
607.571714	0.312947
607.921333	0.313886
608.270899	0.313777
608.620411	0.310579
608.969870	0.314174
609.319276	0.314582
609.668627	0.314322
610.017926	0.312999
610.367171	0.311303
610.716362	0.312178
611.065500	0.312665
611.414585	0.311025
611.763616	0.311946
612.112594	0.312209
612.461518	0.311451
612.810389	0.308994
613.159207	0.311422
613.507971	0.313180
613.856682	0.309266
614.205340	0.310494
614.553945	0.307070
614.902496	0.311671
615.250994	0.309604
615.599439	0.310265
615.947830	0.309354
616.296169	0.310582
616.644454	0.310058
616.992686	0.310193
617.340864	0.307682
617.688990	0.311695
618.037063	0.307949
618.385082	0.310241
618.733048	0.306644
619.080961	0.309604
619.428821	0.308370
619.776628	0.308382
620.124382	0.310074
620.472083	0.310455
620.819731	0.309638
621.167326	0.313864
621.514868	0.313318
621.862357	0.317997
622.209793	0.317395
622.557176	0.319713
622.904506	0.320478
623.251783	0.322752
623.599007	0.325067
623.946179	0.324906
624.293297	0.327010
624.640363	0.330567
624.987376	0.331315
625.334336	0.333684
625.681243	0.336303
626.028097	0.336336
626.374899	0.337587
626.721647	0.337775
627.068343	0.341193
627.414987	0.342359
627.761577	0.344513
628.108115	0.342315
628.454600	0.347876
628.801032	0.345310
629.147412	0.347466
629.493739	0.347707
629.840014	0.350898
630.186236	0.347973
630.532405	0.353909
630.878521	0.351141
631.224585	0.353109
631.570597	0.357247
631.916556	0.355060
632.262462	0.355370
632.608316	0.357477
632.954117	0.358380
633.299866	0.359446
633.645562	0.359675
633.991206	0.364236
634.336797	0.367062
634.682336	0.369216
635.027823	0.370620
635.373257	0.371917
635.718639	0.375506
636.063968	0.374342
636.409245	0.380021
636.754470	0.380453
637.099642	0.383004
637.444762	0.386433
637.789829	0.385412
638.134845	0.389284
638.479808	0.389580
638.824719	0.389762
639.169577	0.393322
639.514383	0.392456
639.859137	0.396730
640.203839	0.396382
640.548489	0.397197
640.893086	0.398486
641.237632	0.400425
641.582125	0.398586
641.926566	0.400335
642.270955	0.400147
642.615292	0.400716
642.959576	0.399774
643.303809	0.400629
643.647990	0.400036
643.992118	0.400205
644.336195	0.403632
644.680219	0.402188
645.024192	0.402958
645.368112	0.396893
645.711981	0.395954
646.055797	0.390788
646.399562	0.393685
646.743274	0.385306
647.086935	0.382575
647.430544	0.382948
647.774101	0.381867
648.117606	0.381306
648.461059	0.382076
648.804460	0.384257
649.147810	0.389534
649.491108	0.391261
649.834354	0.392817
650.177548	0.398681
650.520690	0.403252
650.863781	0.405133
651.206820	0.404250
651.549807	0.408297
651.892742	0.412859
652.235626	0.412024
652.578458	0.413077
652.921238	0.418857
653.263967	0.416942
653.606644	0.420975
653.949269	0.420582
654.291843	0.424762
654.634365	0.421184
654.976836	0.424710
655.319255	0.424565
655.661622	0.426684
656.003938	0.426319
656.346203	0.429281
656.688416	0.427381
657.030577	0.430806
657.372687	0.432779
657.714746	0.433518
658.056753	0.430610
658.398708	0.434204
658.740612	0.435551
659.082465	0.431612
659.424266	0.432060
659.766016	0.431245
660.107715	0.433732
660.449362	0.432983
660.790958	0.433141
661.132503	0.434331
661.473996	0.431732
661.815438	0.432794
662.156829	0.432783
662.498168	0.433877
662.839456	0.434873
663.180693	0.432947
663.521879	0.433173
663.863013	0.434192
664.204097	0.432374
664.545129	0.429155
664.886110	0.429307
665.227040	0.426795
665.567918	0.429593
665.908746	0.427584
666.249522	0.427500
666.590248	0.427991
666.930922	0.426553
667.271545	0.425354
667.612118	0.425323
667.952639	0.426472
668.293109	0.425644
668.633528	0.428452
668.973896	0.428662
669.314213	0.428597
669.654480	0.429897
669.994695	0.430638
670.334859	0.431626
670.674973	0.431963
671.015035	0.432060
671.355047	0.431658
671.695008	0.432584
672.034918	0.434932
672.374777	0.434417
672.714585	0.435182
673.054342	0.435223
673.394049	0.435374
673.733705	0.433077
674.073310	0.433633
674.412864	0.437309
674.752368	0.438041
675.091820	0.437883
675.431223	0.442267
675.770574	0.442250
676.109875	0.445590
676.449125	0.444930
676.788324	0.447555
677.127473	0.452734
677.466571	0.452276
677.805619	0.454382
678.144616	0.455401
678.483562	0.457324
678.822458	0.459269
679.161303	0.460569
679.500098	0.460941
679.838842	0.462760
680.177535	0.462169
680.516179	0.461071
680.854771	0.459772
681.193314	0.453152
681.531805	0.444247
681.870247	0.433186
682.208638	0.425610
682.546978	0.424294
682.885268	0.426207
683.223508	0.432562
683.561697	0.435930
683.899836	0.438851
684.237925	0.442182
684.575963	0.444613
684.913951	0.448035
685.251889	0.443333
685.589776	0.444907
685.927614	0.447678
686.265401	0.442563
686.603137	0.443564
686.940824	0.437739
687.278460	0.435557
687.616046	0.435023
687.953582	0.430376
688.291068	0.430724
688.628504	0.427601
688.965889	0.429518
689.303224	0.433622
689.640510	0.437757
689.977745	0.443539
690.314930	0.451351
690.652065	0.456248
690.989150	0.463619
691.326185	0.470076
691.663170	0.473743
692.000105	0.481140
692.336990	0.488720
692.673825	0.490694
693.010610	0.498133
693.347345	0.503169
693.684030	0.505018
694.020665	0.509168
694.357251	0.518594
694.693786	0.517826
695.030272	0.522341
695.366707	0.525407
695.703093	0.529474
696.039429	0.527154
696.375716	0.528992
696.711952	0.532102
697.048139	0.533635
697.384276	0.534968
697.720363	0.533471
698.056400	0.533097
698.392388	0.538545
698.728326	0.542107
699.064214	0.543931
699.400053	0.545126
699.735842	0.548588
700.071581	0.551262
700.407270	0.554358
700.742910	0.556083
701.078501	0.563407
701.414042	0.564034
701.749533	0.566306
702.084974	0.575625
702.420366	0.567779
702.755709	0.575573
703.091002	0.582661
703.426246	0.577119
703.761440	0.583433
704.096584	0.587658
704.431679	0.584304
704.766725	0.586394
705.101721	0.588075
705.436668	0.584347
705.771565	0.591008
706.106413	0.587521
706.441212	0.583090
706.775961	0.582050
707.110661	0.584854
707.445311	0.581611
707.779913	0.578310
708.114465	0.576745
708.448967	0.574057
708.783421	0.565417
709.117825	0.560109
709.452180	0.560528
709.786485	0.554419
710.120742	0.543799
710.454949	0.545393
710.789107	0.537935
711.123216	0.528847
711.457275	0.530819
711.791286	0.521594
712.125247	0.519879
712.459159	0.531276
712.793023	0.523459
713.126837	0.527738
713.460602	0.528707
713.794318	0.537653
714.127985	0.536415
714.461602	0.546134
714.795171	0.550066
715.128691	0.557484
715.462162	0.565205
715.795584	0.571091
716.128957	0.574359
716.462281	0.579776
716.795556	0.583657
717.128782	0.589833
717.461960	0.598805
717.795088	0.597046
718.128167	0.602949
718.461198	0.612581
718.794180	0.612389
719.127113	0.615918
719.459997	0.618623
719.792833	0.625549
720.125619	0.626135
720.458357	0.632085
720.791046	0.632061
721.123686	0.634716
721.456278	0.642827
721.788821	0.640236
722.121315	0.644014
722.453761	0.647516
722.786158	0.645068
723.118506	0.642360
723.450805	0.650060
723.783056	0.645812
724.115259	0.643416
724.447412	0.643515
724.779518	0.644190
725.111574	0.642905
725.443582	0.639327
725.775542	0.641154
726.107453	0.633154
726.439315	0.632788
726.771129	0.631322
727.102895	0.624526
727.434612	0.617127
727.766281	0.615166
728.097901	0.614638
728.429473	0.614338
728.760996	0.613186
729.092471	0.613211
729.423897	0.617375
729.755276	0.616361
730.086606	0.615848
730.417887	0.610091
730.749120	0.600837
731.080305	0.591662
731.411442	0.588542
731.742530	0.593437
732.073570	0.591364
732.404562	0.584355
732.735506	0.585392
733.066401	0.590401
733.397249	0.599621
733.728048	0.611286
734.058798	0.623073
734.389501	0.634636
734.720156	0.643988
735.050762	0.652527
735.381320	0.652759
735.711831	0.662061
736.042293	0.667138
736.372707	0.663190
736.703073	0.667906
737.033391	0.670315
737.363661	0.666695
737.693883	0.662197
738.024056	0.660778
738.354182	0.661650
738.684260	0.650226
739.014290	0.645314
739.344272	0.647296
739.674207	0.640783
740.004093	0.640110
740.333931	0.641286
740.663722	0.640848
740.993464	0.641126
741.323159	0.645380
741.652806	0.649870
741.982405	0.654360
742.311956	0.659895
742.641460	0.661064
742.970915	0.666038
743.300323	0.673382
743.629683	0.678962
743.958996	0.680883
744.288260	0.685234
744.617477	0.692000
744.946647	0.693167
745.275768	0.699252
745.604842	0.697710
745.933869	0.709048
746.262847	0.709267
746.591778	0.703024
746.920662	0.708826
747.249498	0.715174
747.578286	0.706765
747.907027	0.701789
748.235720	0.702808
748.564365	0.698442
748.892963	0.697588
749.221514	0.700778
749.550017	0.706689
749.878473	0.706150
750.206881	0.711378
750.535242	0.713501
750.863555	0.712493
751.191821	0.714450
751.520039	0.717796
751.848210	0.723021
752.176334	0.714758
752.504411	0.714351
752.832440	0.721625
753.160421	0.725519
753.488356	0.723948
753.816243	0.721631
754.144082	0.730737
754.471875	0.734250
754.799620	0.728760
755.127318	0.730555
755.454969	0.730330
755.782572	0.730327
756.110129	0.735303
756.437638	0.737250
756.765100	0.734270
757.092515	0.732426
757.419882	0.730701
757.747203	0.736398
758.074477	0.735589
758.401703	0.732393
758.728882	0.727679
759.056014	0.726279
759.383099	0.725706
759.710138	0.726711
760.037129	0.722843
760.364073	0.717023
760.690970	0.719455
761.017820	0.724718
761.344623	0.719976
761.671379	0.711858
761.998088	0.699473
762.324751	0.676925
762.651366	0.635064
762.977935	0.567744
763.304456	0.515386
763.630931	0.505512
763.957359	0.544822
764.283740	0.589929
764.610074	0.616884
764.936362	0.648090
765.262602	0.675013
765.588796	0.696835
765.914943	0.714711
766.241044	0.733271
766.567097	0.739666
766.893104	0.748968
767.219064	0.755640
767.544978	0.762484
767.870845	0.775501
768.196665	0.779837
768.522438	0.777297
768.848165	0.779454
769.173846	0.788270
769.499479	0.790948
769.825066	0.795469
770.150607	0.800254
770.476101	0.796184
770.801548	0.797199
771.126949	0.809361
771.452303	0.812610
771.777611	0.812001
772.102872	0.810542
772.428087	0.815965
772.753256	0.819318
773.078378	0.821627
773.403453	0.830061
773.728482	0.834408
774.053465	0.829197
774.378401	0.831289
774.703291	0.840554
775.028135	0.839758
775.352932	0.841109
775.677683	0.844858
776.002388	0.845218
776.327046	0.843750
776.651658	0.847752
776.976224	0.851085
777.300743	0.851531
777.625216	0.853014
777.949643	0.856454
778.274024	0.855360
778.598359	0.856910
778.922647	0.855455
779.246889	0.855945
779.571086	0.859948
779.895236	0.862093
780.219339	0.859134
780.543397	0.856295
780.867409	0.855319
781.191374	0.858043
781.515294	0.858571
781.839167	0.856844
782.162995	0.860605
782.486776	0.856787
782.810511	0.859439
783.134201	0.861240
783.457844	0.859850
783.781441	0.863398
784.104993	0.869776
784.428498	0.869313
784.751958	0.865066
785.075372	0.866988
785.398739	0.870374
785.722061	0.866706
786.045337	0.863418
786.368568	0.867339
786.691752	0.870500
787.014891	0.856395
787.337983	0.846981
787.661030	0.839884
787.984031	0.821347
788.306987	0.807866
788.629897	0.810770
788.952760	0.814465
789.275579	0.819131
789.598351	0.834572
789.921078	0.847642
790.243759	0.850265
790.566395	0.854937
790.888984	0.862260
791.211529	0.866359
791.534027	0.870215
791.856480	0.873207
792.178888	0.877277
792.501249	0.880540
792.823566	0.880793
793.145836	0.881098
793.468062	0.883464
793.790241	0.883276
794.112375	0.881406
794.434464	0.876935
794.756507	0.876136
795.078505	0.876801
795.400457	0.869914
795.722364	0.857487
796.044226	0.850978
796.366042	0.850675
796.687812	0.853549
797.009538	0.850725
797.331218	0.852879
797.652852	0.858105
797.974442	0.862236
798.295986	0.863137
798.617484	0.865017
798.938938	0.869351
799.260346	0.873924
799.581709	0.875969
799.903026	0.877667
800.224299	0.879336
800.545526	0.883000
800.866708	0.886628
801.187845	0.890492
801.508936	0.891148
801.829983	0.887993
802.150984	0.891205
802.471940	0.895642
802.792851	0.896154
803.113717	0.896924
803.434538	0.894037
803.755314	0.896743
804.076045	0.899195
804.396731	0.897447
804.717372	0.898945
805.037967	0.899687
805.358518	0.898590
805.679024	0.894980
805.999485	0.895461
806.319901	0.895130
806.640272	0.896581
806.960598	0.895275
807.280879	0.892548
807.601115	0.891085
807.921306	0.894648
808.241453	0.894732
808.561554	0.892691
808.881611	0.892442
809.201623	0.893791
809.521590	0.894660
809.841513	0.895534
810.161390	0.894766
810.481223	0.896432
810.801011	0.899819
811.120755	0.901512
811.440453	0.900699
811.760107	0.898311
812.079716	0.898214
812.399281	0.901764
812.718801	0.904362
813.038276	0.905374
813.357707	0.905238
813.677093	0.902368
813.996434	0.905668
814.315731	0.907943
814.634983	0.908299
814.954191	0.907393
815.273354	0.903939
815.592473	0.900611
815.911547	0.899344
816.230577	0.896995
816.549562	0.894195
816.868502	0.895234
817.187399	0.890887
817.506250	0.886154
817.825058	0.888600
818.143821	0.884054
818.462539	0.878819
818.781213	0.870886
819.099843	0.860169
819.418429	0.844443
819.736970	0.826795
820.055466	0.806492
820.373919	0.781578
820.692327	0.747234
821.010691	0.712122
821.329011	0.633654
821.647286	0.516676
821.965517	0.402685
822.283704	0.359049
822.601847	0.359712
822.919945	0.395239
823.237999	0.430185
823.556010	0.477360
823.873976	0.534249
824.191897	0.585014
824.509775	0.628453
824.827609	0.674209
825.145398	0.696870
825.463144	0.700161
825.780845	0.682823
826.098502	0.664176
826.416116	0.617917
826.733685	0.573491
827.051210	0.564137
827.368692	0.579162
827.686129	0.617602
828.003522	0.671157
828.320872	0.718694
828.638177	0.763103
828.955439	0.797348
829.272656	0.819308
829.589830	0.835503
829.906960	0.851828
830.224046	0.864358
830.541088	0.875280
830.858086	0.879424
831.175041	0.885448
831.491952	0.885107
831.808819	0.881510
832.125642	0.874974
832.442421	0.859521
832.759157	0.837667
833.075849	0.789165
833.392497	0.726663
833.709101	0.684809
834.025662	0.694565
834.342179	0.725993
834.658653	0.765380
834.975083	0.802807
835.291469	0.829181
835.607811	0.852195
835.924110	0.868067
836.240366	0.885418
836.556578	0.900054
836.872746	0.906355
837.188871	0.912959
837.504952	0.918103
837.820990	0.922391
838.136984	0.925903
838.452935	0.928587
838.768842	0.930763
839.084706	0.922574
839.400526	0.897137
839.716303	0.857056
840.032037	0.834009
840.347727	0.838349
840.663373	0.856316
840.978977	0.877388
841.294537	0.899926
841.610054	0.916720
841.925527	0.924703
842.240957	0.931310
842.556344	0.938039
842.871687	0.945289
843.186987	0.949581
843.502244	0.949325
843.817458	0.951371
844.132629	0.953926
844.447756	0.959195
844.762840	0.958565
845.077881	0.959351
845.392879	0.960319
845.707833	0.962201
846.022745	0.964014
846.337613	0.964973
846.652438	0.965050
846.967221	0.963696
847.281960	0.964546
847.596656	0.967228
847.911309	0.964878
848.225919	0.967404
848.540485	0.967143
848.855009	0.968596
849.169490	0.967762
849.483928	0.968373
849.798323	0.968220
850.112675	0.968383
850.426984	0.969381
850.741251	0.969586
851.055474	0.969484
851.369654	0.968004
851.683792	0.968945
851.997887	0.969338
852.311938	0.970765
852.625947	0.970073
852.939914	0.967810
853.253837	0.969555
853.567718	0.971116
853.881555	0.970354
854.195350	0.967290
854.509103	0.969691
854.822812	0.969495
855.136479	0.969795
855.450103	0.969342
855.763685	0.968196
856.077224	0.967371
856.390720	0.968437
856.704173	0.969391
857.017584	0.968586
857.330953	0.965579
857.644278	0.967440
857.957561	0.967202
858.270802	0.967575
858.584000	0.967750
858.897155	0.966560
859.210268	0.966172
859.523339	0.967908
859.836367	0.969334
860.149352	0.969761
860.462295	0.968456
860.775195	0.969405
861.088054	0.968288
861.400869	0.968684
861.713642	0.970029
862.026373	0.969627
862.339062	0.970384
862.651708	0.967392
862.964312	0.967287
863.276873	0.968214
863.589392	0.967143
863.901869	0.966152
864.214303	0.964801
864.526696	0.963164
864.839045	0.963007
865.151353	0.960433
865.463619	0.962116
865.775842	0.962486
866.088023	0.962043
866.400162	0.960817
866.712258	0.962660
867.024313	0.961385
867.336325	0.963034
867.648296	0.962591
867.960224	0.960429
868.272110	0.961371
868.583954	0.962690
868.895755	0.963393
869.207515	0.961003
869.519233	0.958316
869.830909	0.959102
870.142542	0.961642
870.454134	0.959300
870.765684	0.959676
871.077191	0.956904
871.388657	0.958029
871.700081	0.957724
872.011463	0.957238
872.322803	0.956036
872.634101	0.955361
872.945357	0.953015
873.256571	0.951645
873.567744	0.951516
873.878874	0.951825
874.189963	0.951633
874.501010	0.950346
874.812015	0.948503
875.122979	0.950481
875.433900	0.951860
875.744780	0.952856
876.055618	0.950352
876.366415	0.948370
876.677169	0.949106
876.987882	0.949752
877.298554	0.949642
877.609183	0.946083
877.919771	0.943928
878.230317	0.941270
878.540822	0.938426
878.851285	0.932500
879.161707	0.924795
879.472087	0.911724
879.782425	0.896390
880.092722	0.861937
880.402977	0.807888
880.713191	0.745107
881.023363	0.684638
881.333494	0.650258
881.643583	0.621811
881.953631	0.621370
882.263637	0.650714
882.573602	0.690147
882.883526	0.716289
883.193408	0.741475
883.503248	0.764123
883.813048	0.792475
884.122806	0.822426
884.432522	0.846484
884.742197	0.866205
885.051831	0.877367
885.361424	0.889419
885.670975	0.900610
885.980485	0.911147
886.289954	0.917860
886.599382	0.923214
886.908768	0.926825
887.218113	0.932356
887.527417	0.937016
887.836680	0.940591
888.145901	0.942202
888.455082	0.944222
888.764221	0.949796
889.073319	0.951501
889.382376	0.950915
889.691392	0.951102
890.000366	0.950789
890.309300	0.953059
890.618193	0.951607
890.927044	0.950593
891.235855	0.950127
891.544625	0.949502
891.853353	0.950044
892.162041	0.947463
892.470687	0.941321
892.779293	0.935344
893.087858	0.931800
893.396381	0.924187
893.704864	0.909976
894.013306	0.885826
894.321707	0.858733
894.630068	0.843215
894.938387	0.838888
895.246665	0.839794
895.554903	0.852443
895.863100	0.866606
896.171256	0.883508
896.479371	0.903643
896.787446	0.916231
897.095480	0.922733
897.403473	0.926165
897.711425	0.930407
898.019336	0.937751
898.327207	0.940999
898.635038	0.943471
898.942827	0.942811
899.250576	0.947331
899.558284	0.951207
899.865952	0.952055
900.173579	0.953695
900.481165	0.954597
900.788711	0.958066
901.096216	0.959754
901.403681	0.960737
901.711105	0.961676
902.018489	0.962395
902.325832	0.961723
902.633135	0.959886
902.940397	0.955214
903.247619	0.942275
903.554800	0.915318
903.861941	0.874283
904.169041	0.838904
904.476101	0.819634
904.783121	0.820792
905.090100	0.837092
905.397039	0.859705
905.703938	0.882693
906.010796	0.902926
906.317614	0.920524
906.624391	0.931646
906.931129	0.941984
907.237826	0.950068
907.544483	0.957308
907.851099	0.961537
908.157675	0.966283
908.464211	0.968928
908.770707	0.971292
909.077163	0.973321
909.383578	0.973868
909.689954	0.974246
909.996289	0.974409
910.302584	0.977485
910.608839	0.978525
910.915054	0.977022
911.221229	0.976600
911.527363	0.976253
911.833458	0.976573
912.139513	0.976145
912.445527	0.974366
912.751502	0.973007
913.057436	0.971049
913.363331	0.969164
913.669186	0.965897
913.975000	0.960390
914.280775	0.952963
914.586510	0.946165
914.892205	0.932037
915.197859	0.910828
915.503475	0.882932
915.809050	0.862186
916.114585	0.856381
916.420081	0.853750
916.725536	0.850101
917.030952	0.858662
917.336328	0.872673
917.641665	0.886561
917.946961	0.903287
918.252218	0.915340
918.557435	0.925322
918.862612	0.934362
919.167750	0.939579
919.472848	0.945392
919.777906	0.951134
920.082925	0.956035
920.387904	0.960725
920.692843	0.961633
920.997743	0.962735
921.302603	0.965837
921.607423	0.968375
921.912204	0.970628
922.216946	0.970390
922.521647	0.971180
922.826310	0.974262
923.130932	0.975508
923.435516	0.977944
923.740059	0.977543
924.044564	0.978106
924.349028	0.980263
924.653454	0.983326
924.957840	0.983856
925.262186	0.985144
925.566493	0.983331
925.870761	0.985072
926.174989	0.985563
926.479178	0.988443
926.783328	0.987340
927.087438	0.988074
927.391509	0.986417
927.695541	0.989457
927.999533	0.989494
928.303486	0.988934
928.607400	0.990341
928.911275	0.987924
929.215110	0.990533
929.518906	0.990280
929.822663	0.989068
930.126381	0.992233
930.430060	0.990314
930.733699	0.989550
931.037299	0.988743
931.340861	0.990753
931.644383	0.989721
931.947866	0.989437
932.251309	0.989908
932.554714	0.988934
932.858080	0.990257
933.161407	0.990429
933.464694	0.990566
933.767943	0.990416
934.071153	0.990659
934.374323	0.991454
934.677455	0.990613
934.980548	0.990981
935.283602	0.989855
935.586617	0.990457
935.889593	0.990355
936.192530	0.991210
936.495428	0.990877
936.798287	0.990432
937.101108	0.989695
937.403890	0.988508
937.706632	0.989001
938.009336	0.985674
938.312002	0.985483
938.614628	0.983442
938.917216	0.982319
939.219765	0.980444
939.522275	0.983161
939.824747	0.980978
940.127179	0.982074
940.429573	0.984046
940.731929	0.984235
941.034246	0.982780
941.336524	0.985250
941.638763	0.984757
941.940964	0.985703
942.243126	0.985985
942.545250	0.986977
942.847335	0.987553
943.149381	0.987014
943.451389	0.987902
943.753359	0.987600
944.055290	0.990793
944.357182	0.988555
944.659036	0.988210
944.960851	0.988752
945.262628	0.989357
945.564367	0.989705
945.866067	0.990228
946.167729	0.989352
946.469352	0.989223
946.770937	0.987353
947.072484	0.990792
947.373992	0.988877
947.675462	0.990628
947.976893	0.989196
948.278286	0.990685
948.579641	0.990788
948.880958	0.989999
949.182236	0.991412
949.483476	0.990514
949.784678	0.990842
950.085841	0.990341
950.386967	0.990799
950.688054	0.990892
950.989103	0.990838
951.290114	0.988874
951.591087	0.989403
951.892021	0.989932
952.192917	0.987555
952.493776	0.986580
952.794596	0.988374
953.095378	0.986688
953.396122	0.987367
953.696828	0.986387
953.997496	0.989816
954.298126	0.990517
954.598718	0.989747
954.899272	0.990820
955.199788	0.990192
955.500266	0.991006
955.800706	0.992714
956.101108	0.993486
956.401472	0.993038
956.701798	0.993715
957.002087	0.992732
957.302337	0.993603
957.602550	0.995832
957.902724	0.994019
958.202861	0.994974
958.502960	0.994163
958.803022	0.993850
959.103045	0.994906
959.403031	0.994852
959.702979	0.994963
960.002889	0.994822
960.302762	0.995214
960.602596	0.995100
960.902393	0.995020
961.202153	0.997307
961.501875	0.996197
961.801559	0.995910
962.101205	0.996522
962.400814	0.995615
962.700385	0.996690
962.999918	0.997068
963.299414	0.995535
963.598873	0.996525
963.898293	0.996584
964.197677	0.996908
964.497022	0.996785
964.796331	0.997855
965.095601	0.996808
965.394835	0.995977
965.694030	0.996869
965.993189	0.997679
966.292309	0.996457
966.591393	0.998208
966.890439	0.997048
967.189447	0.996762
967.488419	0.997938
967.787353	0.995587
968.086249	0.996568
968.385108	0.996848
968.683930	0.997284
968.982714	0.997368
969.281462	0.996697
969.580172	0.996062
969.878844	0.997531
970.177480	0.996544
970.476078	0.996982
970.774639	0.996732
971.073162	0.998907
971.371649	0.996107
971.670098	0.994998
971.968510	0.997910
972.266885	0.995602
972.565223	0.997148
972.863524	0.996016
973.161788	0.996853
973.460014	0.996756
973.758204	0.996124
974.056356	0.997360
974.354471	0.995431
974.652550	0.996643
974.950591	0.995534
975.248595	0.996752
975.546563	0.998490
975.844493	0.997762
976.142386	0.996689
976.440243	0.997421
976.738062	0.997589
977.035845	0.998103
977.333590	0.996810
977.631299	0.998654
977.928971	0.996692
978.226606	0.996786
978.524204	0.995884
978.821765	0.998312
979.119290	0.995860
979.416777	0.996696
979.714228	0.996744
980.011642	0.996334
980.309020	0.997159
980.606360	0.997152
980.903664	0.998196
981.200931	0.997169
981.498162	0.994887
981.795356	0.994646
982.092513	0.992857
982.389633	0.994132
982.686717	0.990998
982.983764	0.991416
983.280775	0.989733
983.577749	0.989682
983.874686	0.991597
984.171587	0.990479
984.468451	0.993673
984.765279	0.994834
985.062070	0.994443
985.358824	0.994531
985.655543	0.995276
985.952224	0.996420
986.248869	0.996634
986.545478	0.997373
986.842050	0.998236
987.138586	0.994824
987.435086	0.997518
987.731549	0.998369
988.027975	0.996711
988.324366	0.997761
988.620719	0.997888
988.917037	0.996821
989.213318	0.997677
989.509563	0.998139
989.805772	0.998341
990.101944	0.998194
990.398080	0.996890
990.694180	0.997931
990.990244	0.996956
991.286271	0.997828
991.582262	0.998816
991.878217	0.997998
992.174136	0.997781
992.470019	0.998534
992.765865	0.998382
993.061676	0.997135
993.357450	0.997672
993.653188	0.996134
993.948890	0.997551
994.244556	0.997792
994.540186	0.996724
994.835780	0.995986
995.131337	0.997280
995.426859	0.996712
995.722345	0.997933
996.017795	0.997360
996.313208	0.995643
996.608586	0.994508
996.903928	0.995658
997.199234	0.995476
997.494504	0.996784
997.789738	0.996658
998.084936	0.996200
998.380099	0.997176
998.675225	0.999220
998.970316	0.997467
999.265371	0.997564
999.560390	0.998052
999.855373	0.998490
1000.150320	0.998688
1000.445232	0.998668
1000.740108	0.998121
1001.034948	0.998153
1001.329752	0.998666
1001.624521	0.998916
1001.919254	0.998143
1002.213951	0.997760
1002.508613	0.998444
1002.803239	0.999470
1003.097829	0.999027
1003.392384	0.999313
1003.686903	0.998824
1003.981386	0.999032
1004.275834	0.999425
1004.570246	0.998858
1004.864623	0.999302
1005.158964	0.999805
1005.453270	0.998273
1005.747540	0.996697
1006.041775	0.997766
1006.335974	0.998855
1006.630138	0.998303
1006.924266	0.998109
1007.218359	1.000877
1007.512416	0.999947
1007.806438	0.998887
1008.100425	0.999022
1008.394376	0.998170
1008.688292	0.999076
1008.982172	1.000188
1009.276017	0.998606
1009.569827	0.998400
1009.863602	0.999453
1010.157341	1.000294
1010.451045	0.999870
1010.744714	0.998648
1011.038347	0.997704
1011.331945	0.998275
1011.625508	0.997749
1011.919036	0.999143
1012.212528	0.999737
1012.505986	0.997898
1012.799408	0.998582
1013.092795	0.999154
1013.386147	0.998947
1013.679464	0.998820
1013.972745	0.998152
1014.265992	0.998604
1014.559204	0.998914
1014.852380	0.998747
1015.145521	0.999261
1015.438628	0.999706
1015.731699	0.998220
1016.024736	0.999194
1016.317737	0.998823
1016.610703	0.999640
1016.903635	0.998856
1017.196531	0.999514
1017.489393	0.999405
1017.782219	0.998103
1018.075011	0.998505
1018.367768	0.998427
1018.660490	0.999336
1018.953177	0.999336
1019.245829	0.999336
