Dividing Wavelength (nm)	Counts (n)	Blue Motor Position (mm): 0.000000	Red Motor Position (mm): 9.500000	
326.493990	1.001827
326.888308	1.001827
327.282561	1.001827
327.676750	1.000271
328.070874	1.001182
328.464933	1.000369
328.858929	1.000364
329.252859	1.001047
329.646726	1.000366
330.040528	1.001526
330.434265	1.000500
330.827938	1.001067
331.221547	1.002567
331.615091	1.000389
332.008571	1.001108
332.401986	1.001390
332.795338	1.001635
333.188625	0.999524
333.581847	1.001080
333.975006	1.000424
334.368100	1.000188
334.761129	1.000770
335.154095	1.001648
335.546996	0.998701
335.939833	0.993672
336.332606	0.994409
336.725315	0.995075
337.117960	0.995560
337.510540	0.994650
337.903056	0.994860
338.295508	0.992449
338.687896	0.994312
339.080220	0.994181
339.472480	0.995572
339.864676	0.994329
340.256807	0.995293
340.648875	0.994598
341.040879	0.995029
341.432818	0.993652
341.824694	0.995102
342.216506	0.995369
342.608253	0.993697
342.999937	0.994591
343.391557	0.994315
343.783113	0.994121
344.174605	0.994826
344.566033	0.995473
344.957397	0.993624
345.348697	0.994797
345.739934	0.994085
346.131106	0.994809
346.522215	0.995083
346.913260	0.993521
347.304241	0.994383
347.695159	0.994361
348.086012	0.993947
348.476802	0.995721
348.867528	0.994013
349.258191	0.992421
349.648789	0.994186
350.039324	0.993836
350.429796	0.995036
350.820203	0.994332
351.210548	0.994339
351.600828	0.994982
351.991045	0.993760
352.381198	0.993802
352.771288	0.995428
353.161314	0.993596
353.551276	0.994639
353.941175	0.993575
354.331010	0.993928
354.720782	0.994470
355.110490	0.993766
355.500135	0.994842
355.889717	0.993668
356.279235	0.992805
356.668689	0.994488
357.058080	0.994411
357.447408	0.994476
357.836672	0.994467
358.225873	0.994398
358.615010	0.994376
359.004084	0.994031
359.393095	0.993598
359.782043	0.993416
360.170927	0.995475
360.559748	0.994391
360.948505	0.993217
361.337199	0.992794
361.725830	0.993682
362.114398	0.994121
362.502903	0.994761
362.891344	0.994544
363.279722	0.993784
363.668037	0.993495
364.056289	0.993418
364.444478	0.994489
364.832603	0.993881
365.220665	0.993539
365.608665	0.993248
365.996601	0.993683
366.384474	0.992987
366.772284	0.992917
367.160031	0.992869
367.547715	0.993073
367.935336	0.993718
368.322893	0.992581
368.710388	0.992578
369.097820	0.993219
369.485189	0.992970
369.872495	0.992301
370.259738	0.990820
370.646918	0.993184
371.034035	0.993107
371.421090	0.992725
371.808081	0.991534
372.195010	0.992108
372.581875	0.992088
372.968678	0.992209
373.355418	0.993208
373.742096	0.991497
374.128710	0.994767
374.515262	0.991947
374.901751	0.992842
375.288177	0.992005
375.674540	0.992555
376.060841	0.992247
376.447079	0.993429
376.833254	0.991990
377.219367	0.990985
377.605417	0.990473
377.991404	0.990382
378.377329	0.988841
378.763191	0.988817
379.148991	0.988398
379.534727	0.986541
379.920402	0.983855
380.306013	0.981296
380.691563	0.980268
381.077049	0.975488
381.462474	0.973061
381.847835	0.969051
382.233134	0.965369
382.618371	0.962062
383.003545	0.955823
383.388657	0.951867
383.773706	0.946386
384.158693	0.941546
384.543618	0.934584
384.928480	0.928945
385.313280	0.920954
385.698017	0.915463
386.082692	0.906709
386.467305	0.900915
386.851856	0.892394
387.236344	0.884963
387.620770	0.875212
388.005133	0.867559
388.389435	0.859181
388.773674	0.850212
389.157851	0.840550
389.541965	0.832417
389.926018	0.828878
390.310008	0.814221
390.693936	0.805516
391.077802	0.793757
391.461606	0.788763
391.845348	0.774300
392.229027	0.769050
392.612645	0.759777
392.996200	0.745564
393.379694	0.732930
393.763125	0.719224
394.146494	0.717315
394.529801	0.702973
394.913047	0.691203
395.296230	0.690042
395.679351	0.677959
396.062410	0.668482
396.445408	0.666856
396.828343	0.657370
397.211217	0.649384
397.594028	0.656722
397.976778	0.643361
398.359466	0.636157
398.742092	0.628206
399.124656	0.636620
399.507158	0.622734
399.889598	0.617351
400.271977	0.606666
400.654294	0.609464
401.036549	0.605768
401.418742	0.608171
401.800874	0.592068
402.182944	0.588891
402.564952	0.578063
402.946898	0.579082
403.328783	0.578893
403.710606	0.589313
404.092367	0.564661
404.474067	0.568406
404.855705	0.567078
405.237282	0.575410
405.618797	0.561436
406.000250	0.556835
406.381642	0.546380
406.762972	0.551266
407.144240	0.549742
407.525447	0.549940
407.906593	0.542703
408.287677	0.537337
408.668700	0.545511
409.049661	0.539589
409.430560	0.535205
409.811399	0.543247
410.192176	0.525193
410.572891	0.532130
410.953545	0.520673
411.334138	0.533248
411.714669	0.526120
412.095139	0.538582
412.475547	0.522315
412.855894	0.524852
413.236180	0.523928
413.616405	0.528747
413.996568	0.519097
414.376670	0.525331
414.756711	0.529703
415.136691	0.526770
415.516609	0.518537
415.896466	0.514582
416.276262	0.510716
416.655997	0.512665
417.035670	0.493902
417.415283	0.485873
417.794834	0.490492
418.174324	0.495572
418.553753	0.505274
418.933121	0.486880
419.312428	0.480993
419.691674	0.486979
420.070859	0.475384
420.449983	0.482919
420.829045	0.472391
421.208047	0.481203
421.586988	0.475080
421.965867	0.473714
422.344686	0.462543
422.723444	0.475472
423.102141	0.491519
423.480777	0.465150
423.859352	0.485179
424.237866	0.462061
424.616319	0.463114
424.994712	0.454102
425.373044	0.464753
425.751314	0.452416
426.129524	0.468589
426.507673	0.453383
426.885762	0.446508
427.263789	0.451774
427.641756	0.461216
428.019662	0.451845
428.397508	0.450974
428.775292	0.455208
429.153016	0.447476
429.530679	0.452967
429.908282	0.446767
430.285824	0.456486
430.663305	0.435384
431.040726	0.455840
431.418086	0.456623
431.795385	0.447620
432.172624	0.446465
432.549802	0.447582
432.926920	0.446192
433.303977	0.445001
433.680974	0.442777
434.057910	0.441378
434.434786	0.440486
434.811601	0.443051
435.188355	0.425205
435.565050	0.434952
435.941683	0.436334
436.318257	0.420430
436.694770	0.421036
437.071222	0.419181
437.447614	0.423869
437.823946	0.430039
438.200218	0.419331
438.576429	0.429342
438.952580	0.422518
439.328670	0.419043
439.704700	0.425631
440.080670	0.426561
440.456580	0.408320
440.832429	0.415874
441.208218	0.426586
441.583947	0.416160
441.959616	0.416013
442.335224	0.420519
442.710773	0.411763
443.086261	0.409167
443.461689	0.423928
443.837057	0.413328
444.212365	0.403492
444.587612	0.409843
444.962800	0.400148
445.337927	0.402039
445.712995	0.427942
446.088002	0.390142
446.462949	0.400403
446.837837	0.405192
447.212664	0.394226
447.587431	0.385386
447.962139	0.356111
448.336786	0.315766
448.711374	0.325569
449.085901	0.369846
449.460369	0.374196
449.834776	0.377755
450.209124	0.356574
450.583412	0.349983
450.957640	0.342688
451.331808	0.353510
451.705917	0.377636
452.079965	0.381504
452.453954	0.370405
452.827883	0.376720
453.201752	0.371862
453.575562	0.383314
453.949311	0.371783
454.323001	0.377409
454.696632	0.373423
455.070202	0.366088
455.443713	0.357976
455.817164	0.353057
456.190556	0.349124
456.563888	0.345720
456.937160	0.343110
457.310373	0.360381
457.683526	0.358888
458.056619	0.364862
458.429653	0.365483
458.802628	0.369132
459.175542	0.362975
459.548398	0.345986
459.921194	0.338245
460.293930	0.338478
460.666607	0.315633
461.039224	0.303938
461.411782	0.299587
461.784280	0.299040
462.156719	0.303476
462.529099	0.307451
462.901419	0.323885
463.273680	0.327562
463.645882	0.327532
464.018024	0.333305
464.390106	0.326232
464.762130	0.310932
465.134094	0.294219
465.505999	0.263167
465.877845	0.233837
466.249631	0.220729
466.621358	0.228072
466.993026	0.242104
467.364634	0.248112
467.736184	0.257043
468.107674	0.265534
468.479105	0.264707
468.850477	0.271274
469.221790	0.278328
469.593043	0.288382
469.964238	0.293229
470.335373	0.292615
470.706449	0.290853
471.077467	0.291562
471.448425	0.253540
471.819324	0.229484
472.190164	0.228420
472.560945	0.257627
472.931667	0.279538
473.302330	0.283683
473.672934	0.295523
474.043479	0.283615
474.413965	0.285690
474.784393	0.289301
475.154761	0.284168
475.525070	0.281189
475.895321	0.286969
476.265513	0.280778
476.635645	0.276421
477.005719	0.276432
477.375734	0.272924
477.745691	0.266272
478.115588	0.262772
478.485427	0.256335
478.855207	0.243188
479.224928	0.225759
479.594591	0.214087
479.964194	0.217277
480.333739	0.218219
480.703226	0.219847
481.072653	0.218250
481.442022	0.214108
481.811333	0.210559
482.180584	0.213863
482.549777	0.219206
482.918912	0.222732
483.287988	0.222260
483.657005	0.221875
484.025964	0.228429
484.394864	0.225562
484.763706	0.226422
485.132489	0.231194
485.501213	0.232126
485.869879	0.230422
486.238487	0.233772
486.607036	0.231565
486.975527	0.236230
487.343959	0.232049
487.712333	0.230956
488.080648	0.232423
488.448905	0.231944
488.817104	0.233092
489.185244	0.227655
489.553326	0.224193
489.921350	0.214175
490.289315	0.196744
490.657222	0.191871
491.025070	0.192905
491.392861	0.195240
491.760593	0.200398
492.128267	0.206120
492.495883	0.211981
492.863440	0.218137
493.230939	0.224511
493.598380	0.225805
493.965763	0.228139
494.333088	0.230491
494.700354	0.231883
495.067563	0.230543
495.434713	0.233995
495.801805	0.231956
496.168839	0.233391
496.535815	0.234884
496.902733	0.234648
497.269593	0.236379
497.636395	0.234032
498.003139	0.234641
498.369825	0.237432
498.736453	0.233863
499.103023	0.235015
499.469535	0.234905
499.835989	0.235218
500.202385	0.235931
500.568723	0.239290
500.935003	0.234482
501.301226	0.238699
501.667390	0.232890
502.033497	0.230844
502.399546	0.233893
502.765537	0.235831
503.131470	0.234156
503.497345	0.230498
503.863163	0.239133
504.228923	0.232079
504.594625	0.230931
504.960269	0.236235
505.325856	0.231577
505.691385	0.235930
506.056856	0.232637
506.422270	0.232113
506.787625	0.234659
507.152924	0.232062
507.518164	0.232415
507.883347	0.234083
508.248472	0.235712
508.613540	0.230818
508.978550	0.233481
509.343503	0.233787
509.708398	0.231455
510.073236	0.228864
510.438016	0.229076
510.802738	0.230092
511.167403	0.229045
511.532010	0.231293
511.896561	0.226502
512.261053	0.225226
512.625488	0.227298
512.989866	0.227717
513.354186	0.227938
513.718449	0.229869
514.082655	0.226207
514.446803	0.228441
514.810894	0.225832
515.174927	0.228713
515.538904	0.227920
515.902822	0.225132
516.266684	0.227529
516.630488	0.228605
516.994235	0.227049
517.357925	0.226204
517.721558	0.224539
518.085133	0.223774
518.448651	0.224125
518.812112	0.226357
519.175516	0.225972
519.538863	0.223387
519.902152	0.225228
520.265385	0.221815
520.628560	0.223628
520.991678	0.224249
521.354739	0.223105
521.717743	0.224359
522.080690	0.225046
522.443580	0.222033
522.806413	0.222974
523.169189	0.222330
523.531908	0.221291
523.894569	0.224837
524.257174	0.224759
524.619722	0.222647
524.982213	0.223494
525.344647	0.222341
525.707025	0.223269
526.069345	0.221279
526.431608	0.223160
526.793815	0.220841
527.155964	0.224989
527.518057	0.224130
527.880093	0.225250
528.242072	0.223655
528.603995	0.225594
528.965860	0.227194
529.327669	0.226254
529.689421	0.227051
530.051117	0.227994
530.412755	0.225326
530.774337	0.227940
531.135862	0.228398
531.497331	0.227826
531.858743	0.230410
532.220098	0.227085
532.581396	0.229645
532.942638	0.230325
533.303824	0.230852
533.664953	0.230755
534.026025	0.232697
534.387040	0.230678
534.747999	0.230452
535.108902	0.229498
535.469748	0.234349
535.830537	0.232301
536.191270	0.232576
536.551947	0.232153
536.912567	0.232299
537.273131	0.234084
537.633638	0.234009
537.994089	0.234633
538.354483	0.235551
538.714821	0.232511
539.075103	0.232352
539.435328	0.233300
539.795497	0.237126
540.155609	0.233624
540.515665	0.231670
540.875665	0.237174
541.235609	0.235691
541.595496	0.235769
541.955328	0.232218
542.315102	0.234960
542.674821	0.236223
543.034483	0.235878
543.394090	0.235521
543.753640	0.237765
544.113134	0.232760
544.472571	0.236102
544.831953	0.232855
545.191278	0.236880
545.550548	0.236612
545.909761	0.233332
546.268918	0.233912
546.628019	0.232305
546.987064	0.235300
547.346053	0.236913
547.704986	0.234658
548.063863	0.235163
548.422684	0.235144
548.781449	0.237120
549.140158	0.234566
549.498811	0.237833
549.857408	0.240687
550.215949	0.235335
550.574434	0.238554
550.932864	0.236480
551.291237	0.234904
551.649555	0.236709
552.007817	0.236270
552.366022	0.237161
552.724173	0.237323
553.082267	0.237717
553.440305	0.234511
553.798288	0.238938
554.156215	0.235487
554.514086	0.236005
554.871902	0.239451
555.229661	0.238548
555.587365	0.238966
555.945014	0.241578
556.302606	0.238672
556.660143	0.241301
557.017625	0.237483
557.375050	0.239841
557.732421	0.236679
558.089735	0.238741
558.446994	0.238964
558.804197	0.237930
559.161345	0.237984
559.518437	0.241289
559.875474	0.239357
560.232455	0.238702
560.589381	0.239757
560.946251	0.239812
561.303065	0.237498
561.659825	0.238860
562.016528	0.240517
562.373177	0.243146
562.729770	0.240655
563.086307	0.242632
563.442789	0.240316
563.799216	0.243059
564.155587	0.242044
564.511904	0.243025
564.868164	0.243186
565.224370	0.242954
565.580520	0.244966
565.936615	0.244747
566.292654	0.247630
566.648638	0.244697
567.004567	0.245517
567.360441	0.246169
567.716260	0.248320
568.072023	0.246145
568.427732	0.246654
568.783385	0.248977
569.138982	0.247416
569.494525	0.246964
569.850013	0.249747
570.205445	0.248351
570.560823	0.250976
570.916145	0.252773
571.271412	0.250979
571.626625	0.252402
571.981782	0.252970
572.336884	0.253789
572.691931	0.253547
573.046923	0.255012
573.401860	0.255914
573.756743	0.257700
574.111570	0.256545
574.466342	0.257000
574.821059	0.256091
575.175722	0.259367
575.530330	0.258653
575.884882	0.258895
576.239380	0.260956
576.593823	0.261554
576.948211	0.260988
577.302544	0.264390
577.656823	0.263979
578.011047	0.263901
578.365216	0.264742
578.719330	0.266773
579.073389	0.266633
579.427394	0.267636
579.781344	0.268603
580.135239	0.269806
580.489080	0.269577
580.842866	0.272707
581.196597	0.272914
581.550273	0.271135
581.903895	0.272356
582.257463	0.270439
582.610975	0.273763
582.964434	0.272863
583.317837	0.275406
583.671186	0.275800
584.024481	0.275684
584.377721	0.278423
584.730906	0.279028
585.084037	0.278342
585.437113	0.280114
585.790135	0.279697
586.143103	0.282309
586.496016	0.283693
586.848874	0.281148
587.201679	0.281633
587.554428	0.285298
587.907124	0.283814
588.259765	0.284640
588.612352	0.285096
588.964884	0.288734
589.317362	0.288595
589.669786	0.288379
590.022155	0.287024
590.374470	0.286107
590.726731	0.288543
591.078937	0.293035
591.431090	0.289431
591.783188	0.293518
592.135232	0.294049
592.487222	0.294117
592.839157	0.292201
593.191038	0.294425
593.542866	0.296705
593.894639	0.300241
594.246358	0.297932
594.598022	0.297322
594.949633	0.300818
595.301190	0.302222
595.652692	0.301055
596.004141	0.297308
596.355535	0.304890
596.706876	0.305852
597.058162	0.307901
597.409395	0.305245
597.760573	0.303179
598.111698	0.306397
598.462768	0.306904
598.813785	0.308206
599.164748	0.309339
599.515657	0.309368
599.866511	0.313170
600.217312	0.308500
600.568060	0.313692
600.918753	0.310294
601.269392	0.311012
601.619978	0.314379
601.970510	0.312040
602.320988	0.311789
602.671412	0.309901
603.021783	0.312155
603.372100	0.313703
603.722363	0.313357
604.072572	0.314042
604.422728	0.313999
604.772830	0.316115
605.122878	0.315643
605.472872	0.316129
605.822813	0.314605
606.172701	0.316972
606.522534	0.314475
606.872314	0.314894
607.222041	0.315352
607.571714	0.313505
607.921333	0.314929
608.270899	0.314743
608.620411	0.311643
608.969870	0.315469
609.319276	0.315901
609.668627	0.315346
610.017926	0.313819
610.367171	0.312515
610.716362	0.313289
611.065500	0.313250
611.414585	0.312442
611.763616	0.312931
612.112594	0.312914
612.461518	0.312585
612.810389	0.310278
613.159207	0.312567
613.507971	0.314678
613.856682	0.310237
614.205340	0.312059
614.553945	0.308358
614.902496	0.312357
615.250994	0.310534
615.599439	0.310932
615.947830	0.310745
616.296169	0.311595
616.644454	0.311032
616.992686	0.311289
617.340864	0.308544
617.688990	0.312801
618.037063	0.308870
618.385082	0.310856
618.733048	0.308057
619.080961	0.310023
619.428821	0.309765
619.776628	0.309272
620.124382	0.311638
620.472083	0.311414
620.819731	0.311020
621.167326	0.314741
621.514868	0.314287
621.862357	0.318920
622.209793	0.318387
622.557176	0.320549
622.904506	0.321812
623.251783	0.323982
623.599007	0.326409
623.946179	0.326008
624.293297	0.327607
624.640363	0.331740
624.987376	0.332218
625.334336	0.334609
625.681243	0.336885
626.028097	0.337795
626.374899	0.338960
626.721647	0.338834
627.068343	0.342128
627.414987	0.343137
627.761577	0.345728
628.108115	0.343448
628.454600	0.348653
628.801032	0.345954
629.147412	0.348317
629.493739	0.348505
629.840014	0.351301
630.186236	0.349041
630.532405	0.354965
630.878521	0.352002
631.224585	0.354043
631.570597	0.358134
631.916556	0.355978
632.262462	0.356167
632.608316	0.358623
632.954117	0.359188
633.299866	0.360486
633.645562	0.360541
633.991206	0.365049
634.336797	0.368059
634.682336	0.370057
635.027823	0.371550
635.373257	0.372491
635.718639	0.375908
636.063968	0.375134
636.409245	0.380773
636.754470	0.381519
637.099642	0.384450
637.444762	0.387145
637.789829	0.386437
638.134845	0.389973
638.479808	0.390638
638.824719	0.390629
639.169577	0.394528
639.514383	0.393725
639.859137	0.397931
640.203839	0.397466
640.548489	0.398144
640.893086	0.399412
641.237632	0.401097
641.582125	0.399894
641.926566	0.401332
642.270955	0.400655
642.615292	0.401211
642.959576	0.400282
643.303809	0.400922
643.647990	0.400773
643.992118	0.400954
644.336195	0.404791
644.680219	0.403195
645.024192	0.403633
645.368112	0.397437
645.711981	0.396303
646.055797	0.391786
646.399562	0.394291
646.743274	0.386406
647.086935	0.383714
647.430544	0.383952
647.774101	0.382692
648.117606	0.382274
648.461059	0.382659
648.804460	0.385224
649.147810	0.390372
649.491108	0.392054
649.834354	0.393347
650.177548	0.398665
650.520690	0.404279
650.863781	0.405953
651.206820	0.404525
651.549807	0.409565
651.892742	0.413192
652.235626	0.413244
652.578458	0.414103
652.921238	0.420117
653.263967	0.418193
653.606644	0.421891
653.949269	0.421364
654.291843	0.425822
654.634365	0.422098
654.976836	0.426044
655.319255	0.425842
655.661622	0.427499
656.003938	0.427448
656.346203	0.430773
656.688416	0.427933
657.030577	0.432088
657.372687	0.433185
657.714746	0.434707
658.056753	0.431435
658.398708	0.435271
658.740612	0.436731
659.082465	0.432545
659.424266	0.433405
659.766016	0.432431
660.107715	0.435015
660.449362	0.433939
660.790958	0.434905
661.132503	0.435011
661.473996	0.432543
661.815438	0.433433
662.156829	0.433816
662.498168	0.435087
662.839456	0.435962
663.180693	0.434126
663.521879	0.433778
663.863013	0.434443
664.204097	0.433379
664.545129	0.429786
664.886110	0.430484
665.227040	0.427697
665.567918	0.429921
665.908746	0.428247
666.249522	0.428021
666.590248	0.428908
666.930922	0.427223
667.271545	0.426305
667.612118	0.426143
667.952639	0.428026
668.293109	0.426350
668.633528	0.429357
668.973896	0.429480
669.314213	0.429797
669.654480	0.431102
669.994695	0.431806
670.334859	0.431826
670.674973	0.432643
671.015035	0.432583
671.355047	0.432856
671.695008	0.433799
672.034918	0.435492
672.374777	0.434528
672.714585	0.436043
673.054342	0.435721
673.394049	0.436518
673.733705	0.433733
674.073310	0.434844
674.412864	0.437799
674.752368	0.438963
675.091820	0.438675
675.431223	0.443311
675.770574	0.443101
676.109875	0.446030
676.449125	0.446024
676.788324	0.448123
677.127473	0.453562
677.466571	0.452829
677.805619	0.454866
678.144616	0.456297
678.483562	0.457826
678.822458	0.460738
679.161303	0.461830
679.500098	0.461497
679.838842	0.463607
680.177535	0.462664
680.516179	0.461252
680.854771	0.461240
681.193314	0.454146
681.531805	0.445450
681.870247	0.433550
682.208638	0.426114
682.546978	0.425241
682.885268	0.426918
683.223508	0.432967
683.561697	0.437385
683.899836	0.439391
684.237925	0.442777
684.575963	0.445736
684.913951	0.448849
685.251889	0.444880
685.589776	0.446252
685.927614	0.448446
686.265401	0.443253
686.603137	0.444376
686.940824	0.438476
687.278460	0.437195
687.616046	0.435852
687.953582	0.430959
688.291068	0.432664
688.628504	0.427901
688.965889	0.430102
689.303224	0.434388
689.640510	0.438235
689.977745	0.443858
690.314930	0.452160
690.652065	0.456629
690.989150	0.464224
691.326185	0.470481
691.663170	0.475264
692.000105	0.482812
692.336990	0.488752
692.673825	0.491840
693.010610	0.498872
693.347345	0.503999
693.684030	0.506128
694.020665	0.510314
694.357251	0.519797
694.693786	0.518974
695.030272	0.523387
695.366707	0.526230
695.703093	0.531039
696.039429	0.527800
696.375716	0.529800
696.711952	0.532207
697.048139	0.534267
697.384276	0.536174
697.720363	0.534269
698.056400	0.534213
698.392388	0.539374
698.728326	0.542369
699.064214	0.545049
699.400053	0.546264
699.735842	0.549446
700.071581	0.551883
700.407270	0.555637
700.742910	0.557423
701.078501	0.564499
701.414042	0.565131
701.749533	0.567263
702.084974	0.575714
702.420366	0.568645
702.755709	0.576192
703.091002	0.583892
703.426246	0.577122
703.761440	0.583448
704.096584	0.588440
704.431679	0.585472
704.766725	0.587567
705.101721	0.589259
705.436668	0.584872
705.771565	0.592002
706.106413	0.588705
706.441212	0.584478
706.775961	0.583043
707.110661	0.585874
707.445311	0.581981
707.779913	0.579190
708.114465	0.577479
708.448967	0.574890
708.783421	0.566684
709.117825	0.561523
709.452180	0.561037
709.786485	0.554643
710.120742	0.545064
710.454949	0.546146
710.789107	0.539220
711.123216	0.530036
711.457275	0.531798
711.791286	0.522455
712.125247	0.521566
712.459159	0.531924
712.793023	0.524019
713.126837	0.528788
713.460602	0.529105
713.794318	0.538562
714.127985	0.537357
714.461602	0.547779
714.795171	0.550868
715.128691	0.558151
715.462162	0.565955
715.795584	0.572075
716.128957	0.574914
716.462281	0.580782
716.795556	0.584809
717.128782	0.589789
717.461960	0.599066
717.795088	0.597634
718.128167	0.603623
718.461198	0.612338
718.794180	0.613760
719.127113	0.615850
719.459997	0.620368
719.792833	0.626131
720.125619	0.627541
720.458357	0.633050
720.791046	0.632884
721.123686	0.636217
721.456278	0.642883
721.788821	0.640738
722.121315	0.644583
722.453761	0.648721
722.786158	0.646751
723.118506	0.642698
723.450805	0.650747
723.783056	0.647665
724.115259	0.644008
724.447412	0.644082
724.779518	0.645786
725.111574	0.644384
725.443582	0.639494
725.775542	0.641548
726.107453	0.634386
726.439315	0.633496
726.771129	0.631985
727.102895	0.625471
727.434612	0.618692
727.766281	0.616062
728.097901	0.615197
728.429473	0.615759
728.760996	0.613394
729.092471	0.613933
729.423897	0.617818
729.755276	0.617227
730.086606	0.616128
730.417887	0.611546
730.749120	0.601745
731.080305	0.592549
731.411442	0.588219
731.742530	0.593790
732.073570	0.592648
732.404562	0.585289
732.735506	0.586631
733.066401	0.590953
733.397249	0.601186
733.728048	0.611943
734.058798	0.624673
734.389501	0.635592
734.720156	0.645296
735.050762	0.652977
735.381320	0.654196
735.711831	0.663708
736.042293	0.668493
736.372707	0.663745
736.703073	0.668711
737.033391	0.670593
737.363661	0.668488
737.693883	0.663290
738.024056	0.661830
738.354182	0.662520
738.684260	0.651354
739.014290	0.647583
739.344272	0.648449
739.674207	0.642102
740.004093	0.641513
740.333931	0.641342
740.663722	0.641311
740.993464	0.641745
741.323159	0.646000
741.652806	0.650498
741.982405	0.655728
742.311956	0.660555
742.641460	0.662085
742.970915	0.667119
743.300323	0.674227
743.629683	0.680715
743.958996	0.682341
744.288260	0.686549
744.617477	0.692530
744.946647	0.693613
745.275768	0.699301
745.604842	0.699723
745.933869	0.709376
746.262847	0.709717
746.591778	0.703184
746.920662	0.710509
747.249498	0.716302
747.578286	0.706723
747.907027	0.703411
748.235720	0.703854
748.564365	0.699092
748.892963	0.698656
749.221514	0.701885
749.550017	0.707875
749.878473	0.706756
750.206881	0.713006
750.535242	0.714911
750.863555	0.714550
751.191821	0.716062
751.520039	0.718870
751.848210	0.723768
752.176334	0.716771
752.504411	0.714969
752.832440	0.723273
753.160421	0.727561
753.488356	0.725352
753.816243	0.724007
754.144082	0.731709
754.471875	0.735122
754.799620	0.730308
755.127318	0.731556
755.454969	0.731003
755.782572	0.730790
756.110129	0.736056
756.437638	0.738213
756.765100	0.734225
757.092515	0.733102
757.419882	0.731937
757.747203	0.737527
758.074477	0.736590
758.401703	0.733213
758.728882	0.728339
759.056014	0.727560
759.383099	0.726076
759.710138	0.728493
760.037129	0.724645
760.364073	0.717958
760.690970	0.720058
761.017820	0.726500
761.344623	0.721796
761.671379	0.711962
761.998088	0.701479
762.324751	0.677846
762.651366	0.636813
762.977935	0.568816
763.304456	0.516838
763.630931	0.506887
763.957359	0.545931
764.283740	0.590904
764.610074	0.618462
764.936362	0.649704
765.262602	0.676696
765.588796	0.697448
765.914943	0.715517
766.241044	0.733908
766.567097	0.740807
766.893104	0.750117
767.219064	0.756229
767.544978	0.762737
767.870845	0.776582
768.196665	0.780425
768.522438	0.778469
768.848165	0.779401
769.173846	0.788711
769.499479	0.793368
769.825066	0.796535
770.150607	0.801192
770.476101	0.797088
770.801548	0.798455
771.126949	0.808849
771.452303	0.812965
771.777611	0.812670
772.102872	0.812077
772.428087	0.816883
772.753256	0.820324
773.078378	0.822590
773.403453	0.831884
773.728482	0.836460
774.053465	0.829501
774.378401	0.832684
774.703291	0.841154
775.028135	0.840081
775.352932	0.842343
775.677683	0.845410
776.002388	0.845893
776.327046	0.844904
776.651658	0.847740
776.976224	0.851596
777.300743	0.852593
777.625216	0.855106
777.949643	0.856410
778.274024	0.855935
778.598359	0.858569
778.922647	0.856651
779.246889	0.856682
779.571086	0.861859
779.895236	0.863690
780.219339	0.860695
780.543397	0.857831
780.867409	0.855576
781.191374	0.857765
781.515294	0.859404
781.839167	0.858312
782.162995	0.861019
782.486776	0.859005
782.810511	0.859769
783.134201	0.862909
783.457844	0.861352
783.781441	0.864011
784.104993	0.869753
784.428498	0.870295
784.751958	0.865032
785.075372	0.868091
785.398739	0.871477
785.722061	0.868427
786.045337	0.863691
786.368568	0.868060
786.691752	0.871584
787.014891	0.855941
787.337983	0.848361
787.661030	0.840097
787.984031	0.823291
788.306987	0.810091
788.629897	0.812084
788.952760	0.815780
789.275579	0.820193
789.598351	0.834523
789.921078	0.848820
790.243759	0.850854
790.566395	0.855163
790.888984	0.862908
791.211529	0.868352
791.534027	0.870551
791.856480	0.873690
792.178888	0.878404
792.501249	0.880753
792.823566	0.882545
793.145836	0.882607
793.468062	0.884943
793.790241	0.884252
794.112375	0.882616
794.434464	0.877863
794.756507	0.877536
795.078505	0.876938
795.400457	0.871346
795.722364	0.859364
796.044226	0.853083
796.366042	0.851691
796.687812	0.854535
797.009538	0.850585
797.331218	0.853775
797.652852	0.858534
797.974442	0.864283
798.295986	0.864173
798.617484	0.866174
798.938938	0.870207
799.260346	0.875213
799.581709	0.877017
799.903026	0.879939
800.224299	0.880254
800.545526	0.883727
800.866708	0.887810
801.187845	0.891367
801.508936	0.891453
801.829983	0.889476
802.150984	0.892056
802.471940	0.897012
802.792851	0.897012
803.113717	0.896871
803.434538	0.895094
803.755314	0.898034
804.076045	0.898573
804.396731	0.899193
804.717372	0.898594
805.037967	0.901551
805.358518	0.898141
805.679024	0.896485
805.999485	0.896589
806.319901	0.896354
806.640272	0.898056
806.960598	0.896031
807.280879	0.893232
807.601115	0.891801
807.921306	0.895575
808.241453	0.895607
808.561554	0.894504
808.881611	0.893257
809.201623	0.895964
809.521590	0.895388
809.841513	0.896241
810.161390	0.895602
810.481223	0.897139
810.801011	0.900552
811.120755	0.901993
811.440453	0.900995
811.760107	0.900266
812.079716	0.899734
812.399281	0.902687
812.718801	0.905711
813.038276	0.907073
813.357707	0.906107
813.677093	0.903591
813.996434	0.906272
814.315731	0.908604
814.634983	0.908152
814.954191	0.907508
815.273354	0.904395
815.592473	0.901351
815.911547	0.901174
816.230577	0.899428
816.549562	0.894135
816.868502	0.896118
817.187399	0.892564
817.506250	0.887503
817.825058	0.889074
818.143821	0.886274
818.462539	0.880190
818.781213	0.872661
819.099843	0.859718
819.418429	0.844625
819.736970	0.827882
820.055466	0.807776
820.373919	0.781863
820.692327	0.749628
821.010691	0.712676
821.329011	0.635677
821.647286	0.518323
821.965517	0.403923
822.283704	0.360819
822.601847	0.361480
822.919945	0.397197
823.237999	0.431652
823.556010	0.479225
823.873976	0.535629
824.191897	0.586976
824.509775	0.629910
824.827609	0.675279
825.145398	0.698254
825.463144	0.700988
825.780845	0.685412
826.098502	0.665447
826.416116	0.619273
826.733685	0.574619
827.051210	0.565519
827.368692	0.580759
827.686129	0.618558
828.003522	0.672919
828.320872	0.720321
828.638177	0.764859
828.955439	0.797998
829.272656	0.819845
829.589830	0.836919
829.906960	0.852487
830.224046	0.865234
830.541088	0.876164
830.858086	0.879851
831.175041	0.885557
831.491952	0.886725
831.808819	0.883394
832.125642	0.874991
832.442421	0.861271
832.759157	0.838513
833.075849	0.792079
833.392497	0.727257
833.709101	0.686521
834.025662	0.695920
834.342179	0.728030
834.658653	0.767529
834.975083	0.802251
835.291469	0.831180
835.607811	0.853092
835.924110	0.869160
836.240366	0.886850
836.556578	0.900700
836.872746	0.907448
837.188871	0.913677
837.504952	0.919551
837.820990	0.923087
838.136984	0.926389
838.452935	0.929451
838.768842	0.931080
839.084706	0.924911
839.400526	0.898003
839.716303	0.857770
840.032037	0.834700
840.347727	0.838968
840.663373	0.857057
840.978977	0.878895
841.294537	0.901887
841.610054	0.916968
841.925527	0.925579
842.240957	0.932622
842.556344	0.939582
842.871687	0.945313
843.186987	0.950268
843.502244	0.950473
843.817458	0.951570
844.132629	0.955651
844.447756	0.960288
844.762840	0.961589
845.077881	0.959648
845.392879	0.959796
845.707833	0.962219
846.022745	0.963553
846.337613	0.965510
846.652438	0.966358
846.967221	0.963698
847.281960	0.966395
847.596656	0.968004
847.911309	0.967526
848.225919	0.968107
848.540485	0.968657
848.855009	0.969137
849.169490	0.968469
849.483928	0.970351
849.798323	0.968888
850.112675	0.969545
850.426984	0.969805
850.741251	0.970100
851.055474	0.970159
851.369654	0.969511
851.683792	0.969809
851.997887	0.969404
852.311938	0.970306
852.625947	0.969914
852.939914	0.968000
853.253837	0.969084
853.567718	0.971231
853.881555	0.971796
854.195350	0.968070
854.509103	0.969316
854.822812	0.970382
855.136479	0.970604
855.450103	0.970356
855.763685	0.968237
856.077224	0.968197
856.390720	0.971265
856.704173	0.969193
857.017584	0.968473
857.330953	0.967182
857.644278	0.968433
857.957561	0.969331
858.270802	0.968284
858.584000	0.968908
858.897155	0.967143
859.210268	0.967797
859.523339	0.968491
859.836367	0.970331
860.149352	0.970737
860.462295	0.968996
860.775195	0.969801
861.088054	0.969723
861.400869	0.969129
861.713642	0.970939
862.026373	0.970823
862.339062	0.971374
862.651708	0.968638
862.964312	0.967633
863.276873	0.969211
863.589392	0.968621
863.901869	0.966545
864.214303	0.965553
864.526696	0.963729
864.839045	0.963648
865.151353	0.961531
865.463619	0.963515
865.775842	0.962329
866.088023	0.962480
866.400162	0.961728
866.712258	0.962706
867.024313	0.962805
867.336325	0.963699
867.648296	0.962481
867.960224	0.963500
868.272110	0.962151
868.583954	0.963390
868.895755	0.964443
869.207515	0.961868
869.519233	0.960277
869.830909	0.960975
870.142542	0.962403
870.454134	0.961428
870.765684	0.959753
871.077191	0.957542
871.388657	0.959474
871.700081	0.957340
872.011463	0.958839
872.322803	0.957456
872.634101	0.956205
872.945357	0.953787
873.256571	0.953916
873.567744	0.952372
873.878874	0.953343
874.189963	0.950892
874.501010	0.950824
874.812015	0.949552
875.122979	0.951944
875.433900	0.952289
875.744780	0.953927
876.055618	0.950175
876.366415	0.950202
876.677169	0.949250
876.987882	0.950676
877.298554	0.950770
877.609183	0.946840
877.919771	0.944566
878.230317	0.943181
878.540822	0.940587
878.851285	0.933046
879.161707	0.925395
879.472087	0.914311
879.782425	0.897209
880.092722	0.862589
880.402977	0.809003
880.713191	0.747165
881.023363	0.686524
881.333494	0.652236
881.643583	0.624647
881.953631	0.623766
882.263637	0.653170
882.573602	0.691831
882.883526	0.718650
883.193408	0.742954
883.503248	0.765606
883.813048	0.794461
884.122806	0.824502
884.432522	0.848530
884.742197	0.868074
885.051831	0.878984
885.361424	0.889804
885.670975	0.901551
885.980485	0.912138
886.289954	0.918607
886.599382	0.924049
886.908768	0.927964
887.218113	0.933833
887.527417	0.938687
887.836680	0.941282
888.145901	0.943050
888.455082	0.946624
888.764221	0.949301
889.073319	0.952618
889.382376	0.952652
889.691392	0.952194
890.000366	0.952268
890.309300	0.954147
890.618193	0.951356
890.927044	0.952276
891.235855	0.951789
891.544625	0.951371
891.853353	0.952332
892.162041	0.948435
892.470687	0.942133
892.779293	0.936966
893.087858	0.933778
893.396381	0.925276
893.704864	0.911322
894.013306	0.887021
894.321707	0.859492
894.630068	0.844369
894.938387	0.840501
895.246665	0.841520
895.554903	0.854517
895.863100	0.867124
896.171256	0.885296
896.479371	0.903702
896.787446	0.917293
897.095480	0.924382
897.403473	0.926230
897.711425	0.932294
898.019336	0.939060
898.327207	0.942589
898.635038	0.944854
898.942827	0.944377
899.250576	0.947696
899.558284	0.952354
899.865952	0.952928
900.173579	0.955085
900.481165	0.954711
900.788711	0.959906
901.096216	0.961576
901.403681	0.961002
901.711105	0.963078
902.018489	0.964067
902.325832	0.962030
902.633135	0.961562
902.940397	0.955236
903.247619	0.943247
903.554800	0.916206
903.861941	0.877163
904.169041	0.838825
904.476101	0.821613
904.783121	0.821634
905.090100	0.839504
905.397039	0.860748
905.703938	0.883056
906.010796	0.904021
906.317614	0.920878
906.624391	0.933094
906.931129	0.942289
907.237826	0.950645
907.544483	0.958971
907.851099	0.961260
908.157675	0.967625
908.464211	0.970464
908.770707	0.971865
909.077163	0.973624
909.383578	0.973977
909.689954	0.974683
909.996289	0.976509
910.302584	0.978538
910.608839	0.979409
910.915054	0.978855
911.221229	0.978829
911.527363	0.976373
911.833458	0.977692
912.139513	0.976274
912.445527	0.975534
912.751502	0.973625
913.057436	0.972820
913.363331	0.969882
913.669186	0.964990
913.975000	0.961442
914.280775	0.953897
914.586510	0.947223
914.892205	0.933047
915.197859	0.911695
915.503475	0.883580
915.809050	0.864243
916.114585	0.856945
916.420081	0.854444
916.725536	0.851689
917.030952	0.860611
917.336328	0.873176
917.641665	0.889020
917.946961	0.904437
918.252218	0.916913
918.557435	0.925840
918.862612	0.935375
919.167750	0.941301
919.472848	0.945526
919.777906	0.951661
920.082925	0.957340
920.387904	0.961619
920.692843	0.962644
920.997743	0.964536
921.302603	0.967312
921.607423	0.968328
921.912204	0.971922
922.216946	0.971485
922.521647	0.973146
922.826310	0.975656
923.130932	0.976530
923.435516	0.979211
923.740059	0.978464
924.044564	0.979710
924.349028	0.979457
924.653454	0.982568
924.957840	0.984708
925.262186	0.984903
925.566493	0.984065
925.870761	0.985088
926.174989	0.986851
926.479178	0.988773
926.783328	0.989077
927.087438	0.988792
927.391509	0.987845
927.695541	0.990385
927.999533	0.989612
928.303486	0.990267
928.607400	0.992000
928.911275	0.990292
929.215110	0.990236
929.518906	0.990130
929.822663	0.989743
930.126381	0.991470
930.430060	0.991107
930.733699	0.990424
931.037299	0.989267
931.340861	0.990807
931.644383	0.990314
931.947866	0.989400
932.251309	0.991161
932.554714	0.990728
932.858080	0.991688
933.161407	0.991208
933.464694	0.992059
933.767943	0.989840
934.071153	0.991074
934.374323	0.991666
934.677455	0.991883
934.980548	0.991183
935.283602	0.991822
935.586617	0.991447
935.889593	0.991146
936.192530	0.990997
936.495428	0.990837
936.798287	0.992240
937.101108	0.991267
937.403890	0.989889
937.706632	0.988413
938.009336	0.987104
938.312002	0.986280
938.614628	0.983416
938.917216	0.983834
939.219765	0.982475
939.522275	0.982829
939.824747	0.983065
940.127179	0.983397
940.429573	0.984840
940.731929	0.984271
941.034246	0.984467
941.336524	0.985984
941.638763	0.986827
941.940964	0.986322
942.243126	0.985820
942.545250	0.987126
942.847335	0.988798
943.149381	0.988465
943.451389	0.988215
943.753359	0.988625
944.055290	0.990480
944.357182	0.989579
944.659036	0.989437
944.960851	0.989664
945.262628	0.990494
945.564367	0.991329
945.866067	0.989588
946.167729	0.990072
946.469352	0.990400
946.770937	0.989044
947.072484	0.991711
947.373992	0.990763
947.675462	0.990625
947.976893	0.989753
948.278286	0.991643
948.579641	0.991623
948.880958	0.991094
949.182236	0.991496
949.483476	0.991577
949.784678	0.990649
950.085841	0.992406
950.386967	0.991689
950.688054	0.991815
950.989103	0.992547
951.290114	0.988958
951.591087	0.988809
951.892021	0.988853
952.192917	0.989773
952.493776	0.988432
952.794596	0.988453
953.095378	0.987662
953.396122	0.988836
953.696828	0.987490
953.997496	0.990166
954.298126	0.991772
954.598718	0.990803
954.899272	0.991225
955.199788	0.991529
955.500266	0.992302
955.800706	0.993038
956.101108	0.994352
956.401472	0.994736
956.701798	0.995747
957.002087	0.992834
957.302337	0.995679
957.602550	0.995019
957.902724	0.995775
958.202861	0.995520
958.502960	0.995846
958.803022	0.994552
959.103045	0.996311
959.403031	0.995779
959.702979	0.995798
960.002889	0.998089
960.302762	0.994738
960.602596	0.996135
960.902393	0.994591
961.202153	0.997774
961.501875	0.998141
961.801559	0.996467
962.101205	0.996595
962.400814	0.997530
962.700385	0.996772
962.999918	0.997208
963.299414	0.997602
963.598873	0.996281
963.898293	0.997598
964.197677	0.996818
964.497022	0.997072
964.796331	0.997583
965.095601	0.996888
965.394835	0.996850
965.694030	0.996577
965.993189	0.997673
966.292309	0.997376
966.591393	0.997856
966.890439	0.998091
967.189447	0.997038
967.488419	0.998821
967.787353	0.996507
968.086249	0.998334
968.385108	0.997733
968.683930	0.998262
968.982714	0.997084
969.281462	0.999077
969.580172	0.997516
969.878844	0.998646
970.177480	0.996346
970.476078	0.998097
970.774639	0.997274
971.073162	0.998221
971.371649	0.997420
971.670098	0.996344
971.968510	0.997812
972.266885	0.996658
972.565223	0.997202
972.863524	0.996972
973.161788	0.996555
973.460014	0.998186
973.758204	0.996922
974.056356	0.996233
974.354471	0.995849
974.652550	0.997615
974.950591	0.997183
975.248595	0.998462
975.546563	0.997940
975.844493	0.999492
976.142386	0.997351
976.440243	0.997619
976.738062	0.998644
977.035845	0.999526
977.333590	0.996747
977.631299	0.998396
977.928971	0.997528
978.226606	0.996394
978.524204	0.996123
978.821765	0.998733
979.119290	0.997215
979.416777	0.997234
979.714228	0.997944
980.011642	0.998016
980.309020	0.998351
980.606360	0.998339
980.903664	0.999108
981.200931	0.997215
981.498162	0.996870
981.795356	0.994906
982.092513	0.995520
982.389633	0.995717
982.686717	0.992077
982.983764	0.992013
983.280775	0.990384
983.577749	0.991485
983.874686	0.992327
984.171587	0.992237
984.468451	0.994808
984.765279	0.994352
985.062070	0.995162
985.358824	0.995217
985.655543	0.996159
985.952224	0.996448
986.248869	0.997588
986.545478	0.997622
986.842050	0.999443
987.138586	0.997050
987.435086	0.998505
987.731549	0.999418
988.027975	0.998375
988.324366	0.998806
988.620719	0.999128
988.917037	0.997342
989.213318	0.999506
989.509563	1.000069
989.805772	0.998322
990.101944	0.999462
990.398080	0.997974
990.694180	0.998530
990.990244	0.996997
991.286271	0.998162
991.582262	0.998392
991.878217	0.998555
992.174136	0.999436
992.470019	0.999338
992.765865	0.999564
993.061676	0.998490
993.357450	0.999379
993.653188	0.997500
993.948890	0.999759
994.244556	0.998395
994.540186	0.997086
994.835780	0.997383
995.131337	0.998071
995.426859	0.997056
995.722345	0.999316
996.017795	0.996512
996.313208	0.996691
996.608586	0.996924
996.903928	0.997042
997.199234	0.996946
997.494504	0.996140
997.789738	0.996642
998.084936	0.997150
998.380099	0.998123
998.675225	0.997576
998.970316	0.998426
999.265371	1.000744
999.560390	0.998532
999.855373	0.998701
1000.150320	0.997910
1000.445232	0.999217
1000.740108	0.998206
1001.034948	0.998690
1001.329752	0.999603
1001.624521	1.000023
1001.919254	0.998874
1002.213951	0.998424
1002.508613	0.997762
1002.803239	0.999352
1003.097829	0.999194
1003.392384	1.000943
1003.686903	0.999006
1003.981386	0.998723
1004.275834	1.000525
1004.570246	0.998940
1004.864623	1.000342
1005.158964	1.001161
1005.453270	0.999328
1005.747540	0.999387
1006.041775	0.999169
1006.335974	1.001184
1006.630138	1.000088
1006.924266	1.000455
1007.218359	1.000627
1007.512416	1.000977
1007.806438	0.999340
1008.100425	0.999740
1008.394376	0.999825
1008.688292	0.999369
1008.982172	1.001685
1009.276017	0.999407
1009.569827	0.999472
1009.863602	0.999096
1010.157341	1.000587
1010.451045	0.999895
1010.744714	0.999433
1011.038347	1.000540
1011.331945	0.999951
1011.625508	0.998703
1011.919036	0.998473
1012.212528	0.999718
1012.505986	0.998831
1012.799408	0.999857
1013.092795	1.000052
1013.386147	0.998636
1013.679464	1.000180
1013.972745	0.999725
1014.265992	0.998630
1014.559204	0.999240
1014.852380	1.000170
1015.145521	1.000653
1015.438628	1.000742
1015.731699	0.999626
1016.024736	0.999197
1016.317737	1.000286
1016.610703	0.999120
1016.903635	1.000668
1017.196531	0.999660
1017.489393	1.000302
1017.782219	0.998640
1018.075011	0.998901
1018.367768	0.999753
1018.660490	1.001021
1018.953177	1.001021
1019.245829	1.001021
