Dividing Wavelength (nm)	Counts (n)	Blue Motor Position (mm): 0.000000	Red Motor Position (mm): 12.200000	
326.493990	1.000966
326.888308	1.000966
327.282561	1.000966
327.676750	1.000218
328.070874	0.999643
328.464933	0.999859
328.858929	0.999898
329.252859	0.999469
329.646726	0.999717
330.040528	1.000949
330.434265	0.999093
330.827938	1.001116
331.221547	1.001151
331.615091	1.000052
332.008571	0.999739
332.401986	0.999965
332.795338	1.000395
333.188625	0.998539
333.581847	0.999941
333.975006	0.999216
334.368100	0.999129
334.761129	0.999827
335.154095	1.001577
335.546996	0.997086
335.939833	0.993418
336.332606	0.994246
336.725315	0.994758
337.117960	0.994483
337.510540	0.994492
337.903056	0.994000
338.295508	0.992886
338.687896	0.994027
339.080220	0.994913
339.472480	0.994016
339.864676	0.994048
340.256807	0.994135
340.648875	0.996067
341.040879	0.993332
341.432818	0.994128
341.824694	0.993191
342.216506	0.994619
342.608253	0.993857
342.999937	0.994286
343.391557	0.995075
343.783113	0.993664
344.174605	0.993640
344.566033	0.994391
344.957397	0.994014
345.348697	0.994191
345.739934	0.992785
346.131106	0.993531
346.522215	0.992626
346.913260	0.995109
347.304241	0.993478
347.695159	0.994265
348.086012	0.992514
348.476802	0.994661
348.867528	0.993804
349.258191	0.991587
349.648789	0.993467
350.039324	0.992723
350.429796	0.994041
350.820203	0.994126
351.210548	0.993433
351.600828	0.993147
351.991045	0.994083
352.381198	0.992904
352.771288	0.993549
353.161314	0.993866
353.551276	0.994287
353.941175	0.993721
354.331010	0.992902
354.720782	0.994823
355.110490	0.993267
355.500135	0.995687
355.889717	0.992685
356.279235	0.992737
356.668689	0.993962
357.058080	0.993126
357.447408	0.994419
357.836672	0.994550
358.225873	0.996197
358.615010	0.994224
359.004084	0.994383
359.393095	0.994319
359.782043	0.993849
360.170927	0.994127
360.559748	0.994156
360.948505	0.992661
361.337199	0.992696
361.725830	0.992859
362.114398	0.993236
362.502903	0.993579
362.891344	0.994120
363.279722	0.994642
363.668037	0.993446
364.056289	0.993328
364.444478	0.994083
364.832603	0.993023
365.220665	0.993643
365.608665	0.992127
365.996601	0.992028
366.384474	0.992537
366.772284	0.992912
367.160031	0.991961
367.547715	0.991938
367.935336	0.993210
368.322893	0.992714
368.710388	0.991927
369.097820	0.992551
369.485189	0.992353
369.872495	0.992575
370.259738	0.990164
370.646918	0.992950
371.034035	0.993463
371.421090	0.993189
371.808081	0.992168
372.195010	0.992914
372.581875	0.992931
372.968678	0.992659
373.355418	0.992840
373.742096	0.991382
374.128710	0.993029
374.515262	0.992258
374.901751	0.992540
375.288177	0.993936
375.674540	0.993803
376.060841	0.992039
376.447079	0.992985
376.833254	0.993016
377.219367	0.993066
377.605417	0.993554
377.991404	0.993553
378.377329	0.992053
378.763191	0.992016
379.148991	0.994005
379.534727	0.993634
379.920402	0.993427
380.306013	0.993341
380.691563	0.993954
381.077049	0.993122
381.462474	0.993335
381.847835	0.992488
382.233134	0.993110
382.618371	0.992310
383.003545	0.993793
383.388657	0.992323
383.773706	0.993061
384.158693	0.993282
384.543618	0.992462
384.928480	0.991884
385.313280	0.990912
385.698017	0.990579
386.082692	0.989308
386.467305	0.987266
386.851856	0.984675
387.236344	0.982680
387.620770	0.979439
388.005133	0.977489
388.389435	0.975450
388.773674	0.970332
389.157851	0.967844
389.541965	0.963116
389.926018	0.959215
390.310008	0.955421
390.693936	0.948886
391.077802	0.943396
391.461606	0.938575
391.845348	0.931676
392.229027	0.926809
392.612645	0.918788
392.996200	0.910664
393.379694	0.901080
393.763125	0.893227
394.146494	0.887165
394.529801	0.875888
394.913047	0.865837
395.296230	0.859277
395.679351	0.848881
396.062410	0.838968
396.445408	0.832165
396.828343	0.821580
397.211217	0.811286
397.594028	0.808867
397.976778	0.794442
398.359466	0.784159
398.742092	0.772583
399.124656	0.771881
399.507158	0.756882
399.889598	0.747694
400.271977	0.733736
400.654294	0.727813
401.036549	0.719284
401.418742	0.715233
401.800874	0.697203
402.182944	0.687451
402.564952	0.673843
402.946898	0.669009
403.328783	0.661519
403.710606	0.664460
404.092367	0.637499
404.474067	0.636066
404.855705	0.629851
405.237282	0.632783
405.618797	0.615114
406.000250	0.605930
406.381642	0.593923
406.762972	0.593273
407.144240	0.588811
407.525447	0.585133
407.906593	0.574596
408.287677	0.567065
408.668700	0.571413
409.049661	0.562622
409.430560	0.555731
409.811399	0.561597
410.192176	0.541489
410.572891	0.546356
410.953545	0.534129
411.334138	0.544391
411.714669	0.536096
412.095139	0.546289
412.475547	0.529685
412.855894	0.530699
413.236180	0.528790
413.616405	0.533650
413.996568	0.523605
414.376670	0.529231
414.756711	0.532848
415.136691	0.529422
415.516609	0.520847
415.896466	0.516159
416.276262	0.513275
416.655997	0.513973
417.035670	0.494869
417.415283	0.487303
417.794834	0.491408
418.174324	0.496819
418.553753	0.506300
418.933121	0.488013
419.312428	0.481718
419.691674	0.487089
420.070859	0.476486
420.449983	0.483742
420.829045	0.473102
421.208047	0.481831
421.586988	0.475728
421.965867	0.473813
422.344686	0.463118
422.723444	0.475050
423.102141	0.491890
423.480777	0.465022
423.859352	0.485795
424.237866	0.462609
424.616319	0.463382
424.994712	0.454799
425.373044	0.464335
425.751314	0.452784
426.129524	0.469232
426.507673	0.452930
426.885762	0.446758
427.263789	0.452497
427.641756	0.461656
428.019662	0.451727
428.397508	0.450935
428.775292	0.455033
429.153016	0.446985
429.530679	0.453295
429.908282	0.446887
430.285824	0.456326
430.663305	0.435283
431.040726	0.456092
431.418086	0.456754
431.795385	0.447952
432.172624	0.446250
432.549802	0.447566
432.926920	0.446634
433.303977	0.445701
433.680974	0.442407
434.057910	0.441514
434.434786	0.440659
434.811601	0.443134
435.188355	0.425146
435.565050	0.435161
435.941683	0.436330
436.318257	0.421101
436.694770	0.421257
437.071222	0.419207
437.447614	0.423692
437.823946	0.430285
438.200218	0.420009
438.576429	0.429767
438.952580	0.422593
439.328670	0.419455
439.704700	0.425528
440.080670	0.427197
440.456580	0.407889
440.832429	0.415870
441.208218	0.426549
441.583947	0.416616
441.959616	0.415913
442.335224	0.420749
442.710773	0.411821
443.086261	0.409681
443.461689	0.423654
443.837057	0.413727
444.212365	0.403784
444.587612	0.410414
444.962800	0.400321
445.337927	0.402200
445.712995	0.428414
446.088002	0.390404
446.462949	0.400423
446.837837	0.405687
447.212664	0.394586
447.587431	0.385552
447.962139	0.356407
448.336786	0.316071
448.711374	0.326286
449.085901	0.369857
449.460369	0.374270
449.834776	0.378249
450.209124	0.357420
450.583412	0.349891
450.957640	0.342850
451.331808	0.354421
451.705917	0.377563
452.079965	0.381822
452.453954	0.369978
452.827883	0.377038
453.201752	0.372077
453.575562	0.383802
453.949311	0.371998
454.323001	0.378110
454.696632	0.373842
455.070202	0.366402
455.443713	0.358187
455.817164	0.353269
456.190556	0.349100
456.563888	0.345809
456.937160	0.343376
457.310373	0.360524
457.683526	0.359336
458.056619	0.364933
458.429653	0.365613
458.802628	0.368822
459.175542	0.363282
459.548398	0.345824
459.921194	0.338990
460.293930	0.338619
460.666607	0.316260
461.039224	0.304272
461.411782	0.300377
461.784280	0.299701
462.156719	0.303646
462.529099	0.307970
462.901419	0.323848
463.273680	0.328350
463.645882	0.327956
464.018024	0.333671
464.390106	0.326426
464.762130	0.311342
465.134094	0.294383
465.505999	0.263761
465.877845	0.234209
466.249631	0.221313
466.621358	0.228558
466.993026	0.242629
467.364634	0.248556
467.736184	0.257122
468.107674	0.266256
468.479105	0.264924
468.850477	0.271814
469.221790	0.279056
469.593043	0.289172
469.964238	0.293882
470.335373	0.292941
470.706449	0.291648
471.077467	0.292161
471.448425	0.253973
471.819324	0.229965
472.190164	0.228938
472.560945	0.257980
472.931667	0.280238
473.302330	0.284193
473.672934	0.296372
474.043479	0.284239
474.413965	0.286328
474.784393	0.289578
475.154761	0.284640
475.525070	0.281172
475.895321	0.287394
476.265513	0.281884
476.635645	0.277027
477.005719	0.276700
477.375734	0.273297
477.745691	0.266905
478.115588	0.263570
478.485427	0.256714
478.855207	0.243717
479.224928	0.226145
479.594591	0.214355
479.964194	0.217710
480.333739	0.219115
480.703226	0.220282
481.072653	0.218986
481.442022	0.214325
481.811333	0.211007
482.180584	0.214683
482.549777	0.219648
482.918912	0.222949
483.287988	0.222765
483.657005	0.222480
484.025964	0.228957
484.394864	0.226223
484.763706	0.226865
485.132489	0.231932
485.501213	0.232687
485.869879	0.231232
486.238487	0.234219
486.607036	0.232062
486.975527	0.236599
487.343959	0.232697
487.712333	0.231560
488.080648	0.233161
488.448905	0.232355
488.817104	0.233602
489.185244	0.228009
489.553326	0.224887
489.921350	0.214771
490.289315	0.197356
490.657222	0.192424
491.025070	0.193635
491.392861	0.195488
491.760593	0.201207
492.128267	0.207060
492.495883	0.212680
492.863440	0.218603
493.230939	0.225030
493.598380	0.226364
493.965763	0.228514
494.333088	0.230907
494.700354	0.232185
495.067563	0.231350
495.434713	0.234479
495.801805	0.232321
496.168839	0.233990
496.535815	0.235130
496.902733	0.235219
497.269593	0.236594
497.636395	0.234881
498.003139	0.234885
498.369825	0.237720
498.736453	0.234448
499.103023	0.235619
499.469535	0.235263
499.835989	0.235523
500.202385	0.236342
500.568723	0.239747
500.935003	0.234893
501.301226	0.238846
501.667390	0.233470
502.033497	0.231287
502.399546	0.234358
502.765537	0.236229
503.131470	0.234809
503.497345	0.231249
503.863163	0.239842
504.228923	0.232891
504.594625	0.231467
504.960269	0.236944
505.325856	0.232015
505.691385	0.236447
506.056856	0.233101
506.422270	0.232436
506.787625	0.235105
507.152924	0.232406
507.518164	0.232944
507.883347	0.234611
508.248472	0.236354
508.613540	0.231238
508.978550	0.234011
509.343503	0.234045
509.708398	0.231897
510.073236	0.229520
510.438016	0.229474
510.802738	0.230191
511.167403	0.229397
511.532010	0.231517
511.896561	0.226991
512.261053	0.225640
512.625488	0.227616
512.989866	0.227808
513.354186	0.228320
513.718449	0.230014
514.082655	0.226653
514.446803	0.228531
514.810894	0.226421
515.174927	0.229332
515.538904	0.228317
515.902822	0.225517
516.266684	0.227910
516.630488	0.228934
516.994235	0.227395
517.357925	0.226617
517.721558	0.224920
518.085133	0.224433
518.448651	0.224466
518.812112	0.226672
519.175516	0.226144
519.538863	0.223985
519.902152	0.225785
520.265385	0.222362
520.628560	0.224277
520.991678	0.224698
521.354739	0.223364
521.717743	0.224973
522.080690	0.225289
522.443580	0.222312
522.806413	0.223461
523.169189	0.222770
523.531908	0.221608
523.894569	0.224969
524.257174	0.225416
524.619722	0.222690
524.982213	0.223918
525.344647	0.222870
525.707025	0.223557
526.069345	0.221735
526.431608	0.223494
526.793815	0.221276
527.155964	0.225506
527.518057	0.224481
527.880093	0.225357
528.242072	0.224020
528.603995	0.226232
528.965860	0.227582
529.327669	0.226574
529.689421	0.227528
530.051117	0.228148
530.412755	0.226163
530.774337	0.228366
531.135862	0.228542
531.497331	0.227919
531.858743	0.230988
532.220098	0.227494
532.581396	0.230215
532.942638	0.230891
533.303824	0.231679
533.664953	0.231224
534.026025	0.233026
534.387040	0.230991
534.747999	0.230858
535.108902	0.229606
535.469748	0.234717
535.830537	0.232583
536.191270	0.233043
536.551947	0.232675
536.912567	0.232794
537.273131	0.234297
537.633638	0.234529
537.994089	0.235097
538.354483	0.235919
538.714821	0.233035
539.075103	0.232802
539.435328	0.233664
539.795497	0.237057
540.155609	0.233774
540.515665	0.231937
540.875665	0.237845
541.235609	0.236022
541.595496	0.236507
541.955328	0.233066
542.315102	0.235726
542.674821	0.236705
543.034483	0.236535
543.394090	0.236084
543.753640	0.238103
544.113134	0.233190
544.472571	0.236424
544.831953	0.233289
545.191278	0.237441
545.550548	0.236825
545.909761	0.233774
546.268918	0.234321
546.628019	0.232877
546.987064	0.235610
547.346053	0.237450
547.704986	0.235437
548.063863	0.235425
548.422684	0.235437
548.781449	0.237626
549.140158	0.235259
549.498811	0.237836
549.857408	0.241090
550.215949	0.236039
550.574434	0.238931
550.932864	0.236886
551.291237	0.235676
551.649555	0.236905
552.007817	0.236489
552.366022	0.237605
552.724173	0.237677
553.082267	0.237988
553.440305	0.235055
553.798288	0.239452
554.156215	0.235959
554.514086	0.236455
554.871902	0.239710
555.229661	0.238941
555.587365	0.239306
555.945014	0.242192
556.302606	0.238938
556.660143	0.241428
557.017625	0.237997
557.375050	0.240134
557.732421	0.237454
558.089735	0.239197
558.446994	0.239265
558.804197	0.238450
559.161345	0.238636
559.518437	0.241997
559.875474	0.239515
560.232455	0.238919
560.589381	0.240144
560.946251	0.240486
561.303065	0.237780
561.659825	0.239482
562.016528	0.240865
562.373177	0.243848
562.729770	0.240942
563.086307	0.243091
563.442789	0.240935
563.799216	0.243844
564.155587	0.242550
564.511904	0.243532
564.868164	0.243688
565.224370	0.243726
565.580520	0.245096
565.936615	0.245182
566.292654	0.248273
566.648638	0.245058
567.004567	0.246074
567.360441	0.246204
567.716260	0.248851
568.072023	0.246468
568.427732	0.247107
568.783385	0.249481
569.138982	0.247761
569.494525	0.247179
569.850013	0.250223
570.205445	0.248604
570.560823	0.251480
570.916145	0.253001
571.271412	0.251608
571.626625	0.252738
571.981782	0.253179
572.336884	0.254029
572.691931	0.254010
573.046923	0.255073
573.401860	0.256256
573.756743	0.257939
574.111570	0.257043
574.466342	0.257499
574.821059	0.256564
575.175722	0.259574
575.530330	0.259007
575.884882	0.259670
576.239380	0.261609
576.593823	0.262005
576.948211	0.261168
577.302544	0.264722
577.656823	0.264500
578.011047	0.264534
578.365216	0.264713
578.719330	0.266895
579.073389	0.266861
579.427394	0.267932
579.781344	0.269286
580.135239	0.270236
580.489080	0.270150
580.842866	0.273283
581.196597	0.272681
581.550273	0.271429
581.903895	0.272616
582.257463	0.270559
582.610975	0.274213
582.964434	0.273426
583.317837	0.276033
583.671186	0.276216
584.024481	0.276725
584.377721	0.278851
584.730906	0.279687
585.084037	0.278358
585.437113	0.280561
585.790135	0.280076
586.143103	0.283082
586.496016	0.284307
586.848874	0.281846
587.201679	0.282035
587.554428	0.285625
587.907124	0.284345
588.259765	0.284841
588.612352	0.285486
588.964884	0.289418
589.317362	0.288819
589.669786	0.288877
590.022155	0.287719
590.374470	0.286769
590.726731	0.288810
591.078937	0.293557
591.431090	0.289684
591.783188	0.293846
592.135232	0.294474
592.487222	0.294281
592.839157	0.292641
593.191038	0.294662
593.542866	0.296859
593.894639	0.300061
594.246358	0.298277
594.598022	0.297880
594.949633	0.301623
595.301190	0.302176
595.652692	0.301503
596.004141	0.297398
596.355535	0.305865
596.706876	0.306114
597.058162	0.308247
597.409395	0.305512
597.760573	0.303294
598.111698	0.306566
598.462768	0.307467
598.813785	0.308692
599.164748	0.309828
599.515657	0.309868
599.866511	0.313476
600.217312	0.308746
600.568060	0.313926
600.918753	0.310372
601.269392	0.311459
601.619978	0.314342
601.970510	0.312221
602.320988	0.311940
602.671412	0.309947
603.021783	0.312608
603.372100	0.313969
603.722363	0.313968
604.072572	0.314404
604.422728	0.314145
604.772830	0.316197
605.122878	0.315845
605.472872	0.316437
605.822813	0.314915
606.172701	0.317429
606.522534	0.314617
606.872314	0.314826
607.222041	0.315878
607.571714	0.313796
607.921333	0.315400
608.270899	0.315109
608.620411	0.311829
608.969870	0.315713
609.319276	0.315951
609.668627	0.315973
610.017926	0.314227
610.367171	0.312952
610.716362	0.313426
611.065500	0.313814
611.414585	0.312480
611.763616	0.313248
612.112594	0.313293
612.461518	0.312543
612.810389	0.310697
613.159207	0.313249
613.507971	0.314638
613.856682	0.310436
614.205340	0.312393
614.553945	0.308792
614.902496	0.312768
615.250994	0.310598
615.599439	0.311474
615.947830	0.311066
616.296169	0.311484
616.644454	0.311197
616.992686	0.311253
617.340864	0.309355
617.688990	0.312640
618.037063	0.309711
618.385082	0.311447
618.733048	0.308303
619.080961	0.310653
619.428821	0.309986
619.776628	0.309618
620.124382	0.311705
620.472083	0.311532
620.819731	0.311266
621.167326	0.315116
621.514868	0.314822
621.862357	0.319325
622.209793	0.318787
622.557176	0.320620
622.904506	0.322128
623.251783	0.324685
623.599007	0.326625
623.946179	0.325934
624.293297	0.328300
624.640363	0.331877
624.987376	0.332348
625.334336	0.334875
625.681243	0.337146
626.028097	0.337693
626.374899	0.339185
626.721647	0.339269
627.068343	0.342790
627.414987	0.343655
627.761577	0.345383
628.108115	0.343902
628.454600	0.349150
628.801032	0.346862
629.147412	0.348439
629.493739	0.349195
629.840014	0.351886
630.186236	0.349394
630.532405	0.354612
630.878521	0.352116
631.224585	0.354577
631.570597	0.358409
631.916556	0.356584
632.262462	0.356802
632.608316	0.359011
632.954117	0.359640
633.299866	0.360856
633.645562	0.361360
633.991206	0.365087
634.336797	0.368641
634.682336	0.370357
635.027823	0.372300
635.373257	0.372836
635.718639	0.376083
636.063968	0.375300
636.409245	0.381706
636.754470	0.381878
637.099642	0.384667
637.444762	0.387583
637.789829	0.386257
638.134845	0.390060
638.479808	0.391077
638.824719	0.390834
639.169577	0.394922
639.514383	0.393711
639.859137	0.397719
640.203839	0.398110
640.548489	0.398301
640.893086	0.399568
641.237632	0.401218
641.582125	0.400089
641.926566	0.401208
642.270955	0.401612
642.615292	0.401519
642.959576	0.401247
643.303809	0.401558
643.647990	0.400949
643.992118	0.401628
644.336195	0.405368
644.680219	0.403287
645.024192	0.403944
645.368112	0.398174
645.711981	0.396974
646.055797	0.391770
646.399562	0.394927
646.743274	0.386874
647.086935	0.384165
647.430544	0.383950
647.774101	0.383436
648.117606	0.382822
648.461059	0.383076
648.804460	0.385292
649.147810	0.390926
649.491108	0.392673
649.834354	0.393872
650.177548	0.399053
650.520690	0.404437
650.863781	0.405898
651.206820	0.405334
651.549807	0.410013
651.892742	0.413766
652.235626	0.413653
652.578458	0.414237
652.921238	0.420434
653.263967	0.418021
653.606644	0.422107
653.949269	0.422390
654.291843	0.425807
654.634365	0.422245
654.976836	0.425769
655.319255	0.425772
655.661622	0.427518
656.003938	0.427565
656.346203	0.430607
656.688416	0.428644
657.030577	0.431665
657.372687	0.433995
657.714746	0.434495
658.056753	0.431837
658.398708	0.435495
658.740612	0.436629
659.082465	0.432474
659.424266	0.433678
659.766016	0.432637
660.107715	0.435308
660.449362	0.434534
660.790958	0.434908
661.132503	0.434907
661.473996	0.433269
661.815438	0.433645
662.156829	0.434560
662.498168	0.435410
662.839456	0.436280
663.180693	0.434092
663.521879	0.434849
663.863013	0.434304
664.204097	0.433754
664.545129	0.430373
664.886110	0.430692
665.227040	0.427655
665.567918	0.430379
665.908746	0.428693
666.249522	0.428325
666.590248	0.429292
666.930922	0.427733
667.271545	0.425986
667.612118	0.425924
667.952639	0.427943
668.293109	0.426522
668.633528	0.429526
668.973896	0.429497
669.314213	0.430033
669.654480	0.431745
669.994695	0.432115
670.334859	0.432489
670.674973	0.432979
671.015035	0.433027
671.355047	0.432998
671.695008	0.434521
672.034918	0.436153
672.374777	0.435377
672.714585	0.436372
673.054342	0.436301
673.394049	0.436062
673.733705	0.433820
674.073310	0.434663
674.412864	0.438231
674.752368	0.439123
675.091820	0.439063
675.431223	0.443570
675.770574	0.442804
676.109875	0.445761
676.449125	0.446065
676.788324	0.448274
677.127473	0.454232
677.466571	0.453852
677.805619	0.455219
678.144616	0.455750
678.483562	0.458172
678.822458	0.460818
679.161303	0.461335
679.500098	0.461873
679.838842	0.463728
680.177535	0.463005
680.516179	0.461497
680.854771	0.460650
681.193314	0.454743
681.531805	0.445679
681.870247	0.433722
682.208638	0.426518
682.546978	0.425487
682.885268	0.426928
683.223508	0.433400
683.561697	0.437086
683.899836	0.440221
684.237925	0.443222
684.575963	0.445224
684.913951	0.448757
685.251889	0.444719
685.589776	0.446206
685.927614	0.449717
686.265401	0.443014
686.603137	0.444713
686.940824	0.438948
687.278460	0.437527
687.616046	0.436476
687.953582	0.431088
688.291068	0.432200
688.628504	0.428417
688.965889	0.430548
689.303224	0.434472
689.640510	0.438189
689.977745	0.444324
690.314930	0.451913
690.652065	0.456639
690.989150	0.464483
691.326185	0.470734
691.663170	0.475720
692.000105	0.482381
692.336990	0.489453
692.673825	0.492039
693.010610	0.499390
693.347345	0.504382
693.684030	0.506370
694.020665	0.510639
694.357251	0.519361
694.693786	0.518982
695.030272	0.522856
695.366707	0.526925
695.703093	0.529925
696.039429	0.528258
696.375716	0.530208
696.711952	0.532288
697.048139	0.534907
697.384276	0.536057
697.720363	0.534562
698.056400	0.534175
698.392388	0.539786
698.728326	0.542505
699.064214	0.545121
699.400053	0.545762
699.735842	0.549708
700.071581	0.552476
700.407270	0.555164
700.742910	0.557394
701.078501	0.564375
701.414042	0.563992
701.749533	0.567457
702.084974	0.576462
702.420366	0.568731
702.755709	0.576410
703.091002	0.584327
703.426246	0.577330
703.761440	0.583212
704.096584	0.588617
704.431679	0.584752
704.766725	0.587822
705.101721	0.589328
705.436668	0.584936
705.771565	0.592794
706.106413	0.588677
706.441212	0.583989
706.775961	0.582864
707.110661	0.585231
707.445311	0.582502
707.779913	0.579196
708.114465	0.577792
708.448967	0.574655
708.783421	0.566156
709.117825	0.561396
709.452180	0.562027
709.786485	0.554235
710.120742	0.544888
710.454949	0.546824
710.789107	0.538819
711.123216	0.529513
711.457275	0.531071
711.791286	0.522465
712.125247	0.521274
712.459159	0.532287
712.793023	0.524347
713.126837	0.528975
713.460602	0.529418
713.794318	0.538387
714.127985	0.537496
714.461602	0.547041
714.795171	0.550927
715.128691	0.558660
715.462162	0.566235
715.795584	0.571217
716.128957	0.574935
716.462281	0.580608
716.795556	0.584912
717.128782	0.590092
717.461960	0.599518
717.795088	0.597595
718.128167	0.604419
718.461198	0.612446
718.794180	0.613447
719.127113	0.616688
719.459997	0.619974
719.792833	0.625647
720.125619	0.627120
720.458357	0.633071
720.791046	0.631860
721.123686	0.636532
721.456278	0.643208
721.788821	0.640129
722.121315	0.644488
722.453761	0.649189
722.786158	0.646510
723.118506	0.643098
723.450805	0.651113
723.783056	0.647079
724.115259	0.643781
724.447412	0.644889
724.779518	0.645487
725.111574	0.644508
725.443582	0.640081
725.775542	0.641087
726.107453	0.633829
726.439315	0.633146
726.771129	0.632274
727.102895	0.625476
727.434612	0.618834
727.766281	0.616162
728.097901	0.615543
728.429473	0.615348
728.760996	0.613427
729.092471	0.614254
729.423897	0.617646
729.755276	0.617435
730.086606	0.617039
730.417887	0.611030
730.749120	0.601840
731.080305	0.592848
731.411442	0.589042
731.742530	0.593433
732.073570	0.593051
732.404562	0.585477
732.735506	0.586594
733.066401	0.591843
733.397249	0.600416
733.728048	0.612053
734.058798	0.625005
734.389501	0.635119
734.720156	0.644609
735.050762	0.654038
735.381320	0.654443
735.711831	0.663533
736.042293	0.669101
736.372707	0.663957
736.703073	0.668618
737.033391	0.670297
737.363661	0.667241
737.693883	0.662783
738.024056	0.661600
738.354182	0.662766
738.684260	0.652139
739.014290	0.647948
739.344272	0.648404
739.674207	0.641476
740.004093	0.641401
740.333931	0.640889
740.663722	0.642252
740.993464	0.642111
741.323159	0.646172
741.652806	0.651522
741.982405	0.655962
742.311956	0.659740
742.641460	0.662230
742.970915	0.666225
743.300323	0.673544
743.629683	0.680672
743.958996	0.682698
744.288260	0.687022
744.617477	0.692144
744.946647	0.694701
745.275768	0.699409
745.604842	0.699054
745.933869	0.710019
746.262847	0.710085
746.591778	0.703902
746.920662	0.709582
747.249498	0.716068
747.578286	0.707546
747.907027	0.703219
748.235720	0.704017
748.564365	0.698566
748.892963	0.698556
749.221514	0.701623
749.550017	0.707178
749.878473	0.706078
750.206881	0.712908
750.535242	0.714884
750.863555	0.714229
751.191821	0.715465
751.520039	0.718356
751.848210	0.723310
752.176334	0.715933
752.504411	0.714154
752.832440	0.722649
753.160421	0.725934
753.488356	0.724894
753.816243	0.722718
754.144082	0.730660
754.471875	0.734947
754.799620	0.730079
755.127318	0.731649
755.454969	0.731430
755.782572	0.730485
756.110129	0.735870
756.437638	0.737543
756.765100	0.735342
757.092515	0.732839
757.419882	0.731373
757.747203	0.737030
758.074477	0.736167
758.401703	0.733611
758.728882	0.728883
759.056014	0.726719
759.383099	0.726403
759.710138	0.727711
760.037129	0.723394
760.364073	0.718402
760.690970	0.720263
761.017820	0.725968
761.344623	0.721918
761.671379	0.712347
761.998088	0.700213
762.324751	0.678281
762.651366	0.635977
762.977935	0.569025
763.304456	0.516399
763.630931	0.507386
763.957359	0.546224
764.283740	0.591217
764.610074	0.617905
764.936362	0.649280
765.262602	0.676283
765.588796	0.697878
765.914943	0.715681
766.241044	0.733385
766.567097	0.739803
766.893104	0.749816
767.219064	0.756023
767.544978	0.762112
767.870845	0.776640
768.196665	0.781333
768.522438	0.778572
768.848165	0.779655
769.173846	0.788792
769.499479	0.793084
769.825066	0.795944
770.150607	0.801867
770.476101	0.796613
770.801548	0.796997
771.126949	0.808893
771.452303	0.813502
771.777611	0.813313
772.102872	0.812102
772.428087	0.816636
772.753256	0.820256
773.078378	0.822528
773.403453	0.831409
773.728482	0.835201
774.053465	0.829076
774.378401	0.832140
774.703291	0.840314
775.028135	0.840812
775.352932	0.842535
775.677683	0.845202
776.002388	0.845477
776.327046	0.844385
776.651658	0.848555
776.976224	0.852259
777.300743	0.851550
777.625216	0.854031
777.949643	0.855765
778.274024	0.856480
778.598359	0.857312
778.922647	0.855382
779.246889	0.856689
779.571086	0.859561
779.895236	0.862520
780.219339	0.859636
780.543397	0.856908
780.867409	0.855566
781.191374	0.858185
781.515294	0.858842
781.839167	0.858747
782.162995	0.861804
782.486776	0.858229
782.810511	0.859557
783.134201	0.862747
783.457844	0.861694
783.781441	0.862821
784.104993	0.869596
784.428498	0.869382
784.751958	0.865102
785.075372	0.867786
785.398739	0.872323
785.722061	0.867501
786.045337	0.862993
786.368568	0.868206
786.691752	0.871011
787.014891	0.856359
787.337983	0.848423
787.661030	0.839947
787.984031	0.822373
788.306987	0.809140
788.629897	0.811023
788.952760	0.815321
789.275579	0.819867
789.598351	0.835846
789.921078	0.848704
790.243759	0.850091
790.566395	0.856173
790.888984	0.862839
791.211529	0.867467
791.534027	0.870646
791.856480	0.873378
792.178888	0.877543
792.501249	0.881345
792.823566	0.881865
793.145836	0.882155
793.468062	0.883525
793.790241	0.884673
794.112375	0.881939
794.434464	0.876965
794.756507	0.876136
795.078505	0.876121
795.400457	0.871798
795.722364	0.858558
796.044226	0.852566
796.366042	0.851379
796.687812	0.854856
797.009538	0.850847
797.331218	0.853267
797.652852	0.858684
797.974442	0.863469
798.295986	0.863647
798.617484	0.865890
798.938938	0.870089
799.260346	0.874348
799.581709	0.876221
799.903026	0.878813
800.224299	0.880139
800.545526	0.882700
800.866708	0.886877
801.187845	0.891300
801.508936	0.891112
801.829983	0.889848
802.150984	0.892274
802.471940	0.896109
802.792851	0.896830
803.113717	0.897271
803.434538	0.895338
803.755314	0.898012
804.076045	0.898553
804.396731	0.899250
804.717372	0.899460
805.037967	0.900562
805.358518	0.898613
805.679024	0.896917
805.999485	0.895242
806.319901	0.895705
806.640272	0.897915
806.960598	0.896056
807.280879	0.893108
807.601115	0.891590
807.921306	0.895274
808.241453	0.894960
808.561554	0.892208
808.881611	0.893510
809.201623	0.895381
809.521590	0.895445
809.841513	0.895830
810.161390	0.895915
810.481223	0.897539
810.801011	0.901155
811.120755	0.901686
811.440453	0.900628
811.760107	0.899907
812.079716	0.899356
812.399281	0.902839
812.718801	0.904781
813.038276	0.906281
813.357707	0.906238
813.677093	0.902631
813.996434	0.906288
814.315731	0.908497
814.634983	0.908550
814.954191	0.907685
815.273354	0.903976
815.592473	0.900162
815.911547	0.899830
816.230577	0.898258
816.549562	0.895933
816.868502	0.896171
817.187399	0.892370
817.506250	0.886277
817.825058	0.889468
818.143821	0.885706
818.462539	0.879310
818.781213	0.872023
819.099843	0.860791
819.418429	0.845213
819.736970	0.827584
820.055466	0.808692
820.373919	0.782222
820.692327	0.748990
821.010691	0.713609
821.329011	0.635471
821.647286	0.519100
821.965517	0.404998
822.283704	0.362375
822.601847	0.362844
822.919945	0.398245
823.237999	0.432790
823.556010	0.479911
823.873976	0.536269
824.191897	0.587312
824.509775	0.630278
824.827609	0.676003
825.145398	0.698743
825.463144	0.701857
825.780845	0.684062
826.098502	0.666262
826.416116	0.619705
826.733685	0.575024
827.051210	0.566271
827.368692	0.581081
827.686129	0.618972
828.003522	0.672400
828.320872	0.719797
828.638177	0.764715
828.955439	0.797313
829.272656	0.819119
829.589830	0.837663
829.906960	0.852622
830.224046	0.865316
830.541088	0.876352
830.858086	0.879974
831.175041	0.886741
831.491952	0.885402
831.808819	0.882470
832.125642	0.876165
832.442421	0.860913
832.759157	0.838160
833.075849	0.791392
833.392497	0.727970
833.709101	0.686091
834.025662	0.696226
834.342179	0.728055
834.658653	0.767357
834.975083	0.803583
835.291469	0.830179
835.607811	0.852943
835.924110	0.869412
836.240366	0.886594
836.556578	0.899953
836.872746	0.907381
837.188871	0.914090
837.504952	0.919133
837.820990	0.922950
838.136984	0.926171
838.452935	0.930232
838.768842	0.930242
839.084706	0.923403
839.400526	0.898060
839.716303	0.856991
840.032037	0.834028
840.347727	0.838912
840.663373	0.856921
840.978977	0.878311
841.294537	0.902032
841.610054	0.917975
841.925527	0.924556
842.240957	0.932301
842.556344	0.939245
842.871687	0.945181
843.186987	0.948917
843.502244	0.949643
843.817458	0.950461
844.132629	0.954165
844.447756	0.959656
844.762840	0.959026
845.077881	0.959421
845.392879	0.959784
845.707833	0.962772
846.022745	0.964335
846.337613	0.965287
846.652438	0.964792
846.967221	0.964654
847.281960	0.965479
847.596656	0.966352
847.911309	0.965226
848.225919	0.967288
848.540485	0.967036
848.855009	0.968746
849.169490	0.968376
849.483928	0.968820
849.798323	0.968895
850.112675	0.969413
850.426984	0.968267
850.741251	0.969997
851.055474	0.970944
851.369654	0.967190
851.683792	0.968962
851.997887	0.970404
852.311938	0.970681
852.625947	0.968766
852.939914	0.967693
853.253837	0.968607
853.567718	0.971023
853.881555	0.970551
854.195350	0.967602
854.509103	0.969131
854.822812	0.970838
855.136479	0.969728
855.450103	0.969781
855.763685	0.968063
856.077224	0.967968
856.390720	0.969729
856.704173	0.969457
857.017584	0.968320
857.330953	0.965716
857.644278	0.967711
857.957561	0.968324
858.270802	0.968253
858.584000	0.967068
858.897155	0.966594
859.210268	0.966644
859.523339	0.967952
859.836367	0.969409
860.149352	0.969386
860.462295	0.967747
860.775195	0.968581
861.088054	0.969947
861.400869	0.969632
861.713642	0.970432
862.026373	0.969864
862.339062	0.970402
862.651708	0.968367
862.964312	0.966717
863.276873	0.968811
863.589392	0.968098
863.901869	0.966364
864.214303	0.963844
864.526696	0.962836
864.839045	0.963869
865.151353	0.961302
865.463619	0.961740
865.775842	0.961871
866.088023	0.961426
866.400162	0.961539
866.712258	0.962004
867.024313	0.962038
867.336325	0.962300
867.648296	0.963455
867.960224	0.961265
868.272110	0.960718
868.583954	0.963353
868.895755	0.962804
869.207515	0.960680
869.519233	0.958649
869.830909	0.960641
870.142542	0.962012
870.454134	0.960842
870.765684	0.959847
871.077191	0.957806
871.388657	0.958177
871.700081	0.956784
872.011463	0.958143
872.322803	0.957105
872.634101	0.954711
872.945357	0.954121
873.256571	0.951902
873.567744	0.952151
873.878874	0.953485
874.189963	0.951578
874.501010	0.948753
874.812015	0.948720
875.122979	0.950748
875.433900	0.952754
875.744780	0.952113
876.055618	0.950102
876.366415	0.949329
876.677169	0.949383
876.987882	0.950997
877.298554	0.950329
877.609183	0.947629
877.919771	0.944618
878.230317	0.942532
878.540822	0.940655
878.851285	0.933295
879.161707	0.925863
879.472087	0.914448
879.782425	0.897174
880.092722	0.861589
880.402977	0.809782
880.713191	0.748178
881.023363	0.687058
881.333494	0.652932
881.643583	0.625118
881.953631	0.624762
882.263637	0.653263
882.573602	0.693238
882.883526	0.719298
883.193408	0.743517
883.503248	0.766916
883.813048	0.794761
884.122806	0.824235
884.432522	0.848141
884.742197	0.868632
885.051831	0.878613
885.361424	0.889829
885.670975	0.901810
885.980485	0.911541
886.289954	0.917558
886.599382	0.924221
886.908768	0.927126
887.218113	0.931751
887.527417	0.938280
887.836680	0.941063
888.145901	0.942864
888.455082	0.946098
888.764221	0.948766
889.073319	0.952243
889.382376	0.953051
889.691392	0.951646
890.000366	0.952695
890.309300	0.953970
890.618193	0.952774
890.927044	0.950232
891.235855	0.949851
891.544625	0.951092
891.853353	0.950187
892.162041	0.947616
892.470687	0.942322
892.779293	0.936670
893.087858	0.932657
893.396381	0.924978
893.704864	0.911431
894.013306	0.886747
894.321707	0.860043
894.630068	0.844145
894.938387	0.839571
895.246665	0.841573
895.554903	0.853488
895.863100	0.867759
896.171256	0.885061
896.479371	0.904163
896.787446	0.918109
897.095480	0.923496
897.403473	0.926445
897.711425	0.931400
898.019336	0.937402
898.327207	0.942456
898.635038	0.944114
898.942827	0.943869
899.250576	0.947698
899.558284	0.951518
899.865952	0.953144
900.173579	0.954356
900.481165	0.955593
900.788711	0.959050
901.096216	0.960603
901.403681	0.960765
901.711105	0.961114
902.018489	0.963676
902.325832	0.961586
902.633135	0.960708
902.940397	0.953766
903.247619	0.942113
903.554800	0.916683
903.861941	0.875742
904.169041	0.839739
904.476101	0.821300
904.783121	0.822354
905.090100	0.838957
905.397039	0.860127
905.703938	0.883512
906.010796	0.903977
906.317614	0.920964
906.624391	0.932981
906.931129	0.942302
907.237826	0.950057
907.544483	0.958682
907.851099	0.962145
908.157675	0.967283
908.464211	0.969695
908.770707	0.970987
909.077163	0.973950
909.383578	0.973889
909.689954	0.974684
909.996289	0.974979
910.302584	0.977567
910.608839	0.980031
910.915054	0.978131
911.221229	0.978515
911.527363	0.975927
911.833458	0.976238
912.139513	0.976810
912.445527	0.975287
912.751502	0.972847
913.057436	0.972606
913.363331	0.969537
913.669186	0.964899
913.975000	0.960758
914.280775	0.953768
914.586510	0.946716
914.892205	0.933161
915.197859	0.912739
915.503475	0.883846
915.809050	0.864919
916.114585	0.857722
916.420081	0.854945
916.725536	0.852583
917.030952	0.861213
917.336328	0.873041
917.641665	0.889012
917.946961	0.903993
918.252218	0.917062
918.557435	0.925965
918.862612	0.934939
919.167750	0.940778
919.472848	0.946065
919.777906	0.951507
920.082925	0.957290
920.387904	0.961143
920.692843	0.961831
920.997743	0.962101
921.302603	0.966070
921.607423	0.969122
921.912204	0.970973
922.216946	0.971800
922.521647	0.973074
922.826310	0.973613
923.130932	0.976889
923.435516	0.977292
923.740059	0.978933
924.044564	0.976541
924.349028	0.980050
924.653454	0.982367
924.957840	0.984439
925.262186	0.984369
925.566493	0.983394
925.870761	0.984563
926.174989	0.985798
926.479178	0.987795
926.783328	0.987727
927.087438	0.987528
927.391509	0.987330
927.695541	0.990256
927.999533	0.990333
928.303486	0.989434
928.607400	0.990853
928.911275	0.988958
929.215110	0.990244
929.518906	0.990986
929.822663	0.989730
930.126381	0.991034
930.430060	0.990090
930.733699	0.990061
931.037299	0.989377
931.340861	0.990816
931.644383	0.989113
931.947866	0.989714
932.251309	0.990337
932.554714	0.989961
932.858080	0.990203
933.161407	0.990131
933.464694	0.991883
933.767943	0.987994
934.071153	0.990712
934.374323	0.992101
934.677455	0.991843
934.980548	0.992260
935.283602	0.990704
935.586617	0.990674
935.889593	0.991368
936.192530	0.991147
936.495428	0.990924
936.798287	0.989508
937.101108	0.989701
937.403890	0.987630
937.706632	0.988175
938.009336	0.986252
938.312002	0.985742
938.614628	0.983899
938.917216	0.982454
939.219765	0.981611
939.522275	0.982231
939.824747	0.982328
940.127179	0.982869
940.429573	0.983421
940.731929	0.983745
941.034246	0.984321
941.336524	0.984621
941.638763	0.985512
941.940964	0.985344
942.243126	0.985976
942.545250	0.986123
942.847335	0.987769
943.149381	0.987951
943.451389	0.988847
943.753359	0.988870
944.055290	0.989647
944.357182	0.989694
944.659036	0.987754
944.960851	0.989493
945.262628	0.990244
945.564367	0.990554
945.866067	0.989090
946.167729	0.989534
946.469352	0.989740
946.770937	0.988149
947.072484	0.991518
947.373992	0.989305
947.675462	0.989986
947.976893	0.989505
948.278286	0.989877
948.579641	0.991517
948.880958	0.990416
949.182236	0.991232
949.483476	0.991431
949.784678	0.990115
950.085841	0.991245
950.386967	0.990534
950.688054	0.990903
950.989103	0.991293
951.290114	0.988796
951.591087	0.988928
951.892021	0.990638
952.192917	0.989277
952.493776	0.987576
952.794596	0.987267
953.095378	0.987433
953.396122	0.987915
953.696828	0.986185
953.997496	0.989069
954.298126	0.991060
954.598718	0.989852
954.899272	0.991596
955.199788	0.990190
955.500266	0.992207
955.800706	0.993238
956.101108	0.991981
956.401472	0.993076
956.701798	0.993824
957.002087	0.993767
957.302337	0.993624
957.602550	0.995725
957.902724	0.994368
958.202861	0.994447
958.502960	0.995270
958.803022	0.994903
959.103045	0.996284
959.403031	0.995917
959.702979	0.995639
960.002889	0.996081
960.302762	0.993877
960.602596	0.995189
960.902393	0.994593
961.202153	0.997005
961.501875	0.996601
961.801559	0.994963
962.101205	0.996247
962.400814	0.996489
962.700385	0.996429
962.999918	0.996200
963.299414	0.996426
963.598873	0.995425
963.898293	0.995855
964.197677	0.996231
964.497022	0.997325
964.796331	0.997946
965.095601	0.996421
965.394835	0.996699
965.694030	0.996852
965.993189	0.998056
966.292309	0.995256
966.591393	0.996810
966.890439	0.997499
967.189447	0.997497
967.488419	0.997357
967.787353	0.996426
968.086249	0.997230
968.385108	0.997052
968.683930	0.996058
968.982714	0.997698
969.281462	0.996858
969.580172	0.996751
969.878844	0.996563
970.177480	0.997486
970.476078	0.997300
970.774639	0.996193
971.073162	0.997496
971.371649	0.996828
971.670098	0.997002
971.968510	0.997708
972.266885	0.996081
972.565223	0.996535
972.863524	0.996408
973.161788	0.996356
973.460014	0.997167
973.758204	0.995237
974.056356	0.995700
974.354471	0.994823
974.652550	0.996549
974.950591	0.996246
975.248595	0.995815
975.546563	0.997183
975.844493	0.997688
976.142386	0.996343
976.440243	0.996829
976.738062	0.997054
977.035845	0.998233
977.333590	0.996899
977.631299	0.998254
977.928971	0.997182
978.226606	0.996781
978.524204	0.996141
978.821765	0.998256
979.119290	0.996406
979.416777	0.995934
979.714228	0.996607
980.011642	0.996660
980.309020	0.997373
980.606360	0.996321
980.903664	0.998538
981.200931	0.997145
981.498162	0.995377
981.795356	0.994951
982.092513	0.993975
982.389633	0.994937
982.686717	0.990998
982.983764	0.991752
983.280775	0.989797
983.577749	0.989272
983.874686	0.991500
984.171587	0.991557
984.468451	0.993766
984.765279	0.995292
985.062070	0.993387
985.358824	0.995146
985.655543	0.995243
985.952224	0.996284
986.248869	0.996653
986.545478	0.997033
986.842050	0.998734
987.138586	0.994954
987.435086	0.997723
987.731549	0.997431
988.027975	0.999007
988.324366	0.997780
988.620719	0.997178
988.917037	0.996670
989.213318	0.998584
989.509563	0.998027
989.805772	0.998342
990.101944	0.998675
990.398080	0.997450
990.694180	0.997337
990.990244	0.997737
991.286271	0.998511
991.582262	0.998389
991.878217	0.998858
992.174136	0.999798
992.470019	0.998180
992.765865	0.997643
993.061676	0.998020
993.357450	0.997828
993.653188	0.997015
993.948890	0.997300
994.244556	0.997877
994.540186	0.996759
994.835780	0.996419
995.131337	0.997638
995.426859	0.995619
995.722345	0.998618
996.017795	0.996916
996.313208	0.997021
996.608586	0.996177
996.903928	0.996539
997.199234	0.996738
997.494504	0.996444
997.789738	0.995545
998.084936	0.997542
998.380099	0.997287
998.675225	0.997681
998.970316	0.997191
999.265371	0.997780
999.560390	0.998448
999.855373	0.999007
1000.150320	0.998489
1000.445232	0.998405
1000.740108	0.997785
1001.034948	0.999459
1001.329752	0.998483
1001.624521	0.999319
1001.919254	0.999623
1002.213951	0.998511
1002.508613	0.998642
1002.803239	0.998724
1003.097829	0.999399
1003.392384	0.998589
1003.686903	0.999561
1003.981386	0.997876
1004.275834	0.999518
1004.570246	0.997872
1004.864623	0.999078
1005.158964	0.999477
1005.453270	0.998101
1005.747540	0.997828
1006.041775	0.997432
1006.335974	0.999850
1006.630138	0.998668
1006.924266	0.999502
1007.218359	1.000277
1007.512416	0.999511
1007.806438	0.998542
1008.100425	0.999150
1008.394376	0.998731
1008.688292	0.997967
1008.982172	1.001859
1009.276017	0.999427
1009.569827	0.998866
1009.863602	0.998834
1010.157341	0.998925
1010.451045	1.000241
1010.744714	0.999288
1011.038347	0.998704
1011.331945	0.998111
1011.625508	0.997047
1011.919036	0.998821
1012.212528	0.998540
1012.505986	0.997242
1012.799408	0.998591
1013.092795	0.999671
1013.386147	0.998307
1013.679464	0.998862
1013.972745	0.998534
1014.265992	0.998528
1014.559204	0.998893
1014.852380	0.999433
1015.145521	0.999637
1015.438628	0.998917
1015.731699	0.998854
1016.024736	0.998534
1016.317737	0.999533
1016.610703	0.998516
1016.903635	0.999503
1017.196531	0.999197
1017.489393	0.999523
1017.782219	0.999288
1018.075011	0.999345
1018.367768	0.999636
1018.660490	1.000028
1018.953177	1.000028
1019.245829	1.000028
