Dividing Wavelength (nm)	Counts (n)	Blue Motor Position (mm): 0.000000	Red Motor Position (mm): 10.200000	
326.493990	1.001750
326.888308	1.001750
327.282561	1.001750
327.676750	0.998148
328.070874	0.999942
328.464933	1.001457
328.858929	0.998769
329.252859	0.998608
329.646726	0.999498
330.040528	1.000671
330.434265	0.998741
330.827938	1.002052
331.221547	1.001378
331.615091	0.999771
332.008571	0.999943
332.401986	1.000138
332.795338	0.999894
333.188625	0.998001
333.581847	1.001386
333.975006	0.999260
334.368100	1.000036
334.761129	0.999539
335.154095	1.000168
335.546996	0.997825
335.939833	0.993395
336.332606	0.993037
336.725315	0.993623
337.117960	0.994805
337.510540	0.993524
337.903056	0.994526
338.295508	0.992991
338.687896	0.993984
339.080220	0.993807
339.472480	0.993731
339.864676	0.994235
340.256807	0.994640
340.648875	0.994929
341.040879	0.993261
341.432818	0.992749
341.824694	0.992806
342.216506	0.994927
342.608253	0.993691
342.999937	0.992833
343.391557	0.994019
343.783113	0.994216
344.174605	0.993325
344.566033	0.993366
344.957397	0.991632
345.348697	0.993205
345.739934	0.993879
346.131106	0.993029
346.522215	0.992474
346.913260	0.993659
347.304241	0.994281
347.695159	0.992535
348.086012	0.993976
348.476802	0.994022
348.867528	0.993453
349.258191	0.991799
349.648789	0.994764
350.039324	0.993435
350.429796	0.993984
350.820203	0.993406
351.210548	0.993104
351.600828	0.993670
351.991045	0.993236
352.381198	0.992577
352.771288	0.993111
353.161314	0.993009
353.551276	0.994175
353.941175	0.993628
354.331010	0.991568
354.720782	0.994758
355.110490	0.991772
355.500135	0.994445
355.889717	0.993516
356.279235	0.993375
356.668689	0.993000
357.058080	0.993970
357.447408	0.994378
357.836672	0.993016
358.225873	0.993647
358.615010	0.993826
359.004084	0.993747
359.393095	0.994326
359.782043	0.993334
360.170927	0.993725
360.559748	0.994531
360.948505	0.993171
361.337199	0.992805
361.725830	0.994471
362.114398	0.991844
362.502903	0.994108
362.891344	0.992228
363.279722	0.992000
363.668037	0.992129
364.056289	0.993315
364.444478	0.992120
364.832603	0.992885
365.220665	0.992717
365.608665	0.992908
365.996601	0.993673
366.384474	0.992593
366.772284	0.992622
367.160031	0.990905
367.547715	0.991576
367.935336	0.992087
368.322893	0.990883
368.710388	0.992257
369.097820	0.992555
369.485189	0.991496
369.872495	0.991794
370.259738	0.989685
370.646918	0.992406
371.034035	0.993493
371.421090	0.992425
371.808081	0.991386
372.195010	0.992040
372.581875	0.992054
372.968678	0.990961
373.355418	0.992902
373.742096	0.992125
374.128710	0.993128
374.515262	0.990631
374.901751	0.992317
375.288177	0.993154
375.674540	0.993501
376.060841	0.991408
376.447079	0.992291
376.833254	0.991941
377.219367	0.991332
377.605417	0.991822
377.991404	0.991567
378.377329	0.989530
378.763191	0.991541
379.148991	0.991592
379.534727	0.991564
379.920402	0.990355
380.306013	0.989136
380.691563	0.987654
381.077049	0.985379
381.462474	0.985187
381.847835	0.981443
382.233134	0.979020
382.618371	0.977265
383.003545	0.974491
383.388657	0.970333
383.773706	0.966948
384.158693	0.963155
384.543618	0.957301
384.928480	0.953303
385.313280	0.947550
385.698017	0.943721
386.082692	0.936635
386.467305	0.930978
386.851856	0.924691
387.236344	0.918331
387.620770	0.910126
388.005133	0.904067
388.389435	0.896221
388.773674	0.888385
389.157851	0.879021
389.541965	0.871062
389.926018	0.867665
390.310008	0.855498
390.693936	0.846479
391.077802	0.835816
391.461606	0.829419
391.845348	0.815863
392.229027	0.810260
392.612645	0.800718
392.996200	0.786208
393.379694	0.774198
393.763125	0.761804
394.146494	0.756488
394.529801	0.742066
394.913047	0.730381
395.296230	0.727005
395.679351	0.713851
396.062410	0.703493
396.445408	0.700145
396.828343	0.689060
397.211217	0.679487
397.594028	0.684359
397.976778	0.668971
398.359466	0.661879
398.742092	0.651245
399.124656	0.658441
399.507158	0.643915
399.889598	0.637302
400.271977	0.624997
400.654294	0.625289
401.036549	0.620769
401.418742	0.622156
401.800874	0.604707
402.182944	0.599880
402.564952	0.588633
402.946898	0.589838
403.328783	0.586453
403.710606	0.596369
404.092367	0.570583
404.474067	0.573829
404.855705	0.571414
405.237282	0.579507
405.618797	0.564360
406.000250	0.558966
406.381642	0.549446
406.762972	0.552607
407.144240	0.551731
407.525447	0.551124
407.906593	0.543606
408.287677	0.538313
408.668700	0.546933
409.049661	0.540253
409.430560	0.535080
409.811399	0.544174
410.192176	0.525732
410.572891	0.532227
410.953545	0.520448
411.334138	0.532936
411.714669	0.526604
412.095139	0.537247
412.475547	0.522986
412.855894	0.524360
413.236180	0.523514
413.616405	0.528794
413.996568	0.519647
414.376670	0.524797
414.756711	0.529406
415.136691	0.526157
415.516609	0.518186
415.896466	0.514206
416.276262	0.510159
416.655997	0.512343
417.035670	0.493541
417.415283	0.485752
417.794834	0.490556
418.174324	0.495509
418.553753	0.504829
418.933121	0.486543
419.312428	0.480553
419.691674	0.486247
420.070859	0.475191
420.449983	0.482900
420.829045	0.472466
421.208047	0.480873
421.586988	0.474695
421.965867	0.473051
422.344686	0.462391
422.723444	0.474565
423.102141	0.491094
423.480777	0.464665
423.859352	0.484841
424.237866	0.461967
424.616319	0.462935
424.994712	0.454063
425.373044	0.464362
425.751314	0.452380
426.129524	0.468965
426.507673	0.452541
426.885762	0.446474
427.263789	0.452126
427.641756	0.461086
428.019662	0.451026
428.397508	0.449914
428.775292	0.454421
429.153016	0.446409
429.530679	0.453579
429.908282	0.446480
430.285824	0.456369
430.663305	0.434134
431.040726	0.455720
431.418086	0.456257
431.795385	0.447502
432.172624	0.446250
432.549802	0.447348
432.926920	0.445427
433.303977	0.445089
433.680974	0.442916
434.057910	0.441225
434.434786	0.440645
434.811601	0.442847
435.188355	0.425030
435.565050	0.434461
435.941683	0.436128
436.318257	0.420437
436.694770	0.420836
437.071222	0.419267
437.447614	0.423731
437.823946	0.430020
438.200218	0.419620
438.576429	0.428822
438.952580	0.422206
439.328670	0.419366
439.704700	0.425804
440.080670	0.427132
440.456580	0.407695
440.832429	0.415445
441.208218	0.426802
441.583947	0.415718
441.959616	0.415379
442.335224	0.420550
442.710773	0.411348
443.086261	0.409381
443.461689	0.423149
443.837057	0.413523
444.212365	0.403099
444.587612	0.409742
444.962800	0.400164
445.337927	0.401329
445.712995	0.427468
446.088002	0.390228
446.462949	0.400556
446.837837	0.404197
447.212664	0.394164
447.587431	0.385417
447.962139	0.356211
448.336786	0.315520
448.711374	0.325685
449.085901	0.369563
449.460369	0.374045
449.834776	0.377216
450.209124	0.356829
450.583412	0.349392
450.957640	0.342303
451.331808	0.353662
451.705917	0.376696
452.079965	0.381471
452.453954	0.370199
452.827883	0.376950
453.201752	0.371794
453.575562	0.382887
453.949311	0.371250
454.323001	0.377448
454.696632	0.373562
455.070202	0.366279
455.443713	0.358039
455.817164	0.352958
456.190556	0.348853
456.563888	0.345264
456.937160	0.343157
457.310373	0.360122
457.683526	0.358515
458.056619	0.364742
458.429653	0.365208
458.802628	0.368595
459.175542	0.362931
459.548398	0.345461
459.921194	0.338184
460.293930	0.337891
460.666607	0.315650
461.039224	0.304045
461.411782	0.299759
461.784280	0.299145
462.156719	0.303042
462.529099	0.307431
462.901419	0.323351
463.273680	0.327856
463.645882	0.327475
464.018024	0.333356
464.390106	0.326015
464.762130	0.310995
465.134094	0.293939
465.505999	0.263157
465.877845	0.233689
466.249631	0.220723
466.621358	0.228114
466.993026	0.242004
467.364634	0.247861
467.736184	0.256933
468.107674	0.265323
468.479105	0.264792
468.850477	0.271092
469.221790	0.277800
469.593043	0.288418
469.964238	0.293072
470.335373	0.292444
470.706449	0.291083
471.077467	0.291548
471.448425	0.253669
471.819324	0.229179
472.190164	0.228640
472.560945	0.257622
472.931667	0.279637
473.302330	0.283830
473.672934	0.295807
474.043479	0.283518
474.413965	0.285341
474.784393	0.288712
475.154761	0.283997
475.525070	0.280878
475.895321	0.286661
476.265513	0.281186
476.635645	0.276164
477.005719	0.276499
477.375734	0.272877
477.745691	0.266218
478.115588	0.262416
478.485427	0.256247
478.855207	0.243048
479.224928	0.225929
479.594591	0.213894
479.964194	0.217095
480.333739	0.218425
480.703226	0.219816
481.072653	0.218060
481.442022	0.214092
481.811333	0.210026
482.180584	0.214338
482.549777	0.219224
482.918912	0.222608
483.287988	0.222182
483.657005	0.221897
484.025964	0.228349
484.394864	0.225672
484.763706	0.226411
485.132489	0.231326
485.501213	0.231919
485.869879	0.230325
486.238487	0.233662
486.607036	0.231517
486.975527	0.235944
487.343959	0.231801
487.712333	0.231048
488.080648	0.232415
488.448905	0.231639
488.817104	0.232742
489.185244	0.227419
489.553326	0.224298
489.921350	0.214202
490.289315	0.196747
490.657222	0.191702
491.025070	0.193102
491.392861	0.194775
491.760593	0.200566
492.128267	0.206514
492.495883	0.211912
492.863440	0.217960
493.230939	0.224663
493.598380	0.225741
493.965763	0.228181
494.333088	0.230293
494.700354	0.231646
495.067563	0.230615
495.434713	0.234140
495.801805	0.232005
496.168839	0.233365
496.535815	0.234634
496.902733	0.234568
497.269593	0.236266
497.636395	0.234183
498.003139	0.234136
498.369825	0.237376
498.736453	0.233796
499.103023	0.235249
499.469535	0.234637
499.835989	0.234998
500.202385	0.235874
500.568723	0.239134
500.935003	0.234163
501.301226	0.238270
501.667390	0.232948
502.033497	0.230900
502.399546	0.233936
502.765537	0.235522
503.131470	0.234205
503.497345	0.230371
503.863163	0.239219
504.228923	0.232254
504.594625	0.230863
504.960269	0.236200
505.325856	0.231621
505.691385	0.235806
506.056856	0.232464
506.422270	0.231983
506.787625	0.234501
507.152924	0.231901
507.518164	0.232450
507.883347	0.233898
508.248472	0.235779
508.613540	0.230885
508.978550	0.233366
509.343503	0.233809
509.708398	0.231341
510.073236	0.228854
510.438016	0.229068
510.802738	0.229974
511.167403	0.229083
511.532010	0.231191
511.896561	0.226468
512.261053	0.225172
512.625488	0.227161
512.989866	0.227451
513.354186	0.227749
513.718449	0.229757
514.082655	0.225829
514.446803	0.228242
514.810894	0.225900
515.174927	0.228551
515.538904	0.228221
515.902822	0.224973
516.266684	0.227335
516.630488	0.228446
516.994235	0.227242
517.357925	0.225885
517.721558	0.224254
518.085133	0.224004
518.448651	0.224016
518.812112	0.225967
519.175516	0.225630
519.538863	0.223477
519.902152	0.224884
520.265385	0.221784
520.628560	0.223619
520.991678	0.223983
521.354739	0.223019
521.717743	0.224165
522.080690	0.224698
522.443580	0.221921
522.806413	0.222940
523.169189	0.222169
523.531908	0.220982
523.894569	0.224791
524.257174	0.224624
524.619722	0.222392
524.982213	0.223689
525.344647	0.222327
525.707025	0.223226
526.069345	0.221224
526.431608	0.222873
526.793815	0.221071
527.155964	0.224953
527.518057	0.224194
527.880093	0.225293
528.242072	0.223576
528.603995	0.225407
528.965860	0.227345
529.327669	0.226058
529.689421	0.226985
530.051117	0.227940
530.412755	0.225608
530.774337	0.227657
531.135862	0.228143
531.497331	0.227571
531.858743	0.230633
532.220098	0.227190
532.581396	0.229720
532.942638	0.229976
533.303824	0.231264
533.664953	0.230654
534.026025	0.232581
534.387040	0.230398
534.747999	0.230526
535.108902	0.229376
535.469748	0.234096
535.830537	0.232044
536.191270	0.232741
536.551947	0.232239
536.912567	0.232410
537.273131	0.233742
537.633638	0.234191
537.994089	0.234452
538.354483	0.235554
538.714821	0.232511
539.075103	0.232315
539.435328	0.232952
539.795497	0.236876
540.155609	0.233258
540.515665	0.231399
540.875665	0.237116
541.235609	0.235470
541.595496	0.235899
541.955328	0.232468
542.315102	0.234861
542.674821	0.235935
543.034483	0.235880
543.394090	0.235854
543.753640	0.237670
544.113134	0.232575
544.472571	0.235717
544.831953	0.232744
545.191278	0.237107
545.550548	0.236320
545.909761	0.233066
546.268918	0.234197
546.628019	0.232201
546.987064	0.235091
547.346053	0.237000
547.704986	0.234545
548.063863	0.235074
548.422684	0.235116
548.781449	0.237100
549.140158	0.234559
549.498811	0.237463
549.857408	0.240644
550.215949	0.235568
550.574434	0.238411
550.932864	0.236437
551.291237	0.234971
551.649555	0.236398
552.007817	0.236209
552.366022	0.237063
552.724173	0.237336
553.082267	0.237304
553.440305	0.234419
553.798288	0.238987
554.156215	0.235438
554.514086	0.236057
554.871902	0.239341
555.229661	0.238434
555.587365	0.238913
555.945014	0.241596
556.302606	0.238278
556.660143	0.241051
557.017625	0.237397
557.375050	0.239740
557.732421	0.236752
558.089735	0.238770
558.446994	0.238773
558.804197	0.237940
559.161345	0.237435
559.518437	0.241307
559.875474	0.239213
560.232455	0.238473
560.589381	0.239783
560.946251	0.239728
561.303065	0.237500
561.659825	0.238776
562.016528	0.240227
562.373177	0.243381
562.729770	0.240261
563.086307	0.242491
563.442789	0.240203
563.799216	0.243259
564.155587	0.241779
564.511904	0.242745
564.868164	0.243095
565.224370	0.243096
565.580520	0.244810
565.936615	0.244771
566.292654	0.247755
566.648638	0.244587
567.004567	0.245613
567.360441	0.246128
567.716260	0.247960
568.072023	0.245851
568.427732	0.246753
568.783385	0.249037
569.138982	0.247201
569.494525	0.246533
569.850013	0.249831
570.205445	0.248311
570.560823	0.250828
570.916145	0.252417
571.271412	0.251191
571.626625	0.252413
571.981782	0.252741
572.336884	0.253838
572.691931	0.253344
573.046923	0.254882
573.401860	0.256029
573.756743	0.257508
574.111570	0.256412
574.466342	0.257244
574.821059	0.256131
575.175722	0.258967
575.530330	0.258705
575.884882	0.258923
576.239380	0.261048
576.593823	0.261664
576.948211	0.260724
577.302544	0.264017
577.656823	0.263395
578.011047	0.263954
578.365216	0.264525
578.719330	0.266324
579.073389	0.266690
579.427394	0.267806
579.781344	0.268385
580.135239	0.269628
580.489080	0.269432
580.842866	0.272804
581.196597	0.272159
581.550273	0.271178
581.903895	0.271703
582.257463	0.270279
582.610975	0.273936
582.964434	0.272931
583.317837	0.275248
583.671186	0.275736
584.024481	0.275881
584.377721	0.278166
584.730906	0.278947
585.084037	0.278048
585.437113	0.279976
585.790135	0.279588
586.143103	0.282219
586.496016	0.283994
586.848874	0.281228
587.201679	0.281776
587.554428	0.284910
587.907124	0.283553
588.259765	0.284257
588.612352	0.284933
588.964884	0.288875
589.317362	0.288220
589.669786	0.288413
590.022155	0.287049
590.374470	0.286579
590.726731	0.288109
591.078937	0.293073
591.431090	0.289339
591.783188	0.293460
592.135232	0.294075
592.487222	0.293914
592.839157	0.291873
593.191038	0.294410
593.542866	0.296334
593.894639	0.299733
594.246358	0.297806
594.598022	0.297551
594.949633	0.301214
595.301190	0.301850
595.652692	0.300978
596.004141	0.297188
596.355535	0.304793
596.706876	0.305523
597.058162	0.308290
597.409395	0.305404
597.760573	0.302739
598.111698	0.306244
598.462768	0.306671
598.813785	0.308153
599.164748	0.309307
599.515657	0.309422
599.866511	0.312976
600.217312	0.308078
600.568060	0.313685
600.918753	0.309859
601.269392	0.310824
601.619978	0.314087
601.970510	0.311776
602.320988	0.311554
602.671412	0.309453
603.021783	0.311895
603.372100	0.313714
603.722363	0.313056
604.072572	0.314034
604.422728	0.313702
604.772830	0.315806
605.122878	0.315244
605.472872	0.315768
605.822813	0.314229
606.172701	0.316734
606.522534	0.314307
606.872314	0.314052
607.222041	0.315320
607.571714	0.313381
607.921333	0.315025
608.270899	0.314507
608.620411	0.311090
608.969870	0.315366
609.319276	0.315415
609.668627	0.315165
610.017926	0.313784
610.367171	0.312425
610.716362	0.313377
611.065500	0.313551
611.414585	0.311671
611.763616	0.312380
612.112594	0.312982
612.461518	0.312401
612.810389	0.310394
613.159207	0.312511
613.507971	0.313861
613.856682	0.310260
614.205340	0.311705
614.553945	0.308253
614.902496	0.312187
615.250994	0.310556
615.599439	0.310786
615.947830	0.310210
616.296169	0.311315
616.644454	0.310742
616.992686	0.310844
617.340864	0.309029
617.688990	0.312482
618.037063	0.308877
618.385082	0.310968
618.733048	0.307830
619.080961	0.310268
619.428821	0.309353
619.776628	0.309188
620.124382	0.310883
620.472083	0.311396
620.819731	0.310535
621.167326	0.314965
621.514868	0.314553
621.862357	0.318589
622.209793	0.318216
622.557176	0.320407
622.904506	0.321463
623.251783	0.323662
623.599007	0.326467
623.946179	0.325585
624.293297	0.327775
624.640363	0.331526
624.987376	0.332113
625.334336	0.334701
625.681243	0.336908
626.028097	0.337374
626.374899	0.338697
626.721647	0.338312
627.068343	0.342110
627.414987	0.343316
627.761577	0.344803
628.108115	0.343565
628.454600	0.348531
628.801032	0.346307
629.147412	0.348247
629.493739	0.348397
629.840014	0.351705
630.186236	0.348892
630.532405	0.354208
630.878521	0.352011
631.224585	0.353953
631.570597	0.358054
631.916556	0.356224
632.262462	0.356165
632.608316	0.358283
632.954117	0.359329
633.299866	0.360182
633.645562	0.360657
633.991206	0.364574
634.336797	0.367525
634.682336	0.369933
635.027823	0.371709
635.373257	0.372325
635.718639	0.375700
636.063968	0.375021
636.409245	0.380934
636.754470	0.381429
637.099642	0.383369
637.444762	0.386639
637.789829	0.386277
638.134845	0.389514
638.479808	0.390485
638.824719	0.390375
639.169577	0.394305
639.514383	0.393041
639.859137	0.397572
640.203839	0.397450
640.548489	0.398060
640.893086	0.398917
641.237632	0.401040
641.582125	0.399315
641.926566	0.401032
642.270955	0.401099
642.615292	0.401437
642.959576	0.400443
643.303809	0.401009
643.647990	0.400701
643.992118	0.400772
644.336195	0.404615
644.680219	0.402750
645.024192	0.403640
645.368112	0.397379
645.711981	0.396698
646.055797	0.391621
646.399562	0.394069
646.743274	0.386379
647.086935	0.383619
647.430544	0.383376
647.774101	0.382844
648.117606	0.382035
648.461059	0.382384
648.804460	0.384962
649.147810	0.390476
649.491108	0.391927
649.834354	0.393595
650.177548	0.399006
650.520690	0.404451
650.863781	0.405597
651.206820	0.404746
651.549807	0.409655
651.892742	0.413735
652.235626	0.412838
652.578458	0.413656
652.921238	0.420397
653.263967	0.417614
653.606644	0.422135
653.949269	0.421758
654.291843	0.425079
654.634365	0.421786
654.976836	0.425257
655.319255	0.425235
655.661622	0.426973
656.003938	0.427267
656.346203	0.430262
656.688416	0.427831
657.030577	0.431147
657.372687	0.433272
657.714746	0.434378
658.056753	0.431170
658.398708	0.434671
658.740612	0.435735
659.082465	0.432126
659.424266	0.432339
659.766016	0.432004
660.107715	0.434835
660.449362	0.433629
660.790958	0.434480
661.132503	0.434456
661.473996	0.432619
661.815438	0.433444
662.156829	0.433528
662.498168	0.434052
662.839456	0.436067
663.180693	0.433676
663.521879	0.433442
663.863013	0.434144
664.204097	0.432834
664.545129	0.429417
664.886110	0.430243
665.227040	0.427795
665.567918	0.429432
665.908746	0.428466
666.249522	0.427736
666.590248	0.428808
666.930922	0.426786
667.271545	0.425728
667.612118	0.425711
667.952639	0.427444
668.293109	0.426713
668.633528	0.429200
668.973896	0.428519
669.314213	0.429736
669.654480	0.430757
669.994695	0.431104
670.334859	0.432037
670.674973	0.432403
671.015035	0.432635
671.355047	0.432751
671.695008	0.433738
672.034918	0.435172
672.374777	0.434243
672.714585	0.435749
673.054342	0.435663
673.394049	0.436138
673.733705	0.433476
674.073310	0.434659
674.412864	0.437620
674.752368	0.438341
675.091820	0.438449
675.431223	0.442745
675.770574	0.442626
676.109875	0.445459
676.449125	0.445469
676.788324	0.448186
677.127473	0.453684
677.466571	0.453408
677.805619	0.455032
678.144616	0.456070
678.483562	0.457659
678.822458	0.459921
679.161303	0.461138
679.500098	0.460947
679.838842	0.463321
680.177535	0.462878
680.516179	0.461429
680.854771	0.460186
681.193314	0.453556
681.531805	0.445175
681.870247	0.433502
682.208638	0.425809
682.546978	0.425216
682.885268	0.426810
683.223508	0.433067
683.561697	0.437135
683.899836	0.439135
684.237925	0.442860
684.575963	0.445241
684.913951	0.448466
685.251889	0.444142
685.589776	0.445604
685.927614	0.448526
686.265401	0.442974
686.603137	0.444134
686.940824	0.437852
687.278460	0.436480
687.616046	0.435646
687.953582	0.430532
688.291068	0.431941
688.628504	0.428285
688.965889	0.429806
689.303224	0.434556
689.640510	0.437909
689.977745	0.444205
690.314930	0.451757
690.652065	0.456655
690.989150	0.463813
691.326185	0.470248
691.663170	0.475276
692.000105	0.482378
692.336990	0.489241
692.673825	0.491786
693.010610	0.498262
693.347345	0.503947
693.684030	0.505381
694.020665	0.509820
694.357251	0.519529
694.693786	0.518540
695.030272	0.522950
695.366707	0.526407
695.703093	0.529951
696.039429	0.527088
696.375716	0.528869
696.711952	0.532030
697.048139	0.534022
697.384276	0.536347
697.720363	0.533614
698.056400	0.533177
698.392388	0.538506
698.728326	0.541405
699.064214	0.545191
699.400053	0.545306
699.735842	0.549444
700.071581	0.552010
700.407270	0.554825
700.742910	0.557169
701.078501	0.563948
701.414042	0.564524
701.749533	0.567153
702.084974	0.575537
702.420366	0.568743
702.755709	0.575672
703.091002	0.583499
703.426246	0.577297
703.761440	0.583571
704.096584	0.588054
704.431679	0.584655
704.766725	0.586901
705.101721	0.588323
705.436668	0.584239
705.771565	0.592037
706.106413	0.588390
706.441212	0.583643
706.775961	0.582641
707.110661	0.585266
707.445311	0.581293
707.779913	0.578230
708.114465	0.577600
708.448967	0.573846
708.783421	0.566037
709.117825	0.561170
709.452180	0.560504
709.786485	0.554438
710.120742	0.544818
710.454949	0.546319
710.789107	0.538866
711.123216	0.529306
711.457275	0.530697
711.791286	0.521757
712.125247	0.520843
712.459159	0.531512
712.793023	0.523903
713.126837	0.528294
713.460602	0.528776
713.794318	0.537383
714.127985	0.536539
714.461602	0.547410
714.795171	0.549764
715.128691	0.558538
715.462162	0.565512
715.795584	0.571326
716.128957	0.574112
716.462281	0.580276
716.795556	0.583994
717.128782	0.589670
717.461960	0.599139
717.795088	0.597687
718.128167	0.603313
718.461198	0.612337
718.794180	0.612660
719.127113	0.615681
719.459997	0.619721
719.792833	0.625709
720.125619	0.626363
720.458357	0.632991
720.791046	0.632191
721.123686	0.636030
721.456278	0.642797
721.788821	0.639298
722.121315	0.644109
722.453761	0.648512
722.786158	0.646043
723.118506	0.643755
723.450805	0.650726
723.783056	0.646668
724.115259	0.643895
724.447412	0.643654
724.779518	0.645423
725.111574	0.643638
725.443582	0.639372
725.775542	0.641194
726.107453	0.632739
726.439315	0.633349
726.771129	0.632159
727.102895	0.625067
727.434612	0.617734
727.766281	0.616357
728.097901	0.615290
728.429473	0.614976
728.760996	0.613371
729.092471	0.613305
729.423897	0.617099
729.755276	0.616181
730.086606	0.616644
730.417887	0.611262
730.749120	0.601870
731.080305	0.592143
731.411442	0.588787
731.742530	0.593382
732.073570	0.592116
732.404562	0.585097
732.735506	0.586751
733.066401	0.591015
733.397249	0.600414
733.728048	0.611510
734.058798	0.624007
734.389501	0.634679
734.720156	0.644793
735.050762	0.652540
735.381320	0.653249
735.711831	0.663233
736.042293	0.667578
736.372707	0.663133
736.703073	0.668178
737.033391	0.669694
737.363661	0.666829
737.693883	0.662608
738.024056	0.661930
738.354182	0.662013
738.684260	0.651190
739.014290	0.646812
739.344272	0.648432
739.674207	0.641556
740.004093	0.640390
740.333931	0.640834
740.663722	0.641389
740.993464	0.642481
741.323159	0.646170
741.652806	0.650811
741.982405	0.655318
742.311956	0.659487
742.641460	0.661689
742.970915	0.665203
743.300323	0.672763
743.629683	0.679217
743.958996	0.681870
744.288260	0.686887
744.617477	0.692380
744.946647	0.693777
745.275768	0.699021
745.604842	0.698464
745.933869	0.709257
746.262847	0.709381
746.591778	0.702995
746.920662	0.708874
747.249498	0.716061
747.578286	0.707363
747.907027	0.702711
748.235720	0.703146
748.564365	0.699298
748.892963	0.698002
749.221514	0.701833
749.550017	0.706145
749.878473	0.706250
750.206881	0.712706
750.535242	0.713706
750.863555	0.714007
751.191821	0.714387
751.520039	0.717935
751.848210	0.723466
752.176334	0.715976
752.504411	0.714496
752.832440	0.722576
753.160421	0.725811
753.488356	0.725273
753.816243	0.722289
754.144082	0.730589
754.471875	0.733625
754.799620	0.729268
755.127318	0.730615
755.454969	0.730939
755.782572	0.729895
756.110129	0.735609
756.437638	0.737180
756.765100	0.734013
757.092515	0.731739
757.419882	0.731915
757.747203	0.736022
758.074477	0.735090
758.401703	0.732571
758.728882	0.727717
759.056014	0.726745
759.383099	0.725407
759.710138	0.727142
760.037129	0.724554
760.364073	0.716397
760.690970	0.720583
761.017820	0.726586
761.344623	0.721431
761.671379	0.712271
761.998088	0.700788
762.324751	0.677526
762.651366	0.635201
762.977935	0.568532
763.304456	0.516230
763.630931	0.506693
763.957359	0.545496
764.283740	0.590873
764.610074	0.618031
764.936362	0.648576
765.262602	0.675251
765.588796	0.696904
765.914943	0.715318
766.241044	0.733535
766.567097	0.739974
766.893104	0.749804
767.219064	0.756069
767.544978	0.761966
767.870845	0.775854
768.196665	0.780049
768.522438	0.778296
768.848165	0.778842
769.173846	0.789096
769.499479	0.793183
769.825066	0.796339
770.150607	0.801237
770.476101	0.796810
770.801548	0.797318
771.126949	0.809776
771.452303	0.812581
771.777611	0.811582
772.102872	0.811253
772.428087	0.815464
772.753256	0.819307
773.078378	0.822628
773.403453	0.830480
773.728482	0.834484
774.053465	0.829275
774.378401	0.832218
774.703291	0.840768
775.028135	0.839941
775.352932	0.841244
775.677683	0.844838
776.002388	0.845203
776.327046	0.844407
776.651658	0.848016
776.976224	0.850933
777.300743	0.851459
777.625216	0.855092
777.949643	0.855928
778.274024	0.855950
778.598359	0.857308
778.922647	0.856286
779.246889	0.856008
779.571086	0.859352
779.895236	0.862509
780.219339	0.859865
780.543397	0.857250
780.867409	0.855484
781.191374	0.856729
781.515294	0.858675
781.839167	0.857843
782.162995	0.860922
782.486776	0.858645
782.810511	0.857774
783.134201	0.862164
783.457844	0.860804
783.781441	0.863405
784.104993	0.868238
784.428498	0.869227
784.751958	0.864946
785.075372	0.867207
785.398739	0.871410
785.722061	0.867992
786.045337	0.863179
786.368568	0.868002
786.691752	0.869984
787.014891	0.857047
787.337983	0.847825
787.661030	0.839776
787.984031	0.822605
788.306987	0.809834
788.629897	0.811463
788.952760	0.815291
789.275579	0.819910
789.598351	0.834828
789.921078	0.847840
790.243759	0.849963
790.566395	0.854806
790.888984	0.862764
791.211529	0.867529
791.534027	0.870520
791.856480	0.872070
792.178888	0.877692
792.501249	0.880062
792.823566	0.882002
793.145836	0.881699
793.468062	0.883749
793.790241	0.883351
794.112375	0.882096
794.434464	0.876418
794.756507	0.876848
795.078505	0.875524
795.400457	0.870717
795.722364	0.858549
796.044226	0.851985
796.366042	0.850500
796.687812	0.854373
797.009538	0.851357
797.331218	0.852648
797.652852	0.857857
797.974442	0.862813
798.295986	0.862123
798.617484	0.865112
798.938938	0.869429
799.260346	0.874106
799.581709	0.878027
799.903026	0.878808
800.224299	0.878970
800.545526	0.883002
800.866708	0.886744
801.187845	0.890684
801.508936	0.890857
801.829983	0.889099
802.150984	0.891935
802.471940	0.896454
802.792851	0.896270
803.113717	0.896821
803.434538	0.895827
803.755314	0.896971
804.076045	0.899451
804.396731	0.899492
804.717372	0.898298
805.037967	0.900557
805.358518	0.898741
805.679024	0.895706
805.999485	0.896138
806.319901	0.894551
806.640272	0.897762
806.960598	0.895952
807.280879	0.893176
807.601115	0.891104
807.921306	0.895295
808.241453	0.893795
808.561554	0.893010
808.881611	0.891662
809.201623	0.895209
809.521590	0.894856
809.841513	0.896364
810.161390	0.894626
810.481223	0.897085
810.801011	0.900069
811.120755	0.901165
811.440453	0.900475
811.760107	0.899572
812.079716	0.899192
812.399281	0.902109
812.718801	0.904626
813.038276	0.905205
813.357707	0.905026
813.677093	0.902517
813.996434	0.905683
814.315731	0.907711
814.634983	0.908867
814.954191	0.906814
815.273354	0.903960
815.592473	0.899509
815.911547	0.900115
816.230577	0.896904
816.549562	0.895647
816.868502	0.895446
817.187399	0.892135
817.506250	0.885706
817.825058	0.888786
818.143821	0.885706
818.462539	0.880202
818.781213	0.871789
819.099843	0.860443
819.418429	0.844091
819.736970	0.827504
820.055466	0.808019
820.373919	0.781652
820.692327	0.748149
821.010691	0.713507
821.329011	0.634256
821.647286	0.517992
821.965517	0.403940
822.283704	0.360457
822.601847	0.361622
822.919945	0.397488
823.237999	0.431335
823.556010	0.479002
823.873976	0.535635
824.191897	0.586906
824.509775	0.629471
824.827609	0.675804
825.145398	0.697868
825.463144	0.701030
825.780845	0.683164
826.098502	0.664563
826.416116	0.618413
826.733685	0.573978
827.051210	0.565523
827.368692	0.579918
827.686129	0.618031
828.003522	0.672060
828.320872	0.719361
828.638177	0.763560
828.955439	0.796147
829.272656	0.819571
829.589830	0.836521
829.906960	0.851890
830.224046	0.864694
830.541088	0.874929
830.858086	0.878764
831.175041	0.885660
831.491952	0.885918
831.808819	0.881943
832.125642	0.875318
832.442421	0.860988
832.759157	0.838089
833.075849	0.790984
833.392497	0.727370
833.709101	0.686178
834.025662	0.694973
834.342179	0.726565
834.658653	0.766204
834.975083	0.803523
835.291469	0.829771
835.607811	0.851495
835.924110	0.868676
836.240366	0.884952
836.556578	0.900391
836.872746	0.907062
837.188871	0.914315
837.504952	0.919229
837.820990	0.921250
838.136984	0.925635
838.452935	0.929576
838.768842	0.929967
839.084706	0.924229
839.400526	0.898246
839.716303	0.857432
840.032037	0.835092
840.347727	0.838460
840.663373	0.856040
840.978977	0.879124
841.294537	0.900734
841.610054	0.916668
841.925527	0.924432
842.240957	0.933151
842.556344	0.939309
842.871687	0.946005
843.186987	0.948494
843.502244	0.949807
843.817458	0.950756
844.132629	0.954112
844.447756	0.959635
844.762840	0.959802
845.077881	0.958381
845.392879	0.959277
845.707833	0.961927
846.022745	0.963959
846.337613	0.964410
846.652438	0.965013
846.967221	0.963487
847.281960	0.964328
847.596656	0.966603
847.911309	0.965034
848.225919	0.966309
848.540485	0.967468
848.855009	0.967683
849.169490	0.968541
849.483928	0.969096
849.798323	0.969047
850.112675	0.969276
850.426984	0.968932
850.741251	0.968671
851.055474	0.969557
851.369654	0.967142
851.683792	0.969475
851.997887	0.969964
852.311938	0.970109
852.625947	0.969303
852.939914	0.968147
853.253837	0.968535
853.567718	0.970952
853.881555	0.970417
854.195350	0.968081
854.509103	0.968837
854.822812	0.969661
855.136479	0.970239
855.450103	0.968737
855.763685	0.968110
856.077224	0.968785
856.390720	0.970028
856.704173	0.970051
857.017584	0.967517
857.330953	0.966286
857.644278	0.967621
857.957561	0.967820
858.270802	0.967068
858.584000	0.967778
858.897155	0.966080
859.210268	0.967329
859.523339	0.967468
859.836367	0.968620
860.149352	0.969155
860.462295	0.967945
860.775195	0.968722
861.088054	0.968252
861.400869	0.968930
861.713642	0.969525
862.026373	0.970108
862.339062	0.969986
862.651708	0.966872
862.964312	0.967111
863.276873	0.968715
863.589392	0.968152
863.901869	0.966026
864.214303	0.963768
864.526696	0.963923
864.839045	0.963594
865.151353	0.961979
865.463619	0.961174
865.775842	0.962281
866.088023	0.961612
866.400162	0.961459
866.712258	0.961785
867.024313	0.961794
867.336325	0.961896
867.648296	0.963239
867.960224	0.961983
868.272110	0.961538
868.583954	0.963872
868.895755	0.962812
869.207515	0.959756
869.519233	0.958475
869.830909	0.960751
870.142542	0.961575
870.454134	0.961249
870.765684	0.960239
871.077191	0.956742
871.388657	0.957541
871.700081	0.956261
872.011463	0.957748
872.322803	0.957217
872.634101	0.955670
872.945357	0.953758
873.256571	0.952498
873.567744	0.952000
873.878874	0.952765
874.189963	0.951075
874.501010	0.951105
874.812015	0.949379
875.122979	0.949674
875.433900	0.951274
875.744780	0.953023
876.055618	0.950141
876.366415	0.949393
876.677169	0.949378
876.987882	0.950618
877.298554	0.950355
877.609183	0.946610
877.919771	0.944801
878.230317	0.941662
878.540822	0.939446
878.851285	0.934275
879.161707	0.926037
879.472087	0.912881
879.782425	0.895699
880.092722	0.861849
880.402977	0.809631
880.713191	0.745884
881.023363	0.686532
881.333494	0.652018
881.643583	0.623796
881.953631	0.623433
882.263637	0.652176
882.573602	0.691834
882.883526	0.717966
883.193408	0.742365
883.503248	0.765486
883.813048	0.793298
884.122806	0.824081
884.432522	0.847350
884.742197	0.867853
885.051831	0.879026
885.361424	0.888968
885.670975	0.900984
885.980485	0.910387
886.289954	0.917649
886.599382	0.922935
886.908768	0.926017
887.218113	0.932641
887.527417	0.937479
887.836680	0.940498
888.145901	0.941924
888.455082	0.944830
888.764221	0.949345
889.073319	0.951019
889.382376	0.952665
889.691392	0.951833
890.000366	0.950969
890.309300	0.953436
890.618193	0.952502
890.927044	0.949546
891.235855	0.949715
891.544625	0.949277
891.853353	0.949977
892.162041	0.948669
892.470687	0.941158
892.779293	0.937211
893.087858	0.933160
893.396381	0.924882
893.704864	0.910827
894.013306	0.886092
894.321707	0.859051
894.630068	0.844205
894.938387	0.838935
895.246665	0.841166
895.554903	0.853273
895.863100	0.867350
896.171256	0.884470
896.479371	0.903816
896.787446	0.916967
897.095480	0.923110
897.403473	0.926755
897.711425	0.930856
898.019336	0.938721
898.327207	0.942469
898.635038	0.943292
898.942827	0.944250
899.250576	0.946192
899.558284	0.951204
899.865952	0.953978
900.173579	0.954277
900.481165	0.955354
900.788711	0.959247
901.096216	0.959491
901.403681	0.959492
901.711105	0.962187
902.018489	0.963211
902.325832	0.960794
902.633135	0.960845
902.940397	0.954147
903.247619	0.942002
903.554800	0.916529
903.861941	0.875563
904.169041	0.838116
904.476101	0.820072
904.783121	0.822237
905.090100	0.838236
905.397039	0.859942
905.703938	0.882725
906.010796	0.902742
906.317614	0.921034
906.624391	0.933087
906.931129	0.942438
907.237826	0.950406
907.544483	0.958064
907.851099	0.962001
908.157675	0.965952
908.464211	0.968403
908.770707	0.971997
909.077163	0.973673
909.383578	0.973965
909.689954	0.974338
909.996289	0.974662
910.302584	0.975945
910.608839	0.979124
910.915054	0.977463
911.221229	0.977426
911.527363	0.976077
911.833458	0.976596
912.139513	0.975907
912.445527	0.974203
912.751502	0.972730
913.057436	0.971159
913.363331	0.969863
913.669186	0.964501
913.975000	0.959879
914.280775	0.954313
914.586510	0.945749
914.892205	0.933371
915.197859	0.910791
915.503475	0.883005
915.809050	0.862097
916.114585	0.856695
916.420081	0.853491
916.725536	0.850830
917.030952	0.860320
917.336328	0.872730
917.641665	0.888033
917.946961	0.903676
918.252218	0.915496
918.557435	0.924166
918.862612	0.933948
919.167750	0.940215
919.472848	0.944540
919.777906	0.950301
920.082925	0.955960
920.387904	0.959459
920.692843	0.961338
920.997743	0.962349
921.302603	0.965488
921.607423	0.968237
921.912204	0.969245
922.216946	0.971243
922.521647	0.971707
922.826310	0.973294
923.130932	0.976130
923.435516	0.978148
923.740059	0.977827
924.044564	0.978049
924.349028	0.980277
924.653454	0.982448
924.957840	0.982800
925.262186	0.984488
925.566493	0.982611
925.870761	0.984663
926.174989	0.985477
926.479178	0.986522
926.783328	0.987170
927.087438	0.987726
927.391509	0.987087
927.695541	0.988524
927.999533	0.989521
928.303486	0.990167
928.607400	0.990951
928.911275	0.989064
929.215110	0.989120
929.518906	0.991204
929.822663	0.989091
930.126381	0.990717
930.430060	0.988940
930.733699	0.989978
931.037299	0.988664
931.340861	0.989845
931.644383	0.990655
931.947866	0.989158
932.251309	0.990469
932.554714	0.989810
932.858080	0.990497
933.161407	0.990021
933.464694	0.990875
933.767943	0.990196
934.071153	0.990954
934.374323	0.991625
934.677455	0.990710
934.980548	0.990648
935.283602	0.989713
935.586617	0.990816
935.889593	0.989696
936.192530	0.990107
936.495428	0.990623
936.798287	0.991047
937.101108	0.990366
937.403890	0.988021
937.706632	0.988356
938.009336	0.987391
938.312002	0.985880
938.614628	0.982992
938.917216	0.982812
939.219765	0.981374
939.522275	0.983530
939.824747	0.982803
940.127179	0.981757
940.429573	0.983723
940.731929	0.983999
941.034246	0.983269
941.336524	0.984718
941.638763	0.985517
941.940964	0.985064
942.243126	0.986580
942.545250	0.986331
942.847335	0.987431
943.149381	0.986982
943.451389	0.987193
943.753359	0.988113
944.055290	0.990710
944.357182	0.988617
944.659036	0.987922
944.960851	0.988961
945.262628	0.990008
945.564367	0.991212
945.866067	0.989948
946.167729	0.990575
946.469352	0.989893
946.770937	0.989154
947.072484	0.990201
947.373992	0.988926
947.675462	0.990161
947.976893	0.990009
948.278286	0.990365
948.579641	0.990794
948.880958	0.989234
949.182236	0.990798
949.483476	0.990595
949.784678	0.990482
950.085841	0.990628
950.386967	0.991078
950.688054	0.990657
950.989103	0.990228
951.290114	0.988911
951.591087	0.989078
951.892021	0.989638
952.192917	0.988946
952.493776	0.987238
952.794596	0.987301
953.095378	0.987692
953.396122	0.987207
953.696828	0.986381
953.997496	0.989324
954.298126	0.990342
954.598718	0.989885
954.899272	0.990201
955.199788	0.989822
955.500266	0.991554
955.800706	0.992867
956.101108	0.991578
956.401472	0.993102
956.701798	0.994178
957.002087	0.993035
957.302337	0.993124
957.602550	0.994870
957.902724	0.993908
958.202861	0.994362
958.502960	0.996170
958.803022	0.993216
959.103045	0.996233
959.403031	0.995416
959.702979	0.994738
960.002889	0.995516
960.302762	0.993779
960.602596	0.995381
960.902393	0.994259
961.202153	0.996741
961.501875	0.997479
961.801559	0.995777
962.101205	0.995219
962.400814	0.996202
962.700385	0.996526
962.999918	0.997305
963.299414	0.997061
963.598873	0.995196
963.898293	0.995956
964.197677	0.996747
964.497022	0.996259
964.796331	0.997234
965.095601	0.996993
965.394835	0.995677
965.694030	0.996424
965.993189	0.997502
966.292309	0.996701
966.591393	0.997367
966.890439	0.997360
967.189447	0.996772
967.488419	0.996964
967.787353	0.994983
968.086249	0.997884
968.385108	0.997064
968.683930	0.997698
968.982714	0.995969
969.281462	0.996722
969.580172	0.995962
969.878844	0.997408
970.177480	0.997448
970.476078	0.995885
970.774639	0.997080
971.073162	0.996822
971.371649	0.995619
971.670098	0.996439
971.968510	0.997056
972.266885	0.994679
972.565223	0.995860
972.863524	0.996601
973.161788	0.996646
973.460014	0.996886
973.758204	0.995430
974.056356	0.995678
974.354471	0.993936
974.652550	0.997172
974.950591	0.995361
975.248595	0.996324
975.546563	0.996914
975.844493	0.997591
976.142386	0.995956
976.440243	0.997217
976.738062	0.997659
977.035845	0.997308
977.333590	0.996603
977.631299	0.998425
977.928971	0.996710
978.226606	0.996118
978.524204	0.995621
978.821765	0.998820
979.119290	0.996645
979.416777	0.996358
979.714228	0.998315
980.011642	0.994897
980.309020	0.997145
980.606360	0.996144
980.903664	0.997736
981.200931	0.996084
981.498162	0.995160
981.795356	0.994611
982.092513	0.994299
982.389633	0.994126
982.686717	0.991393
982.983764	0.991360
983.280775	0.989623
983.577749	0.990436
983.874686	0.991032
984.171587	0.992063
984.468451	0.993675
984.765279	0.995870
985.062070	0.993788
985.358824	0.995156
985.655543	0.994939
985.952224	0.996492
986.248869	0.996432
986.545478	0.997116
986.842050	0.997397
987.138586	0.995031
987.435086	0.997990
987.731549	0.998039
988.027975	0.997427
988.324366	0.997337
988.620719	0.998157
988.917037	0.996064
989.213318	0.998232
989.509563	0.997399
989.805772	0.997983
990.101944	0.998642
990.398080	0.997403
990.694180	0.998170
990.990244	0.996862
991.286271	0.998490
991.582262	0.998264
991.878217	0.997426
992.174136	0.998698
992.470019	0.998787
992.765865	0.998120
993.061676	0.997782
993.357450	0.997267
993.653188	0.996622
993.948890	0.997619
994.244556	0.997675
994.540186	0.997488
994.835780	0.996784
995.131337	0.998136
995.426859	0.996794
995.722345	0.997512
996.017795	0.996072
996.313208	0.995676
996.608586	0.995957
996.903928	0.996901
997.199234	0.996235
997.494504	0.996394
997.789738	0.995936
998.084936	0.995976
998.380099	0.998203
998.675225	0.996399
998.970316	0.998572
999.265371	0.998774
999.560390	0.998974
999.855373	0.997206
1000.150320	0.998409
1000.445232	0.998180
1000.740108	0.998587
1001.034948	0.998851
1001.329752	0.998852
1001.624521	0.997790
1001.919254	0.998386
1002.213951	0.997849
1002.508613	0.998049
1002.803239	0.998039
1003.097829	0.999127
1003.392384	0.998214
1003.686903	0.997504
1003.981386	0.998878
1004.275834	0.998761
1004.570246	0.997837
1004.864623	0.999051
1005.158964	0.998557
1005.453270	0.998590
1005.747540	0.998835
1006.041775	0.998193
1006.335974	0.999000
1006.630138	0.998914
1006.924266	0.999130
1007.218359	0.999469
1007.512416	0.999458
1007.806438	0.999468
1008.100425	0.999574
1008.394376	0.998989
1008.688292	0.999725
1008.982172	1.000415
1009.276017	0.998602
1009.569827	0.998900
1009.863602	0.997795
1010.157341	0.998411
1010.451045	0.999246
1010.744714	0.997730
1011.038347	0.999698
1011.331945	0.998002
1011.625508	0.997503
1011.919036	0.998147
1012.212528	0.998003
1012.505986	0.997625
1012.799408	0.999336
1013.092795	0.999125
1013.386147	0.998494
1013.679464	0.999451
1013.972745	0.998451
1014.265992	0.997416
1014.559204	0.998712
1014.852380	0.998792
1015.145521	0.999215
1015.438628	0.999036
1015.731699	0.999659
1016.024736	0.999035
1016.317737	0.998054
1016.610703	0.997291
1016.903635	1.000182
1017.196531	0.998398
1017.489393	0.998624
1017.782219	0.998928
1018.075011	0.998264
1018.367768	0.999448
1018.660490	0.999011
1018.953177	0.999011
1019.245829	0.999011
