Dividing Wavelength (nm)	Counts (n)	Blue Motor Position (mm): 0.000000	Red Motor Position (mm): 22.300000	
326.493990	1.000377
326.888308	1.000377
327.282561	1.000377
327.676750	1.000346
328.070874	0.999421
328.464933	1.000807
328.858929	0.999738
329.252859	0.999963
329.646726	0.999411
330.040528	1.000612
330.434265	0.998703
330.827938	1.000725
331.221547	0.999785
331.615091	0.999609
332.008571	0.998871
332.401986	0.999646
332.795338	0.999930
333.188625	0.997658
333.581847	0.998755
333.975006	0.999667
334.368100	0.998480
334.761129	1.000013
335.154095	1.000943
335.546996	0.997220
335.939833	0.993369
336.332606	0.994020
336.725315	0.993927
337.117960	0.996385
337.510540	0.993178
337.903056	0.994940
338.295508	0.995141
338.687896	0.994342
339.080220	0.994483
339.472480	0.995067
339.864676	0.994791
340.256807	0.994910
340.648875	0.995957
341.040879	0.994619
341.432818	0.994070
341.824694	0.995290
342.216506	0.994953
342.608253	0.994396
342.999937	0.993801
343.391557	0.994751
343.783113	0.993818
344.174605	0.994685
344.566033	0.994658
344.957397	0.994480
345.348697	0.994877
345.739934	0.993326
346.131106	0.994311
346.522215	0.993722
346.913260	0.994169
347.304241	0.994046
347.695159	0.993509
348.086012	0.993912
348.476802	0.994782
348.867528	0.993821
349.258191	0.993797
349.648789	0.994616
350.039324	0.994474
350.429796	0.995066
350.820203	0.995035
351.210548	0.994968
351.600828	0.994325
351.991045	0.994401
352.381198	0.993553
352.771288	0.993583
353.161314	0.993760
353.551276	0.995475
353.941175	0.993798
354.331010	0.994177
354.720782	0.993415
355.110490	0.994123
355.500135	0.995395
355.889717	0.994580
356.279235	0.993877
356.668689	0.994517
357.058080	0.993732
357.447408	0.995080
357.836672	0.994956
358.225873	0.995218
358.615010	0.994141
359.004084	0.995303
359.393095	0.995652
359.782043	0.995057
360.170927	0.995623
360.559748	0.994427
360.948505	0.994104
361.337199	0.993934
361.725830	0.994470
362.114398	0.994008
362.502903	0.994682
362.891344	0.995453
363.279722	0.994415
363.668037	0.994961
364.056289	0.994387
364.444478	0.994728
364.832603	0.994147
365.220665	0.994691
365.608665	0.994375
365.996601	0.993469
366.384474	0.994938
366.772284	0.992829
367.160031	0.992578
367.547715	0.994014
367.935336	0.994034
368.322893	0.994108
368.710388	0.993021
369.097820	0.995130
369.485189	0.993484
369.872495	0.992646
370.259738	0.991372
370.646918	0.994982
371.034035	0.995710
371.421090	0.994816
371.808081	0.993959
372.195010	0.995024
372.581875	0.995127
372.968678	0.995025
373.355418	0.994817
373.742096	0.993708
374.128710	0.995494
374.515262	0.994357
374.901751	0.994789
375.288177	0.994479
375.674540	0.995099
376.060841	0.993978
376.447079	0.994721
376.833254	0.994812
377.219367	0.993806
377.605417	0.993485
377.991404	0.995026
378.377329	0.994394
378.763191	0.994610
379.148991	0.995453
379.534727	0.994703
379.920402	0.995104
380.306013	0.994829
380.691563	0.995569
381.077049	0.994958
381.462474	0.994582
381.847835	0.994625
382.233134	0.993609
382.618371	0.995887
383.003545	0.995387
383.388657	0.993453
383.773706	0.995629
384.158693	0.995280
384.543618	0.995181
384.928480	0.997160
385.313280	0.995833
385.698017	0.996407
386.082692	0.996613
386.467305	0.995771
386.851856	0.994545
387.236344	0.994958
387.620770	0.994991
388.005133	0.995339
388.389435	0.996705
388.773674	0.995539
389.157851	0.995258
389.541965	0.995721
389.926018	0.995301
390.310008	0.996248
390.693936	0.994918
391.077802	0.995934
391.461606	0.994952
391.845348	0.996265
392.229027	0.996368
392.612645	0.996200
392.996200	0.996991
393.379694	0.995073
393.763125	0.996724
394.146494	0.995550
394.529801	0.995896
394.913047	0.995483
395.296230	0.995770
395.679351	0.996549
396.062410	0.995985
396.445408	0.995105
396.828343	0.995774
397.211217	0.995932
397.594028	0.996001
397.976778	0.996203
398.359466	0.996229
398.742092	0.995776
399.124656	0.995763
399.507158	0.996093
399.889598	0.995696
400.271977	0.996209
400.654294	0.995304
401.036549	0.995877
401.418742	0.995807
401.800874	0.995049
402.182944	0.995698
402.564952	0.994850
402.946898	0.996747
403.328783	0.995793
403.710606	0.995589
404.092367	0.996382
404.474067	0.996462
404.855705	0.995315
405.237282	0.995233
405.618797	0.994901
406.000250	0.994481
406.381642	0.996337
406.762972	0.995887
407.144240	0.995338
407.525447	0.996190
407.906593	0.995648
408.287677	0.995352
408.668700	0.995764
409.049661	0.994951
409.430560	0.995571
409.811399	0.994524
410.192176	0.994781
410.572891	0.995672
410.953545	0.995236
411.334138	0.994409
411.714669	0.995732
412.095139	0.994896
412.475547	0.996141
412.855894	0.995477
413.236180	0.995814
413.616405	0.995546
413.996568	0.995695
414.376670	0.994863
414.756711	0.995174
415.136691	0.995187
415.516609	0.995060
415.896466	0.995317
416.276262	0.993431
416.655997	0.994933
417.035670	0.994326
417.415283	0.995261
417.794834	0.994895
418.174324	0.993952
418.553753	0.994852
418.933121	0.994034
419.312428	0.992452
419.691674	0.992980
420.070859	0.992068
420.449983	0.991125
420.829045	0.990440
421.208047	0.991371
421.586988	0.990409
421.965867	0.987160
422.344686	0.987014
422.723444	0.986170
423.102141	0.984933
423.480777	0.983083
423.859352	0.981327
424.237866	0.979504
424.616319	0.976486
424.994712	0.974645
425.373044	0.974823
425.751314	0.970600
426.129524	0.968217
426.507673	0.964742
426.885762	0.963708
427.263789	0.959711
427.641756	0.957459
428.019662	0.953281
428.397508	0.949798
428.775292	0.945253
429.153016	0.942306
429.530679	0.939216
429.908282	0.934336
430.285824	0.930616
430.663305	0.923184
431.040726	0.920599
431.418086	0.918288
431.795385	0.910950
432.172624	0.904537
432.549802	0.900167
432.926920	0.894098
433.303977	0.887854
433.680974	0.882000
434.057910	0.874470
434.434786	0.868542
434.811601	0.862557
435.188355	0.851383
435.565050	0.846285
435.941683	0.840038
436.318257	0.828566
436.694770	0.820928
437.071222	0.812584
437.447614	0.806448
437.823946	0.801773
438.200218	0.790096
438.576429	0.785075
438.952580	0.774370
439.328670	0.764351
439.704700	0.759058
440.080670	0.752379
440.456580	0.734320
440.832429	0.728881
441.208218	0.726335
441.583947	0.713173
441.959616	0.704259
442.335224	0.698166
442.710773	0.685746
443.086261	0.674256
443.461689	0.674661
443.837057	0.659878
444.212365	0.645788
444.587612	0.642314
444.962800	0.627022
445.337927	0.620330
445.712995	0.629196
446.088002	0.595954
446.462949	0.596014
446.837837	0.590728
447.212664	0.576858
447.587431	0.561505
447.962139	0.533177
448.336786	0.497269
448.711374	0.498518
449.085901	0.523123
449.460369	0.517745
449.834776	0.514330
450.209124	0.491617
450.583412	0.478503
450.957640	0.468586
451.331808	0.470204
451.705917	0.483256
452.079965	0.481431
452.453954	0.465841
452.827883	0.466817
453.201752	0.457965
453.575562	0.462996
453.949311	0.447544
454.323001	0.449037
454.696632	0.441618
455.070202	0.430957
455.443713	0.419440
455.817164	0.411110
456.190556	0.403238
456.563888	0.396792
456.937160	0.391367
457.310373	0.404016
457.683526	0.399637
458.056619	0.401957
458.429653	0.400110
458.802628	0.400656
459.175542	0.393458
459.548398	0.374277
459.921194	0.365505
460.293930	0.364349
460.666607	0.340790
461.039224	0.328170
461.411782	0.322204
461.784280	0.319614
462.156719	0.321755
462.529099	0.324819
462.901419	0.338770
463.273680	0.341909
463.645882	0.340554
464.018024	0.345575
464.390106	0.337282
464.762130	0.321909
465.134094	0.304812
465.505999	0.273816
465.877845	0.244353
466.249631	0.230823
466.621358	0.237349
466.993026	0.250446
467.364634	0.255960
467.736184	0.264448
468.107674	0.272755
468.479105	0.271528
468.850477	0.278302
469.221790	0.284598
469.593043	0.294595
469.964238	0.299067
470.335373	0.298308
470.706449	0.296388
471.077467	0.297038
471.448425	0.259049
471.819324	0.234822
472.190164	0.234064
472.560945	0.262352
472.931667	0.284668
473.302330	0.288479
473.672934	0.300078
474.043479	0.288603
474.413965	0.290466
474.784393	0.293774
475.154761	0.288686
475.525070	0.285634
475.895321	0.291211
476.265513	0.285563
476.635645	0.280937
477.005719	0.280954
477.375734	0.277184
477.745691	0.270597
478.115588	0.266998
478.485427	0.261120
478.855207	0.247529
479.224928	0.229967
479.594591	0.218506
479.964194	0.221830
480.333739	0.222791
480.703226	0.224257
481.072653	0.222915
481.442022	0.218243
481.811333	0.214835
482.180584	0.218452
482.549777	0.223624
482.918912	0.226977
483.287988	0.226732
483.657005	0.226140
484.025964	0.232590
484.394864	0.229934
484.763706	0.230608
485.132489	0.235325
485.501213	0.236346
485.869879	0.234631
486.238487	0.237745
486.607036	0.235834
486.975527	0.240324
487.343959	0.236268
487.712333	0.235097
488.080648	0.236437
488.448905	0.235717
488.817104	0.237088
489.185244	0.231525
489.553326	0.228492
489.921350	0.218027
490.289315	0.200969
490.657222	0.196051
491.025070	0.197263
491.392861	0.199007
491.760593	0.204792
492.128267	0.210130
492.495883	0.215905
492.863440	0.222205
493.230939	0.228521
493.598380	0.229601
493.965763	0.231889
494.333088	0.234001
494.700354	0.235660
495.067563	0.234605
495.434713	0.237676
495.801805	0.235642
496.168839	0.237189
496.535815	0.238346
496.902733	0.238592
497.269593	0.240010
497.636395	0.237693
498.003139	0.237786
498.369825	0.241026
498.736453	0.237272
499.103023	0.238728
499.469535	0.238015
499.835989	0.238614
500.202385	0.239351
500.568723	0.242313
500.935003	0.238118
501.301226	0.242032
501.667390	0.236417
502.033497	0.234319
502.399546	0.237259
502.765537	0.239113
503.131470	0.237620
503.497345	0.233926
503.863163	0.242692
504.228923	0.235644
504.594625	0.234309
504.960269	0.239748
505.325856	0.235124
505.691385	0.239143
506.056856	0.235883
506.422270	0.235340
506.787625	0.237885
507.152924	0.234877
507.518164	0.235681
507.883347	0.237250
508.248472	0.239309
508.613540	0.234239
508.978550	0.236808
509.343503	0.237098
509.708398	0.234611
510.073236	0.232567
510.438016	0.232296
510.802738	0.233483
511.167403	0.232187
511.532010	0.234394
511.896561	0.229605
512.261053	0.228355
512.625488	0.230447
512.989866	0.230837
513.354186	0.230982
513.718449	0.233143
514.082655	0.229404
514.446803	0.231873
514.810894	0.229326
515.174927	0.232092
515.538904	0.231244
515.902822	0.228314
516.266684	0.230756
516.630488	0.231889
516.994235	0.230545
517.357925	0.229374
517.721558	0.227829
518.085133	0.226984
518.448651	0.227511
518.812112	0.229278
519.175516	0.229132
519.538863	0.226619
519.902152	0.228620
520.265385	0.225345
520.628560	0.227065
520.991678	0.227609
521.354739	0.226438
521.717743	0.227608
522.080690	0.228255
522.443580	0.225319
522.806413	0.226297
523.169189	0.225650
523.531908	0.224684
523.894569	0.228414
524.257174	0.228194
524.619722	0.225951
524.982213	0.226825
525.344647	0.225680
525.707025	0.226892
526.069345	0.224923
526.431608	0.226459
526.793815	0.224535
527.155964	0.228476
527.518057	0.227625
527.880093	0.228542
528.242072	0.227024
528.603995	0.229193
528.965860	0.230826
529.327669	0.229789
529.689421	0.230459
530.051117	0.231111
530.412755	0.229186
530.774337	0.231316
531.135862	0.231834
531.497331	0.231130
531.858743	0.233767
532.220098	0.230758
532.581396	0.233207
532.942638	0.233772
533.303824	0.234543
533.664953	0.234527
534.026025	0.236131
534.387040	0.233961
534.747999	0.233931
535.108902	0.233055
535.469748	0.237738
535.830537	0.235485
536.191270	0.236321
536.551947	0.235868
536.912567	0.235902
537.273131	0.237385
537.633638	0.237374
537.994089	0.238115
538.354483	0.239255
538.714821	0.236229
539.075103	0.235727
539.435328	0.236566
539.795497	0.240280
540.155609	0.237212
540.515665	0.235084
540.875665	0.240648
541.235609	0.239187
541.595496	0.239635
541.955328	0.235686
542.315102	0.238570
542.674821	0.239903
543.034483	0.239476
543.394090	0.239478
543.753640	0.241244
544.113134	0.236138
544.472571	0.239624
544.831953	0.236408
545.191278	0.240609
545.550548	0.239906
545.909761	0.236928
546.268918	0.237739
546.628019	0.235793
546.987064	0.238623
547.346053	0.240488
547.704986	0.237946
548.063863	0.238571
548.422684	0.238818
548.781449	0.240785
549.140158	0.238216
549.498811	0.241166
549.857408	0.244382
550.215949	0.238862
550.574434	0.241965
550.932864	0.240008
551.291237	0.238908
551.649555	0.240228
552.007817	0.239927
552.366022	0.240715
552.724173	0.240886
553.082267	0.241467
553.440305	0.238167
553.798288	0.242401
554.156215	0.239063
554.514086	0.239934
554.871902	0.242822
555.229661	0.242184
555.587365	0.242715
555.945014	0.245057
556.302606	0.241797
556.660143	0.244518
557.017625	0.241053
557.375050	0.243374
557.732421	0.240480
558.089735	0.242174
558.446994	0.242101
558.804197	0.241532
559.161345	0.241607
559.518437	0.245043
559.875474	0.242473
560.232455	0.242146
560.589381	0.243147
560.946251	0.243602
561.303065	0.241085
561.659825	0.242372
562.016528	0.243909
562.373177	0.246875
562.729770	0.243925
563.086307	0.246131
563.442789	0.243969
563.799216	0.246895
564.155587	0.245515
564.511904	0.246758
564.868164	0.246687
565.224370	0.246870
565.580520	0.248304
565.936615	0.248288
566.292654	0.251396
566.648638	0.248215
567.004567	0.249093
567.360441	0.249911
567.716260	0.251600
568.072023	0.249559
568.427732	0.250133
568.783385	0.252806
569.138982	0.251012
569.494525	0.250362
569.850013	0.253295
570.205445	0.251840
570.560823	0.254274
570.916145	0.255931
571.271412	0.254486
571.626625	0.255847
571.981782	0.256569
572.336884	0.257507
572.691931	0.256784
573.046923	0.258379
573.401860	0.259871
573.756743	0.261193
574.111570	0.260039
574.466342	0.260406
574.821059	0.259657
575.175722	0.262538
575.530330	0.262389
575.884882	0.262287
576.239380	0.264392
576.593823	0.264923
576.948211	0.264382
577.302544	0.267659
577.656823	0.267098
578.011047	0.267386
578.365216	0.268002
578.719330	0.270410
579.073389	0.269791
579.427394	0.271330
579.781344	0.271949
580.135239	0.273437
580.489080	0.273039
580.842866	0.275899
581.196597	0.275841
581.550273	0.274466
581.903895	0.275564
582.257463	0.273931
582.610975	0.277325
582.964434	0.276462
583.317837	0.278862
583.671186	0.279564
584.024481	0.279450
584.377721	0.281972
584.730906	0.282377
585.084037	0.281494
585.437113	0.283916
585.790135	0.282885
586.143103	0.285656
586.496016	0.287031
586.848874	0.284479
587.201679	0.284761
587.554428	0.288362
587.907124	0.287242
588.259765	0.287823
588.612352	0.288278
588.964884	0.292429
589.317362	0.291825
589.669786	0.291816
590.022155	0.290659
590.374470	0.289662
590.726731	0.291523
591.078937	0.296554
591.431090	0.292396
591.783188	0.297040
592.135232	0.297427
592.487222	0.297383
592.839157	0.295530
593.191038	0.297601
593.542866	0.299754
593.894639	0.303367
594.246358	0.301341
594.598022	0.300729
594.949633	0.304366
595.301190	0.305115
595.652692	0.304127
596.004141	0.300280
596.355535	0.308582
596.706876	0.309000
597.058162	0.311550
597.409395	0.308747
597.760573	0.306337
598.111698	0.309466
598.462768	0.309910
598.813785	0.311461
599.164748	0.313010
599.515657	0.313201
599.866511	0.316234
600.217312	0.311524
600.568060	0.316900
600.918753	0.312985
601.269392	0.314145
601.619978	0.317375
601.970510	0.315270
602.320988	0.315343
602.671412	0.312759
603.021783	0.315353
603.372100	0.316675
603.722363	0.316545
604.072572	0.317347
604.422728	0.317219
604.772830	0.319125
605.122878	0.318793
605.472872	0.319041
605.822813	0.317463
606.172701	0.320018
606.522534	0.317529
606.872314	0.317528
607.222041	0.318744
607.571714	0.316904
607.921333	0.318450
608.270899	0.317875
608.620411	0.314444
608.969870	0.318511
609.319276	0.318513
609.668627	0.318333
610.017926	0.317102
610.367171	0.315729
610.716362	0.316184
611.065500	0.316522
611.414585	0.315464
611.763616	0.315669
612.112594	0.316578
612.461518	0.315810
612.810389	0.313308
613.159207	0.315874
613.507971	0.317425
613.856682	0.313221
614.205340	0.314763
614.553945	0.311235
614.902496	0.315214
615.250994	0.313449
615.599439	0.314396
615.947830	0.314077
616.296169	0.314680
616.644454	0.314116
616.992686	0.314071
617.340864	0.312021
617.688990	0.316012
618.037063	0.312254
618.385082	0.314492
618.733048	0.310778
619.080961	0.313523
619.428821	0.312708
619.776628	0.312300
620.124382	0.314656
620.472083	0.314540
620.819731	0.314281
621.167326	0.317754
621.514868	0.317859
621.862357	0.322118
622.209793	0.321347
622.557176	0.323570
622.904506	0.324780
623.251783	0.327109
623.599007	0.329200
623.946179	0.328746
624.293297	0.330840
624.640363	0.334395
624.987376	0.335186
625.334336	0.337543
625.681243	0.339883
626.028097	0.340602
626.374899	0.341722
626.721647	0.341646
627.068343	0.345293
627.414987	0.346122
627.761577	0.348496
628.108115	0.346642
628.454600	0.351839
628.801032	0.349044
629.147412	0.351112
629.493739	0.351206
629.840014	0.354777
630.186236	0.352077
630.532405	0.357571
630.878521	0.354500
631.224585	0.357228
631.570597	0.360535
631.916556	0.359157
632.262462	0.359659
632.608316	0.361542
632.954117	0.361971
633.299866	0.363007
633.645562	0.363674
633.991206	0.367861
634.336797	0.370872
634.682336	0.373048
635.027823	0.374895
635.373257	0.375223
635.718639	0.378669
636.063968	0.377970
636.409245	0.383983
636.754470	0.384222
637.099642	0.386926
637.444762	0.389773
637.789829	0.389041
638.134845	0.392762
638.479808	0.393337
638.824719	0.393260
639.169577	0.397135
639.514383	0.396049
639.859137	0.400187
640.203839	0.400273
640.548489	0.400511
640.893086	0.402126
641.237632	0.403463
641.582125	0.402317
641.926566	0.403894
642.270955	0.403683
642.615292	0.404352
642.959576	0.403189
643.303809	0.403478
643.647990	0.403136
643.992118	0.403980
644.336195	0.408098
644.680219	0.405877
645.024192	0.406659
645.368112	0.400180
645.711981	0.399240
646.055797	0.394329
646.399562	0.396769
646.743274	0.388900
647.086935	0.386108
647.430544	0.386823
647.774101	0.385366
648.117606	0.384871
648.461059	0.385061
648.804460	0.387796
649.147810	0.393561
649.491108	0.394950
649.834354	0.396444
650.177548	0.401398
650.520690	0.406995
650.863781	0.408236
651.206820	0.407719
651.549807	0.411963
651.892742	0.416365
652.235626	0.415704
652.578458	0.416546
652.921238	0.422482
653.263967	0.420657
653.606644	0.424540
653.949269	0.423952
654.291843	0.427994
654.634365	0.425189
654.976836	0.427665
655.319255	0.427946
655.661622	0.429627
656.003938	0.429935
656.346203	0.432924
656.688416	0.430998
657.030577	0.434315
657.372687	0.436480
657.714746	0.436729
658.056753	0.433713
658.398708	0.437368
658.740612	0.438770
659.082465	0.434614
659.424266	0.435595
659.766016	0.434873
660.107715	0.437513
660.449362	0.436447
660.790958	0.437351
661.132503	0.437700
661.473996	0.435300
661.815438	0.436109
662.156829	0.436133
662.498168	0.436799
662.839456	0.438109
663.180693	0.436350
663.521879	0.436113
663.863013	0.437192
664.204097	0.435814
664.545129	0.432354
664.886110	0.433045
665.227040	0.430146
665.567918	0.432702
665.908746	0.430820
666.249522	0.430475
666.590248	0.431480
666.930922	0.429507
667.271545	0.428824
667.612118	0.428725
667.952639	0.430230
668.293109	0.428836
668.633528	0.432120
668.973896	0.431973
669.314213	0.431866
669.654480	0.433416
669.994695	0.434062
670.334859	0.434999
670.674973	0.434887
671.015035	0.435436
671.355047	0.434820
671.695008	0.436244
672.034918	0.438058
672.374777	0.437397
672.714585	0.438684
673.054342	0.438592
673.394049	0.438906
673.733705	0.435945
674.073310	0.437513
674.412864	0.440627
674.752368	0.441134
675.091820	0.440781
675.431223	0.445081
675.770574	0.445092
676.109875	0.448223
676.449125	0.448498
676.788324	0.450853
677.127473	0.455601
677.466571	0.456112
677.805619	0.457172
678.144616	0.458562
678.483562	0.460113
678.822458	0.462900
679.161303	0.463790
679.500098	0.464261
679.838842	0.465699
680.177535	0.464805
680.516179	0.463812
680.854771	0.462777
681.193314	0.456584
681.531805	0.447657
681.870247	0.436301
682.208638	0.428747
682.546978	0.427677
682.885268	0.429431
683.223508	0.435713
683.561697	0.439554
683.899836	0.442447
684.237925	0.445299
684.575963	0.448301
684.913951	0.451428
685.251889	0.446768
685.589776	0.448561
685.927614	0.450965
686.265401	0.444850
686.603137	0.447178
686.940824	0.440884
687.278460	0.439201
687.616046	0.438726
687.953582	0.433460
688.291068	0.434599
688.628504	0.430555
688.965889	0.432651
689.303224	0.436780
689.640510	0.440668
689.977745	0.446595
690.314930	0.454660
690.652065	0.458953
690.989150	0.465999
691.326185	0.472940
691.663170	0.477690
692.000105	0.485022
692.336990	0.491654
692.673825	0.493648
693.010610	0.500895
693.347345	0.506369
693.684030	0.508136
694.020665	0.513056
694.357251	0.521654
694.693786	0.521068
695.030272	0.525248
695.366707	0.529297
695.703093	0.532179
696.039429	0.530343
696.375716	0.531475
696.711952	0.534573
697.048139	0.536447
697.384276	0.538208
697.720363	0.536844
698.056400	0.535773
698.392388	0.541384
698.728326	0.544604
699.064214	0.546620
699.400053	0.547803
699.735842	0.551623
700.071581	0.554518
700.407270	0.557414
700.742910	0.559359
701.078501	0.566153
701.414042	0.566446
701.749533	0.569962
702.084974	0.578630
702.420366	0.571078
702.755709	0.578833
703.091002	0.585956
703.426246	0.578911
703.761440	0.585035
704.096584	0.590791
704.431679	0.587493
704.766725	0.589834
705.101721	0.591001
705.436668	0.586791
705.771565	0.594274
706.106413	0.590761
706.441212	0.585834
706.775961	0.584685
707.110661	0.587271
707.445311	0.583693
707.779913	0.581003
708.114465	0.579421
708.448967	0.575920
708.783421	0.567975
709.117825	0.562898
709.452180	0.562941
709.786485	0.556560
710.120742	0.546405
710.454949	0.548475
710.789107	0.540705
711.123216	0.531056
711.457275	0.533859
711.791286	0.524728
712.125247	0.522722
712.459159	0.534413
712.793023	0.526846
713.126837	0.531018
713.460602	0.531777
713.794318	0.540422
714.127985	0.539501
714.461602	0.549231
714.795171	0.552793
715.128691	0.560983
715.462162	0.568017
715.795584	0.573361
716.128957	0.576772
716.462281	0.583202
716.795556	0.586495
717.128782	0.591989
717.461960	0.600922
717.795088	0.599546
718.128167	0.605586
718.461198	0.614533
718.794180	0.615351
719.127113	0.617840
719.459997	0.621325
719.792833	0.628316
720.125619	0.628456
720.458357	0.634942
720.791046	0.633710
721.123686	0.637896
721.456278	0.644926
721.788821	0.642482
722.121315	0.645783
722.453761	0.650138
722.786158	0.648599
723.118506	0.644139
723.450805	0.653222
723.783056	0.648687
724.115259	0.645861
724.447412	0.644890
724.779518	0.646255
725.111574	0.646160
725.443582	0.641793
725.775542	0.643555
726.107453	0.635574
726.439315	0.635408
726.771129	0.634628
727.102895	0.627004
727.434612	0.619746
727.766281	0.617909
728.097901	0.617291
728.429473	0.617344
728.760996	0.615789
729.092471	0.615898
729.423897	0.620096
729.755276	0.618662
730.086606	0.618709
730.417887	0.613128
730.749120	0.603808
731.080305	0.594401
731.411442	0.591373
731.742530	0.595359
732.073570	0.595210
732.404562	0.587207
732.735506	0.588963
733.066401	0.593606
733.397249	0.603072
733.728048	0.614958
734.058798	0.626144
734.389501	0.637125
734.720156	0.646986
735.050762	0.653803
735.381320	0.655679
735.711831	0.664801
736.042293	0.669435
736.372707	0.666425
736.703073	0.669958
737.033391	0.672192
737.363661	0.668826
737.693883	0.664889
738.024056	0.663818
738.354182	0.663621
738.684260	0.653517
739.014290	0.649418
739.344272	0.649802
739.674207	0.644016
740.004093	0.642702
740.333931	0.643193
740.663722	0.643270
740.993464	0.643284
741.323159	0.647493
741.652806	0.653216
741.982405	0.656974
742.311956	0.662222
742.641460	0.664405
742.970915	0.667485
743.300323	0.675691
743.629683	0.682166
743.958996	0.684098
744.288260	0.688440
744.617477	0.693900
744.946647	0.695780
745.275768	0.700135
745.604842	0.701577
745.933869	0.711524
746.262847	0.711186
746.591778	0.704495
746.920662	0.712100
747.249498	0.717361
747.578286	0.708820
747.907027	0.704827
748.235720	0.706183
748.564365	0.700396
748.892963	0.700470
749.221514	0.702334
749.550017	0.708916
749.878473	0.708333
750.206881	0.714995
750.535242	0.716014
750.863555	0.715160
751.191821	0.717014
751.520039	0.720393
751.848210	0.724555
752.176334	0.716834
752.504411	0.716468
752.832440	0.723420
753.160421	0.729684
753.488356	0.726243
753.816243	0.723876
754.144082	0.731862
754.471875	0.736342
754.799620	0.730878
755.127318	0.732769
755.454969	0.732605
755.782572	0.732833
756.110129	0.736669
756.437638	0.738809
756.765100	0.735855
757.092515	0.734447
757.419882	0.733036
757.747203	0.739244
758.074477	0.737783
758.401703	0.734879
758.728882	0.729396
759.056014	0.729014
759.383099	0.727474
759.710138	0.729097
760.037129	0.725942
760.364073	0.719216
760.690970	0.722228
761.017820	0.728315
761.344623	0.723621
761.671379	0.714098
761.998088	0.703116
762.324751	0.679786
762.651366	0.638063
762.977935	0.571518
763.304456	0.519294
763.630931	0.510372
763.957359	0.549063
764.283740	0.593717
764.610074	0.620423
764.936362	0.651537
765.262602	0.677470
765.588796	0.699671
765.914943	0.717950
766.241044	0.735831
766.567097	0.741010
766.893104	0.752099
767.219064	0.757242
767.544978	0.764262
767.870845	0.776913
768.196665	0.781472
768.522438	0.779826
768.848165	0.780939
769.173846	0.790307
769.499479	0.794286
769.825066	0.797322
770.150607	0.802984
770.476101	0.796957
770.801548	0.799366
771.126949	0.810343
771.452303	0.813704
771.777611	0.814255
772.102872	0.812027
772.428087	0.818205
772.753256	0.820909
773.078378	0.823554
773.403453	0.832476
773.728482	0.836340
774.053465	0.830456
774.378401	0.833647
774.703291	0.841602
775.028135	0.841695
775.352932	0.843840
775.677683	0.845839
776.002388	0.846226
776.327046	0.845984
776.651658	0.849214
776.976224	0.853445
777.300743	0.852566
777.625216	0.855960
777.949643	0.857784
778.274024	0.856733
778.598359	0.858196
778.922647	0.857120
779.246889	0.857117
779.571086	0.861423
779.895236	0.864126
780.219339	0.861487
780.543397	0.856937
780.867409	0.856145
781.191374	0.859052
781.515294	0.860809
781.839167	0.859288
782.162995	0.862755
782.486776	0.859348
782.810511	0.860308
783.134201	0.863936
783.457844	0.861859
783.781441	0.863574
784.104993	0.870175
784.428498	0.870416
784.751958	0.866123
785.075372	0.868547
785.398739	0.872585
785.722061	0.869252
786.045337	0.864510
786.368568	0.868692
786.691752	0.872229
787.014891	0.856751
787.337983	0.848427
787.661030	0.841706
787.984031	0.823505
788.306987	0.809985
788.629897	0.812893
788.952760	0.816919
789.275579	0.820953
789.598351	0.836843
789.921078	0.850679
790.243759	0.851814
790.566395	0.857215
790.888984	0.864236
791.211529	0.868669
791.534027	0.871335
791.856480	0.874396
792.178888	0.879526
792.501249	0.880841
792.823566	0.882749
793.145836	0.883436
793.468062	0.884738
793.790241	0.884922
794.112375	0.883497
794.434464	0.878917
794.756507	0.877838
795.078505	0.877497
795.400457	0.871977
795.722364	0.860267
796.044226	0.853422
796.366042	0.851913
796.687812	0.855973
797.009538	0.851467
797.331218	0.855028
797.652852	0.859759
797.974442	0.864277
798.295986	0.864578
798.617484	0.866407
798.938938	0.870494
799.260346	0.876479
799.581709	0.877996
799.903026	0.880421
800.224299	0.879740
800.545526	0.884656
800.866708	0.888672
801.187845	0.893571
801.508936	0.892765
801.829983	0.891358
802.150984	0.892391
802.471940	0.897576
802.792851	0.897235
803.113717	0.897797
803.434538	0.895560
803.755314	0.898808
804.076045	0.898704
804.396731	0.900575
804.717372	0.899086
805.037967	0.901974
805.358518	0.898957
805.679024	0.896414
805.999485	0.896741
806.319901	0.896938
806.640272	0.898521
806.960598	0.897292
807.280879	0.893998
807.601115	0.892442
807.921306	0.895566
808.241453	0.896344
808.561554	0.894168
808.881611	0.893834
809.201623	0.895785
809.521590	0.895796
809.841513	0.896846
810.161390	0.896476
810.481223	0.897819
810.801011	0.901156
811.120755	0.903285
811.440453	0.901333
811.760107	0.900206
812.079716	0.900627
812.399281	0.904356
812.718801	0.906209
813.038276	0.906456
813.357707	0.906794
813.677093	0.903639
813.996434	0.908433
814.315731	0.908936
814.634983	0.909447
814.954191	0.908224
815.273354	0.904665
815.592473	0.901428
815.911547	0.900792
816.230577	0.898316
816.549562	0.895759
816.868502	0.896824
817.187399	0.893294
817.506250	0.888075
817.825058	0.890873
818.143821	0.885704
818.462539	0.881833
818.781213	0.873920
819.099843	0.861691
819.418429	0.845381
819.736970	0.830192
820.055466	0.810502
820.373919	0.784236
820.692327	0.751180
821.010691	0.717436
821.329011	0.640768
821.647286	0.525079
821.965517	0.411681
822.283704	0.369117
822.601847	0.370592
822.919945	0.406361
823.237999	0.439383
823.556010	0.486202
823.873976	0.542174
824.191897	0.591963
824.509775	0.634641
824.827609	0.680351
825.145398	0.702496
825.463144	0.705420
825.780845	0.688787
826.098502	0.669850
826.416116	0.623463
826.733685	0.580145
827.051210	0.571553
827.368692	0.585723
827.686129	0.623038
828.003522	0.676347
828.320872	0.723741
828.638177	0.767517
828.955439	0.800890
829.272656	0.821914
829.589830	0.838515
829.906960	0.855220
830.224046	0.866743
830.541088	0.877229
830.858086	0.881795
831.175041	0.887198
831.491952	0.886154
831.808819	0.883387
832.125642	0.876598
832.442421	0.862109
832.759157	0.840220
833.075849	0.794008
833.392497	0.730993
833.709101	0.690357
834.025662	0.699488
834.342179	0.730948
834.658653	0.771101
834.975083	0.806550
835.291469	0.832068
835.607811	0.855029
835.924110	0.870995
836.240366	0.888249
836.556578	0.901844
836.872746	0.909312
837.188871	0.914709
837.504952	0.919321
837.820990	0.923183
838.136984	0.927659
838.452935	0.929347
838.768842	0.931568
839.084706	0.925027
839.400526	0.899850
839.716303	0.858744
840.032037	0.836918
840.347727	0.840577
840.663373	0.859652
840.978977	0.880339
841.294537	0.902653
841.610054	0.918591
841.925527	0.925263
842.240957	0.932314
842.556344	0.940428
842.871687	0.945318
843.186987	0.950488
843.502244	0.950239
843.817458	0.951295
844.132629	0.955662
844.447756	0.960405
844.762840	0.960747
845.077881	0.960677
845.392879	0.959685
845.707833	0.963137
846.022745	0.965587
846.337613	0.964673
846.652438	0.966677
846.967221	0.964935
847.281960	0.965069
847.596656	0.967418
847.911309	0.965258
848.225919	0.967667
848.540485	0.968600
848.855009	0.969284
849.169490	0.969413
849.483928	0.969805
849.798323	0.969600
850.112675	0.970111
850.426984	0.970297
850.741251	0.969854
851.055474	0.969132
851.369654	0.968274
851.683792	0.969498
851.997887	0.970157
852.311938	0.971318
852.625947	0.969314
852.939914	0.967791
853.253837	0.970244
853.567718	0.971172
853.881555	0.971152
854.195350	0.967829
854.509103	0.969871
854.822812	0.969839
855.136479	0.970679
855.450103	0.969789
855.763685	0.967038
856.077224	0.969467
856.390720	0.970634
856.704173	0.970896
857.017584	0.968763
857.330953	0.967656
857.644278	0.967958
857.957561	0.968343
858.270802	0.968648
858.584000	0.967756
858.897155	0.966432
859.210268	0.968401
859.523339	0.968517
859.836367	0.970434
860.149352	0.971724
860.462295	0.970761
860.775195	0.969489
861.088054	0.969132
861.400869	0.969948
861.713642	0.969907
862.026373	0.970623
862.339062	0.970900
862.651708	0.967185
862.964312	0.968515
863.276873	0.969729
863.589392	0.968177
863.901869	0.966364
864.214303	0.965842
864.526696	0.964195
864.839045	0.962655
865.151353	0.961466
865.463619	0.962688
865.775842	0.963878
866.088023	0.962303
866.400162	0.962539
866.712258	0.963180
867.024313	0.962674
867.336325	0.964445
867.648296	0.963666
867.960224	0.962359
868.272110	0.961216
868.583954	0.964252
868.895755	0.963897
869.207515	0.961622
869.519233	0.959923
869.830909	0.961303
870.142542	0.962288
870.454134	0.961077
870.765684	0.959921
871.077191	0.959016
871.388657	0.959162
871.700081	0.957388
872.011463	0.957780
872.322803	0.958181
872.634101	0.957115
872.945357	0.953528
873.256571	0.953032
873.567744	0.952454
873.878874	0.954025
874.189963	0.951943
874.501010	0.952770
874.812015	0.950655
875.122979	0.950873
875.433900	0.953891
875.744780	0.954718
876.055618	0.951254
876.366415	0.950564
876.677169	0.950312
876.987882	0.952451
877.298554	0.951476
877.609183	0.947592
877.919771	0.945814
878.230317	0.943290
878.540822	0.941351
878.851285	0.936013
879.161707	0.926965
879.472087	0.915601
879.782425	0.899168
880.092722	0.865386
880.402977	0.814014
880.713191	0.754229
881.023363	0.694460
881.333494	0.661111
881.643583	0.633257
881.953631	0.632769
882.263637	0.662097
882.573602	0.701170
882.883526	0.726267
883.193408	0.749746
883.503248	0.771635
883.813048	0.798633
884.122806	0.829346
884.432522	0.852046
884.742197	0.870916
885.051831	0.881897
885.361424	0.892049
885.670975	0.903592
885.980485	0.914030
886.289954	0.919547
886.599382	0.925275
886.908768	0.928474
887.218113	0.935881
887.527417	0.939642
887.836680	0.942828
888.145901	0.944069
888.455082	0.947797
888.764221	0.950817
889.073319	0.953162
889.382376	0.953785
889.691392	0.952730
890.000366	0.952497
890.309300	0.953797
890.618193	0.952739
890.927044	0.950818
891.235855	0.952068
891.544625	0.951202
891.853353	0.951704
892.162041	0.949979
892.470687	0.944147
892.779293	0.938280
893.087858	0.935380
893.396381	0.926414
893.704864	0.914019
894.013306	0.890743
894.321707	0.864198
894.630068	0.849058
894.938387	0.844100
895.246665	0.846125
895.554903	0.858482
895.863100	0.870759
896.171256	0.887659
896.479371	0.907574
896.787446	0.920552
897.095480	0.925164
897.403473	0.929275
897.711425	0.933814
898.019336	0.941831
898.327207	0.944229
898.635038	0.945681
898.942827	0.945355
899.250576	0.948369
899.558284	0.953049
899.865952	0.954837
900.173579	0.956076
900.481165	0.955426
900.788711	0.961224
901.096216	0.961139
901.403681	0.962105
901.711105	0.963027
902.018489	0.964701
902.325832	0.963299
902.633135	0.962554
902.940397	0.955597
903.247619	0.944607
903.554800	0.919353
903.861941	0.878878
904.169041	0.844421
904.476101	0.827479
904.783121	0.827732
905.090100	0.845114
905.397039	0.865677
905.703938	0.887187
906.010796	0.906575
906.317614	0.923604
906.624391	0.935723
906.931129	0.944781
907.237826	0.952138
907.544483	0.959719
907.851099	0.963474
908.157675	0.968050
908.464211	0.970634
908.770707	0.971838
909.077163	0.974311
909.383578	0.974316
909.689954	0.975299
909.996289	0.976597
910.302584	0.977669
910.608839	0.979507
910.915054	0.978007
911.221229	0.977211
911.527363	0.977061
911.833458	0.976796
912.139513	0.976665
912.445527	0.974852
912.751502	0.973358
913.057436	0.971884
913.363331	0.971040
913.669186	0.967285
913.975000	0.962235
914.280775	0.955912
914.586510	0.948724
914.892205	0.936328
915.197859	0.914491
915.503475	0.887811
915.809050	0.868822
916.114585	0.863001
916.420081	0.860418
916.725536	0.856794
917.030952	0.865225
917.336328	0.878171
917.641665	0.892555
917.946961	0.908203
918.252218	0.920278
918.557435	0.928108
918.862612	0.936368
919.167750	0.943119
919.472848	0.947333
919.777906	0.952249
920.082925	0.958246
920.387904	0.961496
920.692843	0.964240
920.997743	0.964575
921.302603	0.968050
921.607423	0.969412
921.912204	0.971942
922.216946	0.971938
922.521647	0.973191
922.826310	0.975290
923.130932	0.977241
923.435516	0.978370
923.740059	0.979743
924.044564	0.978567
924.349028	0.980484
924.653454	0.983615
924.957840	0.984577
925.262186	0.985183
925.566493	0.984711
925.870761	0.983838
926.174989	0.986567
926.479178	0.989108
926.783328	0.987952
927.087438	0.989081
927.391509	0.988189
927.695541	0.990874
927.999533	0.989724
928.303486	0.988254
928.607400	0.991691
928.911275	0.990900
929.215110	0.990504
929.518906	0.991550
929.822663	0.989238
930.126381	0.991370
930.430060	0.990987
930.733699	0.990633
931.037299	0.989782
931.340861	0.991156
931.644383	0.989808
931.947866	0.989150
932.251309	0.990269
932.554714	0.989588
932.858080	0.990348
933.161407	0.990907
933.464694	0.990908
933.767943	0.989656
934.071153	0.990534
934.374323	0.991291
934.677455	0.991429
934.980548	0.992073
935.283602	0.991295
935.586617	0.991707
935.889593	0.990680
936.192530	0.990778
936.495428	0.991979
936.798287	0.989718
937.101108	0.990888
937.403890	0.989377
937.706632	0.989706
938.009336	0.986455
938.312002	0.985141
938.614628	0.984846
938.917216	0.983046
939.219765	0.982475
939.522275	0.983427
939.824747	0.983426
940.127179	0.984002
940.429573	0.984822
940.731929	0.982383
941.034246	0.984044
941.336524	0.985845
941.638763	0.986054
941.940964	0.987190
942.243126	0.986794
942.545250	0.986204
942.847335	0.989659
943.149381	0.988220
943.451389	0.987802
943.753359	0.988007
944.055290	0.990466
944.357182	0.989484
944.659036	0.988229
944.960851	0.988730
945.262628	0.990180
945.564367	0.990429
945.866067	0.990490
946.167729	0.989903
946.469352	0.989373
946.770937	0.988116
947.072484	0.991442
947.373992	0.991003
947.675462	0.989948
947.976893	0.989682
948.278286	0.990102
948.579641	0.991184
948.880958	0.991524
949.182236	0.990760
949.483476	0.991899
949.784678	0.991415
950.085841	0.992280
950.386967	0.991525
950.688054	0.990920
950.989103	0.991196
951.290114	0.988980
951.591087	0.989849
951.892021	0.989534
952.192917	0.988460
952.493776	0.987804
952.794596	0.987599
953.095378	0.987960
953.396122	0.988646
953.696828	0.986966
953.997496	0.990243
954.298126	0.990970
954.598718	0.990256
954.899272	0.991788
955.199788	0.990402
955.500266	0.992221
955.800706	0.992937
956.101108	0.993098
956.401472	0.994076
956.701798	0.993036
957.002087	0.992523
957.302337	0.993351
957.602550	0.995501
957.902724	0.995874
958.202861	0.995605
958.502960	0.995100
958.803022	0.994001
959.103045	0.995570
959.403031	0.995659
959.702979	0.995336
960.002889	0.996668
960.302762	0.993798
960.602596	0.996918
960.902393	0.995137
961.202153	0.997663
961.501875	0.996568
961.801559	0.995235
962.101205	0.995805
962.400814	0.996232
962.700385	0.995761
962.999918	0.995952
963.299414	0.996619
963.598873	0.995262
963.898293	0.996154
964.197677	0.996098
964.497022	0.996392
964.796331	0.997780
965.095601	0.997029
965.394835	0.996214
965.694030	0.997357
965.993189	0.996032
966.292309	0.996864
966.591393	0.996705
966.890439	0.998514
967.189447	0.996394
967.488419	0.997080
967.787353	0.996698
968.086249	0.997455
968.385108	0.996053
968.683930	0.997646
968.982714	0.996378
969.281462	0.997567
969.580172	0.995618
969.878844	0.996732
970.177480	0.996295
970.476078	0.997782
970.774639	0.996962
971.073162	0.996711
971.371649	0.997202
971.670098	0.995798
971.968510	0.998830
972.266885	0.995310
972.565223	0.995704
972.863524	0.996224
973.161788	0.996296
973.460014	0.997352
973.758204	0.995955
974.056356	0.996560
974.354471	0.994320
974.652550	0.997028
974.950591	0.996728
975.248595	0.995997
975.546563	0.996911
975.844493	0.997884
976.142386	0.996688
976.440243	0.997025
976.738062	0.996823
977.035845	0.998100
977.333590	0.995972
977.631299	0.997131
977.928971	0.997347
978.226606	0.996854
978.524204	0.995974
978.821765	0.998697
979.119290	0.996048
979.416777	0.996924
979.714228	0.996851
980.011642	0.995449
980.309020	0.997735
980.606360	0.996719
980.903664	0.998047
981.200931	0.995424
981.498162	0.994707
981.795356	0.994859
982.092513	0.994714
982.389633	0.994614
982.686717	0.991012
982.983764	0.990917
983.280775	0.990971
983.577749	0.989941
983.874686	0.991026
984.171587	0.991352
984.468451	0.992939
984.765279	0.994481
985.062070	0.994483
985.358824	0.995713
985.655543	0.994109
985.952224	0.996477
986.248869	0.996194
986.545478	0.997715
986.842050	0.998465
987.138586	0.994800
987.435086	0.995972
987.731549	0.999137
988.027975	0.998174
988.324366	0.997847
988.620719	0.997073
988.917037	0.995313
989.213318	0.998484
989.509563	0.998281
989.805772	0.996871
990.101944	0.998064
990.398080	0.997785
990.694180	0.998117
990.990244	0.997330
991.286271	0.998464
991.582262	0.998371
991.878217	0.997953
992.174136	0.999106
992.470019	0.999195
992.765865	0.998667
993.061676	0.998902
993.357450	0.996903
993.653188	0.997270
993.948890	0.997355
994.244556	0.998412
994.540186	0.997631
994.835780	0.996147
995.131337	0.996900
995.426859	0.997268
995.722345	0.997706
996.017795	0.996261
996.313208	0.997034
996.608586	0.996489
996.903928	0.996330
997.199234	0.996143
997.494504	0.997124
997.789738	0.995972
998.084936	0.995862
998.380099	0.998209
998.675225	0.997364
998.970316	0.997985
999.265371	0.998167
999.560390	0.997886
999.855373	0.998731
1000.150320	0.996735
1000.445232	0.998202
1000.740108	0.998049
1001.034948	0.997494
1001.329752	0.999692
1001.624521	0.998372
1001.919254	0.998679
1002.213951	0.997074
1002.508613	0.998161
1002.803239	0.999869
1003.097829	0.998255
1003.392384	0.999992
1003.686903	0.997794
1003.981386	0.998779
1004.275834	0.999275
1004.570246	0.997891
1004.864623	0.998898
1005.158964	1.000023
1005.453270	0.997723
1005.747540	0.996492
1006.041775	0.998527
1006.335974	0.999061
1006.630138	0.999148
1006.924266	0.998607
1007.218359	1.000568
1007.512416	0.999498
1007.806438	0.999435
1008.100425	0.999640
1008.394376	0.998730
1008.688292	0.998422
1008.982172	1.000917
1009.276017	1.000348
1009.569827	0.999198
1009.863602	0.999016
1010.157341	0.999283
1010.451045	0.999675
1010.744714	0.999156
1011.038347	0.999685
1011.331945	0.999620
1011.625508	0.997203
1011.919036	0.998881
1012.212528	0.998215
1012.505986	0.997120
1012.799408	0.998865
1013.092795	0.999573
1013.386147	0.999371
1013.679464	0.999522
1013.972745	0.998222
1014.265992	0.998065
1014.559204	0.998752
1014.852380	1.000071
1015.145521	0.999160
1015.438628	0.998679
1015.731699	0.997733
1016.024736	0.998402
1016.317737	0.998850
1016.610703	0.998623
1016.903635	0.999452
1017.196531	0.998725
1017.489393	0.998845
1017.782219	0.998182
1018.075011	0.998910
1018.367768	0.999484
1018.660490	0.999194
1018.953177	0.999194
1019.245829	0.999194
