Dividing Wavelength (nm)	Counts (n)	Blue Motor Position (mm): 0.000000	Red Motor Position (mm): 41.800000	
326.493990	1.000573
326.888308	1.000573
327.282561	1.000573
327.676750	0.998371
328.070874	0.999289
328.464933	1.000511
328.858929	0.999429
329.252859	1.000530
329.646726	0.999854
330.040528	0.999272
330.434265	0.999301
330.827938	1.001585
331.221547	1.000834
331.615091	0.999580
332.008571	0.998626
332.401986	0.999458
332.795338	1.000646
333.188625	0.998149
333.581847	1.000388
333.975006	0.998115
334.368100	0.999172
334.761129	0.998851
335.154095	1.001124
335.546996	0.999075
335.939833	0.998870
336.332606	0.997802
336.725315	0.999295
337.117960	0.999024
337.510540	0.997769
337.903056	0.998411
338.295508	0.997383
338.687896	0.998650
339.080220	0.997229
339.472480	0.997408
339.864676	0.998344
340.256807	0.998341
340.648875	0.998847
341.040879	0.998695
341.432818	0.997483
341.824694	0.997519
342.216506	0.998146
342.608253	0.998452
342.999937	0.997615
343.391557	0.998344
343.783113	0.997646
344.174605	0.998705
344.566033	0.998794
344.957397	0.998040
345.348697	0.996897
345.739934	0.998662
346.131106	0.996343
346.522215	0.996849
346.913260	0.997582
347.304241	0.997867
347.695159	0.997900
348.086012	0.996846
348.476802	0.997981
348.867528	0.996991
349.258191	0.997088
349.648789	0.999754
350.039324	0.998136
350.429796	0.999145
350.820203	0.997546
351.210548	0.997536
351.600828	0.998140
351.991045	0.997816
352.381198	0.997039
352.771288	0.998162
353.161314	0.997834
353.551276	0.999237
353.941175	0.997857
354.331010	0.997399
354.720782	0.998014
355.110490	0.997625
355.500135	0.998639
355.889717	0.997635
356.279235	0.998901
356.668689	0.998329
357.058080	0.998329
357.447408	0.999916
357.836672	0.998814
358.225873	0.999262
358.615010	0.998402
359.004084	0.999446
359.393095	0.998087
359.782043	0.997718
360.170927	0.998903
360.559748	0.999297
360.948505	0.997414
361.337199	0.998330
361.725830	0.998994
362.114398	0.998154
362.502903	0.999734
362.891344	0.999751
363.279722	0.997196
363.668037	0.999010
364.056289	0.997954
364.444478	0.999673
364.832603	0.998989
365.220665	0.998173
365.608665	0.997616
365.996601	0.997668
366.384474	0.996591
366.772284	0.998012
367.160031	0.996754
367.547715	0.997343
367.935336	0.998163
368.322893	0.997687
368.710388	0.997304
369.097820	0.997639
369.485189	0.996305
369.872495	0.997864
370.259738	0.996171
370.646918	0.998799
371.034035	0.998654
371.421090	0.998303
371.808081	0.998092
372.195010	0.998432
372.581875	0.997969
372.968678	0.998306
373.355418	0.997348
373.742096	0.998902
374.128710	0.999048
374.515262	0.997524
374.901751	0.998455
375.288177	0.998350
375.674540	0.999013
376.060841	0.997438
376.447079	0.998887
376.833254	0.998451
377.219367	0.998934
377.605417	0.998417
377.991404	0.999116
378.377329	0.998751
378.763191	0.998866
379.148991	0.998902
379.534727	0.998591
379.920402	0.998183
380.306013	0.999257
380.691563	0.999195
381.077049	0.997883
381.462474	0.998405
381.847835	0.998200
382.233134	0.998178
382.618371	0.998511
383.003545	0.998243
383.388657	0.997421
383.773706	0.998321
384.158693	0.998652
384.543618	0.998303
384.928480	0.999919
385.313280	0.997854
385.698017	0.999484
386.082692	0.998822
386.467305	0.998792
386.851856	0.997839
387.236344	0.997612
387.620770	0.997467
388.005133	0.997951
388.389435	0.999841
388.773674	0.998362
389.157851	0.999330
389.541965	0.998260
389.926018	0.997904
390.310008	0.999419
390.693936	0.999104
391.077802	0.998251
391.461606	0.997602
391.845348	0.999026
392.229027	0.999261
392.612645	0.998087
392.996200	0.999211
393.379694	0.998209
393.763125	0.999681
394.146494	0.999919
394.529801	0.998566
394.913047	0.999173
395.296230	0.998933
395.679351	0.999217
396.062410	0.999421
396.445408	0.999012
396.828343	0.998425
397.211217	0.998752
397.594028	0.998768
397.976778	0.998653
398.359466	0.998337
398.742092	0.998074
399.124656	0.998282
399.507158	0.998996
399.889598	0.999794
400.271977	0.998995
400.654294	0.999270
401.036549	0.999867
401.418742	0.999717
401.800874	0.998522
402.182944	0.998325
402.564952	0.998218
402.946898	0.999172
403.328783	0.998708
403.710606	0.998820
404.092367	0.998730
404.474067	0.999272
404.855705	0.998453
405.237282	0.999670
405.618797	0.999239
406.000250	0.997546
406.381642	0.999041
406.762972	0.999215
407.144240	0.999821
407.525447	0.999559
407.906593	0.998470
408.287677	0.999677
408.668700	0.999961
409.049661	0.997982
409.430560	0.998894
409.811399	0.998639
410.192176	0.998809
410.572891	0.998517
410.953545	0.999054
411.334138	0.997982
411.714669	0.999059
412.095139	0.998364
412.475547	0.999183
412.855894	0.999431
413.236180	0.998857
413.616405	0.998579
413.996568	0.999216
414.376670	0.999127
414.756711	0.998777
415.136691	0.998667
415.516609	0.998773
415.896466	0.998432
416.276262	0.998605
416.655997	0.999554
417.035670	0.997414
417.415283	0.997929
417.794834	0.999275
418.174324	0.999295
418.553753	0.999117
418.933121	0.998235
419.312428	0.997843
419.691674	0.998560
420.070859	0.999670
420.449983	0.998789
420.829045	0.999124
421.208047	0.999491
421.586988	0.999941
421.965867	0.998444
422.344686	0.999287
422.723444	0.999274
423.102141	0.998895
423.480777	0.999251
423.859352	0.999162
424.237866	0.998371
424.616319	0.999227
424.994712	0.998908
425.373044	0.999554
425.751314	0.999486
426.129524	0.998871
426.507673	0.998662
426.885762	0.999197
427.263789	0.999064
427.641756	0.999552
428.019662	0.999882
428.397508	0.998800
428.775292	0.998082
429.153016	0.998989
429.530679	0.999399
429.908282	0.999171
430.285824	0.998574
430.663305	0.998387
431.040726	0.998715
431.418086	0.999709
431.795385	0.999852
432.172624	0.998355
432.549802	0.998804
432.926920	0.999318
433.303977	0.998936
433.680974	0.999258
434.057910	0.998827
434.434786	1.000091
434.811601	0.998510
435.188355	0.998789
435.565050	0.998740
435.941683	0.999075
436.318257	0.999578
436.694770	0.998875
437.071222	0.999885
437.447614	0.998887
437.823946	1.000367
438.200218	0.998935
438.576429	0.999586
438.952580	0.999851
439.328670	0.998833
439.704700	0.999434
440.080670	0.999788
440.456580	0.999002
440.832429	0.998616
441.208218	1.000130
441.583947	0.999030
441.959616	0.999242
442.335224	0.998818
442.710773	0.999388
443.086261	0.998690
443.461689	0.998820
443.837057	0.998664
444.212365	0.998812
444.587612	0.998826
444.962800	0.998378
445.337927	0.998830
445.712995	1.000034
446.088002	0.999456
446.462949	0.999416
446.837837	0.999829
447.212664	0.999969
447.587431	0.999952
447.962139	0.999862
448.336786	0.999174
448.711374	0.999498
449.085901	0.998743
449.460369	1.000124
449.834776	0.999389
450.209124	0.998603
450.583412	0.999632
450.957640	0.999408
451.331808	0.999247
451.705917	0.998354
452.079965	0.998618
452.453954	0.999712
452.827883	0.998624
453.201752	0.999469
453.575562	1.000268
453.949311	0.999121
454.323001	0.999175
454.696632	0.999149
455.070202	0.998864
455.443713	0.998103
455.817164	0.998983
456.190556	0.998885
456.563888	0.998403
456.937160	0.999081
457.310373	0.998335
457.683526	0.999185
458.056619	0.998824
458.429653	0.999709
458.802628	0.998952
459.175542	0.998235
459.548398	0.998380
459.921194	0.999334
460.293930	0.999208
460.666607	0.999006
461.039224	0.998029
461.411782	0.999388
461.784280	0.998494
462.156719	1.000146
462.529099	0.998976
462.901419	0.999099
463.273680	0.998581
463.645882	0.998560
464.018024	0.998828
464.390106	0.998918
464.762130	1.000352
465.134094	0.999380
465.505999	1.000775
465.877845	0.999547
466.249631	0.999373
466.621358	0.999921
466.993026	0.999349
467.364634	0.998959
467.736184	0.999266
468.107674	0.999049
468.479105	0.998613
468.850477	0.999182
469.221790	0.999223
469.593043	0.999321
469.964238	0.999795
470.335373	0.998574
470.706449	0.998453
471.077467	0.998976
471.448425	0.999304
471.819324	0.999513
472.190164	0.999159
472.560945	0.999293
472.931667	0.999011
473.302330	0.999079
473.672934	0.999243
474.043479	0.998613
474.413965	0.998781
474.784393	0.998890
475.154761	0.998349
475.525070	0.998016
475.895321	0.999595
476.265513	0.998422
476.635645	0.998732
477.005719	0.998806
477.375734	0.998734
477.745691	0.999422
478.115588	0.998858
478.485427	0.999197
478.855207	0.999101
479.224928	0.999732
479.594591	0.999469
479.964194	0.999136
480.333739	0.998836
480.703226	0.998926
481.072653	1.000225
481.442022	0.999333
481.811333	0.998348
482.180584	0.999870
482.549777	0.998914
482.918912	0.998655
483.287988	0.998913
483.657005	0.998843
484.025964	0.999059
484.394864	0.999899
484.763706	0.999203
485.132489	0.999295
485.501213	0.999110
485.869879	0.999603
486.238487	0.999506
486.607036	1.000094
486.975527	0.998481
487.343959	0.998668
487.712333	0.998949
488.080648	0.998913
488.448905	0.999442
488.817104	0.999787
489.185244	0.999209
489.553326	0.998595
489.921350	0.999215
490.289315	0.999396
490.657222	0.999550
491.025070	1.000039
491.392861	0.999857
491.760593	0.999308
492.128267	0.999281
492.495883	0.998630
492.863440	0.998946
493.230939	0.999514
493.598380	0.999549
493.965763	0.999040
494.333088	0.999471
494.700354	0.998983
495.067563	0.999139
495.434713	0.998727
495.801805	0.999368
496.168839	0.999591
496.535815	0.998826
496.902733	0.998314
497.269593	0.998365
497.636395	0.998858
498.003139	0.998733
498.369825	0.999139
498.736453	0.999021
499.103023	0.998365
499.469535	0.998774
499.835989	0.998649
500.202385	0.999257
500.568723	0.998920
500.935003	0.998944
501.301226	0.999501
501.667390	0.999083
502.033497	0.999250
502.399546	0.999942
502.765537	0.998988
503.131470	0.998381
503.497345	0.998601
503.863163	0.999701
504.228923	0.998817
504.594625	0.999538
504.960269	0.999396
505.325856	0.999184
505.691385	0.998677
506.056856	0.998894
506.422270	0.999140
506.787625	0.999589
507.152924	0.998974
507.518164	0.999509
507.883347	0.999384
508.248472	0.998492
508.613540	0.998818
508.978550	0.999776
509.343503	0.998427
509.708398	0.999328
510.073236	0.999139
510.438016	0.999253
510.802738	0.999618
511.167403	0.999050
511.532010	0.998582
511.896561	0.998644
512.261053	1.000305
512.625488	0.998967
512.989866	0.998663
513.354186	0.999171
513.718449	0.998816
514.082655	0.999003
514.446803	0.999029
514.810894	0.999636
515.174927	0.999033
515.538904	0.998526
515.902822	0.998699
516.266684	0.999110
516.630488	0.999603
516.994235	0.998414
517.357925	0.999179
517.721558	0.999260
518.085133	0.998066
518.448651	0.999759
518.812112	0.998988
519.175516	0.998332
519.538863	0.999013
519.902152	0.998381
520.265385	0.998388
520.628560	0.998108
520.991678	0.999220
521.354739	0.998928
521.717743	0.999230
522.080690	0.998506
522.443580	0.998644
522.806413	0.998186
523.169189	0.998358
523.531908	0.998497
523.894569	0.998493
524.257174	0.998521
524.619722	0.998694
524.982213	0.998526
525.344647	0.998690
525.707025	0.997981
526.069345	0.998418
526.431608	0.998493
526.793815	0.998702
527.155964	0.998350
527.518057	0.998696
527.880093	0.997904
528.242072	0.997642
528.603995	0.998237
528.965860	0.999388
529.327669	0.998795
529.689421	0.998747
530.051117	0.998637
530.412755	0.998257
530.774337	0.998242
531.135862	0.998103
531.497331	0.998310
531.858743	0.998445
532.220098	0.998450
532.581396	0.998526
532.942638	0.998430
533.303824	0.998156
533.664953	0.998306
534.026025	0.997927
534.387040	0.997958
534.747999	0.998005
535.108902	0.997644
535.469748	0.997645
535.830537	0.998423
536.191270	0.997519
536.551947	0.997582
536.912567	0.997914
537.273131	0.998263
537.633638	0.997414
537.994089	0.997260
538.354483	0.997663
538.714821	0.998016
539.075103	0.997683
539.435328	0.997637
539.795497	0.997617
540.155609	0.997058
540.515665	0.997398
540.875665	0.997670
541.235609	0.998058
541.595496	0.997647
541.955328	0.997409
542.315102	0.997795
542.674821	0.997991
543.034483	0.997497
543.394090	0.997162
543.753640	0.997771
544.113134	0.997384
544.472571	0.997807
544.831953	0.997945
545.191278	0.998110
545.550548	0.997949
545.909761	0.996604
546.268918	0.997854
546.628019	0.997843
546.987064	0.997002
547.346053	0.997359
547.704986	0.997500
548.063863	0.997743
548.422684	0.997407
548.781449	0.998061
549.140158	0.997039
549.498811	0.997665
549.857408	0.997567
550.215949	0.997298
550.574434	0.996935
550.932864	0.997530
551.291237	0.997820
551.649555	0.997130
552.007817	0.997195
552.366022	0.997415
552.724173	0.997918
553.082267	0.997804
553.440305	0.997506
553.798288	0.997581
554.156215	0.996757
554.514086	0.997230
554.871902	0.997041
555.229661	0.996997
555.587365	0.997379
555.945014	0.997819
556.302606	0.996777
556.660143	0.997340
557.017625	0.996649
557.375050	0.997280
557.732421	0.997263
558.089735	0.997523
558.446994	0.997608
558.804197	0.997535
559.161345	0.998279
559.518437	0.997782
559.875474	0.997248
560.232455	0.997102
560.589381	0.997459
560.946251	0.996724
561.303065	0.997405
561.659825	0.997531
562.016528	0.997167
562.373177	0.997428
562.729770	0.997121
563.086307	0.997279
563.442789	0.997433
563.799216	0.997964
564.155587	0.997282
564.511904	0.996561
564.868164	0.996499
565.224370	0.997069
565.580520	0.997381
565.936615	0.996774
566.292654	0.996843
566.648638	0.997442
567.004567	0.996785
567.360441	0.997861
567.716260	0.997405
568.072023	0.997330
568.427732	0.996688
568.783385	0.997902
569.138982	0.997381
569.494525	0.997195
569.850013	0.997095
570.205445	0.997691
570.560823	0.997651
570.916145	0.996774
571.271412	0.997059
571.626625	0.996955
571.981782	0.996679
572.336884	0.997783
572.691931	0.997144
573.046923	0.996881
573.401860	0.997593
573.756743	0.997305
574.111570	0.997577
574.466342	0.997196
574.821059	0.996816
575.175722	0.997307
575.530330	0.998012
575.884882	0.996992
576.239380	0.997306
576.593823	0.997026
576.948211	0.996459
577.302544	0.996388
577.656823	0.996917
578.011047	0.997196
578.365216	0.996883
578.719330	0.996786
579.073389	0.997334
579.427394	0.996492
579.781344	0.997011
580.135239	0.996307
580.489080	0.996571
580.842866	0.996699
581.196597	0.996542
581.550273	0.996046
581.903895	0.996752
582.257463	0.996121
582.610975	0.996022
582.964434	0.996468
583.317837	0.997418
583.671186	0.995557
584.024481	0.995734
584.377721	0.995889
584.730906	0.996570
585.084037	0.996035
585.437113	0.996081
585.790135	0.995606
586.143103	0.995494
586.496016	0.996839
586.848874	0.995573
587.201679	0.995063
587.554428	0.996125
587.907124	0.995016
588.259765	0.995213
588.612352	0.995442
588.964884	0.995171
589.317362	0.995621
589.669786	0.995099
590.022155	0.995102
590.374470	0.994698
590.726731	0.994654
591.078937	0.994344
591.431090	0.994304
591.783188	0.994533
592.135232	0.994149
592.487222	0.994593
592.839157	0.993823
593.191038	0.994570
593.542866	0.994106
593.894639	0.994800
594.246358	0.993386
594.598022	0.993272
594.949633	0.993759
595.301190	0.992457
595.652692	0.992491
596.004141	0.993619
596.355535	0.993127
596.706876	0.992226
597.058162	0.992799
597.409395	0.992308
597.760573	0.992243
598.111698	0.991708
598.462768	0.991488
598.813785	0.991284
599.164748	0.991754
599.515657	0.991131
599.866511	0.991265
600.217312	0.990961
600.568060	0.990835
600.918753	0.990253
601.269392	0.989658
601.619978	0.990104
601.970510	0.989574
602.320988	0.989461
602.671412	0.989032
603.021783	0.988866
603.372100	0.989448
603.722363	0.989315
604.072572	0.988404
604.422728	0.988623
604.772830	0.987781
605.122878	0.987017
605.472872	0.986900
605.822813	0.985766
606.172701	0.986193
606.522534	0.986207
606.872314	0.985499
607.222041	0.984960
607.571714	0.985686
607.921333	0.984208
608.270899	0.982955
608.620411	0.983150
608.969870	0.982681
609.319276	0.981954
609.668627	0.982757
610.017926	0.980981
610.367171	0.981593
610.716362	0.979735
611.065500	0.979844
611.414585	0.979456
611.763616	0.978917
612.112594	0.978459
612.461518	0.977114
612.810389	0.976818
613.159207	0.976838
613.507971	0.975109
613.856682	0.974789
614.205340	0.974791
614.553945	0.972839
614.902496	0.972273
615.250994	0.972038
615.599439	0.971928
615.947830	0.970304
616.296169	0.970077
616.644454	0.969353
616.992686	0.968098
617.340864	0.966271
617.688990	0.966006
618.037063	0.964108
618.385082	0.963822
618.733048	0.962644
619.080961	0.962211
619.428821	0.960375
619.776628	0.959045
620.124382	0.958410
620.472083	0.956777
620.819731	0.958019
621.167326	0.955749
621.514868	0.955098
621.862357	0.954679
622.209793	0.954507
622.557176	0.951805
622.904506	0.951938
623.251783	0.951452
623.599007	0.950305
623.946179	0.950189
624.293297	0.949384
624.640363	0.948002
624.987376	0.946975
625.334336	0.947829
625.681243	0.945499
626.028097	0.945715
626.374899	0.944347
626.721647	0.942852
627.068343	0.942015
627.414987	0.940642
627.761577	0.939528
628.108115	0.937905
628.454600	0.937543
628.801032	0.934488
629.147412	0.935267
629.493739	0.932768
629.840014	0.932497
630.186236	0.930675
630.532405	0.929838
630.878521	0.927880
631.224585	0.926979
631.570597	0.926381
631.916556	0.923968
632.262462	0.922900
632.608316	0.922327
632.954117	0.919645
633.299866	0.919357
633.645562	0.918070
633.991206	0.916926
634.336797	0.916170
634.682336	0.915200
635.027823	0.914399
635.373257	0.914072
635.718639	0.912463
636.063968	0.910604
636.409245	0.910630
636.754470	0.908963
637.099642	0.909318
637.444762	0.907239
637.789829	0.906133
638.134845	0.904503
638.479808	0.903729
638.824719	0.902124
639.169577	0.901251
639.514383	0.899631
639.859137	0.899196
640.203839	0.898633
640.548489	0.895811
640.893086	0.895537
641.237632	0.894403
641.582125	0.892430
641.926566	0.890372
642.270955	0.890375
642.615292	0.887970
642.959576	0.885950
643.303809	0.884976
643.647990	0.882461
643.992118	0.882368
644.336195	0.881404
644.680219	0.878951
645.024192	0.878332
645.368112	0.874246
645.711981	0.872218
646.055797	0.869790
646.399562	0.867392
646.743274	0.862673
647.086935	0.861211
647.430544	0.859575
647.774101	0.856837
648.117606	0.856811
648.461059	0.854485
648.804460	0.852891
649.147810	0.853776
649.491108	0.852580
649.834354	0.850980
650.177548	0.851337
650.520690	0.850919
650.863781	0.849035
651.206820	0.846696
651.549807	0.847067
651.892742	0.846207
652.235626	0.844413
652.578458	0.842929
652.921238	0.843185
653.263967	0.841415
653.606644	0.841062
653.949269	0.838290
654.291843	0.838139
654.634365	0.834941
654.976836	0.833820
655.319255	0.833354
655.661622	0.830913
656.003938	0.828918
656.346203	0.829866
656.688416	0.826766
657.030577	0.827415
657.372687	0.825177
657.714746	0.824194
658.056753	0.822212
658.398708	0.821757
658.740612	0.821495
659.082465	0.817102
659.424266	0.816297
659.766016	0.813730
660.107715	0.812842
660.449362	0.810602
660.790958	0.809771
661.132503	0.807324
661.473996	0.804380
661.815438	0.804550
662.156829	0.802056
662.498168	0.801034
662.839456	0.801254
663.180693	0.797713
663.521879	0.796701
663.863013	0.795526
664.204097	0.791695
664.545129	0.790095
664.886110	0.788169
665.227040	0.783959
665.567918	0.785057
665.908746	0.781795
666.249522	0.779900
666.590248	0.779913
666.930922	0.777430
667.271545	0.774590
667.612118	0.773165
667.952639	0.772381
668.293109	0.768740
668.633528	0.769031
668.973896	0.767393
669.314213	0.765728
669.654480	0.764541
669.994695	0.763364
670.334859	0.761773
670.674973	0.758662
671.015035	0.758758
671.355047	0.756008
671.695008	0.755338
672.034918	0.755577
672.374777	0.753361
672.714585	0.751566
673.054342	0.750575
673.394049	0.748895
673.733705	0.745349
674.073310	0.743245
674.412864	0.745630
674.752368	0.742682
675.091820	0.741877
675.431223	0.742240
675.770574	0.740290
676.109875	0.740435
676.449125	0.738004
676.788324	0.738524
677.127473	0.739881
677.466571	0.737528
677.805619	0.735841
678.144616	0.734600
678.483562	0.734221
678.822458	0.734726
679.161303	0.733252
679.500098	0.731271
679.838842	0.732450
680.177535	0.730420
680.516179	0.727991
680.854771	0.726393
681.193314	0.721741
681.531805	0.716777
681.870247	0.707907
682.208638	0.703054
682.546978	0.701275
682.885268	0.700303
683.223508	0.701652
683.561697	0.701316
683.899836	0.701825
684.237925	0.702872
684.575963	0.703237
684.913951	0.704525
685.251889	0.699411
685.589776	0.700600
685.927614	0.701932
686.265401	0.695610
686.603137	0.696089
686.940824	0.691313
687.278460	0.689843
687.616046	0.687746
687.953582	0.685161
688.291068	0.684595
688.628504	0.680260
688.965889	0.680249
689.303224	0.681818
689.640510	0.682573
689.977745	0.683999
690.314930	0.686973
690.652065	0.687551
690.989150	0.691702
691.326185	0.692634
691.663170	0.692872
692.000105	0.695981
692.336990	0.698259
692.673825	0.696942
693.010610	0.701232
693.347345	0.703790
693.684030	0.701611
694.020665	0.703718
694.357251	0.709449
694.693786	0.707185
695.030272	0.709767
695.366707	0.709212
695.703093	0.710123
696.039429	0.707559
696.375716	0.706818
696.711952	0.707991
697.048139	0.709668
697.384276	0.709621
697.720363	0.706568
698.056400	0.705084
698.392388	0.707452
698.728326	0.710273
699.064214	0.710791
699.400053	0.709774
699.735842	0.709314
700.071581	0.710752
700.407270	0.711069
700.742910	0.711092
701.078501	0.715545
701.414042	0.713443
701.749533	0.713917
702.084974	0.720273
702.420366	0.712198
702.755709	0.717188
703.091002	0.722167
703.426246	0.714106
703.761440	0.719586
704.096584	0.722816
704.431679	0.718027
704.766725	0.718202
705.101721	0.718835
705.436668	0.713694
705.771565	0.719135
706.106413	0.716503
706.441212	0.710960
706.775961	0.708841
707.110661	0.711894
707.445311	0.708935
707.779913	0.704215
708.114465	0.703724
708.448967	0.701441
708.783421	0.694572
709.117825	0.690211
709.452180	0.690468
709.786485	0.685440
710.120742	0.677589
710.454949	0.679825
710.789107	0.674418
711.123216	0.666932
711.457275	0.669273
711.791286	0.661745
712.125247	0.659650
712.459159	0.668881
712.793023	0.663010
713.126837	0.662693
713.460602	0.661760
713.794318	0.669277
714.127985	0.665214
714.461602	0.670939
714.795171	0.672230
715.128691	0.675629
715.462162	0.679546
715.795584	0.682513
716.128957	0.683546
716.462281	0.688090
716.795556	0.689151
717.128782	0.691271
717.461960	0.697570
717.795088	0.696041
718.128167	0.699809
718.461198	0.705979
718.794180	0.705480
719.127113	0.706494
719.459997	0.708160
719.792833	0.713239
720.125619	0.712753
720.458357	0.717371
720.791046	0.715332
721.123686	0.718105
721.456278	0.723257
721.788821	0.720234
722.121315	0.723483
722.453761	0.725982
722.786158	0.723495
723.118506	0.719945
723.450805	0.726440
723.783056	0.722755
724.115259	0.718982
724.447412	0.718757
724.779518	0.720167
725.111574	0.718946
725.443582	0.714423
725.775542	0.716132
726.107453	0.709173
726.439315	0.708744
726.771129	0.707737
727.102895	0.703167
727.434612	0.697199
727.766281	0.694621
728.097901	0.694348
728.429473	0.693938
728.760996	0.691407
729.092471	0.690603
729.423897	0.692732
729.755276	0.690302
730.086606	0.690122
730.417887	0.685932
730.749120	0.677824
731.080305	0.669399
731.411442	0.665219
731.742530	0.668973
732.073570	0.667355
732.404562	0.660481
732.735506	0.661233
733.066401	0.665393
733.397249	0.671628
733.728048	0.679064
734.058798	0.688043
734.389501	0.695278
734.720156	0.703170
735.050762	0.709925
735.381320	0.709660
735.711831	0.718160
736.042293	0.721677
736.372707	0.717109
736.703073	0.720842
737.033391	0.723636
737.363661	0.719709
737.693883	0.715970
738.024056	0.715128
738.354182	0.716083
738.684260	0.706161
739.014290	0.703347
739.344272	0.704925
739.674207	0.699514
740.004093	0.698386
740.333931	0.698525
740.663722	0.697715
740.993464	0.698464
741.323159	0.700564
741.652806	0.704242
741.982405	0.707571
742.311956	0.710539
742.641460	0.711908
742.970915	0.713848
743.300323	0.720460
743.629683	0.725483
743.958996	0.726267
744.288260	0.729719
744.617477	0.734282
744.946647	0.734560
745.275768	0.739050
745.604842	0.738421
745.933869	0.747874
746.262847	0.747494
746.591778	0.740179
746.920662	0.746665
747.249498	0.752824
747.578286	0.743908
747.907027	0.740908
748.235720	0.741886
748.564365	0.737036
748.892963	0.736247
749.221514	0.738524
749.550017	0.743582
749.878473	0.741976
750.206881	0.747786
750.535242	0.748501
750.863555	0.747175
751.191821	0.748597
751.520039	0.751398
751.848210	0.755832
752.176334	0.748093
752.504411	0.746740
752.832440	0.754749
753.160421	0.758472
753.488356	0.756208
753.816243	0.753859
754.144082	0.761885
754.471875	0.764758
754.799620	0.760694
755.127318	0.761778
755.454969	0.760474
755.782572	0.760460
756.110129	0.765082
756.437638	0.766757
756.765100	0.764335
757.092515	0.761993
757.419882	0.760664
757.747203	0.765809
758.074477	0.764886
758.401703	0.762147
758.728882	0.757770
759.056014	0.756906
759.383099	0.755002
759.710138	0.757406
760.037129	0.753215
760.364073	0.748453
760.690970	0.749797
761.017820	0.755525
761.344623	0.750197
761.671379	0.741947
761.998088	0.730791
762.324751	0.709301
762.651366	0.672956
762.977935	0.612867
763.304456	0.565045
763.630931	0.554521
763.957359	0.589334
764.283740	0.630007
764.610074	0.653896
764.936362	0.682251
765.262602	0.705968
765.588796	0.725878
765.914943	0.742697
766.241044	0.758121
766.567097	0.763867
766.893104	0.772990
767.219064	0.778663
767.544978	0.784814
767.870845	0.797180
768.196665	0.801150
768.522438	0.797837
768.848165	0.798641
769.173846	0.807554
769.499479	0.811646
769.825066	0.815250
770.150607	0.819244
770.476101	0.814375
770.801548	0.814901
771.126949	0.825996
771.452303	0.829358
771.777611	0.828904
772.102872	0.826682
772.428087	0.832399
772.753256	0.835426
773.078378	0.837174
773.403453	0.845042
773.728482	0.849770
774.053465	0.843267
774.378401	0.846431
774.703291	0.854017
775.028135	0.853720
775.352932	0.855552
775.677683	0.858369
776.002388	0.857647
776.327046	0.857495
776.651658	0.861000
776.976224	0.864403
777.300743	0.863655
777.625216	0.866305
777.949643	0.866950
778.274024	0.867298
778.598359	0.868689
778.922647	0.867524
779.246889	0.867478
779.571086	0.871055
779.895236	0.875016
780.219339	0.871295
780.543397	0.868738
780.867409	0.866487
781.191374	0.869855
781.515294	0.870010
781.839167	0.868500
782.162995	0.873063
782.486776	0.869109
782.810511	0.870425
783.134201	0.873139
783.457844	0.871116
783.781441	0.874063
784.104993	0.879682
784.428498	0.880759
784.751958	0.875462
785.075372	0.877519
785.398739	0.881027
785.722061	0.877543
786.045337	0.873687
786.368568	0.877756
786.691752	0.881176
787.014891	0.866214
787.337983	0.858391
787.661030	0.853057
787.984031	0.836007
788.306987	0.823965
788.629897	0.825164
788.952760	0.828146
789.275579	0.833170
789.598351	0.846545
789.921078	0.859407
790.243759	0.860541
790.566395	0.865470
790.888984	0.873007
791.211529	0.877242
791.534027	0.879834
791.856480	0.882677
792.178888	0.887670
792.501249	0.888952
792.823566	0.889999
793.145836	0.890631
793.468062	0.892613
793.790241	0.891633
794.112375	0.890418
794.434464	0.886263
794.756507	0.884556
795.078505	0.885844
795.400457	0.879833
795.722364	0.868576
796.044226	0.861754
796.366042	0.861961
796.687812	0.864951
797.009538	0.861311
797.331218	0.863190
797.652852	0.868627
797.974442	0.872915
798.295986	0.872280
798.617484	0.874556
798.938938	0.878109
799.260346	0.883264
799.581709	0.886116
799.903026	0.888094
800.224299	0.887277
800.545526	0.891831
800.866708	0.896388
801.187845	0.899545
801.508936	0.898702
801.829983	0.895670
802.150984	0.898993
802.471940	0.904086
802.792851	0.903348
803.113717	0.905217
803.434538	0.902364
803.755314	0.904148
804.076045	0.906432
804.396731	0.906923
804.717372	0.907168
805.037967	0.908236
805.358518	0.906497
805.679024	0.904340
805.999485	0.903516
806.319901	0.904104
806.640272	0.904776
806.960598	0.903926
807.280879	0.901117
807.601115	0.898633
807.921306	0.902619
808.241453	0.903246
808.561554	0.900309
808.881611	0.899869
809.201623	0.902963
809.521590	0.902849
809.841513	0.903121
810.161390	0.903460
810.481223	0.903916
810.801011	0.907506
811.120755	0.909305
811.440453	0.907701
811.760107	0.906832
812.079716	0.907428
812.399281	0.910205
812.718801	0.912779
813.038276	0.913556
813.357707	0.912727
813.677093	0.908919
813.996434	0.913236
814.315731	0.914361
814.634983	0.915833
814.954191	0.913948
815.273354	0.911370
815.592473	0.906920
815.911547	0.907252
816.230577	0.905091
816.549562	0.902236
816.868502	0.903711
817.187399	0.900529
817.506250	0.895152
817.825058	0.896980
818.143821	0.893322
818.462539	0.888369
818.781213	0.880040
819.099843	0.868371
819.418429	0.855458
819.736970	0.839204
820.055466	0.819945
820.373919	0.795047
820.692327	0.763810
821.010691	0.731328
821.329011	0.658157
821.647286	0.550560
821.965517	0.443471
822.283704	0.403187
822.601847	0.404352
822.919945	0.437230
823.237999	0.467136
823.556010	0.511141
823.873976	0.564085
824.191897	0.612952
824.509775	0.652649
824.827609	0.696270
825.145398	0.717862
825.463144	0.721265
825.780845	0.703239
826.098502	0.684842
826.416116	0.641751
826.733685	0.600434
827.051210	0.592269
827.368692	0.606162
827.686129	0.641475
828.003522	0.691631
828.320872	0.738144
828.638177	0.778885
828.955439	0.810822
829.272656	0.831072
829.589830	0.848116
829.906960	0.863178
830.224046	0.874281
830.541088	0.884932
830.858086	0.888254
831.175041	0.893835
831.491952	0.894393
831.808819	0.890193
832.125642	0.884973
832.442421	0.869717
832.759157	0.849527
833.075849	0.805162
833.392497	0.744122
833.709101	0.704601
834.025662	0.714348
834.342179	0.744787
834.658653	0.782538
834.975083	0.816122
835.291469	0.841598
835.607811	0.862020
835.924110	0.878085
836.240366	0.893880
836.556578	0.908397
836.872746	0.913890
837.188871	0.920112
837.504952	0.924982
837.820990	0.928465
838.136984	0.932223
838.452935	0.935018
838.768842	0.936515
839.084706	0.929857
839.400526	0.906103
839.716303	0.867135
840.032037	0.845850
840.347727	0.849439
840.663373	0.866197
840.978977	0.887261
841.294537	0.909103
841.610054	0.924578
841.925527	0.930977
842.240957	0.938014
842.556344	0.944371
842.871687	0.951341
843.186987	0.955048
843.502244	0.953748
843.817458	0.955262
844.132629	0.959130
844.447756	0.964086
844.762840	0.964367
845.077881	0.963119
845.392879	0.962718
845.707833	0.965631
846.022745	0.968523
846.337613	0.968238
846.652438	0.969552
846.967221	0.968051
847.281960	0.969071
847.596656	0.970079
847.911309	0.968266
848.225919	0.972254
848.540485	0.971360
848.855009	0.972181
849.169490	0.972277
849.483928	0.973448
849.798323	0.972368
850.112675	0.974149
850.426984	0.973243
850.741251	0.973026
851.055474	0.973182
851.369654	0.970657
851.683792	0.972624
851.997887	0.973480
852.311938	0.973772
852.625947	0.972357
852.939914	0.971136
853.253837	0.972898
853.567718	0.974369
853.881555	0.974583
854.195350	0.971758
854.509103	0.971907
854.822812	0.972902
855.136479	0.972833
855.450103	0.973083
855.763685	0.971639
856.077224	0.972494
856.390720	0.973415
856.704173	0.973227
857.017584	0.972266
857.330953	0.969831
857.644278	0.972376
857.957561	0.971897
858.270802	0.972426
858.584000	0.971827
858.897155	0.969872
859.210268	0.971435
859.523339	0.971738
859.836367	0.973159
860.149352	0.973858
860.462295	0.971531
860.775195	0.974022
861.088054	0.972417
861.400869	0.973485
861.713642	0.974404
862.026373	0.973667
862.339062	0.974425
862.651708	0.971989
862.964312	0.971486
863.276873	0.973650
863.589392	0.972233
863.901869	0.971341
864.214303	0.968464
864.526696	0.967886
864.839045	0.966425
865.151353	0.966004
865.463619	0.967044
865.775842	0.966007
866.088023	0.966123
866.400162	0.965717
866.712258	0.967751
867.024313	0.966878
867.336325	0.967181
867.648296	0.967689
867.960224	0.966326
868.272110	0.965353
868.583954	0.969612
868.895755	0.968033
869.207515	0.965620
869.519233	0.964428
869.830909	0.965941
870.142542	0.966539
870.454134	0.966009
870.765684	0.965413
871.077191	0.962139
871.388657	0.964057
871.700081	0.963561
872.011463	0.962383
872.322803	0.962276
872.634101	0.960631
872.945357	0.959094
873.256571	0.957693
873.567744	0.956988
873.878874	0.958474
874.189963	0.956460
874.501010	0.956976
874.812015	0.953919
875.122979	0.955743
875.433900	0.958569
875.744780	0.958047
876.055618	0.955707
876.366415	0.955103
876.677169	0.954468
876.987882	0.956224
877.298554	0.955534
877.609183	0.952487
877.919771	0.950050
878.230317	0.947965
878.540822	0.945442
878.851285	0.941363
879.161707	0.934140
879.472087	0.922618
879.782425	0.907861
880.092722	0.875752
880.402977	0.825654
880.713191	0.769489
881.023363	0.714243
881.333494	0.682830
881.643583	0.655123
881.953631	0.654850
882.263637	0.682064
882.573602	0.721285
882.883526	0.743854
883.193408	0.765714
883.503248	0.786891
883.813048	0.812248
884.122806	0.840168
884.432522	0.863745
884.742197	0.881529
885.051831	0.890150
885.361424	0.900086
885.670975	0.911668
885.980485	0.923170
886.289954	0.926480
886.599382	0.932410
886.908768	0.934984
887.218113	0.940784
887.527417	0.945332
887.836680	0.948522
888.145901	0.948993
888.455082	0.951486
888.764221	0.955172
889.073319	0.957363
889.382376	0.958527
889.691392	0.958577
890.000366	0.957678
890.309300	0.959308
890.618193	0.958009
890.927044	0.956323
891.235855	0.957291
891.544625	0.956801
891.853353	0.958162
892.162041	0.954743
892.470687	0.949358
892.779293	0.944328
893.087858	0.940438
893.396381	0.932928
893.704864	0.921251
894.013306	0.899142
894.321707	0.873535
894.630068	0.860209
894.938387	0.856097
895.246665	0.857228
895.554903	0.868487
895.863100	0.880652
896.171256	0.897179
896.479371	0.915329
896.787446	0.927249
897.095480	0.932887
897.403473	0.935720
897.711425	0.938978
898.019336	0.947382
898.327207	0.949310
898.635038	0.951404
898.942827	0.950250
899.250576	0.953765
899.558284	0.957499
899.865952	0.959123
900.173579	0.961227
900.481165	0.960984
900.788711	0.964686
901.096216	0.966926
901.403681	0.966674
901.711105	0.966816
902.018489	0.968101
902.325832	0.968046
902.633135	0.966414
902.940397	0.961015
903.247619	0.950031
903.554800	0.926457
903.861941	0.889621
904.169041	0.857518
904.476101	0.841444
904.783121	0.841545
905.090100	0.857616
905.397039	0.876485
905.703938	0.897391
906.010796	0.914738
906.317614	0.931128
906.624391	0.941314
906.931129	0.950346
907.237826	0.957390
907.544483	0.964956
907.851099	0.967976
908.157675	0.972444
908.464211	0.973469
908.770707	0.976867
909.077163	0.979040
909.383578	0.979083
909.689954	0.978398
909.996289	0.979995
910.302584	0.982017
910.608839	0.983574
910.915054	0.981990
911.221229	0.982847
911.527363	0.980721
911.833458	0.981018
912.139513	0.981249
912.445527	0.979803
912.751502	0.978259
913.057436	0.975949
913.363331	0.975210
913.669186	0.971132
913.975000	0.967108
914.280775	0.961312
914.586510	0.956481
914.892205	0.942625
915.197859	0.923563
915.503475	0.898540
915.809050	0.880200
916.114585	0.876108
916.420081	0.874001
916.725536	0.870413
917.030952	0.877130
917.336328	0.889691
917.641665	0.903612
917.946961	0.918107
918.252218	0.928736
918.557435	0.936391
918.862612	0.944061
919.167750	0.950611
919.472848	0.954213
919.777906	0.959658
920.082925	0.964309
920.387904	0.966855
920.692843	0.968431
920.997743	0.969203
921.302603	0.972965
921.607423	0.974110
921.912204	0.977390
922.216946	0.975896
922.521647	0.977950
922.826310	0.978865
923.130932	0.982349
923.435516	0.982774
923.740059	0.984320
924.044564	0.983481
924.349028	0.984491
924.653454	0.987344
924.957840	0.989286
925.262186	0.987506
925.566493	0.987361
925.870761	0.986988
926.174989	0.989637
926.479178	0.991314
926.783328	0.992295
927.087438	0.991294
927.391509	0.991479
927.695541	0.992797
927.999533	0.992201
928.303486	0.992008
928.607400	0.993870
928.911275	0.990988
929.215110	0.992775
929.518906	0.993942
929.822663	0.992193
930.126381	0.994205
930.430060	0.993306
930.733699	0.993089
931.037299	0.993825
931.340861	0.993730
931.644383	0.992944
931.947866	0.991464
932.251309	0.993707
932.554714	0.992942
932.858080	0.993427
933.161407	0.994679
933.464694	0.994191
933.767943	0.992944
934.071153	0.994154
934.374323	0.993933
934.677455	0.994442
934.980548	0.993880
935.283602	0.993782
935.586617	0.993101
935.889593	0.994437
936.192530	0.993877
936.495428	0.993750
936.798287	0.993237
937.101108	0.993891
937.403890	0.992582
937.706632	0.992615
938.009336	0.990829
938.312002	0.988443
938.614628	0.988598
938.917216	0.987520
939.219765	0.985690
939.522275	0.987224
939.824747	0.987685
940.127179	0.987871
940.429573	0.988934
940.731929	0.987515
941.034246	0.989097
941.336524	0.990105
941.638763	0.988878
941.940964	0.989911
942.243126	0.990176
942.545250	0.990247
942.847335	0.991322
943.149381	0.991260
943.451389	0.992070
943.753359	0.991753
944.055290	0.994317
944.357182	0.992687
944.659036	0.992071
944.960851	0.992131
945.262628	0.992714
945.564367	0.993911
945.866067	0.993528
946.167729	0.993795
946.469352	0.993596
946.770937	0.992229
947.072484	0.993498
947.373992	0.993180
947.675462	0.992648
947.976893	0.994002
948.278286	0.993154
948.579641	0.993900
948.880958	0.993608
949.182236	0.994154
949.483476	0.993744
949.784678	0.992827
950.085841	0.994851
950.386967	0.993832
950.688054	0.993838
950.989103	0.993217
951.290114	0.992673
951.591087	0.992778
951.892021	0.992544
952.192917	0.991708
952.493776	0.991707
952.794596	0.991633
953.095378	0.991247
953.396122	0.990633
953.696828	0.989051
953.997496	0.993254
954.298126	0.993557
954.598718	0.992341
954.899272	0.994379
955.199788	0.992934
955.500266	0.995353
955.800706	0.995592
956.101108	0.996531
956.401472	0.996742
956.701798	0.995529
957.002087	0.996938
957.302337	0.995259
957.602550	0.996950
957.902724	0.996424
958.202861	0.997017
958.502960	0.996976
958.803022	0.995891
959.103045	0.998428
959.403031	0.998311
959.702979	0.997026
960.002889	0.997321
960.302762	0.995946
960.602596	0.996815
960.902393	0.996362
961.202153	0.998699
961.501875	0.999906
961.801559	0.998315
962.101205	0.997752
962.400814	0.997320
962.700385	0.998433
962.999918	0.996901
963.299414	0.998980
963.598873	0.997497
963.898293	0.997796
964.197677	0.998467
964.497022	0.998682
964.796331	1.000449
965.095601	0.998645
965.394835	0.997993
965.694030	0.998425
965.993189	0.998690
966.292309	0.998751
966.591393	0.999108
966.890439	0.999747
967.189447	0.998606
967.488419	0.999026
967.787353	0.997788
968.086249	0.997223
968.385108	0.998385
968.683930	0.998860
968.982714	0.999067
969.281462	0.999031
969.580172	0.998836
969.878844	0.998865
970.177480	0.997579
970.476078	0.999517
970.774639	0.998330
971.073162	0.998091
971.371649	0.998978
971.670098	0.998566
971.968510	0.999114
972.266885	0.997719
972.565223	0.997745
972.863524	0.997498
973.161788	0.997879
973.460014	0.999942
973.758204	0.996252
974.056356	0.998106
974.354471	0.996723
974.652550	0.998825
974.950591	0.997481
975.248595	0.997921
975.546563	0.998300
975.844493	0.999968
976.142386	0.997711
976.440243	0.999925
976.738062	0.998264
977.035845	0.999471
977.333590	0.998402
977.631299	0.999292
977.928971	0.997534
978.226606	0.998195
978.524204	0.998128
978.821765	0.999656
979.119290	0.997565
979.416777	0.998924
979.714228	0.999224
980.011642	0.997076
980.309020	0.998778
980.606360	0.998456
980.903664	0.999990
981.200931	0.996539
981.498162	0.997527
981.795356	0.997918
982.092513	0.995451
982.389633	0.996035
982.686717	0.993662
982.983764	0.993615
983.280775	0.992766
983.577749	0.991613
983.874686	0.993619
984.171587	0.993268
984.468451	0.995693
984.765279	0.996813
985.062070	0.995332
985.358824	0.997878
985.655543	0.996262
985.952224	0.997342
986.248869	0.996429
986.545478	0.998614
986.842050	1.000072
987.138586	0.996778
987.435086	0.999033
987.731549	0.999657
988.027975	0.998810
988.324366	0.999311
988.620719	0.999260
988.917037	0.998304
989.213318	0.999730
989.509563	0.999883
989.805772	0.998756
990.101944	0.998967
990.398080	0.998315
990.694180	0.999346
990.990244	0.997431
991.286271	0.999847
991.582262	0.998963
991.878217	0.999179
992.174136	1.000421
992.470019	0.999559
992.765865	0.999015
993.061676	0.999428
993.357450	0.999290
993.653188	0.997522
993.948890	0.998492
994.244556	0.998574
994.540186	0.998521
994.835780	0.998345
995.131337	0.998557
995.426859	0.997433
995.722345	0.999330
996.017795	0.996945
996.313208	0.996826
996.608586	0.996706
996.903928	0.997604
997.199234	0.996518
997.494504	0.998002
997.789738	0.996872
998.084936	0.997459
998.380099	1.000626
998.675225	0.998377
998.970316	0.998905
999.265371	0.999492
999.560390	0.999368
999.855373	0.999625
1000.150320	0.999584
1000.445232	1.000227
1000.740108	0.998334
1001.034948	0.998685
1001.329752	0.998829
1001.624521	0.998729
1001.919254	0.999576
1002.213951	0.999123
1002.508613	0.999650
1002.803239	1.000460
1003.097829	0.999566
1003.392384	1.000266
1003.686903	0.999543
1003.981386	1.000714
1004.275834	0.999879
1004.570246	0.998797
1004.864623	1.000020
1005.158964	1.001378
1005.453270	0.999079
1005.747540	0.998438
1006.041775	0.999603
1006.335974	1.000718
1006.630138	0.999880
1006.924266	0.999965
1007.218359	1.000442
1007.512416	1.000588
1007.806438	0.999608
1008.100425	1.000103
1008.394376	0.999730
1008.688292	0.999397
1008.982172	1.001691
1009.276017	0.999705
1009.569827	1.000784
1009.863602	0.999102
1010.157341	1.001474
1010.451045	1.000058
1010.744714	0.999533
1011.038347	0.999341
1011.331945	1.000276
1011.625508	0.999061
1011.919036	1.000251
1012.212528	0.999784
1012.505986	0.998139
1012.799408	0.999791
1013.092795	1.000204
1013.386147	0.999642
1013.679464	0.999833
1013.972745	1.000084
1014.265992	0.998525
1014.559204	0.999073
1014.852380	0.998830
1015.145521	1.000161
1015.438628	0.998959
1015.731699	1.000075
1016.024736	0.999749
1016.317737	0.999708
1016.610703	1.000205
1016.903635	0.999945
1017.196531	0.999333
1017.489393	1.000049
1017.782219	1.001030
1018.075011	0.999945
1018.367768	0.999937
1018.660490	1.000353
1018.953177	1.000353
1019.245829	1.000353
