Dividing Wavelength (nm)	Counts (n)	Blue Motor Position (mm): 0.000000	Red Motor Position (mm): 3.200000	
326.493990	1.000711
326.888308	1.000711
327.282561	1.000711
327.676750	1.000218
328.070874	0.999318
328.464933	1.000368
328.858929	1.000743
329.252859	0.999975
329.646726	0.999573
330.040528	1.000941
330.434265	0.999308
330.827938	1.000984
331.221547	1.000961
331.615091	1.000782
332.008571	0.999930
332.401986	1.000115
332.795338	0.999704
333.188625	0.998697
333.581847	0.999923
333.975006	0.999643
334.368100	0.998554
334.761129	0.999913
335.154095	1.001377
335.546996	0.996950
335.939833	0.993224
336.332606	0.993017
336.725315	0.994961
337.117960	0.994625
337.510540	0.993934
337.903056	0.992912
338.295508	0.992416
338.687896	0.995242
339.080220	0.994663
339.472480	0.993840
339.864676	0.992543
340.256807	0.993646
340.648875	0.994007
341.040879	0.993495
341.432818	0.993520
341.824694	0.993502
342.216506	0.994366
342.608253	0.994211
342.999937	0.993106
343.391557	0.994306
343.783113	0.993127
344.174605	0.993942
344.566033	0.994016
344.957397	0.991420
345.348697	0.992414
345.739934	0.992562
346.131106	0.993848
346.522215	0.992763
346.913260	0.992851
347.304241	0.992893
347.695159	0.992954
348.086012	0.992866
348.476802	0.993091
348.867528	0.993272
349.258191	0.992182
349.648789	0.993967
350.039324	0.992504
350.429796	0.993710
350.820203	0.993697
351.210548	0.993813
351.600828	0.992743
351.991045	0.993747
352.381198	0.992960
352.771288	0.994306
353.161314	0.992809
353.551276	0.995044
353.941175	0.993318
354.331010	0.993453
354.720782	0.993711
355.110490	0.993121
355.500135	0.993839
355.889717	0.993071
356.279235	0.992760
356.668689	0.991289
357.058080	0.993026
357.447408	0.994066
357.836672	0.992711
358.225873	0.994935
358.615010	0.992346
359.004084	0.993629
359.393095	0.993002
359.782043	0.991772
360.170927	0.994390
360.559748	0.992911
360.948505	0.992224
361.337199	0.992428
361.725830	0.992425
362.114398	0.992054
362.502903	0.992801
362.891344	0.993495
363.279722	0.991634
363.668037	0.992674
364.056289	0.991438
364.444478	0.992752
364.832603	0.992004
365.220665	0.991173
365.608665	0.990330
365.996601	0.991053
366.384474	0.991597
366.772284	0.990459
367.160031	0.989984
367.547715	0.988285
367.935336	0.988506
368.322893	0.987344
368.710388	0.986249
369.097820	0.985274
369.485189	0.983941
369.872495	0.980302
370.259738	0.978109
370.646918	0.977989
371.034035	0.974514
371.421090	0.970206
371.808081	0.965432
372.195010	0.964855
372.581875	0.958500
372.968678	0.954291
373.355418	0.950075
373.742096	0.944787
374.128710	0.941610
374.515262	0.934195
374.901751	0.928801
375.288177	0.925448
375.674540	0.917936
376.060841	0.910851
376.447079	0.905491
376.833254	0.898133
377.219367	0.892862
377.605417	0.882770
377.991404	0.878564
378.377329	0.870877
378.763191	0.866398
379.148991	0.858190
379.534727	0.850184
379.920402	0.842060
380.306013	0.838258
380.691563	0.823957
381.077049	0.817361
381.462474	0.814015
381.847835	0.803752
382.233134	0.798157
382.618371	0.797922
383.003545	0.781430
383.388657	0.779530
383.773706	0.771954
384.158693	0.767448
384.543618	0.761203
384.928480	0.753190
385.313280	0.743521
385.698017	0.743458
386.082692	0.731627
386.467305	0.731614
386.851856	0.723180
387.236344	0.719644
387.620770	0.712212
388.005133	0.707406
388.389435	0.702537
388.773674	0.698895
389.157851	0.692223
389.541965	0.689626
389.926018	0.696120
390.310008	0.682871
390.693936	0.679375
391.077802	0.671450
391.461606	0.673943
391.845348	0.662424
392.229027	0.663470
392.612645	0.660298
392.996200	0.648001
393.379694	0.640788
393.763125	0.630692
394.146494	0.635124
394.529801	0.625794
394.913047	0.618135
395.296230	0.623817
395.679351	0.615164
396.062410	0.612112
396.445408	0.614766
396.828343	0.609778
397.211217	0.604905
397.594028	0.618583
397.976778	0.607247
398.359466	0.604193
398.742092	0.599116
399.124656	0.611235
399.507158	0.599996
399.889598	0.596731
400.271977	0.587976
400.654294	0.592513
401.036549	0.591005
401.418742	0.595709
401.800874	0.579993
402.182944	0.578472
402.564952	0.569677
402.946898	0.571857
403.328783	0.572082
403.710606	0.584442
404.092367	0.558592
404.474067	0.563519
404.855705	0.562407
405.237282	0.571521
405.618797	0.557752
406.000250	0.553087
406.381642	0.544160
406.762972	0.548456
407.144240	0.547709
407.525447	0.547227
407.906593	0.540233
408.287677	0.535304
408.668700	0.544549
409.049661	0.537029
409.430560	0.533407
409.811399	0.541354
410.192176	0.523279
410.572891	0.529693
410.953545	0.518712
411.334138	0.531639
411.714669	0.524760
412.095139	0.536171
412.475547	0.520803
412.855894	0.522920
413.236180	0.521783
413.616405	0.527550
413.996568	0.517424
414.376670	0.523977
414.756711	0.528758
415.136691	0.525237
415.516609	0.517076
415.896466	0.513020
416.276262	0.509110
416.655997	0.511094
417.035670	0.492136
417.415283	0.483913
417.794834	0.489101
418.174324	0.494099
418.553753	0.503702
418.933121	0.485940
419.312428	0.479946
419.691674	0.485223
420.070859	0.473646
420.449983	0.481584
420.829045	0.471596
421.208047	0.480090
421.586988	0.474019
421.965867	0.472391
422.344686	0.461294
422.723444	0.473826
423.102141	0.490119
423.480777	0.463650
423.859352	0.483902
424.237866	0.460570
424.616319	0.461343
424.994712	0.452974
425.373044	0.462934
425.751314	0.451556
426.129524	0.467541
426.507673	0.452057
426.885762	0.445014
427.263789	0.451138
427.641756	0.459949
428.019662	0.450746
428.397508	0.449153
428.775292	0.453509
429.153016	0.445774
429.530679	0.452224
429.908282	0.445523
430.285824	0.455487
430.663305	0.433776
431.040726	0.455242
431.418086	0.455358
431.795385	0.446387
432.172624	0.445044
432.549802	0.446399
432.926920	0.444926
433.303977	0.444460
433.680974	0.441500
434.057910	0.439730
434.434786	0.439585
434.811601	0.441851
435.188355	0.424201
435.565050	0.433358
435.941683	0.435184
436.318257	0.419177
436.694770	0.419958
437.071222	0.417687
437.447614	0.422754
437.823946	0.429241
438.200218	0.418713
438.576429	0.427709
438.952580	0.421289
439.328670	0.418205
439.704700	0.424288
440.080670	0.425817
440.456580	0.407013
440.832429	0.414446
441.208218	0.425604
441.583947	0.414721
441.959616	0.414718
442.335224	0.419595
442.710773	0.410762
443.086261	0.408485
443.461689	0.421931
443.837057	0.412026
444.212365	0.402010
444.587612	0.409390
444.962800	0.399190
445.337927	0.400670
445.712995	0.427054
446.088002	0.389413
446.462949	0.399418
446.837837	0.404234
447.212664	0.393456
447.587431	0.384685
447.962139	0.354783
448.336786	0.314355
448.711374	0.324773
449.085901	0.368416
449.460369	0.373503
449.834776	0.376750
450.209124	0.355762
450.583412	0.348035
450.957640	0.341269
451.331808	0.352996
451.705917	0.376306
452.079965	0.380611
452.453954	0.368822
452.827883	0.375979
453.201752	0.370642
453.575562	0.382108
453.949311	0.370139
454.323001	0.376741
454.696632	0.372284
455.070202	0.365385
455.443713	0.356248
455.817164	0.351829
456.190556	0.347371
456.563888	0.344438
456.937160	0.341589
457.310373	0.358932
457.683526	0.358143
458.056619	0.363389
458.429653	0.364003
458.802628	0.367523
459.175542	0.361622
459.548398	0.344700
459.921194	0.336950
460.293930	0.336831
460.666607	0.314786
461.039224	0.303101
461.411782	0.298594
461.784280	0.298111
462.156719	0.302116
462.529099	0.306372
462.901419	0.322599
463.273680	0.327204
463.645882	0.326225
464.018024	0.332007
464.390106	0.324878
464.762130	0.310071
465.134094	0.293107
465.505999	0.262036
465.877845	0.232545
466.249631	0.219442
466.621358	0.226855
466.993026	0.240708
467.364634	0.246745
467.736184	0.255424
468.107674	0.264688
468.479105	0.263651
468.850477	0.270286
469.221790	0.277243
469.593043	0.287393
469.964238	0.291974
470.335373	0.291267
470.706449	0.289740
471.077467	0.290387
471.448425	0.252299
471.819324	0.227929
472.190164	0.227343
472.560945	0.256192
472.931667	0.278281
473.302330	0.282169
473.672934	0.294311
474.043479	0.282541
474.413965	0.284132
474.784393	0.287650
475.154761	0.282950
475.525070	0.280071
475.895321	0.285879
476.265513	0.279705
476.635645	0.275068
477.005719	0.275217
477.375734	0.271895
477.745691	0.265398
478.115588	0.261577
478.485427	0.255345
478.855207	0.241809
479.224928	0.224561
479.594591	0.212757
479.964194	0.216115
480.333739	0.217232
480.703226	0.218668
481.072653	0.217235
481.442022	0.212912
481.811333	0.209220
482.180584	0.212961
482.549777	0.218226
482.918912	0.221518
483.287988	0.221106
483.657005	0.220771
484.025964	0.227667
484.394864	0.224800
484.763706	0.225319
485.132489	0.230245
485.501213	0.231023
485.869879	0.229412
486.238487	0.232565
486.607036	0.230550
486.975527	0.234960
487.343959	0.231091
487.712333	0.230047
488.080648	0.231459
488.448905	0.230800
488.817104	0.231971
489.185244	0.226579
489.553326	0.223248
489.921350	0.213408
490.289315	0.195773
490.657222	0.190853
491.025070	0.191946
491.392861	0.194001
491.760593	0.199666
492.128267	0.205333
492.495883	0.210754
492.863440	0.217257
493.230939	0.223477
493.598380	0.224557
493.965763	0.226982
494.333088	0.229255
494.700354	0.230802
495.067563	0.229783
495.434713	0.232791
495.801805	0.231103
496.168839	0.232368
496.535815	0.233728
496.902733	0.233676
497.269593	0.235196
497.636395	0.233103
498.003139	0.233039
498.369825	0.236386
498.736453	0.232743
499.103023	0.234287
499.469535	0.233658
499.835989	0.234025
500.202385	0.234810
500.568723	0.238054
500.935003	0.233220
501.301226	0.237381
501.667390	0.231962
502.033497	0.230005
502.399546	0.232967
502.765537	0.234715
503.131470	0.233220
503.497345	0.229368
503.863163	0.238343
504.228923	0.231186
504.594625	0.229786
504.960269	0.235324
505.325856	0.230354
505.691385	0.234821
506.056856	0.231974
506.422270	0.230705
506.787625	0.233401
507.152924	0.230811
507.518164	0.231495
507.883347	0.233051
508.248472	0.234752
508.613540	0.229729
508.978550	0.232286
509.343503	0.232823
509.708398	0.230556
510.073236	0.228130
510.438016	0.228031
510.802738	0.229068
511.167403	0.227860
511.532010	0.230044
511.896561	0.225418
512.261053	0.224185
512.625488	0.226155
512.989866	0.226385
513.354186	0.226897
513.718449	0.228632
514.082655	0.225314
514.446803	0.227214
514.810894	0.224748
515.174927	0.227550
515.538904	0.227004
515.902822	0.223741
516.266684	0.226128
516.630488	0.227504
516.994235	0.226292
517.357925	0.224933
517.721558	0.223391
518.085133	0.222775
518.448651	0.222826
518.812112	0.225112
519.175516	0.224683
519.538863	0.222530
519.902152	0.223926
520.265385	0.220715
520.628560	0.222520
520.991678	0.223251
521.354739	0.221880
521.717743	0.223282
522.080690	0.223543
522.443580	0.220716
522.806413	0.221873
523.169189	0.221668
523.531908	0.220005
523.894569	0.223681
524.257174	0.223653
524.619722	0.221343
524.982213	0.222247
525.344647	0.221585
525.707025	0.222409
526.069345	0.220188
526.431608	0.221922
526.793815	0.219864
527.155964	0.224012
527.518057	0.223089
527.880093	0.224132
528.242072	0.222695
528.603995	0.224229
528.965860	0.226377
529.327669	0.225185
529.689421	0.226255
530.051117	0.226643
530.412755	0.224547
530.774337	0.226762
531.135862	0.227031
531.497331	0.226434
531.858743	0.229203
532.220098	0.225971
532.581396	0.228716
532.942638	0.229100
533.303824	0.229976
533.664953	0.229957
534.026025	0.231651
534.387040	0.229377
534.747999	0.229274
535.108902	0.228214
535.469748	0.233290
535.830537	0.231130
536.191270	0.231816
536.551947	0.230873
536.912567	0.231200
537.273131	0.233046
537.633638	0.233257
537.994089	0.233249
538.354483	0.234693
538.714821	0.231592
539.075103	0.231307
539.435328	0.232100
539.795497	0.235887
540.155609	0.232434
540.515665	0.230563
540.875665	0.236188
541.235609	0.234550
541.595496	0.234938
541.955328	0.231276
542.315102	0.233743
542.674821	0.235042
543.034483	0.235097
543.394090	0.234579
543.753640	0.236460
544.113134	0.231540
544.472571	0.234884
544.831953	0.231642
545.191278	0.235792
545.550548	0.235306
545.909761	0.231969
546.268918	0.233042
546.628019	0.231090
546.987064	0.234028
547.346053	0.235754
547.704986	0.233594
548.063863	0.233703
548.422684	0.234312
548.781449	0.235893
549.140158	0.233328
549.498811	0.236276
549.857408	0.239640
550.215949	0.234320
550.574434	0.237524
550.932864	0.235314
551.291237	0.233847
551.649555	0.235319
552.007817	0.235056
552.366022	0.235815
552.724173	0.236154
553.082267	0.236488
553.440305	0.233430
553.798288	0.237961
554.156215	0.234540
554.514086	0.235120
554.871902	0.238078
555.229661	0.237203
555.587365	0.237995
555.945014	0.240239
556.302606	0.237175
556.660143	0.239919
557.017625	0.236367
557.375050	0.238702
557.732421	0.235757
558.089735	0.237859
558.446994	0.237734
558.804197	0.237031
559.161345	0.236990
559.518437	0.240462
559.875474	0.238075
560.232455	0.237546
560.589381	0.238532
560.946251	0.238632
561.303065	0.236429
561.659825	0.237958
562.016528	0.239517
562.373177	0.242086
562.729770	0.239542
563.086307	0.241500
563.442789	0.239223
563.799216	0.242126
564.155587	0.240809
564.511904	0.242073
564.868164	0.242031
565.224370	0.241854
565.580520	0.243665
565.936615	0.243378
566.292654	0.246525
566.648638	0.243353
567.004567	0.244576
567.360441	0.245084
567.716260	0.247071
568.072023	0.244833
568.427732	0.245386
568.783385	0.247927
569.138982	0.245869
569.494525	0.245686
569.850013	0.248928
570.205445	0.247034
570.560823	0.249694
570.916145	0.251531
571.271412	0.249693
571.626625	0.251476
571.981782	0.251630
572.336884	0.252687
572.691931	0.252367
573.046923	0.253445
573.401860	0.254835
573.756743	0.256510
574.111570	0.255564
574.466342	0.255421
574.821059	0.255136
575.175722	0.257782
575.530330	0.257685
575.884882	0.257883
576.239380	0.259458
576.593823	0.260307
576.948211	0.259694
577.302544	0.262983
577.656823	0.262801
578.011047	0.262586
578.365216	0.263374
578.719330	0.265596
579.073389	0.265151
579.427394	0.266616
579.781344	0.267554
580.135239	0.268798
580.489080	0.268558
580.842866	0.271382
581.196597	0.271175
581.550273	0.269933
581.903895	0.270845
582.257463	0.269076
582.610975	0.272618
582.964434	0.271818
583.317837	0.274273
583.671186	0.274699
584.024481	0.274624
584.377721	0.277336
584.730906	0.277870
585.084037	0.277102
585.437113	0.278991
585.790135	0.278607
586.143103	0.280986
586.496016	0.282817
586.848874	0.279732
587.201679	0.280811
587.554428	0.284091
587.907124	0.282615
588.259765	0.283273
588.612352	0.283843
588.964884	0.287547
589.317362	0.287488
589.669786	0.287306
590.022155	0.285677
590.374470	0.285125
590.726731	0.287068
591.078937	0.291834
591.431090	0.288273
591.783188	0.292320
592.135232	0.293017
592.487222	0.292482
592.839157	0.291253
593.191038	0.293570
593.542866	0.295549
593.894639	0.298816
594.246358	0.296543
594.598022	0.296293
594.949633	0.299790
595.301190	0.300589
595.652692	0.299798
596.004141	0.296101
596.355535	0.304055
596.706876	0.304688
597.058162	0.307036
597.409395	0.304318
597.760573	0.301929
598.111698	0.305177
598.462768	0.305508
598.813785	0.307182
599.164748	0.308072
599.515657	0.308807
599.866511	0.311738
600.217312	0.307043
600.568060	0.312729
600.918753	0.308822
601.269392	0.309492
601.619978	0.313056
601.970510	0.310798
602.320988	0.310820
602.671412	0.308431
603.021783	0.310917
603.372100	0.312349
603.722363	0.312078
604.072572	0.313036
604.422728	0.312527
604.772830	0.314825
605.122878	0.314431
605.472872	0.315058
605.822813	0.313305
606.172701	0.316129
606.522534	0.313514
606.872314	0.313427
607.222041	0.314186
607.571714	0.312393
607.921333	0.313629
608.270899	0.313386
608.620411	0.310095
608.969870	0.314396
609.319276	0.314053
609.668627	0.314426
610.017926	0.312686
610.367171	0.311331
610.716362	0.312004
611.065500	0.312459
611.414585	0.311016
611.763616	0.311451
612.112594	0.312101
612.461518	0.311490
612.810389	0.308992
613.159207	0.311328
613.507971	0.313137
613.856682	0.308822
614.205340	0.310822
614.553945	0.307385
614.902496	0.311026
615.250994	0.309272
615.599439	0.310064
615.947830	0.309363
616.296169	0.310386
616.644454	0.309867
616.992686	0.309702
617.340864	0.307868
617.688990	0.311166
618.037063	0.307939
618.385082	0.309949
618.733048	0.307047
619.080961	0.309347
619.428821	0.308284
619.776628	0.308460
620.124382	0.310092
620.472083	0.310367
620.819731	0.309510
621.167326	0.313439
621.514868	0.313367
621.862357	0.317843
622.209793	0.317340
622.557176	0.319172
622.904506	0.320403
623.251783	0.322625
623.599007	0.325290
623.946179	0.324552
624.293297	0.326501
624.640363	0.330740
624.987376	0.331084
625.334336	0.333308
625.681243	0.335354
626.028097	0.336360
626.374899	0.337528
626.721647	0.337954
627.068343	0.341034
627.414987	0.342156
627.761577	0.344278
628.108115	0.342599
628.454600	0.347550
628.801032	0.345301
629.147412	0.347000
629.493739	0.347688
629.840014	0.350448
630.186236	0.347920
630.532405	0.353824
630.878521	0.350754
631.224585	0.353186
631.570597	0.356769
631.916556	0.355320
632.262462	0.355775
632.608316	0.357718
632.954117	0.358745
633.299866	0.359167
633.645562	0.359961
633.991206	0.363885
634.336797	0.367022
634.682336	0.368964
635.027823	0.370436
635.373257	0.371313
635.718639	0.375017
636.063968	0.374171
636.409245	0.379827
636.754470	0.380586
637.099642	0.383170
637.444762	0.386522
637.789829	0.385214
638.134845	0.388891
638.479808	0.389542
638.824719	0.389670
639.169577	0.393720
639.514383	0.392460
639.859137	0.396710
640.203839	0.396443
640.548489	0.396597
640.893086	0.398017
641.237632	0.400007
641.582125	0.398278
641.926566	0.400288
642.270955	0.400091
642.615292	0.400467
642.959576	0.399818
643.303809	0.399992
643.647990	0.399370
643.992118	0.399715
644.336195	0.403996
644.680219	0.402473
645.024192	0.402755
645.368112	0.396483
645.711981	0.395566
646.055797	0.390720
646.399562	0.393245
646.743274	0.385527
647.086935	0.382505
647.430544	0.382698
647.774101	0.381676
648.117606	0.381297
648.461059	0.382131
648.804460	0.384611
649.147810	0.389433
649.491108	0.391302
649.834354	0.393026
650.177548	0.398008
650.520690	0.403586
650.863781	0.404656
651.206820	0.403862
651.549807	0.408808
651.892742	0.412947
652.235626	0.412158
652.578458	0.413100
652.921238	0.419396
653.263967	0.416957
653.606644	0.420837
653.949269	0.420859
654.291843	0.424332
654.634365	0.421428
654.976836	0.424591
655.319255	0.424976
655.661622	0.426234
656.003938	0.426352
656.346203	0.429498
656.688416	0.427209
657.030577	0.430565
657.372687	0.432504
657.714746	0.433265
658.056753	0.430290
658.398708	0.434155
658.740612	0.435191
659.082465	0.431334
659.424266	0.431907
659.766016	0.431435
660.107715	0.433926
660.449362	0.433225
660.790958	0.433829
661.132503	0.433858
661.473996	0.431799
661.815438	0.432503
662.156829	0.432547
662.498168	0.433583
662.839456	0.435082
663.180693	0.432867
663.521879	0.432792
663.863013	0.433479
664.204097	0.431998
664.545129	0.428915
664.886110	0.429293
665.227040	0.426749
665.567918	0.429077
665.908746	0.427119
666.249522	0.426697
666.590248	0.428224
666.930922	0.425855
667.271545	0.425177
667.612118	0.425108
667.952639	0.427008
668.293109	0.424980
668.633528	0.428345
668.973896	0.427999
669.314213	0.428729
669.654480	0.430285
669.994695	0.430660
670.334859	0.431799
670.674973	0.431469
671.015035	0.431840
671.355047	0.431641
671.695008	0.433374
672.034918	0.434857
672.374777	0.433537
672.714585	0.435073
673.054342	0.435036
673.394049	0.435054
673.733705	0.432330
674.073310	0.434287
674.412864	0.436764
674.752368	0.437112
675.091820	0.437730
675.431223	0.442285
675.770574	0.441977
676.109875	0.444931
676.449125	0.445168
676.788324	0.446810
677.127473	0.452230
677.466571	0.452108
677.805619	0.454016
678.144616	0.455068
678.483562	0.456443
678.822458	0.459367
679.161303	0.460543
679.500098	0.460723
679.838842	0.462094
680.177535	0.462290
680.516179	0.460213
680.854771	0.459575
681.193314	0.453028
681.531805	0.444066
681.870247	0.432801
682.208638	0.425170
682.546978	0.424264
682.885268	0.425959
683.223508	0.432412
683.561697	0.436450
683.899836	0.438557
684.237925	0.441951
684.575963	0.444327
684.913951	0.447390
685.251889	0.443646
685.589776	0.445407
685.927614	0.447716
686.265401	0.442218
686.603137	0.443593
686.940824	0.437626
687.278460	0.435833
687.616046	0.435173
687.953582	0.429270
688.291068	0.431541
688.628504	0.426851
688.965889	0.429400
689.303224	0.433603
689.640510	0.437690
689.977745	0.443091
690.314930	0.450819
690.652065	0.455638
690.989150	0.463322
691.326185	0.469840
691.663170	0.474447
692.000105	0.481337
692.336990	0.488691
692.673825	0.490490
693.010610	0.498103
693.347345	0.503536
693.684030	0.505044
694.020665	0.509753
694.357251	0.518685
694.693786	0.518270
695.030272	0.522476
695.366707	0.525655
695.703093	0.529025
696.039429	0.526856
696.375716	0.529201
696.711952	0.531411
697.048139	0.533769
697.384276	0.535088
697.720363	0.532887
698.056400	0.532821
698.392388	0.538110
698.728326	0.541467
699.064214	0.544074
699.400053	0.545164
699.735842	0.548776
700.071581	0.551608
700.407270	0.553742
700.742910	0.555921
701.078501	0.563104
701.414042	0.563785
701.749533	0.566829
702.084974	0.575041
702.420366	0.567814
702.755709	0.575458
703.091002	0.583450
703.426246	0.577217
703.761440	0.582241
704.096584	0.587054
704.431679	0.584229
704.766725	0.585943
705.101721	0.588344
705.436668	0.584170
705.771565	0.591029
706.106413	0.588327
706.441212	0.583150
706.775961	0.581759
707.110661	0.584510
707.445311	0.581062
707.779913	0.578555
708.114465	0.577143
708.448967	0.573493
708.783421	0.565720
709.117825	0.560136
709.452180	0.559983
709.786485	0.553767
710.120742	0.543803
710.454949	0.545361
710.789107	0.537835
711.123216	0.528483
711.457275	0.530556
711.791286	0.520951
712.125247	0.520026
712.459159	0.531206
712.793023	0.523226
713.126837	0.527876
713.460602	0.528258
713.794318	0.537676
714.127985	0.536176
714.461602	0.546191
714.795171	0.549627
715.128691	0.557444
715.462162	0.565010
715.795584	0.570095
716.128957	0.573989
716.462281	0.579614
716.795556	0.583407
717.128782	0.589108
717.461960	0.598742
717.795088	0.596367
718.128167	0.603060
718.461198	0.612213
718.794180	0.612143
719.127113	0.615385
719.459997	0.618367
719.792833	0.623941
720.125619	0.626038
720.458357	0.632276
720.791046	0.631748
721.123686	0.634907
721.456278	0.642520
721.788821	0.638994
722.121315	0.643124
722.453761	0.647827
722.786158	0.645797
723.118506	0.642907
723.450805	0.650032
723.783056	0.646351
724.115259	0.643268
724.447412	0.642869
724.779518	0.643901
725.111574	0.642536
725.443582	0.638439
725.775542	0.640418
726.107453	0.633658
726.439315	0.632942
726.771129	0.631244
727.102895	0.624653
727.434612	0.617810
727.766281	0.614402
728.097901	0.614814
728.429473	0.613850
728.760996	0.612174
729.092471	0.612807
729.423897	0.616127
729.755276	0.615518
730.086606	0.615663
730.417887	0.610018
730.749120	0.600285
731.080305	0.591218
731.411442	0.588122
731.742530	0.593599
732.073570	0.591859
732.404562	0.584148
732.735506	0.585530
733.066401	0.590641
733.397249	0.599049
733.728048	0.610560
734.058798	0.623439
734.389501	0.634154
734.720156	0.644635
735.050762	0.651946
735.381320	0.653341
735.711831	0.661954
736.042293	0.667083
736.372707	0.662988
736.703073	0.667595
737.033391	0.669758
737.363661	0.666336
737.693883	0.661829
738.024056	0.661063
738.354182	0.661513
738.684260	0.649929
739.014290	0.646269
739.344272	0.647509
739.674207	0.640472
740.004093	0.640516
740.333931	0.640829
740.663722	0.641523
740.993464	0.641488
741.323159	0.644672
741.652806	0.649733
741.982405	0.654766
742.311956	0.659312
742.641460	0.661218
742.970915	0.665193
743.300323	0.672950
743.629683	0.679509
743.958996	0.681621
744.288260	0.685898
744.617477	0.691382
744.946647	0.693320
745.275768	0.698680
745.604842	0.699022
745.933869	0.708056
746.262847	0.709602
746.591778	0.702175
746.920662	0.708583
747.249498	0.715681
747.578286	0.705968
747.907027	0.701662
748.235720	0.703236
748.564365	0.697618
748.892963	0.698313
749.221514	0.700590
749.550017	0.705325
749.878473	0.705703
750.206881	0.711519
750.535242	0.713634
750.863555	0.713234
751.191821	0.714176
751.520039	0.717790
751.848210	0.722582
752.176334	0.714474
752.504411	0.713333
752.832440	0.722489
753.160421	0.726629
753.488356	0.724291
753.816243	0.721237
754.144082	0.730336
754.471875	0.733727
754.799620	0.729201
755.127318	0.729691
755.454969	0.730729
755.782572	0.728988
756.110129	0.734391
756.437638	0.736831
756.765100	0.733859
757.092515	0.731346
757.419882	0.730298
757.747203	0.736513
758.074477	0.734413
758.401703	0.732728
758.728882	0.727465
759.056014	0.726761
759.383099	0.725525
759.710138	0.726396
760.037129	0.722819
760.364073	0.717391
760.690970	0.719602
761.017820	0.724524
761.344623	0.720700
761.671379	0.710748
761.998088	0.699564
762.324751	0.677241
762.651366	0.634946
762.977935	0.567349
763.304456	0.514775
763.630931	0.505837
763.957359	0.544895
764.283740	0.589119
764.610074	0.616716
764.936362	0.648492
765.262602	0.675347
765.588796	0.696705
765.914943	0.714549
766.241044	0.731669
766.567097	0.738999
766.893104	0.748970
767.219064	0.755712
767.544978	0.761339
767.870845	0.774795
768.196665	0.779533
768.522438	0.777498
768.848165	0.778987
769.173846	0.787705
769.499479	0.791930
769.825066	0.795165
770.150607	0.801173
770.476101	0.795385
770.801548	0.797984
771.126949	0.807791
771.452303	0.811883
771.777611	0.811180
772.102872	0.810344
772.428087	0.816171
772.753256	0.819515
773.078378	0.821832
773.403453	0.830560
773.728482	0.834303
774.053465	0.828995
774.378401	0.831825
774.703291	0.840334
775.028135	0.839727
775.352932	0.840645
775.677683	0.844749
776.002388	0.845214
776.327046	0.843222
776.651658	0.847716
776.976224	0.851797
777.300743	0.851479
777.625216	0.853986
777.949643	0.855262
778.274024	0.855039
778.598359	0.857041
778.922647	0.856096
779.246889	0.855806
779.571086	0.859961
779.895236	0.863557
780.219339	0.858888
780.543397	0.856190
780.867409	0.854639
781.191374	0.856688
781.515294	0.859676
781.839167	0.857748
782.162995	0.861141
782.486776	0.857179
782.810511	0.858845
783.134201	0.863366
783.457844	0.859959
783.781441	0.863319
784.104993	0.868950
784.428498	0.869516
784.751958	0.864446
785.075372	0.866712
785.398739	0.870410
785.722061	0.867075
786.045337	0.862841
786.368568	0.867566
786.691752	0.869360
787.014891	0.855122
787.337983	0.847054
787.661030	0.838990
787.984031	0.821800
788.306987	0.808556
788.629897	0.811269
788.952760	0.815817
789.275579	0.819131
789.598351	0.834265
789.921078	0.847352
790.243759	0.850127
790.566395	0.855425
790.888984	0.861495
791.211529	0.866868
791.534027	0.870235
791.856480	0.872711
792.178888	0.877126
792.501249	0.880142
792.823566	0.881726
793.145836	0.880307
793.468062	0.883631
793.790241	0.882591
794.112375	0.881009
794.434464	0.876160
794.756507	0.875928
795.078505	0.876467
795.400457	0.870103
795.722364	0.858868
796.044226	0.851095
796.366042	0.850683
796.687812	0.854493
797.009538	0.850836
797.331218	0.852887
797.652852	0.857657
797.974442	0.863051
798.295986	0.862242
798.617484	0.864629
798.938938	0.869015
799.260346	0.873909
799.581709	0.875530
799.903026	0.879774
800.224299	0.878061
800.545526	0.882787
800.866708	0.887509
801.187845	0.890966
801.508936	0.890338
801.829983	0.889150
802.150984	0.891136
802.471940	0.896048
802.792851	0.895779
803.113717	0.896201
803.434538	0.895110
803.755314	0.896903
804.076045	0.899520
804.396731	0.898638
804.717372	0.898452
805.037967	0.900316
805.358518	0.898549
805.679024	0.895984
805.999485	0.895151
806.319901	0.895827
806.640272	0.896199
806.960598	0.894589
807.280879	0.893038
807.601115	0.890258
807.921306	0.895265
808.241453	0.894166
808.561554	0.892470
808.881611	0.892689
809.201623	0.894649
809.521590	0.895443
809.841513	0.895659
810.161390	0.894650
810.481223	0.896226
810.801011	0.899247
811.120755	0.900889
811.440453	0.900975
811.760107	0.899065
812.079716	0.898097
812.399281	0.902892
812.718801	0.905084
813.038276	0.906189
813.357707	0.905878
813.677093	0.902612
813.996434	0.905968
814.315731	0.906857
814.634983	0.907937
814.954191	0.907070
815.273354	0.903543
815.592473	0.899997
815.911547	0.899884
816.230577	0.896004
816.549562	0.894918
816.868502	0.896044
817.187399	0.891624
817.506250	0.885704
817.825058	0.889307
818.143821	0.884893
818.462539	0.878782
818.781213	0.871789
819.099843	0.861251
819.418429	0.844065
819.736970	0.826788
820.055466	0.806913
820.373919	0.780981
820.692327	0.747622
821.010691	0.712447
821.329011	0.633073
821.647286	0.516356
821.965517	0.401220
822.283704	0.358462
822.601847	0.358993
822.919945	0.395073
823.237999	0.430007
823.556010	0.477268
823.873976	0.533667
824.191897	0.585289
824.509775	0.628096
824.827609	0.674276
825.145398	0.696675
825.463144	0.699870
825.780845	0.682919
826.098502	0.663409
826.416116	0.617681
826.733685	0.572921
827.051210	0.563463
827.368692	0.578748
827.686129	0.616898
828.003522	0.670855
828.320872	0.718531
828.638177	0.763465
828.955439	0.796377
829.272656	0.818273
829.589830	0.835519
829.906960	0.852312
830.224046	0.864422
830.541088	0.874131
830.858086	0.879429
831.175041	0.885239
831.491952	0.885233
831.808819	0.882040
832.125642	0.874703
832.442421	0.859192
832.759157	0.837326
833.075849	0.790181
833.392497	0.725849
833.709101	0.685371
834.025662	0.693258
834.342179	0.726512
834.658653	0.765538
834.975083	0.802344
835.291469	0.827627
835.607811	0.852397
835.924110	0.867580
836.240366	0.885334
836.556578	0.899186
836.872746	0.906642
837.188871	0.913783
837.504952	0.918342
837.820990	0.923176
838.136984	0.924497
838.452935	0.927751
838.768842	0.929652
839.084706	0.924053
839.400526	0.897100
839.716303	0.856700
840.032037	0.833410
840.347727	0.837256
840.663373	0.855907
840.978977	0.877403
841.294537	0.900881
841.610054	0.916019
841.925527	0.925749
842.240957	0.931754
842.556344	0.938784
842.871687	0.945990
843.186987	0.948785
843.502244	0.949409
843.817458	0.950148
844.132629	0.955188
844.447756	0.959973
844.762840	0.960214
845.077881	0.958276
845.392879	0.958879
845.707833	0.962578
846.022745	0.963814
846.337613	0.963699
846.652438	0.965417
846.967221	0.965091
847.281960	0.964668
847.596656	0.966765
847.911309	0.965058
848.225919	0.966825
848.540485	0.967507
848.855009	0.968820
849.169490	0.967689
849.483928	0.967842
849.798323	0.968341
850.112675	0.969628
850.426984	0.969414
850.741251	0.969244
851.055474	0.969578
851.369654	0.967148
851.683792	0.969189
851.997887	0.968967
852.311938	0.969342
852.625947	0.969501
852.939914	0.967682
853.253837	0.968318
853.567718	0.970081
853.881555	0.969585
854.195350	0.967596
854.509103	0.968987
854.822812	0.968364
855.136479	0.968895
855.450103	0.968729
855.763685	0.966501
856.077224	0.968679
856.390720	0.970596
856.704173	0.969638
857.017584	0.967787
857.330953	0.966296
857.644278	0.968002
857.957561	0.967946
858.270802	0.967427
858.584000	0.968187
858.897155	0.966278
859.210268	0.966614
859.523339	0.967802
859.836367	0.969513
860.149352	0.969343
860.462295	0.967835
860.775195	0.970176
861.088054	0.967909
861.400869	0.968374
861.713642	0.969806
862.026373	0.968999
862.339062	0.970258
862.651708	0.966341
862.964312	0.967562
863.276873	0.969136
863.589392	0.967565
863.901869	0.966494
864.214303	0.963453
864.526696	0.962725
864.839045	0.963463
865.151353	0.961627
865.463619	0.961858
865.775842	0.961546
866.088023	0.961109
866.400162	0.962049
866.712258	0.961588
867.024313	0.962330
867.336325	0.963080
867.648296	0.962395
867.960224	0.962126
868.272110	0.960607
868.583954	0.962134
868.895755	0.962632
869.207515	0.960314
869.519233	0.958828
869.830909	0.960448
870.142542	0.961096
870.454134	0.961078
870.765684	0.960304
871.077191	0.957682
871.388657	0.957271
871.700081	0.956678
872.011463	0.957880
872.322803	0.956655
872.634101	0.955936
872.945357	0.952312
873.256571	0.952746
873.567744	0.952504
873.878874	0.953273
874.189963	0.950734
874.501010	0.949436
874.812015	0.948509
875.122979	0.950967
875.433900	0.951509
875.744780	0.953116
876.055618	0.949232
876.366415	0.949404
876.677169	0.949853
876.987882	0.949960
877.298554	0.949503
877.609183	0.946392
877.919771	0.943546
878.230317	0.940998
878.540822	0.938540
878.851285	0.933601
879.161707	0.925312
879.472087	0.911824
879.782425	0.895791
880.092722	0.860515
880.402977	0.807372
880.713191	0.745122
881.023363	0.684284
881.333494	0.649432
881.643583	0.620242
881.953631	0.621055
882.263637	0.650729
882.573602	0.689539
882.883526	0.716908
883.193408	0.741265
883.503248	0.764494
883.813048	0.792134
884.122806	0.822889
884.432522	0.845302
884.742197	0.865991
885.051831	0.877245
885.361424	0.888187
885.670975	0.900146
885.980485	0.910616
886.289954	0.917450
886.599382	0.921392
886.908768	0.926592
887.218113	0.931085
887.527417	0.936956
887.836680	0.941011
888.145901	0.941288
888.455082	0.945096
888.764221	0.948762
889.073319	0.951299
889.382376	0.951875
889.691392	0.951547
890.000366	0.951460
890.309300	0.952708
890.618193	0.952054
890.927044	0.948725
891.235855	0.950197
891.544625	0.950191
891.853353	0.949409
892.162041	0.947633
892.470687	0.941144
892.779293	0.936933
893.087858	0.931989
893.396381	0.923611
893.704864	0.909876
894.013306	0.885733
894.321707	0.858583
894.630068	0.843190
894.938387	0.838348
895.246665	0.839464
895.554903	0.852466
895.863100	0.866655
896.171256	0.883693
896.479371	0.902158
896.787446	0.917069
897.095480	0.922521
897.403473	0.925280
897.711425	0.930124
898.019336	0.937923
898.327207	0.940764
898.635038	0.943564
898.942827	0.943737
899.250576	0.946842
899.558284	0.950986
899.865952	0.952772
900.173579	0.953735
900.481165	0.954271
900.788711	0.958140
901.096216	0.960650
901.403681	0.960835
901.711105	0.961769
902.018489	0.961659
902.325832	0.960284
902.633135	0.959960
902.940397	0.953561
903.247619	0.942187
903.554800	0.915266
903.861941	0.875194
904.169041	0.837625
904.476101	0.818932
904.783121	0.820445
905.090100	0.836405
905.397039	0.859118
905.703938	0.882489
906.010796	0.902337
906.317614	0.920408
906.624391	0.931171
906.931129	0.941101
907.237826	0.950793
907.544483	0.957130
907.851099	0.960899
908.157675	0.966008
908.464211	0.969004
908.770707	0.971365
909.077163	0.973827
909.383578	0.973526
909.689954	0.973856
909.996289	0.975186
910.302584	0.977046
910.608839	0.978805
910.915054	0.977174
911.221229	0.975792
911.527363	0.976214
911.833458	0.976273
912.139513	0.976415
912.445527	0.974562
912.751502	0.972483
913.057436	0.971363
913.363331	0.968703
913.669186	0.964935
913.975000	0.959833
914.280775	0.953558
914.586510	0.945370
914.892205	0.932040
915.197859	0.911019
915.503475	0.882677
915.809050	0.861887
916.114585	0.856162
916.420081	0.852591
916.725536	0.849314
917.030952	0.858312
917.336328	0.872519
917.641665	0.887316
917.946961	0.903911
918.252218	0.914989
918.557435	0.924645
918.862612	0.933444
919.167750	0.939178
919.472848	0.944759
919.777906	0.949091
920.082925	0.955942
920.387904	0.960139
920.692843	0.960904
920.997743	0.963108
921.302603	0.965403
921.607423	0.967560
921.912204	0.971055
922.216946	0.970644
922.521647	0.972078
922.826310	0.974350
923.130932	0.975083
923.435516	0.976786
923.740059	0.977773
924.044564	0.977273
924.349028	0.979266
924.653454	0.981658
924.957840	0.982881
925.262186	0.983577
925.566493	0.983171
925.870761	0.983643
926.174989	0.986127
926.479178	0.987063
926.783328	0.988324
927.087438	0.987843
927.391509	0.987342
927.695541	0.989793
927.999533	0.989409
928.303486	0.989359
928.607400	0.990686
928.911275	0.988936
929.215110	0.988899
929.518906	0.989645
929.822663	0.989354
930.126381	0.991020
930.430060	0.991065
930.733699	0.989029
931.037299	0.989055
931.340861	0.990812
931.644383	0.988488
931.947866	0.989054
932.251309	0.990829
932.554714	0.989867
932.858080	0.989744
933.161407	0.989222
933.464694	0.990947
933.767943	0.989662
934.071153	0.991151
934.374323	0.990846
934.677455	0.991039
934.980548	0.991268
935.283602	0.990598
935.586617	0.990750
935.889593	0.990374
936.192530	0.991075
936.495428	0.989573
936.798287	0.990276
937.101108	0.989810
937.403890	0.987915
937.706632	0.988399
938.009336	0.985650
938.312002	0.985333
938.614628	0.983276
938.917216	0.982785
939.219765	0.981162
939.522275	0.981542
939.824747	0.982723
940.127179	0.981634
940.429573	0.984080
940.731929	0.983613
941.034246	0.983622
941.336524	0.984648
941.638763	0.984758
941.940964	0.985653
942.243126	0.985822
942.545250	0.986247
942.847335	0.987769
943.149381	0.986776
943.451389	0.987899
943.753359	0.987962
944.055290	0.990613
944.357182	0.988390
944.659036	0.987273
944.960851	0.989600
945.262628	0.989039
945.564367	0.989695
945.866067	0.990147
946.167729	0.989374
946.469352	0.988748
946.770937	0.988220
947.072484	0.989276
947.373992	0.990439
947.675462	0.989059
947.976893	0.989268
948.278286	0.988975
948.579641	0.989975
948.880958	0.990383
949.182236	0.991356
949.483476	0.989816
949.784678	0.989517
950.085841	0.990480
950.386967	0.990614
950.688054	0.990063
950.989103	0.990254
951.290114	0.989593
951.591087	0.988679
951.892021	0.989397
952.192917	0.988818
952.493776	0.988723
952.794596	0.987272
953.095378	0.987205
953.396122	0.987101
953.696828	0.986894
953.997496	0.989627
954.298126	0.989463
954.598718	0.990923
954.899272	0.989497
955.199788	0.989734
955.500266	0.990967
955.800706	0.992979
956.101108	0.993248
956.401472	0.994035
956.701798	0.994533
957.002087	0.992536
957.302337	0.992854
957.602550	0.995207
957.902724	0.994311
958.202861	0.994840
958.502960	0.994762
958.803022	0.993664
959.103045	0.996006
959.403031	0.995922
959.702979	0.994406
960.002889	0.995844
960.302762	0.995277
960.602596	0.995604
960.902393	0.994648
961.202153	0.996144
961.501875	0.996717
961.801559	0.994936
962.101205	0.995731
962.400814	0.996533
962.700385	0.996692
962.999918	0.996462
963.299414	0.996361
963.598873	0.995155
963.898293	0.996403
964.197677	0.996151
964.497022	0.996670
964.796331	0.997166
965.095601	0.996075
965.394835	0.996493
965.694030	0.996719
965.993189	0.997111
966.292309	0.996382
966.591393	0.998608
966.890439	0.998414
967.189447	0.996435
967.488419	0.997342
967.787353	0.996518
968.086249	0.996073
968.385108	0.996725
968.683930	0.997611
968.982714	0.997222
969.281462	0.997596
969.580172	0.995937
969.878844	0.997142
970.177480	0.997130
970.476078	0.997472
970.774639	0.998327
971.073162	0.997414
971.371649	0.996953
971.670098	0.996916
971.968510	0.998240
972.266885	0.994539
972.565223	0.995717
972.863524	0.996145
973.161788	0.995350
973.460014	0.997335
973.758204	0.995728
974.056356	0.997171
974.354471	0.993849
974.652550	0.996505
974.950591	0.995585
975.248595	0.996853
975.546563	0.996535
975.844493	0.997570
976.142386	0.996940
976.440243	0.997409
976.738062	0.997818
977.035845	0.998368
977.333590	0.996848
977.631299	0.997667
977.928971	0.997094
978.226606	0.997679
978.524204	0.996700
978.821765	0.997802
979.119290	0.996325
979.416777	0.996145
979.714228	0.997117
980.011642	0.996525
980.309020	0.996478
980.606360	0.996957
980.903664	0.997978
981.200931	0.995358
981.498162	0.994668
981.795356	0.993720
982.092513	0.993129
982.389633	0.993586
982.686717	0.991064
982.983764	0.990614
983.280775	0.988738
983.577749	0.990363
983.874686	0.991292
984.171587	0.991720
984.468451	0.993493
984.765279	0.993787
985.062070	0.994743
985.358824	0.995792
985.655543	0.994257
985.952224	0.996642
986.248869	0.996073
986.545478	0.997756
986.842050	0.998945
987.138586	0.996321
987.435086	0.997385
987.731549	0.998718
988.027975	0.997147
988.324366	0.997178
988.620719	0.996684
988.917037	0.996380
989.213318	0.997223
989.509563	0.998616
989.805772	0.997570
990.101944	0.998901
990.398080	0.997176
990.694180	0.997896
990.990244	0.997193
991.286271	0.997921
991.582262	0.999337
991.878217	0.997893
992.174136	0.998642
992.470019	0.998237
992.765865	0.998324
993.061676	0.999353
993.357450	0.998071
993.653188	0.997597
993.948890	0.997823
994.244556	0.997101
994.540186	0.996410
994.835780	0.996618
995.131337	0.997131
995.426859	0.995773
995.722345	0.996707
996.017795	0.997029
996.313208	0.996453
996.608586	0.996068
996.903928	0.996756
997.199234	0.996803
997.494504	0.995685
997.789738	0.997517
998.084936	0.996729
998.380099	0.996679
998.675225	0.997473
998.970316	0.998165
999.265371	0.998523
999.560390	0.998143
999.855373	0.998268
1000.150320	0.998141
1000.445232	0.998227
1000.740108	0.997524
1001.034948	0.998615
1001.329752	0.998425
1001.624521	0.998807
1001.919254	0.998751
1002.213951	0.998527
1002.508613	0.997631
1002.803239	0.998642
1003.097829	0.998748
1003.392384	0.999436
1003.686903	0.998562
1003.981386	0.999446
1004.275834	0.999487
1004.570246	0.998968
1004.864623	0.999660
1005.158964	0.999365
1005.453270	0.998408
1005.747540	0.997687
1006.041775	0.998493
1006.335974	0.998518
1006.630138	0.999256
1006.924266	0.998966
1007.218359	1.001281
1007.512416	0.999202
1007.806438	0.998271
1008.100425	1.000067
1008.394376	0.999068
1008.688292	0.999400
1008.982172	1.001219
1009.276017	0.998707
1009.569827	0.998336
1009.863602	0.998462
1010.157341	0.999507
1010.451045	0.999689
1010.744714	0.998615
1011.038347	0.999148
1011.331945	0.999022
1011.625508	0.998284
1011.919036	0.997933
1012.212528	0.998307
1012.505986	0.997937
1012.799408	0.998065
1013.092795	0.999429
1013.386147	0.999062
1013.679464	0.999558
1013.972745	0.998448
1014.265992	0.997821
1014.559204	0.999177
1014.852380	1.000535
1015.145521	0.998985
1015.438628	0.999302
1015.731699	0.998673
1016.024736	0.998814
1016.317737	0.998235
1016.610703	0.998472
1016.903635	0.999790
1017.196531	0.998476
1017.489393	0.999659
1017.782219	0.997982
1018.075011	0.999935
1018.367768	0.999175
1018.660490	0.999932
1018.953177	0.999932
1019.245829	0.999932
