Dividing Wavelength (nm)	Counts (n)	Blue Motor Position (mm): 0.000000	Red Motor Position (mm): 23.900000	
326.493990	1.000230
326.888308	1.000230
327.282561	1.000230
327.676750	1.001411
328.070874	0.999419
328.464933	0.999668
328.858929	1.000002
329.252859	0.999584
329.646726	1.000215
330.040528	0.999950
330.434265	0.999885
330.827938	1.001546
331.221547	1.001198
331.615091	1.000935
332.008571	1.000109
332.401986	0.999391
332.795338	1.000846
333.188625	0.998872
333.581847	1.001398
333.975006	0.999712
334.368100	0.998340
334.761129	0.999685
335.154095	1.001182
335.546996	0.999155
335.939833	0.993887
336.332606	0.994466
336.725315	0.994728
337.117960	0.995798
337.510540	0.994330
337.903056	0.994171
338.295508	0.994147
338.687896	0.996050
339.080220	0.995539
339.472480	0.994492
339.864676	0.994691
340.256807	0.994589
340.648875	0.995465
341.040879	0.996481
341.432818	0.994790
341.824694	0.994055
342.216506	0.995814
342.608253	0.995310
342.999937	0.994381
343.391557	0.994784
343.783113	0.994620
344.174605	0.995426
344.566033	0.995252
344.957397	0.993794
345.348697	0.994738
345.739934	0.994344
346.131106	0.995018
346.522215	0.994933
346.913260	0.995114
347.304241	0.995364
347.695159	0.995200
348.086012	0.994333
348.476802	0.994577
348.867528	0.995292
349.258191	0.993546
349.648789	0.995669
350.039324	0.994910
350.429796	0.996384
350.820203	0.995686
351.210548	0.994768
351.600828	0.994396
351.991045	0.994750
352.381198	0.993477
352.771288	0.995359
353.161314	0.994158
353.551276	0.995362
353.941175	0.993753
354.331010	0.994271
354.720782	0.995404
355.110490	0.994068
355.500135	0.994933
355.889717	0.993562
356.279235	0.994379
356.668689	0.993716
357.058080	0.994650
357.447408	0.995669
357.836672	0.994439
358.225873	0.994038
358.615010	0.995157
359.004084	0.995272
359.393095	0.995854
359.782043	0.995242
360.170927	0.995753
360.559748	0.995862
360.948505	0.993617
361.337199	0.993641
361.725830	0.995235
362.114398	0.993771
362.502903	0.995357
362.891344	0.996022
363.279722	0.993943
363.668037	0.994596
364.056289	0.994748
364.444478	0.995489
364.832603	0.994563
365.220665	0.994619
365.608665	0.994739
365.996601	0.994117
366.384474	0.994110
366.772284	0.994686
367.160031	0.994096
367.547715	0.993579
367.935336	0.994995
368.322893	0.994537
368.710388	0.993474
369.097820	0.994254
369.485189	0.994204
369.872495	0.993837
370.259738	0.993749
370.646918	0.995826
371.034035	0.994554
371.421090	0.995117
371.808081	0.994658
372.195010	0.995365
372.581875	0.995606
372.968678	0.995045
373.355418	0.994638
373.742096	0.993877
374.128710	0.996106
374.515262	0.993676
374.901751	0.996304
375.288177	0.994860
375.674540	0.995752
376.060841	0.994574
376.447079	0.994890
376.833254	0.993833
377.219367	0.995110
377.605417	0.996181
377.991404	0.995987
378.377329	0.995079
378.763191	0.994811
379.148991	0.996253
379.534727	0.995709
379.920402	0.994537
380.306013	0.996116
380.691563	0.996736
381.077049	0.995928
381.462474	0.997133
381.847835	0.996150
382.233134	0.996084
382.618371	0.995595
383.003545	0.995615
383.388657	0.996188
383.773706	0.996421
384.158693	0.996334
384.543618	0.995548
384.928480	0.997969
385.313280	0.996027
385.698017	0.996201
386.082692	0.997973
386.467305	0.996546
386.851856	0.996843
387.236344	0.995753
387.620770	0.994720
388.005133	0.995719
388.389435	0.997185
388.773674	0.995904
389.157851	0.996649
389.541965	0.996285
389.926018	0.996025
390.310008	0.997400
390.693936	0.995950
391.077802	0.996628
391.461606	0.996646
391.845348	0.996351
392.229027	0.997240
392.612645	0.995891
392.996200	0.997668
393.379694	0.996213
393.763125	0.998759
394.146494	0.996949
394.529801	0.995661
394.913047	0.996930
395.296230	0.995887
395.679351	0.996293
396.062410	0.996707
396.445408	0.996543
396.828343	0.996294
397.211217	0.996193
397.594028	0.996897
397.976778	0.995605
398.359466	0.996328
398.742092	0.995490
399.124656	0.996148
399.507158	0.996289
399.889598	0.996742
400.271977	0.996160
400.654294	0.997174
401.036549	0.997073
401.418742	0.996886
401.800874	0.994936
402.182944	0.996243
402.564952	0.996324
402.946898	0.997235
403.328783	0.995956
403.710606	0.996237
404.092367	0.996826
404.474067	0.997303
404.855705	0.996725
405.237282	0.996617
405.618797	0.997128
406.000250	0.996067
406.381642	0.997209
406.762972	0.996582
407.144240	0.996610
407.525447	0.996875
407.906593	0.996494
408.287677	0.996822
408.668700	0.996885
409.049661	0.996181
409.430560	0.997494
409.811399	0.995430
410.192176	0.996040
410.572891	0.996442
410.953545	0.996723
411.334138	0.995554
411.714669	0.996174
412.095139	0.996456
412.475547	0.996436
412.855894	0.996584
413.236180	0.996418
413.616405	0.996802
413.996568	0.996665
414.376670	0.997074
414.756711	0.996101
415.136691	0.996758
415.516609	0.996115
415.896466	0.996464
416.276262	0.995424
416.655997	0.996486
417.035670	0.996282
417.415283	0.996354
417.794834	0.996251
418.174324	0.996212
418.553753	0.996353
418.933121	0.996184
419.312428	0.995441
419.691674	0.995665
420.070859	0.997001
420.449983	0.995494
420.829045	0.995629
421.208047	0.996383
421.586988	0.996995
421.965867	0.996242
422.344686	0.996518
422.723444	0.996345
423.102141	0.995972
423.480777	0.996231
423.859352	0.995356
424.237866	0.995737
424.616319	0.994997
424.994712	0.995919
425.373044	0.995539
425.751314	0.995104
426.129524	0.994930
426.507673	0.995381
426.885762	0.994362
427.263789	0.994223
427.641756	0.993628
428.019662	0.993676
428.397508	0.991623
428.775292	0.990956
429.153016	0.991330
429.530679	0.990308
429.908282	0.989427
430.285824	0.987545
430.663305	0.986172
431.040726	0.985038
431.418086	0.985698
431.795385	0.982500
432.172624	0.979968
432.549802	0.979978
432.926920	0.978408
433.303977	0.974582
433.680974	0.973518
434.057910	0.971312
434.434786	0.968483
434.811601	0.966017
435.188355	0.962698
435.565050	0.960564
435.941683	0.957220
436.318257	0.953959
436.694770	0.949584
437.071222	0.946866
437.447614	0.943743
437.823946	0.941064
438.200218	0.935654
438.576429	0.933255
438.952580	0.928080
439.328670	0.922375
439.704700	0.919043
440.080670	0.915285
440.456580	0.906617
440.832429	0.902164
441.208218	0.899197
441.583947	0.892113
441.959616	0.886706
442.335224	0.881254
442.710773	0.874687
443.086261	0.866900
443.461689	0.863952
443.837057	0.854404
444.212365	0.846473
444.587612	0.840901
444.962800	0.831159
445.337927	0.824888
445.712995	0.825438
446.088002	0.807056
446.462949	0.803490
446.837837	0.795630
447.212664	0.786853
447.587431	0.774109
447.962139	0.754058
448.336786	0.729265
448.711374	0.726784
449.085901	0.736899
449.460369	0.728944
449.834776	0.722100
450.209124	0.704263
450.583412	0.690636
450.957640	0.681591
451.331808	0.676983
451.705917	0.679807
452.079965	0.673097
452.453954	0.658721
452.827883	0.654644
453.201752	0.644029
453.575562	0.642086
453.949311	0.626513
454.323001	0.623092
454.696632	0.612561
455.070202	0.599376
455.443713	0.587097
455.817164	0.576105
456.190556	0.564673
456.563888	0.554283
456.937160	0.546051
457.310373	0.550054
457.683526	0.541130
458.056619	0.538063
458.429653	0.531525
458.802628	0.527130
459.175542	0.516384
459.548398	0.496585
459.921194	0.485742
460.293930	0.480553
460.666607	0.456356
461.039224	0.441975
461.411782	0.432802
461.784280	0.424968
462.156719	0.421865
462.529099	0.418721
462.901419	0.425545
463.273680	0.424018
463.645882	0.418748
464.018024	0.418215
464.390106	0.407319
464.762130	0.389991
465.134094	0.372358
465.505999	0.344161
465.877845	0.314825
466.249631	0.298096
466.621358	0.298432
466.993026	0.305391
467.364634	0.306192
467.736184	0.310538
468.107674	0.315343
468.479105	0.311436
468.850477	0.315309
469.221790	0.318285
469.593043	0.325269
469.964238	0.327237
470.335373	0.324365
470.706449	0.320602
471.077467	0.319369
471.448425	0.281195
471.819324	0.256271
472.190164	0.253719
472.560945	0.280155
472.931667	0.300424
473.302330	0.303044
473.672934	0.313123
474.043479	0.300540
474.413965	0.301376
474.784393	0.303593
475.154761	0.298105
475.525070	0.294385
475.895321	0.299470
476.265513	0.293214
476.635645	0.287884
477.005719	0.287435
477.375734	0.283619
477.745691	0.276425
478.115588	0.272584
478.485427	0.265632
478.855207	0.252217
479.224928	0.234725
479.594591	0.222536
479.964194	0.225989
480.333739	0.226588
480.703226	0.227851
481.072653	0.226030
481.442022	0.221746
481.811333	0.218048
482.180584	0.221486
482.549777	0.226267
482.918912	0.229055
483.287988	0.229010
483.657005	0.228508
484.025964	0.234838
484.394864	0.232332
484.763706	0.232708
485.132489	0.237132
485.501213	0.238052
485.869879	0.236379
486.238487	0.239669
486.607036	0.237151
486.975527	0.241884
487.343959	0.237572
487.712333	0.236526
488.080648	0.238146
488.448905	0.236952
488.817104	0.238272
489.185244	0.232651
489.553326	0.229536
489.921350	0.219554
490.289315	0.201989
490.657222	0.197086
491.025070	0.198343
491.392861	0.200218
491.760593	0.206054
492.128267	0.211372
492.495883	0.216957
492.863440	0.223070
493.230939	0.229264
493.598380	0.230469
493.965763	0.232914
494.333088	0.235019
494.700354	0.236242
495.067563	0.235536
495.434713	0.238598
495.801805	0.236622
496.168839	0.237993
496.535815	0.239289
496.902733	0.239147
497.269593	0.240846
497.636395	0.238650
498.003139	0.238784
498.369825	0.241927
498.736453	0.238430
499.103023	0.239816
499.469535	0.239119
499.835989	0.239294
500.202385	0.240355
500.568723	0.243597
500.935003	0.238498
501.301226	0.242736
501.667390	0.237157
502.033497	0.235427
502.399546	0.238235
502.765537	0.239669
503.131470	0.238368
503.497345	0.234528
503.863163	0.243147
504.228923	0.236214
504.594625	0.234862
504.960269	0.240501
505.325856	0.235790
505.691385	0.239927
506.056856	0.236550
506.422270	0.235982
506.787625	0.238627
507.152924	0.235866
507.518164	0.236339
507.883347	0.237666
508.248472	0.239677
508.613540	0.234750
508.978550	0.237169
509.343503	0.237724
509.708398	0.235221
510.073236	0.232744
510.438016	0.232940
510.802738	0.233691
511.167403	0.232930
511.532010	0.234895
511.896561	0.230394
512.261053	0.228820
512.625488	0.231088
512.989866	0.231443
513.354186	0.231623
513.718449	0.233660
514.082655	0.229845
514.446803	0.232181
514.810894	0.229897
515.174927	0.232528
515.538904	0.232048
515.902822	0.228823
516.266684	0.231284
516.630488	0.232464
516.994235	0.231203
517.357925	0.230075
517.721558	0.228302
518.085133	0.227893
518.448651	0.227803
518.812112	0.230070
519.175516	0.229490
519.538863	0.227277
519.902152	0.229000
520.265385	0.225521
520.628560	0.227678
520.991678	0.227984
521.354739	0.226762
521.717743	0.228196
522.080690	0.228741
522.443580	0.225876
522.806413	0.226779
523.169189	0.226186
523.531908	0.224906
523.894569	0.228567
524.257174	0.228563
524.619722	0.226319
524.982213	0.227348
525.344647	0.226372
525.707025	0.227024
526.069345	0.225154
526.431608	0.226861
526.793815	0.224910
527.155964	0.228976
527.518057	0.228159
527.880093	0.229090
528.242072	0.227734
528.603995	0.229525
528.965860	0.231222
529.327669	0.229971
529.689421	0.230864
530.051117	0.231630
530.412755	0.229434
530.774337	0.231808
531.135862	0.231895
531.497331	0.231334
531.858743	0.234442
532.220098	0.230865
532.581396	0.233441
532.942638	0.234075
533.303824	0.234755
533.664953	0.235090
534.026025	0.236521
534.387040	0.234465
534.747999	0.234421
535.108902	0.233496
535.469748	0.238310
535.830537	0.236011
536.191270	0.236864
536.551947	0.236300
536.912567	0.236359
537.273131	0.237927
537.633638	0.238100
537.994089	0.238555
538.354483	0.239513
538.714821	0.236571
539.075103	0.236280
539.435328	0.237181
539.795497	0.240632
540.155609	0.237327
540.515665	0.235515
540.875665	0.240978
541.235609	0.239497
541.595496	0.239650
541.955328	0.236352
542.315102	0.239200
542.674821	0.240015
543.034483	0.239871
543.394090	0.239704
543.753640	0.241619
544.113134	0.236648
544.472571	0.239849
544.831953	0.236925
545.191278	0.240837
545.550548	0.240363
545.909761	0.237029
546.268918	0.237587
546.628019	0.236184
546.987064	0.238874
547.346053	0.241008
547.704986	0.238443
548.063863	0.238757
548.422684	0.239106
548.781449	0.241066
549.140158	0.238561
549.498811	0.241503
549.857408	0.244509
550.215949	0.239454
550.574434	0.242177
550.932864	0.240406
551.291237	0.239039
551.649555	0.240645
552.007817	0.239988
552.366022	0.241088
552.724173	0.241232
553.082267	0.241671
553.440305	0.238430
553.798288	0.242815
554.156215	0.239624
554.514086	0.240217
554.871902	0.243303
555.229661	0.242542
555.587365	0.243106
555.945014	0.245665
556.302606	0.242785
556.660143	0.244929
557.017625	0.241511
557.375050	0.243765
557.732421	0.241051
558.089735	0.242831
558.446994	0.243046
558.804197	0.242039
559.161345	0.242262
559.518437	0.245738
559.875474	0.243187
560.232455	0.242680
560.589381	0.244243
560.946251	0.243993
561.303065	0.241585
561.659825	0.243014
562.016528	0.244476
562.373177	0.247152
562.729770	0.244686
563.086307	0.246913
563.442789	0.244363
563.799216	0.247596
564.155587	0.246011
564.511904	0.247240
564.868164	0.247663
565.224370	0.246980
565.580520	0.248918
565.936615	0.248813
566.292654	0.251823
566.648638	0.248918
567.004567	0.249726
567.360441	0.250399
567.716260	0.252435
568.072023	0.250116
568.427732	0.250709
568.783385	0.253240
569.138982	0.251266
569.494525	0.250976
569.850013	0.253587
570.205445	0.251968
570.560823	0.254831
570.916145	0.256400
571.271412	0.255076
571.626625	0.256527
571.981782	0.256708
572.336884	0.257776
572.691931	0.257556
573.046923	0.258801
573.401860	0.259934
573.756743	0.261565
574.111570	0.260665
574.466342	0.261164
574.821059	0.260196
575.175722	0.262850
575.530330	0.262751
575.884882	0.263171
576.239380	0.265107
576.593823	0.265642
576.948211	0.265138
577.302544	0.268175
577.656823	0.268218
578.011047	0.267810
578.365216	0.268773
578.719330	0.270576
579.073389	0.270733
579.427394	0.271937
579.781344	0.272717
580.135239	0.274245
580.489080	0.273748
580.842866	0.276549
581.196597	0.277096
581.550273	0.275062
581.903895	0.275975
582.257463	0.274135
582.610975	0.277628
582.964434	0.277271
583.317837	0.279523
583.671186	0.279776
584.024481	0.280015
584.377721	0.282261
584.730906	0.283087
585.084037	0.282385
585.437113	0.284167
585.790135	0.283776
586.143103	0.286517
586.496016	0.287505
586.848874	0.285153
587.201679	0.285701
587.554428	0.289033
587.907124	0.287754
588.259765	0.288369
588.612352	0.288899
588.964884	0.292837
589.317362	0.292828
589.669786	0.292582
590.022155	0.290880
590.374470	0.290140
590.726731	0.292634
591.078937	0.297139
591.431090	0.293442
591.783188	0.297424
592.135232	0.297882
592.487222	0.297796
592.839157	0.296192
593.191038	0.298399
593.542866	0.300386
593.894639	0.303936
594.246358	0.301874
594.598022	0.301476
594.949633	0.304808
595.301190	0.306103
595.652692	0.304843
596.004141	0.301028
596.355535	0.309170
596.706876	0.309723
597.058162	0.311886
597.409395	0.309126
597.760573	0.306980
598.111698	0.310423
598.462768	0.310743
598.813785	0.311985
599.164748	0.313352
599.515657	0.313569
599.866511	0.317146
600.217312	0.311921
600.568060	0.317559
600.918753	0.314035
601.269392	0.315045
601.619978	0.318211
601.970510	0.315843
602.320988	0.315851
602.671412	0.313437
603.021783	0.316081
603.372100	0.317254
603.722363	0.317110
604.072572	0.317947
604.422728	0.318091
604.772830	0.319865
605.122878	0.319083
605.472872	0.319942
605.822813	0.318294
606.172701	0.320874
606.522534	0.318298
606.872314	0.318563
607.222041	0.319283
607.571714	0.317401
607.921333	0.318636
608.270899	0.318692
608.620411	0.315153
608.969870	0.319069
609.319276	0.318947
609.668627	0.319075
610.017926	0.317688
610.367171	0.316110
610.716362	0.317094
611.065500	0.317075
611.414585	0.315938
611.763616	0.316580
612.112594	0.316747
612.461518	0.316328
612.810389	0.314107
613.159207	0.316328
613.507971	0.317924
613.856682	0.313806
614.205340	0.315971
614.553945	0.312238
614.902496	0.316427
615.250994	0.314343
615.599439	0.315162
615.947830	0.314358
616.296169	0.315259
616.644454	0.314945
616.992686	0.314944
617.340864	0.312726
617.688990	0.316545
618.037063	0.313198
618.385082	0.314928
618.733048	0.311896
619.080961	0.314162
619.428821	0.313414
619.776628	0.313001
620.124382	0.314844
620.472083	0.315009
620.819731	0.314990
621.167326	0.318751
621.514868	0.318215
621.862357	0.322818
622.209793	0.322101
622.557176	0.324622
622.904506	0.325532
623.251783	0.327656
623.599007	0.329811
623.946179	0.329499
624.293297	0.331307
624.640363	0.335578
624.987376	0.335818
625.334336	0.338533
625.681243	0.340677
626.028097	0.341076
626.374899	0.342320
626.721647	0.342624
627.068343	0.345758
627.414987	0.346985
627.761577	0.349291
628.108115	0.347381
628.454600	0.352479
628.801032	0.349486
629.147412	0.351821
629.493739	0.352010
629.840014	0.355386
630.186236	0.352491
630.532405	0.358263
630.878521	0.355427
631.224585	0.357779
631.570597	0.361566
631.916556	0.360163
632.262462	0.360096
632.608316	0.362386
632.954117	0.362805
633.299866	0.363962
633.645562	0.364276
633.991206	0.368521
634.336797	0.371649
634.682336	0.374055
635.027823	0.375719
635.373257	0.375838
635.718639	0.379460
636.063968	0.378702
636.409245	0.384499
636.754470	0.384585
637.099642	0.386686
637.444762	0.390007
637.789829	0.389594
638.134845	0.392901
638.479808	0.394392
638.824719	0.394210
639.169577	0.398071
639.514383	0.396551
639.859137	0.401257
640.203839	0.400728
640.548489	0.401422
640.893086	0.402742
641.237632	0.404403
641.582125	0.402998
641.926566	0.404247
642.270955	0.404393
642.615292	0.404782
642.959576	0.404477
643.303809	0.404241
643.647990	0.404002
643.992118	0.404718
644.336195	0.408215
644.680219	0.406248
645.024192	0.407031
645.368112	0.400737
645.711981	0.399665
646.055797	0.395095
646.399562	0.397832
646.743274	0.389439
647.086935	0.386757
647.430544	0.387389
647.774101	0.385903
648.117606	0.385875
648.461059	0.386068
648.804460	0.388648
649.147810	0.393516
649.491108	0.395505
649.834354	0.397048
650.177548	0.402697
650.520690	0.407908
650.863781	0.409362
651.206820	0.408153
651.549807	0.412890
651.892742	0.417369
652.235626	0.416623
652.578458	0.417714
652.921238	0.423496
653.263967	0.420917
653.606644	0.425230
653.949269	0.425555
654.291843	0.429098
654.634365	0.425451
654.976836	0.428572
655.319255	0.428960
655.661622	0.430758
656.003938	0.430865
656.346203	0.433270
656.688416	0.430724
657.030577	0.434569
657.372687	0.436533
657.714746	0.437864
658.056753	0.434753
658.398708	0.438512
658.740612	0.439357
659.082465	0.435788
659.424266	0.436207
659.766016	0.435476
660.107715	0.438347
660.449362	0.437083
660.790958	0.437809
661.132503	0.437942
661.473996	0.435723
661.815438	0.437134
662.156829	0.437173
662.498168	0.437667
662.839456	0.439151
663.180693	0.436588
663.521879	0.436699
663.863013	0.437509
664.204097	0.435727
664.545129	0.433156
664.886110	0.433316
665.227040	0.431245
665.567918	0.433655
665.908746	0.431661
666.249522	0.431128
666.590248	0.432292
666.930922	0.430284
667.271545	0.428547
667.612118	0.428897
667.952639	0.431255
668.293109	0.429541
668.633528	0.431933
668.973896	0.432786
669.314213	0.432546
669.654480	0.434647
669.994695	0.434706
670.334859	0.435370
670.674973	0.435778
671.015035	0.435620
671.355047	0.435477
671.695008	0.437072
672.034918	0.438588
672.374777	0.438476
672.714585	0.439246
673.054342	0.438952
673.394049	0.439335
673.733705	0.436964
674.073310	0.438272
674.412864	0.441039
674.752368	0.441459
675.091820	0.441438
675.431223	0.446045
675.770574	0.446142
676.109875	0.449120
676.449125	0.448890
676.788324	0.450757
677.127473	0.456646
677.466571	0.456147
677.805619	0.458231
678.144616	0.459259
678.483562	0.460918
678.822458	0.463348
679.161303	0.464408
679.500098	0.464264
679.838842	0.466958
680.177535	0.465486
680.516179	0.464544
680.854771	0.464078
681.193314	0.456593
681.531805	0.448988
681.870247	0.436703
682.208638	0.429367
682.546978	0.428904
682.885268	0.429733
683.223508	0.436257
683.561697	0.440175
683.899836	0.442408
684.237925	0.446340
684.575963	0.448687
684.913951	0.451798
685.251889	0.447187
685.589776	0.449328
685.927614	0.451701
686.265401	0.446027
686.603137	0.447510
686.940824	0.441922
687.278460	0.440201
687.616046	0.439086
687.953582	0.434323
688.291068	0.435645
688.628504	0.430943
688.965889	0.433476
689.303224	0.437264
689.640510	0.441913
689.977745	0.447375
690.314930	0.454753
690.652065	0.459575
690.989150	0.467289
691.326185	0.473311
691.663170	0.478188
692.000105	0.485494
692.336990	0.492142
692.673825	0.495129
693.010610	0.501797
693.347345	0.506643
693.684030	0.508327
694.020665	0.513184
694.357251	0.522180
694.693786	0.521818
695.030272	0.525837
695.366707	0.529670
695.703093	0.532707
696.039429	0.530626
696.375716	0.531798
696.711952	0.535018
697.048139	0.536859
697.384276	0.539274
697.720363	0.537010
698.056400	0.536440
698.392388	0.541672
698.728326	0.544971
699.064214	0.547009
699.400053	0.547970
699.735842	0.551626
700.071581	0.554650
700.407270	0.557700
700.742910	0.560481
701.078501	0.566630
701.414042	0.567334
701.749533	0.569835
702.084974	0.579205
702.420366	0.571028
702.755709	0.578955
703.091002	0.586591
703.426246	0.580010
703.761440	0.585758
704.096584	0.590970
704.431679	0.587646
704.766725	0.589647
705.101721	0.591020
705.436668	0.587298
705.771565	0.594578
706.106413	0.591430
706.441212	0.586252
706.775961	0.585708
707.110661	0.588262
707.445311	0.585132
707.779913	0.581886
708.114465	0.580796
708.448967	0.577445
708.783421	0.568978
709.117825	0.563554
709.452180	0.563596
709.786485	0.557939
710.120742	0.546799
710.454949	0.549357
710.789107	0.541644
711.123216	0.532260
711.457275	0.534609
711.791286	0.524808
712.125247	0.523852
712.459159	0.535046
712.793023	0.528159
713.126837	0.531696
713.460602	0.531623
713.794318	0.541883
714.127985	0.539851
714.461602	0.550148
714.795171	0.553242
715.128691	0.561437
715.462162	0.568163
715.795584	0.574048
716.128957	0.577028
716.462281	0.584208
716.795556	0.587331
717.128782	0.593055
717.461960	0.601649
717.795088	0.599979
718.128167	0.606322
718.461198	0.614897
718.794180	0.615419
719.127113	0.618014
719.459997	0.621281
719.792833	0.627873
720.125619	0.630045
720.458357	0.634822
720.791046	0.635169
721.123686	0.638001
721.456278	0.645956
721.788821	0.643165
722.121315	0.646598
722.453761	0.651886
722.786158	0.648836
723.118506	0.645345
723.450805	0.652892
723.783056	0.649350
724.115259	0.645775
724.447412	0.645485
724.779518	0.647232
725.111574	0.646818
725.443582	0.641830
725.775542	0.644022
726.107453	0.635789
726.439315	0.635975
726.771129	0.634323
727.102895	0.627913
727.434612	0.620191
727.766281	0.618518
728.097901	0.617895
728.429473	0.617517
728.760996	0.616490
729.092471	0.615708
729.423897	0.619952
729.755276	0.619329
730.086606	0.619125
730.417887	0.614117
730.749120	0.604508
731.080305	0.595028
731.411442	0.592218
731.742530	0.596464
732.073570	0.595860
732.404562	0.587589
732.735506	0.588862
733.066401	0.593600
733.397249	0.603342
733.728048	0.614557
734.058798	0.626712
734.389501	0.637322
734.720156	0.647150
735.050762	0.655613
735.381320	0.656208
735.711831	0.665829
736.042293	0.670314
736.372707	0.666128
736.703073	0.671084
737.033391	0.672275
737.363661	0.669331
737.693883	0.665394
738.024056	0.664207
738.354182	0.664086
738.684260	0.654344
739.014290	0.649709
739.344272	0.650120
739.674207	0.644801
740.004093	0.644088
740.333931	0.644193
740.663722	0.644394
740.993464	0.645226
741.323159	0.647689
741.652806	0.653419
741.982405	0.657886
742.311956	0.662721
742.641460	0.664887
742.970915	0.668943
743.300323	0.675613
743.629683	0.682582
743.958996	0.684097
744.288260	0.689116
744.617477	0.694591
744.946647	0.696269
745.275768	0.701098
745.604842	0.701462
745.933869	0.711302
746.262847	0.712039
746.591778	0.705422
746.920662	0.711093
747.249498	0.717402
747.578286	0.709042
747.907027	0.705559
748.235720	0.706522
748.564365	0.701039
748.892963	0.700319
749.221514	0.704045
749.550017	0.708715
749.878473	0.708401
750.206881	0.715391
750.535242	0.716772
750.863555	0.715979
751.191821	0.717345
751.520039	0.720798
751.848210	0.725025
752.176334	0.717940
752.504411	0.717345
752.832440	0.725323
753.160421	0.728478
753.488356	0.727248
753.816243	0.724759
754.144082	0.733098
754.471875	0.736472
754.799620	0.732065
755.127318	0.733377
755.454969	0.733374
755.782572	0.732075
756.110129	0.737601
756.437638	0.740491
756.765100	0.736859
757.092515	0.734772
757.419882	0.733406
757.747203	0.738293
758.074477	0.738117
758.401703	0.735291
758.728882	0.731112
759.056014	0.730157
759.383099	0.728508
759.710138	0.728778
760.037129	0.726004
760.364073	0.719915
760.690970	0.722353
761.017820	0.727789
761.344623	0.723997
761.671379	0.714512
761.998088	0.703563
762.324751	0.680179
762.651366	0.639318
762.977935	0.572422
763.304456	0.520192
763.630931	0.511098
763.957359	0.549801
764.283740	0.594243
764.610074	0.621051
764.936362	0.651821
765.262602	0.678239
765.588796	0.700939
765.914943	0.717864
766.241044	0.735200
766.567097	0.742743
766.893104	0.752310
767.219064	0.757769
767.544978	0.764513
767.870845	0.777992
768.196665	0.781311
768.522438	0.779881
768.848165	0.780597
769.173846	0.790560
769.499479	0.794515
769.825066	0.797740
770.150607	0.802863
770.476101	0.797590
770.801548	0.799185
771.126949	0.811086
771.452303	0.813903
771.777611	0.814003
772.102872	0.813351
772.428087	0.818717
772.753256	0.821952
773.078378	0.824288
773.403453	0.832310
773.728482	0.837019
774.053465	0.830471
774.378401	0.835062
774.703291	0.842366
775.028135	0.840863
775.352932	0.843214
775.677683	0.846626
776.002388	0.847392
776.327046	0.845875
776.651658	0.848729
776.976224	0.853163
777.300743	0.853918
777.625216	0.856732
777.949643	0.855800
778.274024	0.857678
778.598359	0.858427
778.922647	0.857260
779.246889	0.858194
779.571086	0.862317
779.895236	0.864797
780.219339	0.861963
780.543397	0.859524
780.867409	0.857475
781.191374	0.859690
781.515294	0.860374
781.839167	0.859332
782.162995	0.863154
782.486776	0.859989
782.810511	0.860308
783.134201	0.864114
783.457844	0.862120
783.781441	0.864275
784.104993	0.870375
784.428498	0.870973
784.751958	0.866791
785.075372	0.868537
785.398739	0.873326
785.722061	0.868569
786.045337	0.865044
786.368568	0.869785
786.691752	0.872151
787.014891	0.858497
787.337983	0.848799
787.661030	0.841697
787.984031	0.824558
788.306987	0.810792
788.629897	0.813581
788.952760	0.816901
789.275579	0.821765
789.598351	0.836520
789.921078	0.850545
790.243759	0.852298
790.566395	0.857011
790.888984	0.864156
791.211529	0.868926
791.534027	0.872448
791.856480	0.874543
792.178888	0.879885
792.501249	0.881931
792.823566	0.884093
793.145836	0.883616
793.468062	0.885080
793.790241	0.886475
794.112375	0.883295
794.434464	0.879008
794.756507	0.878352
795.078505	0.877923
795.400457	0.872555
795.722364	0.859810
796.044226	0.853629
796.366042	0.852832
796.687812	0.856624
797.009538	0.852482
797.331218	0.855091
797.652852	0.860719
797.974442	0.865013
798.295986	0.864156
798.617484	0.867360
798.938938	0.871253
799.260346	0.876760
799.581709	0.879298
799.903026	0.880512
800.224299	0.879818
800.545526	0.885727
800.866708	0.888650
801.187845	0.892416
801.508936	0.892545
801.829983	0.891034
802.150984	0.893878
802.471940	0.899431
802.792851	0.898343
803.113717	0.897762
803.434538	0.896761
803.755314	0.899285
804.076045	0.900988
804.396731	0.900643
804.717372	0.900517
805.037967	0.901741
805.358518	0.899684
805.679024	0.897164
805.999485	0.897066
806.319901	0.897425
806.640272	0.898423
806.960598	0.896871
807.280879	0.893639
807.601115	0.892507
807.921306	0.895908
808.241453	0.896940
808.561554	0.894213
808.881611	0.895074
809.201623	0.896568
809.521590	0.895693
809.841513	0.896689
810.161390	0.897282
810.481223	0.898800
810.801011	0.901872
811.120755	0.904441
811.440453	0.902151
811.760107	0.901142
812.079716	0.901425
812.399281	0.904251
812.718801	0.906919
813.038276	0.906878
813.357707	0.907381
813.677093	0.903232
813.996434	0.907270
814.315731	0.907569
814.634983	0.910826
814.954191	0.908753
815.273354	0.904723
815.592473	0.901996
815.911547	0.901374
816.230577	0.899594
816.549562	0.895440
816.868502	0.896764
817.187399	0.893199
817.506250	0.887944
817.825058	0.890006
818.143821	0.886524
818.462539	0.881984
818.781213	0.873969
819.099843	0.862070
819.418429	0.846461
819.736970	0.829643
820.055466	0.810361
820.373919	0.785474
820.692327	0.751885
821.010691	0.717820
821.329011	0.641210
821.647286	0.526474
821.965517	0.412947
822.283704	0.370627
822.601847	0.371676
822.919945	0.407558
823.237999	0.440664
823.556010	0.487306
823.873976	0.542832
824.191897	0.593869
824.509775	0.635006
824.827609	0.681234
825.145398	0.702869
825.463144	0.706481
825.780845	0.688504
826.098502	0.670168
826.416116	0.624460
826.733685	0.580916
827.051210	0.572394
827.368692	0.587744
827.686129	0.624132
828.003522	0.677502
828.320872	0.724477
828.638177	0.768857
828.955439	0.800313
829.272656	0.822701
829.589830	0.840073
829.906960	0.854988
830.224046	0.867555
830.541088	0.878295
830.858086	0.881295
831.175041	0.888179
831.491952	0.887838
831.808819	0.883708
832.125642	0.877899
832.442421	0.863021
832.759157	0.840700
833.075849	0.794590
833.392497	0.731396
833.709101	0.690310
834.025662	0.701011
834.342179	0.732689
834.658653	0.770889
834.975083	0.806397
835.291469	0.832466
835.607811	0.855284
835.924110	0.871086
836.240366	0.888238
836.556578	0.900383
836.872746	0.908765
837.188871	0.915889
837.504952	0.919754
837.820990	0.925170
838.136984	0.927562
838.452935	0.929798
838.768842	0.932787
839.084706	0.925496
839.400526	0.899947
839.716303	0.860666
840.032037	0.837640
840.347727	0.840859
840.663373	0.859819
840.978977	0.879953
841.294537	0.902654
841.610054	0.919437
841.925527	0.927243
842.240957	0.933620
842.556344	0.939470
842.871687	0.945527
843.186987	0.951186
843.502244	0.951027
843.817458	0.952071
844.132629	0.956937
844.447756	0.960528
844.762840	0.961841
845.077881	0.960218
845.392879	0.960008
845.707833	0.963730
846.022745	0.964972
846.337613	0.965065
846.652438	0.966075
846.967221	0.963806
847.281960	0.965472
847.596656	0.968004
847.911309	0.966453
848.225919	0.967474
848.540485	0.969373
848.855009	0.969357
849.169490	0.968716
849.483928	0.969898
849.798323	0.970069
850.112675	0.970151
850.426984	0.969982
850.741251	0.970028
851.055474	0.969995
851.369654	0.967940
851.683792	0.968894
851.997887	0.970416
852.311938	0.971620
852.625947	0.970430
852.939914	0.968938
853.253837	0.970035
853.567718	0.971082
853.881555	0.970390
854.195350	0.968020
854.509103	0.969550
854.822812	0.971126
855.136479	0.970843
855.450103	0.969444
855.763685	0.969664
856.077224	0.969181
856.390720	0.970667
856.704173	0.970951
857.017584	0.969112
857.330953	0.967856
857.644278	0.968003
857.957561	0.969011
858.270802	0.969080
858.584000	0.968663
858.897155	0.967324
859.210268	0.967482
859.523339	0.968205
859.836367	0.969651
860.149352	0.970783
860.462295	0.969509
860.775195	0.969779
861.088054	0.969026
861.400869	0.969836
861.713642	0.971013
862.026373	0.971138
862.339062	0.970144
862.651708	0.968334
862.964312	0.968645
863.276873	0.970015
863.589392	0.968496
863.901869	0.967310
864.214303	0.965817
864.526696	0.963877
864.839045	0.963580
865.151353	0.962394
865.463619	0.962943
865.775842	0.962790
866.088023	0.962972
866.400162	0.962685
866.712258	0.963638
867.024313	0.962211
867.336325	0.965484
867.648296	0.964365
867.960224	0.962908
868.272110	0.962187
868.583954	0.963799
868.895755	0.964539
869.207515	0.962089
869.519233	0.959470
869.830909	0.961964
870.142542	0.964147
870.454134	0.962706
870.765684	0.961081
871.077191	0.958176
871.388657	0.959763
871.700081	0.957933
872.011463	0.959785
872.322803	0.959232
872.634101	0.957887
872.945357	0.955840
873.256571	0.952908
873.567744	0.954088
873.878874	0.954428
874.189963	0.953104
874.501010	0.951175
874.812015	0.950499
875.122979	0.951432
875.433900	0.954366
875.744780	0.954808
876.055618	0.951927
876.366415	0.951011
876.677169	0.951265
876.987882	0.952607
877.298554	0.951839
877.609183	0.948079
877.919771	0.945355
878.230317	0.943847
878.540822	0.940501
878.851285	0.935834
879.161707	0.927652
879.472087	0.915305
879.782425	0.899791
880.092722	0.866010
880.402977	0.814122
880.713191	0.753877
881.023363	0.696306
881.333494	0.662387
881.643583	0.634647
881.953631	0.634359
882.263637	0.663073
882.573602	0.702091
882.883526	0.727875
883.193408	0.750915
883.503248	0.774003
883.813048	0.800607
884.122806	0.829416
884.432522	0.852059
884.742197	0.871419
885.051831	0.881960
885.361424	0.892686
885.670975	0.904560
885.980485	0.914184
886.289954	0.921093
886.599382	0.925809
886.908768	0.929812
887.218113	0.935329
887.527417	0.939159
887.836680	0.943758
888.145901	0.944521
888.455082	0.947289
888.764221	0.951578
889.073319	0.953463
889.382376	0.953350
889.691392	0.954289
890.000366	0.953149
890.309300	0.954925
890.618193	0.954139
890.927044	0.952511
891.235855	0.952200
891.544625	0.951989
891.853353	0.952539
892.162041	0.950505
892.470687	0.943633
892.779293	0.938486
893.087858	0.935631
893.396381	0.926879
893.704864	0.914789
894.013306	0.891540
894.321707	0.863975
894.630068	0.850218
894.938387	0.845526
895.246665	0.846964
895.554903	0.858454
895.863100	0.871707
896.171256	0.888606
896.479371	0.907789
896.787446	0.920638
897.095480	0.926179
897.403473	0.929467
897.711425	0.933436
898.019336	0.941674
898.327207	0.943953
898.635038	0.945203
898.942827	0.946135
899.250576	0.948997
899.558284	0.953917
899.865952	0.953940
900.173579	0.956870
900.481165	0.956693
900.788711	0.961047
901.096216	0.963063
901.403681	0.962503
901.711105	0.963662
902.018489	0.965096
902.325832	0.962882
902.633135	0.962638
902.940397	0.957530
903.247619	0.944963
903.554800	0.920180
903.861941	0.880602
904.169041	0.845936
904.476101	0.829009
904.783121	0.830293
905.090100	0.845322
905.397039	0.866965
905.703938	0.888157
906.010796	0.907614
906.317614	0.924794
906.624391	0.936069
906.931129	0.944250
907.237826	0.953781
907.544483	0.960644
907.851099	0.962891
908.157675	0.968996
908.464211	0.970246
908.770707	0.972246
909.077163	0.975458
909.383578	0.976638
909.689954	0.976193
909.996289	0.976539
910.302584	0.976956
910.608839	0.980347
910.915054	0.979400
911.221229	0.978427
911.527363	0.977508
911.833458	0.978840
912.139513	0.976895
912.445527	0.975952
912.751502	0.974445
913.057436	0.973433
913.363331	0.970844
913.669186	0.966933
913.975000	0.961411
914.280775	0.955564
914.586510	0.948312
914.892205	0.936131
915.197859	0.915843
915.503475	0.887343
915.809050	0.868780
916.114585	0.864022
916.420081	0.861713
916.725536	0.858474
917.030952	0.866221
917.336328	0.878229
917.641665	0.893946
917.946961	0.909364
918.252218	0.919844
918.557435	0.929200
918.862612	0.937610
919.167750	0.942576
919.472848	0.946862
919.777906	0.953659
920.082925	0.959753
920.387904	0.961858
920.692843	0.964125
920.997743	0.963899
921.302603	0.968374
921.607423	0.969589
921.912204	0.972191
922.216946	0.972465
922.521647	0.973351
922.826310	0.975392
923.130932	0.978058
923.435516	0.979670
923.740059	0.980022
924.044564	0.978876
924.349028	0.980281
924.653454	0.984267
924.957840	0.984998
925.262186	0.984849
925.566493	0.984017
925.870761	0.984667
926.174989	0.986103
926.479178	0.987424
926.783328	0.988469
927.087438	0.989272
927.391509	0.987957
927.695541	0.990721
927.999533	0.989755
928.303486	0.989246
928.607400	0.991882
928.911275	0.990728
929.215110	0.990422
929.518906	0.991226
929.822663	0.990324
930.126381	0.991132
930.430060	0.990216
930.733699	0.990631
931.037299	0.990804
931.340861	0.990938
931.644383	0.990845
931.947866	0.988748
932.251309	0.991068
932.554714	0.991104
932.858080	0.990398
933.161407	0.990565
933.464694	0.993110
933.767943	0.990861
934.071153	0.991670
934.374323	0.991702
934.677455	0.989896
934.980548	0.991944
935.283602	0.991092
935.586617	0.992370
935.889593	0.991046
936.192530	0.991180
936.495428	0.992002
936.798287	0.991517
937.101108	0.990596
937.403890	0.989256
937.706632	0.989202
938.009336	0.986882
938.312002	0.986562
938.614628	0.984385
938.917216	0.983812
939.219765	0.982012
939.522275	0.984105
939.824747	0.983744
940.127179	0.983679
940.429573	0.984267
940.731929	0.984742
941.034246	0.983952
941.336524	0.985241
941.638763	0.986186
941.940964	0.986921
942.243126	0.986481
942.545250	0.988504
942.847335	0.987995
943.149381	0.987459
943.451389	0.988547
943.753359	0.989382
944.055290	0.991491
944.357182	0.989896
944.659036	0.988932
944.960851	0.988660
945.262628	0.990065
945.564367	0.990078
945.866067	0.990319
946.167729	0.990359
946.469352	0.991009
946.770937	0.989333
947.072484	0.990974
947.373992	0.990968
947.675462	0.990493
947.976893	0.990100
948.278286	0.990226
948.579641	0.991445
948.880958	0.990623
949.182236	0.991236
949.483476	0.991796
949.784678	0.990241
950.085841	0.991914
950.386967	0.990777
950.688054	0.990861
950.989103	0.990715
951.290114	0.989220
951.591087	0.989941
951.892021	0.990183
952.192917	0.988069
952.493776	0.987691
952.794596	0.989775
953.095378	0.988154
953.396122	0.988166
953.696828	0.988086
953.997496	0.989805
954.298126	0.990278
954.598718	0.990294
954.899272	0.991141
955.199788	0.991054
955.500266	0.991576
955.800706	0.992384
956.101108	0.993020
956.401472	0.994542
956.701798	0.994244
957.002087	0.993362
957.302337	0.993884
957.602550	0.996185
957.902724	0.995170
958.202861	0.995811
958.502960	0.995707
958.803022	0.994887
959.103045	0.995910
959.403031	0.996008
959.702979	0.995350
960.002889	0.995862
960.302762	0.994061
960.602596	0.996202
960.902393	0.994282
961.202153	0.996491
961.501875	0.997259
961.801559	0.995018
962.101205	0.995377
962.400814	0.996932
962.700385	0.996456
962.999918	0.996383
963.299414	0.997748
963.598873	0.995779
963.898293	0.996637
964.197677	0.996262
964.497022	0.997114
964.796331	0.997619
965.095601	0.997331
965.394835	0.996194
965.694030	0.997363
965.993189	0.997395
966.292309	0.997144
966.591393	0.998148
966.890439	0.995991
967.189447	0.997856
967.488419	0.997958
967.787353	0.997185
968.086249	0.996081
968.385108	0.998056
968.683930	0.997559
968.982714	0.999016
969.281462	0.997883
969.580172	0.996186
969.878844	0.997629
970.177480	0.996542
970.476078	0.997472
970.774639	0.996969
971.073162	0.997639
971.371649	0.997047
971.670098	0.996374
971.968510	0.997292
972.266885	0.995867
972.565223	0.997112
972.863524	0.997343
973.161788	0.995764
973.460014	0.997739
973.758204	0.996681
974.056356	0.996644
974.354471	0.994994
974.652550	0.996389
974.950591	0.996558
975.248595	0.996830
975.546563	0.996586
975.844493	0.997998
976.142386	0.997347
976.440243	0.997975
976.738062	0.997595
977.035845	0.998821
977.333590	0.996663
977.631299	0.998228
977.928971	0.996619
978.226606	0.997163
978.524204	0.996786
978.821765	0.997641
979.119290	0.996509
979.416777	0.997945
979.714228	0.996968
980.011642	0.995823
980.309020	0.997372
980.606360	0.997115
980.903664	0.997379
981.200931	0.996559
981.498162	0.994561
981.795356	0.994982
982.092513	0.994079
982.389633	0.995060
982.686717	0.992411
982.983764	0.990935
983.280775	0.990927
983.577749	0.991033
983.874686	0.992304
984.171587	0.992291
984.468451	0.994401
984.765279	0.993793
985.062070	0.994479
985.358824	0.996648
985.655543	0.995473
985.952224	0.996901
986.248869	0.995913
986.545478	0.996982
986.842050	0.998841
987.138586	0.995522
987.435086	0.997907
987.731549	0.998802
988.027975	0.997399
988.324366	0.996980
988.620719	0.998068
988.917037	0.996843
989.213318	0.997782
989.509563	0.998612
989.805772	0.998635
990.101944	0.998733
990.398080	0.996991
990.694180	0.997958
990.990244	0.997473
991.286271	0.998535
991.582262	0.998675
991.878217	0.997729
992.174136	0.999022
992.470019	0.998913
992.765865	0.998946
993.061676	0.999114
993.357450	0.997695
993.653188	0.998086
993.948890	0.996853
994.244556	0.998484
994.540186	0.997150
994.835780	0.995851
995.131337	0.997514
995.426859	0.997117
995.722345	0.997862
996.017795	0.997452
996.313208	0.996850
996.608586	0.996177
996.903928	0.996634
997.199234	0.997345
997.494504	0.996397
997.789738	0.996039
998.084936	0.997265
998.380099	0.997725
998.675225	0.997901
998.970316	0.998017
999.265371	0.997951
999.560390	0.998642
999.855373	0.999353
1000.150320	0.998615
1000.445232	0.998746
1000.740108	0.997962
1001.034948	0.998366
1001.329752	0.999228
1001.624521	0.998238
1001.919254	0.998820
1002.213951	0.998615
1002.508613	0.998738
1002.803239	0.999871
1003.097829	0.998384
1003.392384	0.999721
1003.686903	0.998098
1003.981386	0.998683
1004.275834	0.999567
1004.570246	0.999335
1004.864623	0.998113
1005.158964	0.999787
1005.453270	0.998748
1005.747540	0.997956
1006.041775	0.999375
1006.335974	1.000165
1006.630138	0.998792
1006.924266	0.999267
1007.218359	1.001070
1007.512416	0.999240
1007.806438	0.999580
1008.100425	0.999821
1008.394376	0.999209
1008.688292	0.998359
1008.982172	1.000469
1009.276017	0.998732
1009.569827	0.998931
1009.863602	0.999365
1010.157341	0.999242
1010.451045	0.998494
1010.744714	0.998852
1011.038347	1.000464
1011.331945	1.000021
1011.625508	0.997872
1011.919036	0.998198
1012.212528	0.999029
1012.505986	0.997622
1012.799408	0.998701
1013.092795	0.999593
1013.386147	0.999085
1013.679464	0.998699
1013.972745	0.998700
1014.265992	0.997290
1014.559204	0.999019
1014.852380	0.997996
1015.145521	0.998509
1015.438628	0.999037
1015.731699	0.999789
1016.024736	0.998792
1016.317737	0.998468
1016.610703	0.999079
1016.903635	0.999288
1017.196531	0.998530
1017.489393	0.999755
1017.782219	0.997696
1018.075011	0.998259
1018.367768	0.998443
1018.660490	0.999696
1018.953177	0.999696
1019.245829	0.999696
