Dividing Wavelength (nm)	Counts (n)	Blue Motor Position (mm): 0.000000	Red Motor Position (mm): 25.800000	
326.493990	1.000110
326.888308	1.000110
327.282561	1.000110
327.676750	0.998240
328.070874	0.998555
328.464933	0.998902
328.858929	0.997189
329.252859	0.999513
329.646726	0.999481
330.040528	1.000900
330.434265	0.998695
330.827938	1.000404
331.221547	1.000529
331.615091	0.999603
332.008571	0.999598
332.401986	0.999568
332.795338	1.000963
333.188625	0.997771
333.581847	1.000946
333.975006	0.998694
334.368100	0.999897
334.761129	0.999813
335.154095	0.999911
335.546996	0.997573
335.939833	0.993036
336.332606	0.993109
336.725315	0.994951
337.117960	0.995694
337.510540	0.994533
337.903056	0.994125
338.295508	0.993689
338.687896	0.995333
339.080220	0.994161
339.472480	0.994365
339.864676	0.993048
340.256807	0.996347
340.648875	0.996460
341.040879	0.995210
341.432818	0.995375
341.824694	0.994423
342.216506	0.995470
342.608253	0.994906
342.999937	0.994665
343.391557	0.993390
343.783113	0.993424
344.174605	0.993919
344.566033	0.995087
344.957397	0.993586
345.348697	0.994644
345.739934	0.994663
346.131106	0.994290
346.522215	0.994438
346.913260	0.994612
347.304241	0.994579
347.695159	0.993944
348.086012	0.993657
348.476802	0.994317
348.867528	0.994085
349.258191	0.992715
349.648789	0.995007
350.039324	0.994819
350.429796	0.995113
350.820203	0.993762
351.210548	0.994133
351.600828	0.994935
351.991045	0.994009
352.381198	0.993090
352.771288	0.993523
353.161314	0.993517
353.551276	0.995927
353.941175	0.993267
354.331010	0.995098
354.720782	0.994608
355.110490	0.994219
355.500135	0.995220
355.889717	0.994318
356.279235	0.994843
356.668689	0.993489
357.058080	0.994145
357.447408	0.996098
357.836672	0.994584
358.225873	0.994950
358.615010	0.996289
359.004084	0.996327
359.393095	0.994548
359.782043	0.995077
360.170927	0.994584
360.559748	0.995271
360.948505	0.994212
361.337199	0.994997
361.725830	0.995043
362.114398	0.994887
362.502903	0.994601
362.891344	0.994961
363.279722	0.994107
363.668037	0.995229
364.056289	0.994464
364.444478	0.994253
364.832603	0.994931
365.220665	0.994869
365.608665	0.994487
365.996601	0.996162
366.384474	0.995368
366.772284	0.993984
367.160031	0.993968
367.547715	0.994468
367.935336	0.995224
368.322893	0.994984
368.710388	0.994503
369.097820	0.994510
369.485189	0.994678
369.872495	0.993599
370.259738	0.991819
370.646918	0.995638
371.034035	0.994552
371.421090	0.994581
371.808081	0.994611
372.195010	0.994726
372.581875	0.994856
372.968678	0.994910
373.355418	0.995867
373.742096	0.994646
374.128710	0.995976
374.515262	0.994366
374.901751	0.994742
375.288177	0.995487
375.674540	0.995688
376.060841	0.995107
376.447079	0.995532
376.833254	0.996226
377.219367	0.995094
377.605417	0.996456
377.991404	0.995645
378.377329	0.995119
378.763191	0.995359
379.148991	0.996195
379.534727	0.995947
379.920402	0.995850
380.306013	0.995299
380.691563	0.996393
381.077049	0.994772
381.462474	0.996207
381.847835	0.995343
382.233134	0.995336
382.618371	0.996081
383.003545	0.996549
383.388657	0.996711
383.773706	0.996347
384.158693	0.995914
384.543618	0.995450
384.928480	0.996961
385.313280	0.996050
385.698017	0.996976
386.082692	0.996164
386.467305	0.996786
386.851856	0.995439
387.236344	0.995897
387.620770	0.995808
388.005133	0.997230
388.389435	0.996883
388.773674	0.995389
389.157851	0.996546
389.541965	0.996881
389.926018	0.996156
390.310008	0.997225
390.693936	0.996317
391.077802	0.997261
391.461606	0.996425
391.845348	0.997488
392.229027	0.998217
392.612645	0.997105
392.996200	0.998392
393.379694	0.997143
393.763125	0.998064
394.146494	0.997565
394.529801	0.997155
394.913047	0.998246
395.296230	0.997543
395.679351	0.997671
396.062410	0.997131
396.445408	0.996802
396.828343	0.997140
397.211217	0.996611
397.594028	0.998080
397.976778	0.996920
398.359466	0.997611
398.742092	0.997508
399.124656	0.996634
399.507158	0.998384
399.889598	0.997626
400.271977	0.998086
400.654294	0.997189
401.036549	0.997505
401.418742	0.998208
401.800874	0.996362
402.182944	0.997216
402.564952	0.996663
402.946898	0.998330
403.328783	0.997639
403.710606	0.997185
404.092367	0.996777
404.474067	0.996951
404.855705	0.996856
405.237282	0.996686
405.618797	0.997998
406.000250	0.995742
406.381642	0.997565
406.762972	0.996523
407.144240	0.998471
407.525447	0.997776
407.906593	0.997040
408.287677	0.997950
408.668700	0.998303
409.049661	0.995870
409.430560	0.997289
409.811399	0.997201
410.192176	0.997163
410.572891	0.996805
410.953545	0.997067
411.334138	0.996445
411.714669	0.997526
412.095139	0.997026
412.475547	0.997569
412.855894	0.997637
413.236180	0.997884
413.616405	0.997932
413.996568	0.998030
414.376670	0.996644
414.756711	0.996950
415.136691	0.997643
415.516609	0.997188
415.896466	0.997261
416.276262	0.996750
416.655997	0.997915
417.035670	0.996748
417.415283	0.997621
417.794834	0.997144
418.174324	0.997350
418.553753	0.997524
418.933121	0.997436
419.312428	0.997456
419.691674	0.998077
420.070859	0.997553
420.449983	0.997951
420.829045	0.997026
421.208047	0.996949
421.586988	0.998755
421.965867	0.997265
422.344686	0.998332
422.723444	0.997124
423.102141	0.997251
423.480777	0.998456
423.859352	0.997448
424.237866	0.997035
424.616319	0.998061
424.994712	0.996318
425.373044	0.997773
425.751314	0.997450
426.129524	0.996938
426.507673	0.998353
426.885762	0.997572
427.263789	0.997715
427.641756	0.997583
428.019662	0.997891
428.397508	0.995963
428.775292	0.996241
429.153016	0.997191
429.530679	0.997296
429.908282	0.996984
430.285824	0.996343
430.663305	0.996234
431.040726	0.996895
431.418086	0.998111
431.795385	0.997453
432.172624	0.996655
432.549802	0.996742
432.926920	0.996343
433.303977	0.996570
433.680974	0.997583
434.057910	0.996488
434.434786	0.996550
434.811601	0.996166
435.188355	0.996015
435.565050	0.995644
435.941683	0.995846
436.318257	0.996061
436.694770	0.994617
437.071222	0.994633
437.447614	0.994128
437.823946	0.994039
438.200218	0.993827
438.576429	0.992415
438.952580	0.992652
439.328670	0.990906
439.704700	0.990640
440.080670	0.989646
440.456580	0.988125
440.832429	0.986758
441.208218	0.986714
441.583947	0.984799
441.959616	0.983128
442.335224	0.982752
442.710773	0.981099
443.086261	0.977897
443.461689	0.977421
443.837057	0.975684
444.212365	0.973176
444.587612	0.971722
444.962800	0.969372
445.337927	0.966512
445.712995	0.965106
446.088002	0.961888
446.462949	0.959592
446.837837	0.956366
447.212664	0.954516
447.587431	0.949248
447.962139	0.942886
448.336786	0.935053
448.711374	0.933635
449.085901	0.934703
449.460369	0.931693
449.834776	0.928745
450.209124	0.921356
450.583412	0.914325
450.957640	0.910191
451.331808	0.907326
451.705917	0.905703
452.079965	0.900389
452.453954	0.894447
452.827883	0.890179
453.201752	0.884809
453.575562	0.881674
453.949311	0.872269
454.323001	0.867889
454.696632	0.862168
455.070202	0.853384
455.443713	0.844687
455.817164	0.837743
456.190556	0.829765
456.563888	0.822076
456.937160	0.814822
457.310373	0.813128
457.683526	0.805674
458.056619	0.800303
458.429653	0.792801
458.802628	0.786434
459.175542	0.777755
459.548398	0.763321
459.921194	0.753059
460.293930	0.745261
460.666607	0.726336
461.039224	0.712913
461.411782	0.703908
461.784280	0.695375
462.156719	0.689845
462.529099	0.683218
462.901419	0.682077
463.273680	0.675767
463.645882	0.668415
464.018024	0.661814
464.390106	0.650087
464.762130	0.633914
465.134094	0.616474
465.505999	0.592651
465.877845	0.568758
466.249631	0.554080
466.621358	0.548345
466.993026	0.546068
467.364634	0.540605
467.736184	0.536739
468.107674	0.533688
468.479105	0.523407
468.850477	0.521490
469.221790	0.517053
469.593043	0.515598
469.964238	0.509877
470.335373	0.502154
470.706449	0.493675
471.077467	0.488005
471.448425	0.453744
471.819324	0.429434
472.190164	0.422336
472.560945	0.436563
472.931667	0.445956
473.302330	0.442567
473.672934	0.445943
474.043479	0.429718
474.413965	0.425592
474.784393	0.422285
475.154761	0.412362
475.525070	0.404657
475.895321	0.404555
476.265513	0.394491
476.635645	0.385676
477.005719	0.380609
477.375734	0.373319
477.745691	0.362852
478.115588	0.354932
478.485427	0.344596
478.855207	0.329618
479.224928	0.310957
479.594591	0.296843
479.964194	0.294667
480.333739	0.291170
480.703226	0.287736
481.072653	0.283201
481.442022	0.276299
481.811333	0.270437
482.180584	0.270109
482.549777	0.271345
482.918912	0.271860
483.287988	0.268985
483.657005	0.266042
484.025964	0.269552
484.394864	0.263922
484.763706	0.262482
485.132489	0.265077
485.501213	0.263839
485.869879	0.260402
486.238487	0.261774
486.607036	0.258204
486.975527	0.260967
487.343959	0.255689
487.712333	0.253386
488.080648	0.253721
488.448905	0.251656
488.817104	0.251661
489.185244	0.245417
489.553326	0.241438
489.921350	0.230509
490.289315	0.212831
490.657222	0.207071
491.025070	0.207736
491.392861	0.209012
491.760593	0.213798
492.128267	0.218826
492.495883	0.223787
492.863440	0.229412
493.230939	0.235305
493.598380	0.236051
493.965763	0.238038
494.333088	0.240110
494.700354	0.240947
495.067563	0.239896
495.434713	0.242954
495.801805	0.240225
496.168839	0.241820
496.535815	0.242700
496.902733	0.242789
497.269593	0.243930
497.636395	0.241354
498.003139	0.241660
498.369825	0.244422
498.736453	0.240854
499.103023	0.242083
499.469535	0.241549
499.835989	0.241630
500.202385	0.242411
500.568723	0.245449
500.935003	0.240718
501.301226	0.244675
501.667390	0.239204
502.033497	0.237365
502.399546	0.240038
502.765537	0.241716
503.131470	0.239964
503.497345	0.236224
503.863163	0.245026
504.228923	0.237955
504.594625	0.236689
504.960269	0.241828
505.325856	0.237188
505.691385	0.241338
506.056856	0.237950
506.422270	0.237442
506.787625	0.239520
507.152924	0.236866
507.518164	0.237267
507.883347	0.239024
508.248472	0.240715
508.613540	0.235640
508.978550	0.238251
509.343503	0.238614
509.708398	0.236442
510.073236	0.234093
510.438016	0.233864
510.802738	0.234931
511.167403	0.233458
511.532010	0.235721
511.896561	0.230807
512.261053	0.229995
512.625488	0.231918
512.989866	0.232152
513.354186	0.232426
513.718449	0.234148
514.082655	0.230701
514.446803	0.232963
514.810894	0.230672
515.174927	0.233109
515.538904	0.232561
515.902822	0.229395
516.266684	0.231913
516.630488	0.233087
516.994235	0.232008
517.357925	0.230378
517.721558	0.228745
518.085133	0.228413
518.448651	0.228527
518.812112	0.230542
519.175516	0.230053
519.538863	0.228157
519.902152	0.229453
520.265385	0.226417
520.628560	0.227988
520.991678	0.228514
521.354739	0.227467
521.717743	0.228538
522.080690	0.228773
522.443580	0.226326
522.806413	0.227198
523.169189	0.226682
523.531908	0.225526
523.894569	0.228906
524.257174	0.229279
524.619722	0.226831
524.982213	0.227662
525.344647	0.226634
525.707025	0.227712
526.069345	0.225648
526.431608	0.227398
526.793815	0.225465
527.155964	0.229561
527.518057	0.228446
527.880093	0.229454
528.242072	0.228226
528.603995	0.230139
528.965860	0.231620
529.327669	0.230428
529.689421	0.231395
530.051117	0.232281
530.412755	0.230190
530.774337	0.232409
531.135862	0.232595
531.497331	0.232025
531.858743	0.234716
532.220098	0.231290
532.581396	0.234127
532.942638	0.234433
533.303824	0.235564
533.664953	0.235039
534.026025	0.236825
534.387040	0.234989
534.747999	0.234897
535.108902	0.233905
535.469748	0.238737
535.830537	0.236524
536.191270	0.236834
536.551947	0.236661
536.912567	0.236447
537.273131	0.238220
537.633638	0.238690
537.994089	0.238895
538.354483	0.239894
538.714821	0.236794
539.075103	0.236558
539.435328	0.237292
539.795497	0.241238
540.155609	0.237726
540.515665	0.235841
540.875665	0.241829
541.235609	0.240035
541.595496	0.240148
541.955328	0.236651
542.315102	0.239296
542.674821	0.240511
543.034483	0.240319
543.394090	0.240215
543.753640	0.242062
544.113134	0.236840
544.472571	0.240343
544.831953	0.237331
545.191278	0.241442
545.550548	0.240815
545.909761	0.237543
546.268918	0.238139
546.628019	0.236719
546.987064	0.239462
547.346053	0.241230
547.704986	0.239120
548.063863	0.239248
548.422684	0.239465
548.781449	0.241278
549.140158	0.238926
549.498811	0.241755
549.857408	0.244850
550.215949	0.239841
550.574434	0.242629
550.932864	0.240856
551.291237	0.239640
551.649555	0.240923
552.007817	0.240690
552.366022	0.241543
552.724173	0.241737
553.082267	0.241679
553.440305	0.239188
553.798288	0.243317
554.156215	0.239938
554.514086	0.240351
554.871902	0.243662
555.229661	0.242770
555.587365	0.243571
555.945014	0.245931
556.302606	0.242744
556.660143	0.245462
557.017625	0.241961
557.375050	0.244130
557.732421	0.241558
558.089735	0.243255
558.446994	0.243087
558.804197	0.242169
559.161345	0.242572
559.518437	0.245787
559.875474	0.243371
560.232455	0.243181
560.589381	0.244245
560.946251	0.244179
561.303065	0.241837
561.659825	0.243334
562.016528	0.245053
562.373177	0.247440
562.729770	0.244889
563.086307	0.247214
563.442789	0.244720
563.799216	0.247828
564.155587	0.246351
564.511904	0.247635
564.868164	0.247613
565.224370	0.247434
565.580520	0.249231
565.936615	0.249392
566.292654	0.252088
566.648638	0.249193
567.004567	0.249896
567.360441	0.250639
567.716260	0.252592
568.072023	0.250441
568.427732	0.251130
568.783385	0.253681
569.138982	0.251677
569.494525	0.251495
569.850013	0.254500
570.205445	0.252708
570.560823	0.255214
570.916145	0.257000
571.271412	0.255466
571.626625	0.256755
571.981782	0.257319
572.336884	0.258327
572.691931	0.258000
573.046923	0.259003
573.401860	0.260440
573.756743	0.262004
574.111570	0.260953
574.466342	0.261476
574.821059	0.260347
575.175722	0.263303
575.530330	0.263153
575.884882	0.263477
576.239380	0.265568
576.593823	0.265969
576.948211	0.265357
577.302544	0.268435
577.656823	0.268311
578.011047	0.268393
578.365216	0.269144
578.719330	0.271144
579.073389	0.270722
579.427394	0.271822
579.781344	0.272910
580.135239	0.274373
580.489080	0.274003
580.842866	0.276777
581.196597	0.277032
581.550273	0.275571
581.903895	0.276577
582.257463	0.274507
582.610975	0.277917
582.964434	0.277402
583.317837	0.279948
583.671186	0.280299
584.024481	0.280344
584.377721	0.282709
584.730906	0.283077
585.084037	0.282456
585.437113	0.284388
585.790135	0.283998
586.143103	0.286834
586.496016	0.288147
586.848874	0.285445
587.201679	0.286215
587.554428	0.289139
587.907124	0.288144
588.259765	0.289258
588.612352	0.289518
588.964884	0.293090
589.317362	0.292540
589.669786	0.292813
590.022155	0.291427
590.374470	0.290787
590.726731	0.292641
591.078937	0.297399
591.431090	0.293572
591.783188	0.298362
592.135232	0.298357
592.487222	0.298100
592.839157	0.296300
593.191038	0.298963
593.542866	0.300711
593.894639	0.304479
594.246358	0.301994
594.598022	0.301707
594.949633	0.305559
595.301190	0.305970
595.652692	0.305362
596.004141	0.301320
596.355535	0.309337
596.706876	0.309987
597.058162	0.312487
597.409395	0.309745
597.760573	0.307458
598.111698	0.310686
598.462768	0.310878
598.813785	0.312634
599.164748	0.313519
599.515657	0.313755
599.866511	0.317277
600.217312	0.312514
600.568060	0.317937
600.918753	0.314596
601.269392	0.315399
601.619978	0.318397
601.970510	0.316117
602.320988	0.316473
602.671412	0.314079
603.021783	0.316663
603.372100	0.317865
603.722363	0.317412
604.072572	0.318397
604.422728	0.318458
604.772830	0.320244
605.122878	0.319711
605.472872	0.320407
605.822813	0.318792
606.172701	0.321479
606.522534	0.318990
606.872314	0.318960
607.222041	0.319592
607.571714	0.318048
607.921333	0.319013
608.270899	0.318848
608.620411	0.315857
608.969870	0.319468
609.319276	0.319742
609.668627	0.319438
610.017926	0.318091
610.367171	0.316705
610.716362	0.317539
611.065500	0.317844
611.414585	0.316316
611.763616	0.316917
612.112594	0.317450
612.461518	0.316806
612.810389	0.314610
613.159207	0.316952
613.507971	0.318879
613.856682	0.314510
614.205340	0.316227
614.553945	0.312755
614.902496	0.316781
615.250994	0.315031
615.599439	0.315243
615.947830	0.314708
616.296169	0.315775
616.644454	0.315355
616.992686	0.315390
617.340864	0.313158
617.688990	0.317038
618.037063	0.313483
618.385082	0.315485
618.733048	0.312512
619.080961	0.314540
619.428821	0.314068
619.776628	0.313520
620.124382	0.315598
620.472083	0.315777
620.819731	0.315196
621.167326	0.319321
621.514868	0.318684
621.862357	0.323379
622.209793	0.322473
622.557176	0.324819
622.904506	0.326064
623.251783	0.328137
623.599007	0.330458
623.946179	0.330097
624.293297	0.331816
624.640363	0.335635
624.987376	0.336477
625.334336	0.339056
625.681243	0.340906
626.028097	0.341857
626.374899	0.342706
626.721647	0.343039
627.068343	0.345739
627.414987	0.347093
627.761577	0.349180
628.108115	0.347625
628.454600	0.352616
628.801032	0.350443
629.147412	0.352107
629.493739	0.352773
629.840014	0.355901
630.186236	0.353379
630.532405	0.358705
630.878521	0.356087
631.224585	0.358406
631.570597	0.361682
631.916556	0.360244
632.262462	0.360821
632.608316	0.362804
632.954117	0.363461
633.299866	0.364711
633.645562	0.364521
633.991206	0.368776
634.336797	0.371673
634.682336	0.373927
635.027823	0.375904
635.373257	0.376316
635.718639	0.379618
636.063968	0.379199
636.409245	0.385127
636.754470	0.385124
637.099642	0.387991
637.444762	0.390738
637.789829	0.389901
638.134845	0.393971
638.479808	0.394445
638.824719	0.394762
639.169577	0.398622
639.514383	0.397368
639.859137	0.401538
640.203839	0.401077
640.548489	0.402069
640.893086	0.403056
641.237632	0.404926
641.582125	0.403650
641.926566	0.404625
642.270955	0.404961
642.615292	0.405342
642.959576	0.404307
643.303809	0.405017
643.647990	0.404442
643.992118	0.405285
644.336195	0.408921
644.680219	0.407020
645.024192	0.407701
645.368112	0.401258
645.711981	0.400324
646.055797	0.395921
646.399562	0.398188
646.743274	0.390048
647.086935	0.387443
647.430544	0.388162
647.774101	0.386718
648.117606	0.386427
648.461059	0.386452
648.804460	0.389140
649.147810	0.394346
649.491108	0.396249
649.834354	0.397455
650.177548	0.403022
650.520690	0.407974
650.863781	0.408976
651.206820	0.408772
651.549807	0.413480
651.892742	0.417444
652.235626	0.416895
652.578458	0.417821
652.921238	0.423904
653.263967	0.421622
653.606644	0.425484
653.949269	0.424976
654.291843	0.429304
654.634365	0.426394
654.976836	0.428876
655.319255	0.429207
655.661622	0.430856
656.003938	0.431188
656.346203	0.433880
656.688416	0.431739
657.030577	0.435297
657.372687	0.437235
657.714746	0.438160
658.056753	0.434805
658.398708	0.438362
658.740612	0.439936
659.082465	0.436476
659.424266	0.436418
659.766016	0.436239
660.107715	0.438729
660.449362	0.437749
660.790958	0.437918
661.132503	0.438687
661.473996	0.436460
661.815438	0.437544
662.156829	0.437478
662.498168	0.438701
662.839456	0.439458
663.180693	0.438016
663.521879	0.437839
663.863013	0.437985
664.204097	0.436542
664.545129	0.433845
664.886110	0.434025
665.227040	0.431499
665.567918	0.433562
665.908746	0.432318
666.249522	0.431155
666.590248	0.432899
666.930922	0.430504
667.271545	0.429514
667.612118	0.429855
667.952639	0.431385
668.293109	0.430115
668.633528	0.432901
668.973896	0.432393
669.314213	0.433546
669.654480	0.434873
669.994695	0.435138
670.334859	0.435789
670.674973	0.436215
671.015035	0.435896
671.355047	0.435579
671.695008	0.437174
672.034918	0.439415
672.374777	0.438827
672.714585	0.439718
673.054342	0.439595
673.394049	0.439671
673.733705	0.437285
674.073310	0.438572
674.412864	0.441893
674.752368	0.442008
675.091820	0.441919
675.431223	0.446620
675.770574	0.446516
676.109875	0.448994
676.449125	0.449127
676.788324	0.451895
677.127473	0.457077
677.466571	0.457022
677.805619	0.458534
678.144616	0.459875
678.483562	0.461402
678.822458	0.463968
679.161303	0.465092
679.500098	0.465409
679.838842	0.466809
680.177535	0.466186
680.516179	0.465084
680.854771	0.464361
681.193314	0.457041
681.531805	0.448961
681.870247	0.437368
682.208638	0.429710
682.546978	0.429097
682.885268	0.430497
683.223508	0.437170
683.561697	0.440200
683.899836	0.443287
684.237925	0.446689
684.575963	0.449162
684.913951	0.452377
685.251889	0.448094
685.589776	0.450217
685.927614	0.452533
686.265401	0.446586
686.603137	0.448129
686.940824	0.442295
687.278460	0.440105
687.616046	0.439742
687.953582	0.434763
688.291068	0.435554
688.628504	0.431727
688.965889	0.433888
689.303224	0.438089
689.640510	0.441962
689.977745	0.447941
690.314930	0.455535
690.652065	0.460126
690.989150	0.467897
691.326185	0.474003
691.663170	0.478750
692.000105	0.485732
692.336990	0.492581
692.673825	0.495237
693.010610	0.501853
693.347345	0.508033
693.684030	0.508627
694.020665	0.513758
694.357251	0.522227
694.693786	0.521948
695.030272	0.526116
695.366707	0.529533
695.703093	0.532866
696.039429	0.530736
696.375716	0.532527
696.711952	0.535743
697.048139	0.537510
697.384276	0.539395
697.720363	0.537589
698.056400	0.536669
698.392388	0.542371
698.728326	0.545221
699.064214	0.548215
699.400053	0.548424
699.735842	0.552246
700.071581	0.554710
700.407270	0.557721
700.742910	0.560815
701.078501	0.567214
701.414042	0.566975
701.749533	0.569948
702.084974	0.578859
702.420366	0.571504
702.755709	0.578981
703.091002	0.586387
703.426246	0.580385
703.761440	0.586052
704.096584	0.591123
704.431679	0.587778
704.766725	0.589836
705.101721	0.592178
705.436668	0.587552
705.771565	0.595054
706.106413	0.591326
706.441212	0.586418
706.775961	0.585139
707.110661	0.588328
707.445311	0.584468
707.779913	0.581978
708.114465	0.580569
708.448967	0.577497
708.783421	0.569514
709.117825	0.563853
709.452180	0.564236
709.786485	0.557749
710.120742	0.547405
710.454949	0.549371
710.789107	0.541989
711.123216	0.533065
711.457275	0.534736
711.791286	0.525431
712.125247	0.524131
712.459159	0.535588
712.793023	0.528156
713.126837	0.531723
713.460602	0.532366
713.794318	0.541593
714.127985	0.539620
714.461602	0.550299
714.795171	0.553439
715.128691	0.561775
715.462162	0.569254
715.795584	0.574901
716.128957	0.576837
716.462281	0.584169
716.795556	0.588255
717.128782	0.592924
717.461960	0.601950
717.795088	0.600139
718.128167	0.606350
718.461198	0.615237
718.794180	0.616251
719.127113	0.618132
719.459997	0.622586
719.792833	0.628040
720.125619	0.630062
720.458357	0.635032
720.791046	0.634689
721.123686	0.638620
721.456278	0.645611
721.788821	0.642817
722.121315	0.646217
722.453761	0.650924
722.786158	0.649069
723.118506	0.645674
723.450805	0.653539
723.783056	0.649593
724.115259	0.647058
724.447412	0.646504
724.779518	0.648200
725.111574	0.646853
725.443582	0.642050
725.775542	0.644098
726.107453	0.635456
726.439315	0.636110
726.771129	0.633961
727.102895	0.627895
727.434612	0.620145
727.766281	0.618794
728.097901	0.617708
728.429473	0.617639
728.760996	0.616522
729.092471	0.616529
729.423897	0.620467
729.755276	0.618853
730.086606	0.618890
730.417887	0.614313
730.749120	0.604681
731.080305	0.595867
731.411442	0.591852
731.742530	0.596726
732.073570	0.595628
732.404562	0.588162
732.735506	0.589313
733.066401	0.594173
733.397249	0.603375
733.728048	0.615000
734.058798	0.627030
734.389501	0.637592
734.720156	0.647609
735.050762	0.655666
735.381320	0.656094
735.711831	0.665695
736.042293	0.670539
736.372707	0.666685
736.703073	0.671047
737.033391	0.673384
737.363661	0.670304
737.693883	0.665161
738.024056	0.664287
738.354182	0.665077
738.684260	0.653891
739.014290	0.649465
739.344272	0.650869
739.674207	0.644592
740.004093	0.644014
740.333931	0.644176
740.663722	0.644686
740.993464	0.644564
741.323159	0.648620
741.652806	0.653178
741.982405	0.657743
742.311956	0.662577
742.641460	0.664853
742.970915	0.668373
743.300323	0.675904
743.629683	0.682713
743.958996	0.684483
744.288260	0.688801
744.617477	0.695079
744.946647	0.696926
745.275768	0.701432
745.604842	0.701469
745.933869	0.711692
746.262847	0.712127
746.591778	0.705887
746.920662	0.712013
747.249498	0.718438
747.578286	0.709043
747.907027	0.705231
748.235720	0.706893
748.564365	0.700828
748.892963	0.700950
749.221514	0.703793
749.550017	0.709383
749.878473	0.708713
750.206881	0.714951
750.535242	0.716423
750.863555	0.716954
751.191821	0.717659
751.520039	0.719939
751.848210	0.725948
752.176334	0.717761
752.504411	0.716808
752.832440	0.725245
753.160421	0.728949
753.488356	0.727362
753.816243	0.724563
754.144082	0.733979
754.471875	0.736395
754.799620	0.732861
755.127318	0.732991
755.454969	0.733698
755.782572	0.732097
756.110129	0.738190
756.437638	0.739813
756.765100	0.735733
757.092515	0.735401
757.419882	0.733484
757.747203	0.738774
758.074477	0.738933
758.401703	0.735161
758.728882	0.730701
759.056014	0.728983
759.383099	0.728148
759.710138	0.729570
760.037129	0.725909
760.364073	0.720249
760.690970	0.722469
761.017820	0.728030
761.344623	0.723390
761.671379	0.714451
761.998088	0.702778
762.324751	0.681006
762.651366	0.639051
762.977935	0.572999
763.304456	0.520286
763.630931	0.510808
763.957359	0.549921
764.283740	0.594511
764.610074	0.621990
764.936362	0.651850
765.262602	0.679103
765.588796	0.700372
765.914943	0.717390
766.241044	0.735572
766.567097	0.742333
766.893104	0.752977
767.219064	0.758404
767.544978	0.765352
767.870845	0.778815
768.196665	0.782859
768.522438	0.780581
768.848165	0.782305
769.173846	0.790423
769.499479	0.794887
769.825066	0.797649
770.150607	0.803324
770.476101	0.798660
770.801548	0.799372
771.126949	0.810498
771.452303	0.814356
771.777611	0.814128
772.102872	0.813036
772.428087	0.818059
772.753256	0.821705
773.078378	0.823353
773.403453	0.833045
773.728482	0.836090
774.053465	0.830947
774.378401	0.833800
774.703291	0.841454
775.028135	0.841179
775.352932	0.843194
775.677683	0.846699
776.002388	0.846908
776.327046	0.845800
776.651658	0.849781
776.976224	0.852859
777.300743	0.852489
777.625216	0.855375
777.949643	0.857546
778.274024	0.857242
778.598359	0.857806
778.922647	0.857869
779.246889	0.857763
779.571086	0.862619
779.895236	0.863928
780.219339	0.861769
780.543397	0.857856
780.867409	0.857001
781.191374	0.858911
781.515294	0.860261
781.839167	0.859815
782.162995	0.862686
782.486776	0.859303
782.810511	0.860373
783.134201	0.864044
783.457844	0.862629
783.781441	0.864997
784.104993	0.871535
784.428498	0.871604
784.751958	0.866694
785.075372	0.868319
785.398739	0.873167
785.722061	0.868620
786.045337	0.864551
786.368568	0.869704
786.691752	0.871312
787.014891	0.857708
787.337983	0.848525
787.661030	0.842458
787.984031	0.824228
788.306987	0.811385
788.629897	0.813680
788.952760	0.817085
789.275579	0.822519
789.598351	0.837293
789.921078	0.849839
790.243759	0.852336
790.566395	0.857241
790.888984	0.863645
791.211529	0.869318
791.534027	0.872230
791.856480	0.875055
792.178888	0.878983
792.501249	0.881718
792.823566	0.882907
793.145836	0.882940
793.468062	0.884983
793.790241	0.885601
794.112375	0.883176
794.434464	0.878478
794.756507	0.878713
795.078505	0.877860
795.400457	0.873088
795.722364	0.860290
796.044226	0.853617
796.366042	0.852554
796.687812	0.855921
797.009538	0.852367
797.331218	0.855262
797.652852	0.859316
797.974442	0.864863
798.295986	0.864254
798.617484	0.866936
798.938938	0.871616
799.260346	0.876237
799.581709	0.877618
799.903026	0.880855
800.224299	0.881525
800.545526	0.884161
800.866708	0.888315
801.187845	0.892852
801.508936	0.891818
801.829983	0.890742
802.150984	0.892508
802.471940	0.897847
802.792851	0.897236
803.113717	0.897958
803.434538	0.896402
803.755314	0.898483
804.076045	0.899355
804.396731	0.900281
804.717372	0.899604
805.037967	0.901815
805.358518	0.899397
805.679024	0.896998
805.999485	0.897843
806.319901	0.897481
806.640272	0.897899
806.960598	0.895889
807.280879	0.894106
807.601115	0.893270
807.921306	0.895814
808.241453	0.895668
808.561554	0.894255
808.881611	0.894610
809.201623	0.897046
809.521590	0.896297
809.841513	0.897658
810.161390	0.896124
810.481223	0.898346
810.801011	0.901242
811.120755	0.902831
811.440453	0.902286
811.760107	0.901326
812.079716	0.901158
812.399281	0.905007
812.718801	0.906691
813.038276	0.906771
813.357707	0.907226
813.677093	0.904496
813.996434	0.906791
814.315731	0.907989
814.634983	0.909541
814.954191	0.907866
815.273354	0.905163
815.592473	0.901750
815.911547	0.901087
816.230577	0.899680
816.549562	0.895971
816.868502	0.897551
817.187399	0.893270
817.506250	0.888270
817.825058	0.890156
818.143821	0.886184
818.462539	0.882132
818.781213	0.874040
819.099843	0.862108
819.418429	0.847177
819.736970	0.830196
820.055466	0.811021
820.373919	0.784718
820.692327	0.752868
821.010691	0.718097
821.329011	0.642094
821.647286	0.527203
821.965517	0.413912
822.283704	0.371400
822.601847	0.373133
822.919945	0.408962
823.237999	0.441904
823.556010	0.488068
823.873976	0.543845
824.191897	0.593892
824.509775	0.636640
824.827609	0.681991
825.145398	0.703651
825.463144	0.706259
825.780845	0.688853
826.098502	0.670379
826.416116	0.625742
826.733685	0.581879
827.051210	0.573717
827.368692	0.587715
827.686129	0.625229
828.003522	0.677607
828.320872	0.725259
828.638177	0.768378
828.955439	0.801214
829.272656	0.821776
829.589830	0.840350
829.906960	0.854779
830.224046	0.868349
830.541088	0.877860
830.858086	0.882049
831.175041	0.888232
831.491952	0.887395
831.808819	0.884651
832.125642	0.877648
832.442421	0.863128
832.759157	0.841409
833.075849	0.796305
833.392497	0.732109
833.709101	0.690729
834.025662	0.700929
834.342179	0.732266
834.658653	0.770813
834.975083	0.807416
835.291469	0.832840
835.607811	0.855238
835.924110	0.871516
836.240366	0.887273
836.556578	0.902363
836.872746	0.908232
837.188871	0.914618
837.504952	0.920129
837.820990	0.924166
838.136984	0.928771
838.452935	0.929528
838.768842	0.931954
839.084706	0.924622
839.400526	0.899375
839.716303	0.859621
840.032037	0.836583
840.347727	0.841526
840.663373	0.859534
840.978977	0.881232
841.294537	0.903524
841.610054	0.918202
841.925527	0.924665
842.240957	0.933407
842.556344	0.939935
842.871687	0.945755
843.186987	0.950541
843.502244	0.949241
843.817458	0.952252
844.132629	0.956865
844.447756	0.959782
844.762840	0.961365
845.077881	0.959884
845.392879	0.960362
845.707833	0.962999
846.022745	0.964617
846.337613	0.964756
846.652438	0.965534
846.967221	0.964205
847.281960	0.964944
847.596656	0.967463
847.911309	0.965697
848.225919	0.967875
848.540485	0.968036
848.855009	0.968625
849.169490	0.967508
849.483928	0.969054
849.798323	0.968299
850.112675	0.969905
850.426984	0.969951
850.741251	0.970613
851.055474	0.970420
851.369654	0.968403
851.683792	0.970025
851.997887	0.970307
852.311938	0.970067
852.625947	0.969345
852.939914	0.967883
853.253837	0.968489
853.567718	0.970795
853.881555	0.971381
854.195350	0.968011
854.509103	0.969065
854.822812	0.970502
855.136479	0.970420
855.450103	0.969698
855.763685	0.967635
856.077224	0.968508
856.390720	0.970491
856.704173	0.970668
857.017584	0.967879
857.330953	0.966281
857.644278	0.968431
857.957561	0.968621
858.270802	0.967803
858.584000	0.967256
858.897155	0.967142
859.210268	0.967359
859.523339	0.969058
859.836367	0.970031
860.149352	0.970525
860.462295	0.968869
860.775195	0.970245
861.088054	0.968990
861.400869	0.970144
861.713642	0.970470
862.026373	0.969980
862.339062	0.971786
862.651708	0.968475
862.964312	0.967137
863.276873	0.969356
863.589392	0.968885
863.901869	0.965691
864.214303	0.965458
864.526696	0.964496
864.839045	0.963582
865.151353	0.961587
865.463619	0.963179
865.775842	0.963214
866.088023	0.962609
866.400162	0.962826
866.712258	0.962516
867.024313	0.963676
867.336325	0.963158
867.648296	0.963804
867.960224	0.962012
868.272110	0.962094
868.583954	0.963851
868.895755	0.963985
869.207515	0.961088
869.519233	0.958441
869.830909	0.961219
870.142542	0.961957
870.454134	0.963089
870.765684	0.962193
871.077191	0.958116
871.388657	0.958676
871.700081	0.957562
872.011463	0.958158
872.322803	0.957992
872.634101	0.956278
872.945357	0.954528
873.256571	0.953500
873.567744	0.952680
873.878874	0.954503
874.189963	0.952019
874.501010	0.952386
874.812015	0.949668
875.122979	0.951513
875.433900	0.953286
875.744780	0.954621
876.055618	0.951923
876.366415	0.950275
876.677169	0.950858
876.987882	0.951417
877.298554	0.950659
877.609183	0.947974
877.919771	0.945640
878.230317	0.943594
878.540822	0.941189
878.851285	0.935601
879.161707	0.928197
879.472087	0.915699
879.782425	0.899993
880.092722	0.866379
880.402977	0.814030
880.713191	0.755221
881.023363	0.697527
881.333494	0.664127
881.643583	0.635841
881.953631	0.635028
882.263637	0.663821
882.573602	0.703235
882.883526	0.728774
883.193408	0.751436
883.503248	0.773865
883.813048	0.801002
884.122806	0.829864
884.432522	0.852650
884.742197	0.872384
885.051831	0.882565
885.361424	0.892262
885.670975	0.905202
885.980485	0.914957
886.289954	0.920712
886.599382	0.925579
886.908768	0.928459
887.218113	0.935517
887.527417	0.939651
887.836680	0.943592
888.145901	0.944354
888.455082	0.946789
888.764221	0.950747
889.073319	0.953518
889.382376	0.953342
889.691392	0.953085
890.000366	0.952968
890.309300	0.954120
890.618193	0.954208
890.927044	0.951920
891.235855	0.952526
891.544625	0.952148
891.853353	0.952441
892.162041	0.950150
892.470687	0.943535
892.779293	0.938483
893.087858	0.934891
893.396381	0.927623
893.704864	0.914407
894.013306	0.891131
894.321707	0.864417
894.630068	0.850490
894.938387	0.846407
895.246665	0.846809
895.554903	0.858936
895.863100	0.871467
896.171256	0.888700
896.479371	0.908136
896.787446	0.921345
897.095480	0.927045
897.403473	0.929053
897.711425	0.933724
898.019336	0.940826
898.327207	0.944217
898.635038	0.945276
898.942827	0.945578
899.250576	0.948391
899.558284	0.953122
899.865952	0.954234
900.173579	0.955423
900.481165	0.955428
900.788711	0.960811
901.096216	0.961404
901.403681	0.963043
901.711105	0.963176
902.018489	0.963186
902.325832	0.963170
902.633135	0.962533
902.940397	0.955841
903.247619	0.945307
903.554800	0.919867
903.861941	0.880385
904.169041	0.845466
904.476101	0.829246
904.783121	0.830119
905.090100	0.845859
905.397039	0.867034
905.703938	0.888107
906.010796	0.906308
906.317614	0.924525
906.624391	0.935622
906.931129	0.945691
907.237826	0.953197
907.544483	0.958813
907.851099	0.963562
908.157675	0.967983
908.464211	0.969817
908.770707	0.973458
909.077163	0.974659
909.383578	0.973874
909.689954	0.974715
909.996289	0.976028
910.302584	0.977705
910.608839	0.979949
910.915054	0.978089
911.221229	0.977894
911.527363	0.975633
911.833458	0.976884
912.139513	0.977258
912.445527	0.974798
912.751502	0.974473
913.057436	0.972664
913.363331	0.970015
913.669186	0.967405
913.975000	0.961124
914.280775	0.956201
914.586510	0.948899
914.892205	0.936195
915.197859	0.916788
915.503475	0.889158
915.809050	0.868999
916.114585	0.864316
916.420081	0.862366
916.725536	0.858259
917.030952	0.866801
917.336328	0.878973
917.641665	0.894101
917.946961	0.909069
918.252218	0.920360
918.557435	0.928819
918.862612	0.936309
919.167750	0.943344
919.472848	0.947900
919.777906	0.953467
920.082925	0.959073
920.387904	0.963269
920.692843	0.964233
920.997743	0.964134
921.302603	0.967722
921.607423	0.969106
921.912204	0.971837
922.216946	0.972860
922.521647	0.973671
922.826310	0.975276
923.130932	0.977600
923.435516	0.978533
923.740059	0.979355
924.044564	0.978664
924.349028	0.980625
924.653454	0.982741
924.957840	0.984782
925.262186	0.985697
925.566493	0.983589
925.870761	0.984735
926.174989	0.986445
926.479178	0.988743
926.783328	0.988066
927.087438	0.987745
927.391509	0.987580
927.695541	0.990148
927.999533	0.989582
928.303486	0.989230
928.607400	0.991319
928.911275	0.989433
929.215110	0.989704
929.518906	0.990460
929.822663	0.990017
930.126381	0.990541
930.430060	0.990041
930.733699	0.989985
931.037299	0.989411
931.340861	0.990647
931.644383	0.989301
931.947866	0.988510
932.251309	0.991146
932.554714	0.989514
932.858080	0.990649
933.161407	0.989585
933.464694	0.990260
933.767943	0.988653
934.071153	0.992167
934.374323	0.991767
934.677455	0.990682
934.980548	0.991761
935.283602	0.991245
935.586617	0.991393
935.889593	0.990088
936.192530	0.990789
936.495428	0.990531
936.798287	0.990496
937.101108	0.989899
937.403890	0.989852
937.706632	0.989210
938.009336	0.986803
938.312002	0.985567
938.614628	0.984463
938.917216	0.983014
939.219765	0.981635
939.522275	0.983574
939.824747	0.984074
940.127179	0.982595
940.429573	0.985549
940.731929	0.983293
941.034246	0.983972
941.336524	0.986038
941.638763	0.986374
941.940964	0.985613
942.243126	0.986231
942.545250	0.988361
942.847335	0.987681
943.149381	0.987478
943.451389	0.987740
943.753359	0.987413
944.055290	0.991837
944.357182	0.990016
944.659036	0.988021
944.960851	0.990181
945.262628	0.989846
945.564367	0.990703
945.866067	0.989586
946.167729	0.989682
946.469352	0.989210
946.770937	0.987866
947.072484	0.990121
947.373992	0.989731
947.675462	0.990323
947.976893	0.989897
948.278286	0.990136
948.579641	0.990997
948.880958	0.990755
949.182236	0.990345
949.483476	0.991063
949.784678	0.990932
950.085841	0.990715
950.386967	0.991328
950.688054	0.990066
950.989103	0.990757
951.290114	0.989168
951.591087	0.988754
951.892021	0.989453
952.192917	0.989683
952.493776	0.987364
952.794596	0.988173
953.095378	0.987889
953.396122	0.987538
953.696828	0.987106
953.997496	0.989330
954.298126	0.989903
954.598718	0.990734
954.899272	0.991033
955.199788	0.990831
955.500266	0.991753
955.800706	0.992910
956.101108	0.992725
956.401472	0.992480
956.701798	0.993680
957.002087	0.994087
957.302337	0.992456
957.602550	0.994574
957.902724	0.995132
958.202861	0.995650
958.502960	0.995540
958.803022	0.993756
959.103045	0.994693
959.403031	0.995622
959.702979	0.995322
960.002889	0.995733
960.302762	0.994531
960.602596	0.995463
960.902393	0.993869
961.202153	0.996469
961.501875	0.996509
961.801559	0.995004
962.101205	0.995411
962.400814	0.995346
962.700385	0.996386
962.999918	0.995780
963.299414	0.996582
963.598873	0.995741
963.898293	0.996229
964.197677	0.995195
964.497022	0.996388
964.796331	0.997323
965.095601	0.996377
965.394835	0.996981
965.694030	0.996388
965.993189	0.997323
966.292309	0.996572
966.591393	0.997623
966.890439	0.997274
967.189447	0.996570
967.488419	0.997188
967.787353	0.996143
968.086249	0.996292
968.385108	0.997269
968.683930	0.996800
968.982714	0.997776
969.281462	0.996284
969.580172	0.996972
969.878844	0.996484
970.177480	0.995902
970.476078	0.996429
970.774639	0.997785
971.073162	0.996630
971.371649	0.995853
971.670098	0.995862
971.968510	0.997382
972.266885	0.996042
972.565223	0.995818
972.863524	0.996303
973.161788	0.995615
973.460014	0.997787
973.758204	0.994758
974.056356	0.995490
974.354471	0.995279
974.652550	0.996232
974.950591	0.996036
975.248595	0.996834
975.546563	0.996011
975.844493	0.998397
976.142386	0.995201
976.440243	0.996296
976.738062	0.997244
977.035845	0.997017
977.333590	0.996520
977.631299	0.997969
977.928971	0.996961
978.226606	0.997185
978.524204	0.996358
978.821765	0.997717
979.119290	0.996949
979.416777	0.997363
979.714228	0.996622
980.011642	0.995229
980.309020	0.997492
980.606360	0.997136
980.903664	0.996573
981.200931	0.996862
981.498162	0.994169
981.795356	0.995032
982.092513	0.994487
982.389633	0.994165
982.686717	0.991541
982.983764	0.991883
983.280775	0.991504
983.577749	0.989944
983.874686	0.991843
984.171587	0.991140
984.468451	0.994882
984.765279	0.995352
985.062070	0.994265
985.358824	0.995410
985.655543	0.995392
985.952224	0.995647
986.248869	0.995422
986.545478	0.996792
986.842050	0.997243
987.138586	0.994823
987.435086	0.996972
987.731549	0.997720
988.027975	0.996762
988.324366	0.997902
988.620719	0.996535
988.917037	0.996773
989.213318	0.997588
989.509563	0.998214
989.805772	0.997733
990.101944	0.998493
990.398080	0.996642
990.694180	0.998721
990.990244	0.998149
991.286271	0.998245
991.582262	0.997900
991.878217	0.997292
992.174136	0.998115
992.470019	0.999005
992.765865	0.997560
993.061676	0.998961
993.357450	0.997290
993.653188	0.997377
993.948890	0.996772
994.244556	0.997275
994.540186	0.996525
994.835780	0.996508
995.131337	0.997521
995.426859	0.996653
995.722345	0.996835
996.017795	0.996518
996.313208	0.996388
996.608586	0.995825
996.903928	0.996594
997.199234	0.994684
997.494504	0.996606
997.789738	0.995345
998.084936	0.996255
998.380099	0.997160
998.675225	0.996905
998.970316	0.997564
999.265371	0.997036
999.560390	0.996608
999.855373	0.998677
1000.150320	0.996126
1000.445232	0.998422
1000.740108	0.997716
1001.034948	0.997746
1001.329752	0.997019
1001.624521	0.998858
1001.919254	0.997266
1002.213951	0.998328
1002.508613	0.997734
1002.803239	0.998769
1003.097829	0.997908
1003.392384	0.999201
1003.686903	0.997915
1003.981386	0.998569
1004.275834	0.998288
1004.570246	0.998975
1004.864623	0.999473
1005.158964	0.999089
1005.453270	0.998469
1005.747540	0.996666
1006.041775	0.997263
1006.335974	0.999866
1006.630138	0.998796
1006.924266	0.999743
1007.218359	1.000599
1007.512416	0.998737
1007.806438	0.999171
1008.100425	0.998965
1008.394376	0.997860
1008.688292	0.997586
1008.982172	1.000403
1009.276017	0.998955
1009.569827	0.998270
1009.863602	0.998200
1010.157341	0.999205
1010.451045	0.999001
1010.744714	0.999236
1011.038347	0.998086
1011.331945	0.999045
1011.625508	0.996856
1011.919036	0.997876
1012.212528	0.998296
1012.505986	0.997223
1012.799408	0.998214
1013.092795	0.998011
1013.386147	0.997355
1013.679464	0.999037
1013.972745	0.998974
1014.265992	0.996634
1014.559204	0.998858
1014.852380	0.998177
1015.145521	0.999157
1015.438628	0.998716
1015.731699	0.998624
1016.024736	0.999273
1016.317737	0.998277
1016.610703	0.998949
1016.903635	0.998796
1017.196531	0.997931
1017.489393	0.999657
1017.782219	0.998716
1018.075011	0.998498
1018.367768	0.998557
1018.660490	0.998815
1018.953177	0.998815
1019.245829	0.998815
