Dividing Wavelength (nm)	Counts (n)	Blue Motor Position (mm): 0.000000	Red Motor Position (mm): 39.200000	
326.493990	1.001322
326.888308	1.001322
327.282561	1.001322
327.676750	1.000374
328.070874	0.998929
328.464933	1.001867
328.858929	0.998847
329.252859	1.000773
329.646726	0.999787
330.040528	0.999820
330.434265	0.999668
330.827938	1.001033
331.221547	1.001629
331.615091	1.000795
332.008571	0.999547
332.401986	0.999487
332.795338	1.000106
333.188625	0.999338
333.581847	0.999896
333.975006	1.000059
334.368100	1.000328
334.761129	1.000588
335.154095	1.000522
335.546996	0.999394
335.939833	0.996906
336.332606	0.997212
336.725315	0.998133
337.117960	0.999197
337.510540	0.997065
337.903056	0.998692
338.295508	0.995689
338.687896	0.998549
339.080220	0.997350
339.472480	0.999152
339.864676	0.997630
340.256807	0.998126
340.648875	0.999531
341.040879	0.998322
341.432818	0.997210
341.824694	0.998240
342.216506	0.998466
342.608253	0.997676
342.999937	0.997008
343.391557	0.998623
343.783113	0.997662
344.174605	0.997489
344.566033	0.997400
344.957397	0.996622
345.348697	0.998528
345.739934	0.997032
346.131106	0.997130
346.522215	0.997322
346.913260	0.996937
347.304241	0.997319
347.695159	0.997754
348.086012	0.996320
348.476802	0.997183
348.867528	0.998661
349.258191	0.996381
349.648789	0.997375
350.039324	0.996913
350.429796	0.997525
350.820203	0.998424
351.210548	0.997502
351.600828	0.998621
351.991045	0.998126
352.381198	0.997314
352.771288	0.997497
353.161314	0.997302
353.551276	0.997921
353.941175	0.998614
354.331010	0.996982
354.720782	0.999123
355.110490	0.997492
355.500135	0.997894
355.889717	0.997820
356.279235	0.998105
356.668689	0.998124
357.058080	0.998746
357.447408	0.999306
357.836672	0.998518
358.225873	0.999503
358.615010	0.998193
359.004084	0.999211
359.393095	0.997176
359.782043	0.996578
360.170927	0.998373
360.559748	0.998112
360.948505	0.998519
361.337199	0.997557
361.725830	0.998392
362.114398	0.996885
362.502903	0.998821
362.891344	0.998826
363.279722	0.997833
363.668037	0.998172
364.056289	0.997654
364.444478	0.997782
364.832603	0.997607
365.220665	0.996925
365.608665	0.996837
365.996601	0.997400
366.384474	0.997592
366.772284	0.997797
367.160031	0.997702
367.547715	0.996591
367.935336	0.998121
368.322893	0.997217
368.710388	0.997560
369.097820	0.998733
369.485189	0.998203
369.872495	0.997346
370.259738	0.996253
370.646918	0.998511
371.034035	0.998573
371.421090	0.998322
371.808081	0.997276
372.195010	0.996717
372.581875	0.998154
372.968678	0.997155
373.355418	0.998139
373.742096	0.998225
374.128710	0.998873
374.515262	0.998023
374.901751	0.998920
375.288177	0.998896
375.674540	0.997820
376.060841	0.997680
376.447079	0.998540
376.833254	0.998324
377.219367	0.999293
377.605417	0.998754
377.991404	0.998293
378.377329	0.997511
378.763191	0.998024
379.148991	0.999226
379.534727	0.998196
379.920402	0.998098
380.306013	0.998975
380.691563	0.999057
381.077049	0.998813
381.462474	1.000014
381.847835	0.999014
382.233134	0.998754
382.618371	0.999502
383.003545	0.998191
383.388657	0.997948
383.773706	0.999962
384.158693	0.999290
384.543618	0.998998
384.928480	0.999615
385.313280	0.998931
385.698017	0.998561
386.082692	0.999547
386.467305	0.999153
386.851856	0.999077
387.236344	0.998525
387.620770	0.998346
388.005133	0.999298
388.389435	0.999341
388.773674	0.999233
389.157851	0.999335
389.541965	0.998947
389.926018	0.999393
390.310008	0.999503
390.693936	0.998430
391.077802	0.999270
391.461606	0.998568
391.845348	0.999185
392.229027	0.999574
392.612645	0.999157
392.996200	1.000899
393.379694	0.998691
393.763125	1.000262
394.146494	1.000188
394.529801	0.999436
394.913047	0.999741
395.296230	0.999876
395.679351	0.999095
396.062410	0.998626
396.445408	0.999439
396.828343	0.999159
397.211217	0.998850
397.594028	0.998974
397.976778	0.998788
398.359466	0.999363
398.742092	0.998994
399.124656	0.998886
399.507158	0.999798
399.889598	0.999687
400.271977	0.999461
400.654294	1.000252
401.036549	0.999637
401.418742	0.999901
401.800874	0.998942
402.182944	0.999296
402.564952	0.998530
402.946898	1.000099
403.328783	0.999811
403.710606	0.999355
404.092367	0.999342
404.474067	0.999076
404.855705	0.999693
405.237282	0.999908
405.618797	0.999809
406.000250	0.999094
406.381642	1.000000
406.762972	0.999738
407.144240	1.000324
407.525447	1.000530
407.906593	0.999283
408.287677	1.000154
408.668700	1.000743
409.049661	0.998661
409.430560	1.000408
409.811399	0.999387
410.192176	0.999139
410.572891	0.999812
410.953545	0.999883
411.334138	0.998852
411.714669	0.999358
412.095139	0.999600
412.475547	1.000300
412.855894	1.000630
413.236180	1.000150
413.616405	1.000967
413.996568	1.000836
414.376670	0.999368
414.756711	0.999676
415.136691	1.000657
415.516609	0.999836
415.896466	0.999543
416.276262	0.999226
416.655997	1.000751
417.035670	1.000170
417.415283	1.000279
417.794834	0.999971
418.174324	0.999726
418.553753	1.000500
418.933121	0.999763
419.312428	0.998958
419.691674	0.999970
420.070859	0.999833
420.449983	1.000574
420.829045	0.999714
421.208047	1.001074
421.586988	1.001537
421.965867	1.000553
422.344686	1.001330
422.723444	1.000645
423.102141	1.000445
423.480777	1.000766
423.859352	1.000162
424.237866	0.999568
424.616319	1.000296
424.994712	1.000097
425.373044	0.999873
425.751314	1.000072
426.129524	1.000398
426.507673	1.000733
426.885762	1.001191
427.263789	1.000526
427.641756	1.000809
428.019662	1.001561
428.397508	0.999190
428.775292	0.999737
429.153016	1.000582
429.530679	1.000199
429.908282	1.001018
430.285824	1.000192
430.663305	1.000014
431.040726	1.000386
431.418086	1.001832
431.795385	1.000894
432.172624	1.000281
432.549802	1.000696
432.926920	1.000686
433.303977	0.999574
433.680974	1.000858
434.057910	0.999687
434.434786	1.000036
434.811601	0.999341
435.188355	0.999962
435.565050	1.000606
435.941683	1.000594
436.318257	1.000974
436.694770	1.000270
437.071222	1.000826
437.447614	1.000470
437.823946	1.000671
438.200218	1.000376
438.576429	1.000642
438.952580	1.001712
439.328670	1.000117
439.704700	1.001124
440.080670	1.001000
440.456580	0.999933
440.832429	1.000244
441.208218	1.000870
441.583947	1.000501
441.959616	1.001080
442.335224	1.000395
442.710773	1.001131
443.086261	1.000084
443.461689	0.999996
443.837057	1.000610
444.212365	1.000501
444.587612	1.000187
444.962800	1.000098
445.337927	1.001173
445.712995	1.001155
446.088002	1.001181
446.462949	1.000292
446.837837	1.000883
447.212664	1.000785
447.587431	1.001304
447.962139	1.000771
448.336786	1.001271
448.711374	1.001488
449.085901	1.001067
449.460369	1.001178
449.834776	1.000403
450.209124	1.001067
450.583412	1.001053
450.957640	1.000898
451.331808	1.000344
451.705917	1.000477
452.079965	1.000815
452.453954	1.000950
452.827883	0.999869
453.201752	1.000767
453.575562	1.002014
453.949311	1.001291
454.323001	1.000583
454.696632	1.000687
455.070202	1.000770
455.443713	1.000210
455.817164	1.001284
456.190556	1.000831
456.563888	1.001195
456.937160	1.000850
457.310373	1.000542
457.683526	1.001208
458.056619	1.000670
458.429653	1.001417
458.802628	0.999925
459.175542	1.000247
459.548398	1.001286
459.921194	1.000319
460.293930	1.000690
460.666607	1.000048
461.039224	1.000323
461.411782	1.000605
461.784280	1.000378
462.156719	1.001451
462.529099	1.001419
462.901419	1.001025
463.273680	1.001199
463.645882	1.000922
464.018024	1.001911
464.390106	1.001033
464.762130	1.001922
465.134094	1.000893
465.505999	1.000875
465.877845	1.000574
466.249631	1.001119
466.621358	1.001585
466.993026	1.000982
467.364634	1.001150
467.736184	1.001575
468.107674	1.000973
468.479105	1.000984
468.850477	1.001753
469.221790	1.001304
469.593043	1.000703
469.964238	1.001831
470.335373	1.000675
470.706449	1.000987
471.077467	1.002183
471.448425	1.000851
471.819324	1.001564
472.190164	1.000735
472.560945	1.001080
472.931667	1.001277
473.302330	1.001178
473.672934	1.001490
474.043479	1.001561
474.413965	1.001378
474.784393	1.000872
475.154761	1.000600
475.525070	1.000271
475.895321	1.001818
476.265513	1.001288
476.635645	1.001336
477.005719	1.001014
477.375734	1.001143
477.745691	1.001362
478.115588	1.001497
478.485427	1.001283
478.855207	1.000650
479.224928	1.001096
479.594591	1.001153
479.964194	1.001770
480.333739	1.001155
480.703226	1.000910
481.072653	1.001644
481.442022	1.001294
481.811333	1.000602
482.180584	1.001869
482.549777	1.000782
482.918912	1.001400
483.287988	1.001398
483.657005	1.001292
484.025964	1.002033
484.394864	1.002147
484.763706	1.001491
485.132489	1.001723
485.501213	1.000762
485.869879	1.001432
486.238487	1.001524
486.607036	1.002074
486.975527	1.000687
487.343959	1.000804
487.712333	1.001256
488.080648	1.001429
488.448905	1.001527
488.817104	1.001207
489.185244	1.001218
489.553326	1.001360
489.921350	1.000657
490.289315	1.001219
490.657222	1.001520
491.025070	1.001635
491.392861	1.002060
491.760593	1.001562
492.128267	1.001097
492.495883	1.001036
492.863440	1.001885
493.230939	1.001490
493.598380	1.001897
493.965763	1.001031
494.333088	1.001394
494.700354	1.000556
495.067563	1.001020
495.434713	1.000837
495.801805	1.001823
496.168839	1.001656
496.535815	1.000927
496.902733	1.000372
497.269593	1.001193
497.636395	1.001180
498.003139	1.001409
498.369825	1.001810
498.736453	1.001028
499.103023	1.000842
499.469535	1.000285
499.835989	1.000680
500.202385	1.000894
500.568723	1.000803
500.935003	1.000959
501.301226	1.001331
501.667390	1.000850
502.033497	1.001124
502.399546	1.001829
502.765537	1.000712
503.131470	1.000980
503.497345	1.000512
503.863163	1.001530
504.228923	1.001606
504.594625	1.001215
504.960269	1.001170
505.325856	1.001390
505.691385	1.000545
506.056856	1.000748
506.422270	1.001215
506.787625	1.001009
507.152924	1.000846
507.518164	1.000783
507.883347	1.000998
508.248472	1.000149
508.613540	1.001235
508.978550	1.001234
509.343503	1.000830
509.708398	1.000972
510.073236	1.001319
510.438016	1.001184
510.802738	1.000728
511.167403	1.000875
511.532010	1.000536
511.896561	1.001045
512.261053	1.001434
512.625488	1.000288
512.989866	1.000598
513.354186	1.000183
513.718449	1.000942
514.082655	1.000988
514.446803	1.000791
514.810894	1.000802
515.174927	1.000566
515.538904	0.999984
515.902822	1.000201
516.266684	1.000876
516.630488	1.001109
516.994235	0.999543
517.357925	0.999933
517.721558	1.000829
518.085133	0.999671
518.448651	1.001179
518.812112	1.000714
519.175516	1.000646
519.538863	1.000550
519.902152	1.000045
520.265385	1.000045
520.628560	1.000155
520.991678	1.000610
521.354739	1.000964
521.717743	1.000707
522.080690	1.000235
522.443580	1.000146
522.806413	0.999609
523.169189	0.999651
523.531908	0.999773
523.894569	1.000068
524.257174	1.000212
524.619722	1.000291
524.982213	0.999893
525.344647	1.000201
525.707025	0.999707
526.069345	0.999613
526.431608	1.000028
526.793815	0.999763
527.155964	0.999631
527.518057	1.000183
527.880093	1.000225
528.242072	0.999803
528.603995	1.000028
528.965860	1.000354
529.327669	0.999366
529.689421	0.999412
530.051117	1.000228
530.412755	0.999111
530.774337	1.000117
531.135862	0.999533
531.497331	0.999490
531.858743	0.999903
532.220098	1.000110
532.581396	0.999531
532.942638	0.999844
533.303824	0.999452
533.664953	0.999187
534.026025	0.998862
534.387040	0.998881
534.747999	0.999451
535.108902	0.999541
535.469748	0.998772
535.830537	0.998953
536.191270	0.999927
536.551947	0.999087
536.912567	0.999101
537.273131	1.000170
537.633638	0.998482
537.994089	0.998856
538.354483	0.998891
538.714821	0.999008
539.075103	0.999372
539.435328	0.998657
539.795497	0.998451
540.155609	0.998242
540.515665	0.998549
540.875665	0.998648
541.235609	0.999022
541.595496	0.998221
541.955328	0.998009
542.315102	0.998403
542.674821	0.998039
543.034483	0.998044
543.394090	0.997867
543.753640	0.998632
544.113134	0.999013
544.472571	0.998181
544.831953	0.998493
545.191278	0.997861
545.550548	0.998566
545.909761	0.997157
546.268918	0.997227
546.628019	0.998098
546.987064	0.997184
547.346053	0.997172
547.704986	0.997600
548.063863	0.997682
548.422684	0.997149
548.781449	0.997554
549.140158	0.997135
549.498811	0.996345
549.857408	0.996631
550.215949	0.996686
550.574434	0.996258
550.932864	0.996209
551.291237	0.997258
551.649555	0.996120
552.007817	0.995537
552.366022	0.995332
552.724173	0.996430
553.082267	0.995544
553.440305	0.995084
553.798288	0.995525
554.156215	0.994864
554.514086	0.994702
554.871902	0.994555
555.229661	0.993988
555.587365	0.993938
555.945014	0.994675
556.302606	0.993739
556.660143	0.993224
557.017625	0.993001
557.375050	0.992672
557.732421	0.992358
558.089735	0.992796
558.446994	0.993076
558.804197	0.992581
559.161345	0.991956
559.518437	0.992032
559.875474	0.990393
560.232455	0.990037
560.589381	0.990673
560.946251	0.989310
561.303065	0.990019
561.659825	0.988982
562.016528	0.988179
562.373177	0.988890
562.729770	0.988002
563.086307	0.987463
563.442789	0.986999
563.799216	0.986363
564.155587	0.985737
564.511904	0.985790
564.868164	0.983664
565.224370	0.984435
565.580520	0.984365
565.936615	0.983656
566.292654	0.982411
566.648638	0.982471
567.004567	0.981107
567.360441	0.981073
567.716260	0.980447
568.072023	0.979996
568.427732	0.978779
568.783385	0.978872
569.138982	0.977010
569.494525	0.976300
569.850013	0.975786
570.205445	0.975604
570.560823	0.974981
570.916145	0.973211
571.271412	0.971767
571.626625	0.971423
571.981782	0.970077
572.336884	0.970692
572.691931	0.969731
573.046923	0.967834
573.401860	0.967115
573.756743	0.965730
574.111570	0.965176
574.466342	0.964110
574.821059	0.963049
575.175722	0.961705
575.530330	0.960436
575.884882	0.960068
576.239380	0.958792
576.593823	0.957454
576.948211	0.956102
577.302544	0.954820
577.656823	0.953543
578.011047	0.953206
578.365216	0.950620
578.719330	0.948804
579.073389	0.947824
579.427394	0.947114
579.781344	0.945669
580.135239	0.944684
580.489080	0.942127
580.842866	0.941269
581.196597	0.938864
581.550273	0.937312
581.903895	0.936238
582.257463	0.934475
582.610975	0.932430
582.964434	0.931417
583.317837	0.929953
583.671186	0.928436
584.024481	0.926546
584.377721	0.924611
584.730906	0.922897
585.084037	0.920225
585.437113	0.919782
585.790135	0.917219
586.143103	0.914629
586.496016	0.914579
586.848874	0.910465
587.201679	0.909149
587.554428	0.907748
587.907124	0.904581
588.259765	0.903386
588.612352	0.900796
588.964884	0.899715
589.317362	0.896219
589.669786	0.893816
590.022155	0.892523
590.374470	0.889068
590.726731	0.888639
591.078937	0.886192
591.431090	0.882642
591.783188	0.881743
592.135232	0.880267
592.487222	0.878309
592.839157	0.875096
593.191038	0.873699
593.542866	0.871065
593.894639	0.869781
594.246358	0.866453
594.598022	0.864226
594.949633	0.862824
595.301190	0.859241
595.652692	0.857624
596.004141	0.855111
596.355535	0.854151
596.706876	0.850869
597.058162	0.848861
597.409395	0.846370
597.760573	0.843037
598.111698	0.841707
598.462768	0.838671
598.813785	0.837052
599.164748	0.834039
599.515657	0.831690
599.866511	0.829240
600.217312	0.826583
600.568060	0.825385
600.918753	0.821587
601.269392	0.819488
601.619978	0.817246
601.970510	0.814089
602.320988	0.811876
602.671412	0.807583
603.021783	0.806723
603.372100	0.804745
603.722363	0.800868
604.072572	0.798672
604.422728	0.796319
604.772830	0.793536
605.122878	0.790670
605.472872	0.788733
605.822813	0.784748
606.172701	0.783681
606.522534	0.780292
606.872314	0.777822
607.222041	0.774371
607.571714	0.771705
607.921333	0.768209
608.270899	0.765410
608.620411	0.762139
608.969870	0.759917
609.319276	0.757179
609.668627	0.754393
610.017926	0.750838
610.367171	0.746916
610.716362	0.744660
611.065500	0.742046
611.414585	0.738311
611.763616	0.736548
612.112594	0.732888
612.461518	0.729768
612.810389	0.725936
613.159207	0.724370
613.507971	0.721728
613.856682	0.717209
614.205340	0.715116
614.553945	0.710357
614.902496	0.709341
615.250994	0.705479
615.599439	0.702831
615.947830	0.699381
616.296169	0.697187
616.644454	0.693995
616.992686	0.691154
617.340864	0.687167
617.688990	0.686323
618.037063	0.682155
618.385082	0.679871
618.733048	0.674869
619.080961	0.673998
619.428821	0.671498
619.776628	0.667274
620.124382	0.665369
620.472083	0.661948
620.819731	0.660060
621.167326	0.658608
621.514868	0.655770
621.862357	0.655716
622.209793	0.653317
622.557176	0.650697
622.904506	0.648500
623.251783	0.647975
623.599007	0.645843
623.946179	0.643008
624.293297	0.641066
624.640363	0.641438
624.987376	0.637534
625.334336	0.637619
625.681243	0.635862
626.028097	0.632898
626.374899	0.632254
626.721647	0.628219
627.068343	0.628513
627.414987	0.626062
627.761577	0.624774
628.108115	0.621721
628.454600	0.621814
628.801032	0.616606
629.147412	0.617674
629.493739	0.613501
629.840014	0.613524
630.186236	0.609920
630.532405	0.610740
630.878521	0.606971
631.224585	0.605895
631.570597	0.605330
631.916556	0.601856
632.262462	0.600663
632.608316	0.598713
632.954117	0.597008
633.299866	0.595228
633.645562	0.592525
633.991206	0.594026
634.336797	0.593769
634.682336	0.592159
635.027823	0.590504
635.373257	0.588855
635.718639	0.588362
636.063968	0.585428
636.409245	0.587810
636.754470	0.585296
637.099642	0.586042
637.444762	0.585006
637.789829	0.582315
638.134845	0.582917
638.479808	0.581383
638.824719	0.579371
639.169577	0.579798
639.514383	0.576792
639.859137	0.578228
640.203839	0.576967
640.548489	0.573802
640.893086	0.573979
641.237632	0.572586
641.582125	0.569071
641.926566	0.568050
642.270955	0.566944
642.615292	0.565554
642.959576	0.563085
643.303809	0.561468
643.647990	0.559330
643.992118	0.557871
644.336195	0.559791
644.680219	0.555849
645.024192	0.555287
645.368112	0.548751
645.711981	0.546318
646.055797	0.541348
646.399562	0.541646
646.743274	0.533783
647.086935	0.531050
647.430544	0.530322
647.774101	0.527158
648.117606	0.525371
648.461059	0.523407
648.804460	0.523162
649.147810	0.526193
649.491108	0.525151
649.834354	0.524342
650.177548	0.527359
650.520690	0.529443
650.863781	0.529055
651.206820	0.526860
651.549807	0.528737
651.892742	0.530371
652.235626	0.528563
652.578458	0.528168
652.921238	0.531699
653.263967	0.528784
653.606644	0.530690
653.949269	0.528635
654.291843	0.530846
654.634365	0.526776
654.976836	0.528425
655.319255	0.527319
655.661622	0.527499
656.003938	0.525979
656.346203	0.527191
656.688416	0.524023
657.030577	0.525770
657.372687	0.526300
657.714746	0.525702
658.056753	0.522282
658.398708	0.524161
658.740612	0.524406
659.082465	0.519963
659.424266	0.519331
659.766016	0.517219
660.107715	0.518442
660.449362	0.516590
660.790958	0.515898
661.132503	0.515300
661.473996	0.512624
661.815438	0.512586
662.156829	0.511042
662.498168	0.511163
662.839456	0.511386
663.180693	0.508471
663.521879	0.507259
663.863013	0.507026
664.204097	0.504531
664.545129	0.501026
664.886110	0.500858
665.227040	0.496489
665.567918	0.499327
665.908746	0.495935
666.249522	0.494962
666.590248	0.495516
666.930922	0.493175
667.271545	0.490906
667.612118	0.490426
667.952639	0.490766
668.293109	0.488541
668.633528	0.490512
668.973896	0.489199
669.314213	0.488132
669.654480	0.489223
669.994695	0.488945
670.334859	0.488448
670.674973	0.488052
671.015035	0.487410
671.355047	0.486540
671.695008	0.486954
672.034918	0.487854
672.374777	0.486914
672.714585	0.486893
673.054342	0.486880
673.394049	0.486604
673.733705	0.483484
674.073310	0.483686
674.412864	0.486468
674.752368	0.485659
675.091820	0.485087
675.431223	0.488477
675.770574	0.487670
676.109875	0.489741
676.449125	0.489005
676.788324	0.490870
677.127473	0.495438
677.466571	0.494224
677.805619	0.494885
678.144616	0.495146
678.483562	0.496402
678.822458	0.498401
679.161303	0.498776
679.500098	0.498242
679.838842	0.499612
680.177535	0.498992
680.516179	0.497010
680.854771	0.495831
681.193314	0.489690
681.531805	0.481183
681.870247	0.470027
682.208638	0.462892
682.546978	0.461687
682.885268	0.462094
683.223508	0.467815
683.561697	0.470757
683.899836	0.473341
684.237925	0.476053
684.575963	0.478287
684.913951	0.480693
685.251889	0.476471
685.589776	0.477918
685.927614	0.479716
686.265401	0.474266
686.603137	0.476317
686.940824	0.469810
687.278460	0.468030
687.616046	0.466938
687.953582	0.461968
688.291068	0.463553
688.628504	0.459255
688.965889	0.461216
689.303224	0.464218
689.640510	0.467494
689.977745	0.472682
690.314930	0.479802
690.652065	0.483787
690.989150	0.490345
691.326185	0.496364
691.663170	0.500075
692.000105	0.506120
692.336990	0.512956
692.673825	0.514806
693.010610	0.521721
693.347345	0.525929
693.684030	0.527394
694.020665	0.532336
694.357251	0.539773
694.693786	0.538993
695.030272	0.543601
695.366707	0.546177
695.703093	0.549598
696.039429	0.547207
696.375716	0.548432
696.711952	0.550577
697.048139	0.553081
697.384276	0.554398
697.720363	0.552180
698.056400	0.551734
698.392388	0.556960
698.728326	0.560253
699.064214	0.562694
699.400053	0.562791
699.735842	0.565678
700.071581	0.568808
700.407270	0.570972
700.742910	0.573351
701.078501	0.579633
701.414042	0.579886
701.749533	0.583190
702.084974	0.590645
702.420366	0.582490
702.755709	0.590290
703.091002	0.597943
703.426246	0.591353
703.761440	0.596594
704.096584	0.602129
704.431679	0.598543
704.766725	0.599496
705.101721	0.602307
705.436668	0.597437
705.771565	0.604971
706.106413	0.601249
706.441212	0.595979
706.775961	0.595197
707.110661	0.598281
707.445311	0.594304
707.779913	0.591386
708.114465	0.590717
708.448967	0.586751
708.783421	0.578993
709.117825	0.574472
709.452180	0.573347
709.786485	0.567035
710.120742	0.557526
710.454949	0.559620
710.789107	0.551605
711.123216	0.542627
711.457275	0.544821
711.791286	0.535859
712.125247	0.534883
712.459159	0.545060
712.793023	0.538223
713.126837	0.541555
713.460602	0.542333
713.794318	0.551652
714.127985	0.549829
714.461602	0.559538
714.795171	0.562293
715.128691	0.569207
715.462162	0.577276
715.795584	0.582675
716.128957	0.585844
716.462281	0.591937
716.795556	0.594935
717.128782	0.600143
717.461960	0.609559
717.795088	0.607583
718.128167	0.613895
718.461198	0.622677
718.794180	0.622966
719.127113	0.625422
719.459997	0.628508
719.792833	0.634861
720.125619	0.636213
720.458357	0.641970
720.791046	0.641045
721.123686	0.645062
721.456278	0.651778
721.788821	0.649171
722.121315	0.652776
722.453761	0.657432
722.786158	0.654559
723.118506	0.651524
723.450805	0.659723
723.783056	0.654992
724.115259	0.653385
724.447412	0.652346
724.779518	0.653616
725.111574	0.652050
725.443582	0.648055
725.775542	0.649800
726.107453	0.642408
726.439315	0.642599
726.771129	0.640842
727.102895	0.634219
727.434612	0.626753
727.766281	0.625079
728.097901	0.624550
728.429473	0.624325
728.760996	0.622075
729.092471	0.622987
729.423897	0.626930
729.755276	0.625569
730.086606	0.625618
730.417887	0.619403
730.749120	0.611360
731.080305	0.601257
731.411442	0.597725
731.742530	0.602212
732.073570	0.601102
732.404562	0.594187
732.735506	0.595495
733.066401	0.599840
733.397249	0.610453
733.728048	0.620694
734.058798	0.632472
734.389501	0.643706
734.720156	0.652850
735.050762	0.660711
735.381320	0.661962
735.711831	0.670759
736.042293	0.675449
736.372707	0.671312
736.703073	0.676700
737.033391	0.678790
737.363661	0.674630
737.693883	0.670580
738.024056	0.669048
738.354182	0.670659
738.684260	0.658644
739.014290	0.655523
739.344272	0.656129
739.674207	0.649252
740.004093	0.649125
740.333931	0.649063
740.663722	0.649672
740.993464	0.649510
741.323159	0.653409
741.652806	0.658533
741.982405	0.663846
742.311956	0.667962
742.641460	0.669944
742.970915	0.673826
743.300323	0.681167
743.629683	0.687568
743.958996	0.689168
744.288260	0.693052
744.617477	0.699547
744.946647	0.700082
745.275768	0.706555
745.604842	0.705670
745.933869	0.716678
746.262847	0.716799
746.591778	0.709588
746.920662	0.716435
747.249498	0.722702
747.578286	0.714232
747.907027	0.709873
748.235720	0.711144
748.564365	0.705543
748.892963	0.706419
749.221514	0.708271
749.550017	0.712919
749.878473	0.713613
750.206881	0.720159
750.535242	0.721364
750.863555	0.721437
751.191821	0.722131
751.520039	0.725300
751.848210	0.729551
752.176334	0.723177
752.504411	0.721476
752.832440	0.729026
753.160421	0.733505
753.488356	0.732250
753.816243	0.728612
754.144082	0.737898
754.471875	0.741112
754.799620	0.736620
755.127318	0.737869
755.454969	0.737538
755.782572	0.737737
756.110129	0.742196
756.437638	0.744600
756.765100	0.741007
757.092515	0.739959
757.419882	0.737852
757.747203	0.743189
758.074477	0.743093
758.401703	0.739281
758.728882	0.734926
759.056014	0.734150
759.383099	0.732449
759.710138	0.734481
760.037129	0.730738
760.364073	0.724616
760.690970	0.726784
761.017820	0.732283
761.344623	0.728339
761.671379	0.719484
761.998088	0.707187
762.324751	0.686301
762.651366	0.644706
762.977935	0.578188
763.304456	0.526597
763.630931	0.517194
763.957359	0.555709
764.283740	0.600949
764.610074	0.626648
764.936362	0.657026
765.262602	0.683708
765.588796	0.705021
765.914943	0.722590
766.241044	0.739892
766.567097	0.746605
766.893104	0.756330
767.219064	0.762552
767.544978	0.769179
767.870845	0.782370
768.196665	0.786576
768.522438	0.782984
768.848165	0.785013
769.173846	0.793867
769.499479	0.798082
769.825066	0.802514
770.150607	0.807210
770.476101	0.801216
770.801548	0.803439
771.126949	0.814696
771.452303	0.817746
771.777611	0.817539
772.102872	0.816938
772.428087	0.822117
772.753256	0.825151
773.078378	0.827126
773.403453	0.835711
773.728482	0.841353
774.053465	0.833772
774.378401	0.836827
774.703291	0.845905
775.028135	0.844172
775.352932	0.846484
775.677683	0.850371
776.002388	0.850863
776.327046	0.848744
776.651658	0.853067
776.976224	0.855808
777.300743	0.856402
777.625216	0.858792
777.949643	0.860575
778.274024	0.861128
778.598359	0.862493
778.922647	0.860619
779.246889	0.860902
779.571086	0.865010
779.895236	0.867974
780.219339	0.864441
780.543397	0.861639
780.867409	0.860489
781.191374	0.863026
781.515294	0.864263
781.839167	0.862999
782.162995	0.866094
782.486776	0.864101
782.810511	0.863751
783.134201	0.867735
783.457844	0.864706
783.781441	0.868132
784.104993	0.873613
784.428498	0.873615
784.751958	0.869620
785.075372	0.871839
785.398739	0.876245
785.722061	0.872536
786.045337	0.867939
786.368568	0.873659
786.691752	0.875107
787.014891	0.860690
787.337983	0.853358
787.661030	0.845091
787.984031	0.828113
788.306987	0.815267
788.629897	0.816702
788.952760	0.821507
789.275579	0.825546
789.598351	0.840398
789.921078	0.853238
790.243759	0.855364
790.566395	0.860488
790.888984	0.868368
791.211529	0.872231
791.534027	0.876208
791.856480	0.878181
792.178888	0.882702
792.501249	0.884002
792.823566	0.886623
793.145836	0.886138
793.468062	0.889192
793.790241	0.888837
794.112375	0.886226
794.434464	0.881062
794.756507	0.882015
795.078505	0.881077
795.400457	0.875715
795.722364	0.863310
796.044226	0.856642
796.366042	0.856391
796.687812	0.859708
797.009538	0.855959
797.331218	0.858171
797.652852	0.863906
797.974442	0.868488
798.295986	0.867816
798.617484	0.870333
798.938938	0.874986
799.260346	0.879626
799.581709	0.882249
799.903026	0.884933
800.224299	0.884367
800.545526	0.888188
800.866708	0.891955
801.187845	0.895717
801.508936	0.895833
801.829983	0.894127
802.150984	0.896158
802.471940	0.901666
802.792851	0.900284
803.113717	0.900652
803.434538	0.898840
803.755314	0.902112
804.076045	0.903775
804.396731	0.902904
804.717372	0.903628
805.037967	0.906038
805.358518	0.903067
805.679024	0.900431
805.999485	0.900971
806.319901	0.900809
806.640272	0.901686
806.960598	0.899601
807.280879	0.897403
807.601115	0.896313
807.921306	0.899204
808.241453	0.900162
808.561554	0.897366
808.881611	0.898512
809.201623	0.901007
809.521590	0.900632
809.841513	0.901537
810.161390	0.899778
810.481223	0.901340
810.801011	0.905195
811.120755	0.907227
811.440453	0.905316
811.760107	0.903711
812.079716	0.903763
812.399281	0.906922
812.718801	0.910319
813.038276	0.911403
813.357707	0.910765
813.677093	0.907207
813.996434	0.910376
814.315731	0.912883
814.634983	0.913479
814.954191	0.911352
815.273354	0.907466
815.592473	0.904270
815.911547	0.905092
816.230577	0.902667
816.549562	0.900755
816.868502	0.901303
817.187399	0.897474
817.506250	0.890965
817.825058	0.893480
818.143821	0.889726
818.462539	0.884703
818.781213	0.877748
819.099843	0.866026
819.418429	0.851566
819.736970	0.835359
820.055466	0.815362
820.373919	0.789727
820.692327	0.758615
821.010691	0.724591
821.329011	0.650028
821.647286	0.536655
821.965517	0.424304
822.283704	0.382444
822.601847	0.384093
822.919945	0.419825
823.237999	0.452203
823.556010	0.497887
823.873976	0.552286
824.191897	0.602222
824.509775	0.643866
824.827609	0.688182
825.145398	0.710470
825.463144	0.713505
825.780845	0.696074
826.098502	0.677713
826.416116	0.632861
826.733685	0.589732
827.051210	0.582086
827.368692	0.596719
827.686129	0.633128
828.003522	0.684953
828.320872	0.731413
828.638177	0.773962
828.955439	0.805685
829.272656	0.827736
829.589830	0.844134
829.906960	0.859337
830.224046	0.871344
830.541088	0.882569
830.858086	0.886129
831.175041	0.892426
831.491952	0.891651
831.808819	0.887154
832.125642	0.882678
832.442421	0.866251
832.759157	0.845227
833.075849	0.800880
833.392497	0.737953
833.709101	0.697914
834.025662	0.708159
834.342179	0.738495
834.658653	0.776359
834.975083	0.812202
835.291469	0.838683
835.607811	0.859822
835.924110	0.875339
836.240366	0.892352
836.556578	0.905850
836.872746	0.913671
837.188871	0.918401
837.504952	0.924275
837.820990	0.927764
838.136984	0.930142
838.452935	0.932992
838.768842	0.935633
839.084706	0.928791
839.400526	0.904199
839.716303	0.863953
840.032037	0.842759
840.347727	0.846453
840.663373	0.863356
840.978977	0.885307
841.294537	0.906658
841.610054	0.922373
841.925527	0.930527
842.240957	0.936339
842.556344	0.943006
842.871687	0.948621
843.186987	0.953267
843.502244	0.952670
843.817458	0.953674
844.132629	0.959322
844.447756	0.963976
844.762840	0.963955
845.077881	0.961437
845.392879	0.963011
845.707833	0.965425
846.022745	0.967597
846.337613	0.966821
846.652438	0.969149
846.967221	0.967659
847.281960	0.968107
847.596656	0.970088
847.911309	0.968635
848.225919	0.970671
848.540485	0.970181
848.855009	0.971700
849.169490	0.972595
849.483928	0.972331
849.798323	0.971729
850.112675	0.972920
850.426984	0.971835
850.741251	0.973005
851.055474	0.972449
851.369654	0.971164
851.683792	0.972387
851.997887	0.972294
852.311938	0.972151
852.625947	0.972240
852.939914	0.970629
853.253837	0.972319
853.567718	0.972786
853.881555	0.973342
854.195350	0.970096
854.509103	0.972013
854.822812	0.972086
855.136479	0.972702
855.450103	0.973110
855.763685	0.971203
856.077224	0.971976
856.390720	0.972924
856.704173	0.973852
857.017584	0.970901
857.330953	0.969725
857.644278	0.971405
857.957561	0.970463
858.270802	0.971502
858.584000	0.971641
858.897155	0.970878
859.210268	0.970884
859.523339	0.972006
859.836367	0.973444
860.149352	0.973372
860.462295	0.971768
860.775195	0.972099
861.088054	0.972015
861.400869	0.971414
861.713642	0.973359
862.026373	0.973048
862.339062	0.973642
862.651708	0.971070
862.964312	0.970187
863.276873	0.973017
863.589392	0.971437
863.901869	0.968730
864.214303	0.967247
864.526696	0.965829
864.839045	0.966889
865.151353	0.963930
865.463619	0.966110
865.775842	0.965911
866.088023	0.965649
866.400162	0.964844
866.712258	0.965631
867.024313	0.964920
867.336325	0.966217
867.648296	0.966173
867.960224	0.966666
868.272110	0.965151
868.583954	0.965872
868.895755	0.966383
869.207515	0.964119
869.519233	0.961900
869.830909	0.964423
870.142542	0.965426
870.454134	0.965843
870.765684	0.964646
871.077191	0.960926
871.388657	0.961129
871.700081	0.961047
872.011463	0.960700
872.322803	0.961466
872.634101	0.961711
872.945357	0.957095
873.256571	0.957413
873.567744	0.957205
873.878874	0.957520
874.189963	0.956294
874.501010	0.954855
874.812015	0.953468
875.122979	0.954737
875.433900	0.957060
875.744780	0.957099
876.055618	0.953941
876.366415	0.954223
876.677169	0.954458
876.987882	0.956605
877.298554	0.955261
877.609183	0.952554
877.919771	0.949379
878.230317	0.948185
878.540822	0.944174
878.851285	0.940646
879.161707	0.933110
879.472087	0.921486
879.782425	0.905518
880.092722	0.872258
880.402977	0.822959
880.713191	0.764714
881.023363	0.709297
881.333494	0.675736
881.643583	0.647884
881.953631	0.646951
882.263637	0.676158
882.573602	0.714866
882.883526	0.739231
883.193408	0.762620
883.503248	0.782686
883.813048	0.808822
884.122806	0.837147
884.432522	0.860765
884.742197	0.879964
885.051831	0.888427
885.361424	0.898666
885.670975	0.909603
885.980485	0.919519
886.289954	0.924929
886.599382	0.930217
886.908768	0.933690
887.218113	0.939485
887.527417	0.943713
887.836680	0.947076
888.145901	0.949218
888.455082	0.949515
888.764221	0.954879
889.073319	0.956244
889.382376	0.957701
889.691392	0.957891
890.000366	0.955986
890.309300	0.958281
890.618193	0.957204
890.927044	0.955875
891.235855	0.955737
891.544625	0.954894
891.853353	0.956536
892.162041	0.953776
892.470687	0.947272
892.779293	0.942684
893.087858	0.940124
893.396381	0.931939
893.704864	0.919303
894.013306	0.896583
894.321707	0.871823
894.630068	0.857998
894.938387	0.853868
895.246665	0.854481
895.554903	0.866626
895.863100	0.878474
896.171256	0.895882
896.479371	0.913915
896.787446	0.926950
897.095480	0.931250
897.403473	0.934031
897.711425	0.938312
898.019336	0.945032
898.327207	0.946992
898.635038	0.950593
898.942827	0.950137
899.250576	0.953321
899.558284	0.956794
899.865952	0.958730
900.173579	0.958966
900.481165	0.959964
900.788711	0.963502
901.096216	0.965841
901.403681	0.965150
901.711105	0.968188
902.018489	0.966973
902.325832	0.966691
902.633135	0.966509
902.940397	0.961365
903.247619	0.948951
903.554800	0.924707
903.861941	0.887682
904.169041	0.853799
904.476101	0.837657
904.783121	0.838033
905.090100	0.854335
905.397039	0.873775
905.703938	0.894786
906.010796	0.913470
906.317614	0.929434
906.624391	0.939958
906.931129	0.949418
907.237826	0.956264
907.544483	0.964604
907.851099	0.967255
908.157675	0.972262
908.464211	0.974140
908.770707	0.975476
909.077163	0.978242
909.383578	0.978031
909.689954	0.977457
909.996289	0.979604
910.302584	0.980789
910.608839	0.982300
910.915054	0.981268
911.221229	0.981520
911.527363	0.980026
911.833458	0.980933
912.139513	0.980772
912.445527	0.979014
912.751502	0.977633
913.057436	0.975515
913.363331	0.973397
913.669186	0.969778
913.975000	0.965618
914.280775	0.960574
914.586510	0.953640
914.892205	0.942078
915.197859	0.921530
915.503475	0.896545
915.809050	0.877992
916.114585	0.873688
916.420081	0.871652
916.725536	0.868269
917.030952	0.875812
917.336328	0.886571
917.641665	0.900035
917.946961	0.916799
918.252218	0.926744
918.557435	0.934623
918.862612	0.943589
919.167750	0.948102
919.472848	0.952706
919.777906	0.957189
920.082925	0.962335
920.387904	0.966428
920.692843	0.967190
920.997743	0.968728
921.302603	0.972152
921.607423	0.973670
921.912204	0.975472
922.216946	0.976441
922.521647	0.976804
922.826310	0.978381
923.130932	0.979819
923.435516	0.981947
923.740059	0.983694
924.044564	0.981703
924.349028	0.983912
924.653454	0.984484
924.957840	0.989807
925.262186	0.986695
925.566493	0.986206
925.870761	0.988263
926.174989	0.989222
926.479178	0.990465
926.783328	0.991027
927.087438	0.991872
927.391509	0.990459
927.695541	0.992921
927.999533	0.992037
928.303486	0.992394
928.607400	0.993999
928.911275	0.992365
929.215110	0.992772
929.518906	0.993423
929.822663	0.991802
930.126381	0.993781
930.430060	0.992648
930.733699	0.993223
931.037299	0.992118
931.340861	0.993382
931.644383	0.993973
931.947866	0.991965
932.251309	0.992893
932.554714	0.993264
932.858080	0.991503
933.161407	0.991700
933.464694	0.994339
933.767943	0.992550
934.071153	0.993537
934.374323	0.993973
934.677455	0.993349
934.980548	0.994520
935.283602	0.993344
935.586617	0.993051
935.889593	0.992331
936.192530	0.992235
936.495428	0.993176
936.798287	0.993679
937.101108	0.993325
937.403890	0.991396
937.706632	0.991707
938.009336	0.990572
938.312002	0.988132
938.614628	0.987889
938.917216	0.986802
939.219765	0.984750
939.522275	0.986165
939.824747	0.986001
940.127179	0.986074
940.429573	0.988204
940.731929	0.987224
941.034246	0.987496
941.336524	0.988110
941.638763	0.989494
941.940964	0.989247
942.243126	0.990482
942.545250	0.990146
942.847335	0.990514
943.149381	0.991094
943.451389	0.990157
943.753359	0.991188
944.055290	0.993854
944.357182	0.992181
944.659036	0.991988
944.960851	0.990695
945.262628	0.993494
945.564367	0.991995
945.866067	0.993126
946.167729	0.993035
946.469352	0.992397
946.770937	0.990752
947.072484	0.993693
947.373992	0.992097
947.675462	0.993510
947.976893	0.991753
948.278286	0.992326
948.579641	0.994165
948.880958	0.993278
949.182236	0.993735
949.483476	0.993537
949.784678	0.993509
950.085841	0.993770
950.386967	0.993766
950.688054	0.993751
950.989103	0.994010
951.290114	0.991155
951.591087	0.992211
951.892021	0.991378
952.192917	0.991837
952.493776	0.990336
952.794596	0.990807
953.095378	0.990053
953.396122	0.989841
953.696828	0.989886
953.997496	0.992162
954.298126	0.992672
954.598718	0.993377
954.899272	0.993363
955.199788	0.991887
955.500266	0.994820
955.800706	0.993885
956.101108	0.996049
956.401472	0.996029
956.701798	0.995119
957.002087	0.994838
957.302337	0.995873
957.602550	0.997360
957.902724	0.996562
958.202861	0.996898
958.502960	0.997802
958.803022	0.996615
959.103045	0.996863
959.403031	0.997309
959.702979	0.996441
960.002889	0.997330
960.302762	0.996423
960.602596	0.996906
960.902393	0.996073
961.202153	0.998489
961.501875	0.997561
961.801559	0.997998
962.101205	0.996656
962.400814	0.998219
962.700385	0.997597
962.999918	0.997672
963.299414	0.997320
963.598873	0.996489
963.898293	0.997741
964.197677	0.997045
964.497022	0.997965
964.796331	0.998795
965.095601	0.997619
965.394835	0.997961
965.694030	0.998958
965.993189	0.998443
966.292309	0.998893
966.591393	0.999004
966.890439	0.998741
967.189447	0.999050
967.488419	0.999229
967.787353	0.998178
968.086249	0.997317
968.385108	0.998787
968.683930	0.999096
968.982714	0.999167
969.281462	0.999194
969.580172	0.998238
969.878844	0.998419
970.177480	0.997278
970.476078	0.999570
970.774639	0.998503
971.073162	0.999572
971.371649	0.998400
971.670098	0.996802
971.968510	0.999681
972.266885	0.997458
972.565223	0.997441
972.863524	0.998136
973.161788	0.997597
973.460014	0.998742
973.758204	0.997758
974.056356	0.997440
974.354471	0.996366
974.652550	0.997604
974.950591	0.998048
975.248595	0.998338
975.546563	0.998116
975.844493	0.998937
976.142386	0.998650
976.440243	0.999357
976.738062	0.998584
977.035845	0.998492
977.333590	0.998324
977.631299	0.998250
977.928971	0.997754
978.226606	0.997992
978.524204	0.996947
978.821765	0.999319
979.119290	0.998810
979.416777	0.997691
979.714228	0.998440
980.011642	0.997994
980.309020	0.999169
980.606360	0.998631
980.903664	0.999572
981.200931	0.997258
981.498162	0.996743
981.795356	0.995966
982.092513	0.995723
982.389633	0.996473
982.686717	0.993546
982.983764	0.993340
983.280775	0.993269
983.577749	0.992659
983.874686	0.994056
984.171587	0.994369
984.468451	0.996471
984.765279	0.995853
985.062070	0.996754
985.358824	0.997215
985.655543	0.996901
985.952224	0.997579
986.248869	0.997296
986.545478	0.998217
986.842050	1.000026
987.138586	0.997098
987.435086	0.998162
987.731549	0.999977
988.027975	0.998969
988.324366	0.998846
988.620719	0.998094
988.917037	0.997895
989.213318	1.000221
989.509563	0.999917
989.805772	0.999638
990.101944	0.999928
990.398080	0.998299
990.694180	0.999580
990.990244	0.999090
991.286271	0.998855
991.582262	0.999588
991.878217	0.999302
992.174136	0.999527
992.470019	0.999773
992.765865	0.999260
993.061676	0.998884
993.357450	0.998392
993.653188	0.998205
993.948890	0.998198
994.244556	0.998543
994.540186	0.998151
994.835780	0.998342
995.131337	0.998300
995.426859	0.997906
995.722345	0.998735
996.017795	0.997199
996.313208	0.997702
996.608586	0.996473
996.903928	0.997968
997.199234	0.997165
997.494504	0.997853
997.789738	0.999136
998.084936	0.997370
998.380099	1.000219
998.675225	0.998122
998.970316	0.999152
999.265371	0.999984
999.560390	0.998644
999.855373	0.999504
1000.150320	0.998616
1000.445232	0.998584
1000.740108	0.999296
1001.034948	0.999094
1001.329752	1.000920
1001.624521	0.999043
1001.919254	1.000236
1002.213951	0.999393
1002.508613	0.999539
1002.803239	1.000340
1003.097829	1.000630
1003.392384	1.000050
1003.686903	0.998958
1003.981386	1.000127
1004.275834	1.000206
1004.570246	1.000362
1004.864623	1.000799
1005.158964	1.000776
1005.453270	0.998796
1005.747540	0.998208
1006.041775	0.998953
1006.335974	1.000395
1006.630138	0.999830
1006.924266	1.000172
1007.218359	1.000931
1007.512416	1.000415
1007.806438	0.999748
1008.100425	1.000848
1008.394376	0.999981
1008.688292	1.000143
1008.982172	1.000920
1009.276017	0.999472
1009.569827	0.999310
1009.863602	0.999370
1010.157341	1.000629
1010.451045	1.000339
1010.744714	0.999076
1011.038347	0.999413
1011.331945	1.000022
1011.625508	0.998008
1011.919036	0.999192
1012.212528	0.999092
1012.505986	0.999001
1012.799408	0.999556
1013.092795	1.000038
1013.386147	0.999283
1013.679464	1.000394
1013.972745	0.999390
1014.265992	0.998390
1014.559204	1.000180
1014.852380	0.999191
1015.145521	0.999168
1015.438628	1.000312
1015.731699	0.999495
1016.024736	0.999683
1016.317737	0.999993
1016.610703	0.999782
1016.903635	1.000300
1017.196531	1.000083
1017.489393	1.001951
1017.782219	1.000198
1018.075011	0.998861
1018.367768	0.999787
1018.660490	1.001002
1018.953177	1.001002
1019.245829	1.001002
