Dividing Wavelength (nm)	Counts (n)	Blue Motor Position (mm): 0.000000	Red Motor Position (mm): 21.300000	
326.493990	1.000778
326.888308	1.000778
327.282561	1.000778
327.676750	0.999447
328.070874	0.999947
328.464933	1.000842
328.858929	0.999465
329.252859	1.001262
329.646726	0.999890
330.040528	0.999511
330.434265	0.999342
330.827938	1.000403
331.221547	1.001261
331.615091	1.000631
332.008571	1.000121
332.401986	0.999651
332.795338	1.001182
333.188625	0.998245
333.581847	1.000533
333.975006	0.999392
334.368100	0.999857
334.761129	1.000672
335.154095	1.001321
335.546996	0.998320
335.939833	0.993204
336.332606	0.994967
336.725315	0.994893
337.117960	0.994878
337.510540	0.993834
337.903056	0.994643
338.295508	0.993367
338.687896	0.994215
339.080220	0.995328
339.472480	0.995060
339.864676	0.995132
340.256807	0.995264
340.648875	0.995252
341.040879	0.995436
341.432818	0.994229
341.824694	0.994598
342.216506	0.994532
342.608253	0.994465
342.999937	0.994556
343.391557	0.995256
343.783113	0.994698
344.174605	0.994589
344.566033	0.994430
344.957397	0.994542
345.348697	0.993810
345.739934	0.994414
346.131106	0.993825
346.522215	0.994010
346.913260	0.992716
347.304241	0.994780
347.695159	0.995256
348.086012	0.993725
348.476802	0.994143
348.867528	0.995246
349.258191	0.992739
349.648789	0.995487
350.039324	0.995270
350.429796	0.996016
350.820203	0.994798
351.210548	0.994269
351.600828	0.994266
351.991045	0.993614
352.381198	0.993381
352.771288	0.994262
353.161314	0.993994
353.551276	0.995497
353.941175	0.994987
354.331010	0.994989
354.720782	0.994937
355.110490	0.994416
355.500135	0.995334
355.889717	0.993884
356.279235	0.995241
356.668689	0.994110
357.058080	0.993954
357.447408	0.994011
357.836672	0.994403
358.225873	0.995112
358.615010	0.996177
359.004084	0.994923
359.393095	0.995063
359.782043	0.993940
360.170927	0.995390
360.559748	0.994818
360.948505	0.993724
361.337199	0.995003
361.725830	0.994359
362.114398	0.994418
362.502903	0.994852
362.891344	0.996043
363.279722	0.994739
363.668037	0.995407
364.056289	0.994706
364.444478	0.995074
364.832603	0.994588
365.220665	0.995234
365.608665	0.994443
365.996601	0.994564
366.384474	0.994851
366.772284	0.995327
367.160031	0.993972
367.547715	0.994074
367.935336	0.995184
368.322893	0.993680
368.710388	0.993916
369.097820	0.994038
369.485189	0.993951
369.872495	0.993660
370.259738	0.993019
370.646918	0.995004
371.034035	0.994413
371.421090	0.994236
371.808081	0.995545
372.195010	0.995669
372.581875	0.995352
372.968678	0.993897
373.355418	0.995171
373.742096	0.994433
374.128710	0.995261
374.515262	0.994717
374.901751	0.994625
375.288177	0.994586
375.674540	0.994895
376.060841	0.994425
376.447079	0.995247
376.833254	0.995715
377.219367	0.995368
377.605417	0.995500
377.991404	0.995686
378.377329	0.993853
378.763191	0.994734
379.148991	0.996145
379.534727	0.995499
379.920402	0.996029
380.306013	0.996028
380.691563	0.996120
381.077049	0.994506
381.462474	0.995714
381.847835	0.995641
382.233134	0.995132
382.618371	0.995820
383.003545	0.995439
383.388657	0.994552
383.773706	0.995570
384.158693	0.995170
384.543618	0.994718
384.928480	0.996951
385.313280	0.995625
385.698017	0.995559
386.082692	0.995824
386.467305	0.996294
386.851856	0.995528
387.236344	0.995096
387.620770	0.994114
388.005133	0.995562
388.389435	0.996714
388.773674	0.996135
389.157851	0.996969
389.541965	0.995296
389.926018	0.995977
390.310008	0.998051
390.693936	0.995783
391.077802	0.996220
391.461606	0.995116
391.845348	0.995975
392.229027	0.996605
392.612645	0.996557
392.996200	0.996600
393.379694	0.995733
393.763125	0.996814
394.146494	0.996163
394.529801	0.996321
394.913047	0.996889
395.296230	0.996006
395.679351	0.996449
396.062410	0.997022
396.445408	0.996479
396.828343	0.995639
397.211217	0.995388
397.594028	0.996218
397.976778	0.995740
398.359466	0.995617
398.742092	0.995853
399.124656	0.995198
399.507158	0.995744
399.889598	0.996009
400.271977	0.996373
400.654294	0.996180
401.036549	0.996721
401.418742	0.996690
401.800874	0.996325
402.182944	0.995212
402.564952	0.994899
402.946898	0.996929
403.328783	0.995155
403.710606	0.995665
404.092367	0.996373
404.474067	0.995706
404.855705	0.995109
405.237282	0.996404
405.618797	0.994715
406.000250	0.995208
406.381642	0.996154
406.762972	0.996034
407.144240	0.996078
407.525447	0.995249
407.906593	0.995508
408.287677	0.995786
408.668700	0.995689
409.049661	0.994762
409.430560	0.996248
409.811399	0.994859
410.192176	0.994916
410.572891	0.995148
410.953545	0.995081
411.334138	0.994371
411.714669	0.995215
412.095139	0.995429
412.475547	0.995748
412.855894	0.994794
413.236180	0.994975
413.616405	0.995153
413.996568	0.995635
414.376670	0.993605
414.756711	0.992979
415.136691	0.993506
415.516609	0.992710
415.896466	0.991687
416.276262	0.990835
416.655997	0.991016
417.035670	0.989473
417.415283	0.988882
417.794834	0.988022
418.174324	0.986315
418.553753	0.985277
418.933121	0.982463
419.312428	0.981038
419.691674	0.979375
420.070859	0.977660
420.449983	0.975759
420.829045	0.972730
421.208047	0.970653
421.586988	0.968424
421.965867	0.964992
422.344686	0.961523
422.723444	0.958586
423.102141	0.956771
423.480777	0.951706
423.859352	0.948747
424.237866	0.942395
424.616319	0.939434
424.994712	0.934009
425.373044	0.931283
425.751314	0.924867
426.129524	0.921712
426.507673	0.915007
426.885762	0.909043
427.263789	0.903826
427.641756	0.900976
428.019662	0.893610
428.397508	0.886029
428.775292	0.879357
429.153016	0.872036
429.530679	0.866818
429.908282	0.859513
430.285824	0.854762
430.663305	0.841541
431.040726	0.838903
431.418086	0.833804
431.795385	0.822781
432.172624	0.813883
432.549802	0.807169
432.926920	0.798333
433.303977	0.789454
433.680974	0.780913
434.057910	0.770735
434.434786	0.762910
434.811601	0.754757
435.188355	0.738653
435.565050	0.734847
435.941683	0.726728
436.318257	0.710591
436.694770	0.701247
437.071222	0.691720
437.447614	0.685239
437.823946	0.680833
438.200218	0.665803
438.576429	0.663020
438.952580	0.649877
439.328670	0.639347
439.704700	0.636818
440.080670	0.629170
440.456580	0.607441
440.832429	0.604929
441.208218	0.604188
441.583947	0.590209
441.959616	0.582024
442.335224	0.578172
442.710773	0.564646
443.086261	0.555044
443.461689	0.559701
443.837057	0.544814
444.212365	0.530149
444.587612	0.529597
444.962800	0.515033
445.337927	0.509921
445.712995	0.526489
446.088002	0.488872
446.462949	0.492596
446.837837	0.490831
447.212664	0.476930
447.587431	0.463623
447.962139	0.433706
448.336786	0.393279
448.711374	0.398543
449.085901	0.432672
449.460369	0.431646
449.834776	0.431149
450.209124	0.408527
450.583412	0.398016
450.957640	0.389401
451.331808	0.395975
451.705917	0.414747
452.079965	0.416375
452.453954	0.402295
452.827883	0.406761
453.201752	0.399381
453.575562	0.408590
453.949311	0.395019
454.323001	0.399536
454.696632	0.394037
455.070202	0.384889
455.443713	0.376193
455.817164	0.369538
456.190556	0.363909
456.563888	0.359750
456.937160	0.356428
457.310373	0.372483
457.683526	0.370203
458.056619	0.374913
458.429653	0.374890
458.802628	0.377496
459.175542	0.371341
459.548398	0.353948
459.921194	0.345592
460.293930	0.345666
460.666607	0.323006
461.039224	0.310952
461.411782	0.306414
461.784280	0.305348
462.156719	0.309168
462.529099	0.313070
462.901419	0.328656
463.273680	0.333296
463.645882	0.332415
464.018024	0.337878
464.390106	0.330692
464.762130	0.315894
465.134094	0.298436
465.505999	0.268053
465.877845	0.238408
466.249631	0.225466
466.621358	0.232710
466.993026	0.246397
467.364634	0.252275
467.736184	0.260987
468.107674	0.269690
468.479105	0.268668
468.850477	0.275493
469.221790	0.282143
469.593043	0.292292
469.964238	0.297264
470.335373	0.296091
470.706449	0.294491
471.077467	0.295353
471.448425	0.257424
471.819324	0.233177
472.190164	0.232629
472.560945	0.260992
472.931667	0.283219
473.302330	0.287217
473.672934	0.299198
474.043479	0.287371
474.413965	0.289153
474.784393	0.292584
475.154761	0.287848
475.525070	0.284761
475.895321	0.290492
476.265513	0.284455
476.635645	0.280270
477.005719	0.280165
477.375734	0.276498
477.745691	0.269985
478.115588	0.266639
478.485427	0.260158
478.855207	0.246881
479.224928	0.229568
479.594591	0.217606
479.964194	0.221263
480.333739	0.222198
480.703226	0.223966
481.072653	0.222385
481.442022	0.217930
481.811333	0.214402
482.180584	0.217901
482.549777	0.223245
482.918912	0.226592
483.287988	0.226176
483.657005	0.225972
484.025964	0.232216
484.394864	0.229657
484.763706	0.230126
485.132489	0.235394
485.501213	0.235867
485.869879	0.234321
486.238487	0.237777
486.607036	0.235384
486.975527	0.239772
487.343959	0.235989
487.712333	0.234769
488.080648	0.236067
488.448905	0.235650
488.817104	0.236406
489.185244	0.231360
489.553326	0.228086
489.921350	0.218078
490.289315	0.200781
490.657222	0.195565
491.025070	0.196763
491.392861	0.198783
491.760593	0.204260
492.128267	0.209827
492.495883	0.215731
492.863440	0.221484
493.230939	0.228067
493.598380	0.229461
493.965763	0.231478
494.333088	0.233742
494.700354	0.235405
495.067563	0.234120
495.434713	0.237428
495.801805	0.235097
496.168839	0.236696
496.535815	0.238035
496.902733	0.238142
497.269593	0.239843
497.636395	0.237510
498.003139	0.237537
498.369825	0.240539
498.736453	0.237139
499.103023	0.238338
499.469535	0.237826
499.835989	0.238211
500.202385	0.239266
500.568723	0.242452
500.935003	0.237463
501.301226	0.241690
501.667390	0.236308
502.033497	0.233958
502.399546	0.237255
502.765537	0.239013
503.131470	0.237239
503.497345	0.233597
503.863163	0.242072
504.228923	0.235284
504.594625	0.234208
504.960269	0.239404
505.325856	0.234798
505.691385	0.238938
506.056856	0.235679
506.422270	0.234917
506.787625	0.237708
507.152924	0.234997
507.518164	0.235534
507.883347	0.236887
508.248472	0.239069
508.613540	0.233889
508.978550	0.236358
509.343503	0.236850
509.708398	0.234662
510.073236	0.232203
510.438016	0.232036
510.802738	0.233062
511.167403	0.232028
511.532010	0.234216
511.896561	0.229744
512.261053	0.228433
512.625488	0.230503
512.989866	0.230663
513.354186	0.231185
513.718449	0.232887
514.082655	0.229391
514.446803	0.231539
514.810894	0.229192
515.174927	0.231721
515.538904	0.231136
515.902822	0.228066
516.266684	0.230456
516.630488	0.231945
516.994235	0.230600
517.357925	0.229302
517.721558	0.227638
518.085133	0.227112
518.448651	0.227068
518.812112	0.229422
519.175516	0.229171
519.538863	0.226942
519.902152	0.228329
520.265385	0.225105
520.628560	0.226904
520.991678	0.227355
521.354739	0.226092
521.717743	0.227652
522.080690	0.228087
522.443580	0.225336
522.806413	0.226175
523.169189	0.225508
523.531908	0.224464
523.894569	0.227946
524.257174	0.228009
524.619722	0.225758
524.982213	0.226882
525.344647	0.225966
525.707025	0.226522
526.069345	0.224614
526.431608	0.226255
526.793815	0.224554
527.155964	0.228497
527.518057	0.227231
527.880093	0.228571
528.242072	0.226793
528.603995	0.228859
528.965860	0.230365
529.327669	0.229404
529.689421	0.230123
530.051117	0.231189
530.412755	0.228768
530.774337	0.231341
531.135862	0.231479
531.497331	0.230887
531.858743	0.233733
532.220098	0.230683
532.581396	0.233207
532.942638	0.233625
533.303824	0.234343
533.664953	0.234082
534.026025	0.235890
534.387040	0.233739
534.747999	0.233820
535.108902	0.232614
535.469748	0.237556
535.830537	0.235730
536.191270	0.236179
536.551947	0.235642
536.912567	0.235452
537.273131	0.237291
537.633638	0.237654
537.994089	0.237765
538.354483	0.238989
538.714821	0.235743
539.075103	0.235627
539.435328	0.236526
539.795497	0.240213
540.155609	0.236836
540.515665	0.234833
540.875665	0.240503
541.235609	0.239166
541.595496	0.239232
541.955328	0.235594
542.315102	0.238212
542.674821	0.239564
543.034483	0.239345
543.394090	0.239006
543.753640	0.240934
544.113134	0.235974
544.472571	0.239193
544.831953	0.236214
545.191278	0.240197
545.550548	0.240058
545.909761	0.236588
546.268918	0.237315
546.628019	0.235561
546.987064	0.238337
547.346053	0.240061
547.704986	0.238057
548.063863	0.238408
548.422684	0.238370
548.781449	0.240631
549.140158	0.237747
549.498811	0.240860
549.857408	0.244271
550.215949	0.238926
550.574434	0.241817
550.932864	0.239582
551.291237	0.238425
551.649555	0.239729
552.007817	0.239558
552.366022	0.240263
552.724173	0.240657
553.082267	0.240956
553.440305	0.238103
553.798288	0.242358
554.156215	0.238838
554.514086	0.239371
554.871902	0.242468
555.229661	0.242073
555.587365	0.242415
555.945014	0.244853
556.302606	0.241911
556.660143	0.244481
557.017625	0.241018
557.375050	0.243245
557.732421	0.240080
558.089735	0.242230
558.446994	0.242368
558.804197	0.241360
559.161345	0.241534
559.518437	0.244867
559.875474	0.242668
560.232455	0.241930
560.589381	0.243498
560.946251	0.243259
561.303065	0.240818
561.659825	0.242205
562.016528	0.243863
562.373177	0.246702
562.729770	0.243539
563.086307	0.245991
563.442789	0.243722
563.799216	0.246661
564.155587	0.245191
564.511904	0.246391
564.868164	0.246647
565.224370	0.246335
565.580520	0.248193
565.936615	0.247962
566.292654	0.251057
566.648638	0.247786
567.004567	0.248856
567.360441	0.249616
567.716260	0.251188
568.072023	0.249141
568.427732	0.250012
568.783385	0.252560
569.138982	0.250616
569.494525	0.250094
569.850013	0.253046
570.205445	0.251476
570.560823	0.253991
570.916145	0.255981
571.271412	0.254365
571.626625	0.255731
571.981782	0.256299
572.336884	0.256957
572.691931	0.257012
573.046923	0.257830
573.401860	0.259629
573.756743	0.260853
574.111570	0.259643
574.466342	0.260231
574.821059	0.259348
575.175722	0.262471
575.530330	0.261770
575.884882	0.262037
576.239380	0.264363
576.593823	0.264779
576.948211	0.264403
577.302544	0.267374
577.656823	0.267256
578.011047	0.267144
578.365216	0.267896
578.719330	0.269762
579.073389	0.269546
579.427394	0.271042
579.781344	0.271593
580.135239	0.273258
580.489080	0.272692
580.842866	0.275857
581.196597	0.275825
581.550273	0.274317
581.903895	0.275440
582.257463	0.273432
582.610975	0.276694
582.964434	0.276036
583.317837	0.278496
583.671186	0.278904
584.024481	0.278941
584.377721	0.281829
584.730906	0.282128
585.084037	0.281419
585.437113	0.282826
585.790135	0.282652
586.143103	0.285661
586.496016	0.286751
586.848874	0.284028
587.201679	0.284951
587.554428	0.288086
587.907124	0.286976
588.259765	0.287632
588.612352	0.288128
588.964884	0.292041
589.317362	0.291138
589.669786	0.291611
590.022155	0.290115
590.374470	0.289315
590.726731	0.291429
591.078937	0.296083
591.431090	0.292449
591.783188	0.296889
592.135232	0.296935
592.487222	0.296978
592.839157	0.295265
593.191038	0.297806
593.542866	0.299316
593.894639	0.303143
594.246358	0.301240
594.598022	0.300491
594.949633	0.304158
595.301190	0.304640
595.652692	0.303867
596.004141	0.300216
596.355535	0.308038
596.706876	0.308789
597.058162	0.311263
597.409395	0.308529
597.760573	0.305965
598.111698	0.309498
598.462768	0.309725
598.813785	0.311257
599.164748	0.312444
599.515657	0.312465
599.866511	0.316104
600.217312	0.311201
600.568060	0.316653
600.918753	0.312922
601.269392	0.313939
601.619978	0.317183
601.970510	0.314769
602.320988	0.314868
602.671412	0.312583
603.021783	0.315275
603.372100	0.316581
603.722363	0.315951
604.072572	0.317341
604.422728	0.316961
604.772830	0.318924
605.122878	0.318297
605.472872	0.318842
605.822813	0.317289
606.172701	0.320102
606.522534	0.317312
606.872314	0.317326
607.222041	0.318806
607.571714	0.316316
607.921333	0.317639
608.270899	0.317643
608.620411	0.314167
608.969870	0.318492
609.319276	0.318391
609.668627	0.318517
610.017926	0.316663
610.367171	0.315161
610.716362	0.315948
611.065500	0.316111
611.414585	0.315186
611.763616	0.315363
612.112594	0.315842
612.461518	0.315588
612.810389	0.313044
613.159207	0.315485
613.507971	0.317354
613.856682	0.313045
614.205340	0.314637
614.553945	0.311484
614.902496	0.315093
615.250994	0.312849
615.599439	0.313973
615.947830	0.313317
616.296169	0.314410
616.644454	0.314001
616.992686	0.313892
617.340864	0.311626
617.688990	0.315378
618.037063	0.312001
618.385082	0.313624
618.733048	0.310554
619.080961	0.313101
619.428821	0.312781
619.776628	0.312246
620.124382	0.313985
620.472083	0.314235
620.819731	0.313567
621.167326	0.317364
621.514868	0.317544
621.862357	0.321536
622.209793	0.321066
622.557176	0.323319
622.904506	0.324305
623.251783	0.327074
623.599007	0.328993
623.946179	0.328997
624.293297	0.330214
624.640363	0.334304
624.987376	0.335089
625.334336	0.337615
625.681243	0.339775
626.028097	0.340033
626.374899	0.341455
626.721647	0.341237
627.068343	0.344927
627.414987	0.346142
627.761577	0.347977
628.108115	0.346568
628.454600	0.351005
628.801032	0.348880
629.147412	0.350770
629.493739	0.351506
629.840014	0.354570
630.186236	0.351929
630.532405	0.357331
630.878521	0.354376
631.224585	0.356885
631.570597	0.360941
631.916556	0.358982
632.262462	0.359385
632.608316	0.361048
632.954117	0.362256
633.299866	0.363108
633.645562	0.362805
633.991206	0.367633
634.336797	0.370665
634.682336	0.372630
635.027823	0.374485
635.373257	0.374876
635.718639	0.378481
636.063968	0.377856
636.409245	0.383570
636.754470	0.383793
637.099642	0.386387
637.444762	0.389966
637.789829	0.388242
638.134845	0.392230
638.479808	0.393409
638.824719	0.392809
639.169577	0.396678
639.514383	0.395588
639.859137	0.400095
640.203839	0.400169
640.548489	0.400697
640.893086	0.401878
641.237632	0.403115
641.582125	0.402032
641.926566	0.403477
642.270955	0.403842
642.615292	0.403687
642.959576	0.402937
643.303809	0.403631
643.647990	0.403098
643.992118	0.403592
644.336195	0.407007
644.680219	0.405499
645.024192	0.406364
645.368112	0.399867
645.711981	0.398867
646.055797	0.394543
646.399562	0.396752
646.743274	0.388794
647.086935	0.386373
647.430544	0.386663
647.774101	0.385363
648.117606	0.384819
648.461059	0.384686
648.804460	0.388034
649.147810	0.392653
649.491108	0.394961
649.834354	0.396225
650.177548	0.401579
650.520690	0.406950
650.863781	0.408456
651.206820	0.407130
651.549807	0.412272
651.892742	0.416097
652.235626	0.415198
652.578458	0.416441
652.921238	0.422625
653.263967	0.420358
653.606644	0.424814
653.949269	0.424074
654.291843	0.427858
654.634365	0.424892
654.976836	0.428259
655.319255	0.428199
655.661622	0.430042
656.003938	0.429409
656.346203	0.432960
656.688416	0.430406
657.030577	0.434017
657.372687	0.436236
657.714746	0.436749
658.056753	0.433657
658.398708	0.437258
658.740612	0.438243
659.082465	0.435288
659.424266	0.435437
659.766016	0.435194
660.107715	0.437470
660.449362	0.436544
660.790958	0.437153
661.132503	0.437575
661.473996	0.435246
661.815438	0.435699
662.156829	0.436082
662.498168	0.436897
662.839456	0.438378
663.180693	0.435886
663.521879	0.435946
663.863013	0.437437
664.204097	0.435446
664.545129	0.432223
664.886110	0.432212
665.227040	0.430211
665.567918	0.432666
665.908746	0.430809
666.249522	0.430177
666.590248	0.431204
666.930922	0.429886
667.271545	0.428088
667.612118	0.428795
667.952639	0.429749
668.293109	0.428496
668.633528	0.431594
668.973896	0.431461
669.314213	0.432293
669.654480	0.433615
669.994695	0.433836
670.334859	0.434659
670.674973	0.434469
671.015035	0.434795
671.355047	0.434974
671.695008	0.436356
672.034918	0.438296
672.374777	0.437042
672.714585	0.438393
673.054342	0.438186
673.394049	0.438465
673.733705	0.435990
674.073310	0.437207
674.412864	0.440018
674.752368	0.440941
675.091820	0.441077
675.431223	0.445435
675.770574	0.445382
676.109875	0.448084
676.449125	0.447744
676.788324	0.450755
677.127473	0.455488
677.466571	0.456139
677.805619	0.456900
678.144616	0.458172
678.483562	0.460367
678.822458	0.462384
679.161303	0.463686
679.500098	0.463576
679.838842	0.465665
680.177535	0.465197
680.516179	0.463914
680.854771	0.463320
681.193314	0.456076
681.531805	0.447584
681.870247	0.436434
682.208638	0.428917
682.546978	0.427283
682.885268	0.429816
683.223508	0.435660
683.561697	0.439204
683.899836	0.442526
684.237925	0.445378
684.575963	0.447879
684.913951	0.451412
685.251889	0.446877
685.589776	0.449181
685.927614	0.451262
686.265401	0.445503
686.603137	0.446882
686.940824	0.440600
687.278460	0.439034
687.616046	0.438405
687.953582	0.433111
688.291068	0.434776
688.628504	0.430466
688.965889	0.432620
689.303224	0.436658
689.640510	0.440670
689.977745	0.446793
690.314930	0.454104
690.652065	0.459260
690.989150	0.466526
691.326185	0.472745
691.663170	0.477078
692.000105	0.484320
692.336990	0.491199
692.673825	0.493796
693.010610	0.501269
693.347345	0.506920
693.684030	0.507953
694.020665	0.512645
694.357251	0.521040
694.693786	0.521096
695.030272	0.525274
695.366707	0.528866
695.703093	0.531862
696.039429	0.530616
696.375716	0.531387
696.711952	0.534405
697.048139	0.536779
697.384276	0.538284
697.720363	0.536682
698.056400	0.535673
698.392388	0.541153
698.728326	0.544091
699.064214	0.547448
699.400053	0.547858
699.735842	0.551285
700.071581	0.554120
700.407270	0.556530
700.742910	0.559204
701.078501	0.565620
701.414042	0.566167
701.749533	0.569381
702.084974	0.578655
702.420366	0.570222
702.755709	0.578285
703.091002	0.585644
703.426246	0.578957
703.761440	0.584717
704.096584	0.590170
704.431679	0.587433
704.766725	0.588821
705.101721	0.591080
705.436668	0.586942
705.771565	0.593593
706.106413	0.589858
706.441212	0.584918
706.775961	0.584728
707.110661	0.587514
707.445311	0.583162
707.779913	0.581566
708.114465	0.579924
708.448967	0.576211
708.783421	0.568277
709.117825	0.563001
709.452180	0.562733
709.786485	0.556934
710.120742	0.546409
710.454949	0.548674
710.789107	0.541088
711.123216	0.531805
711.457275	0.533512
711.791286	0.524521
712.125247	0.523415
712.459159	0.533865
712.793023	0.527095
713.126837	0.530723
713.460602	0.530985
713.794318	0.540742
714.127985	0.539518
714.461602	0.549619
714.795171	0.552708
715.128691	0.560893
715.462162	0.567617
715.795584	0.574379
716.128957	0.576241
716.462281	0.582484
716.795556	0.586573
717.128782	0.591629
717.461960	0.601165
717.795088	0.599414
718.128167	0.605476
718.461198	0.614162
718.794180	0.614955
719.127113	0.617783
719.459997	0.621967
719.792833	0.627096
720.125619	0.628738
720.458357	0.634795
720.791046	0.633706
721.123686	0.637711
721.456278	0.645431
721.788821	0.642045
722.121315	0.645758
722.453761	0.650377
722.786158	0.647744
723.118506	0.644800
723.450805	0.652661
723.783056	0.647921
724.115259	0.645955
724.447412	0.645538
724.779518	0.646826
725.111574	0.645165
725.443582	0.640975
725.775542	0.642570
726.107453	0.635608
726.439315	0.635466
726.771129	0.633358
727.102895	0.627027
727.434612	0.620081
727.766281	0.618612
728.097901	0.617338
728.429473	0.617189
728.760996	0.615531
729.092471	0.615293
729.423897	0.619387
729.755276	0.618452
730.086606	0.617947
730.417887	0.613091
730.749120	0.603560
731.080305	0.594693
731.411442	0.590734
731.742530	0.595835
732.073570	0.594854
732.404562	0.587402
732.735506	0.588602
733.066401	0.593402
733.397249	0.602244
733.728048	0.613790
734.058798	0.626264
734.389501	0.637014
734.720156	0.646395
735.050762	0.654079
735.381320	0.655937
735.711831	0.665368
736.042293	0.669683
736.372707	0.665035
736.703073	0.670311
737.033391	0.672889
737.363661	0.668641
737.693883	0.664248
738.024056	0.663490
738.354182	0.664548
738.684260	0.653703
739.014290	0.649297
739.344272	0.650467
739.674207	0.643068
740.004093	0.642928
740.333931	0.643405
740.663722	0.643728
740.993464	0.643705
741.323159	0.647756
741.652806	0.652949
741.982405	0.657551
742.311956	0.662164
742.641460	0.664295
742.970915	0.668194
743.300323	0.675520
743.629683	0.681382
743.958996	0.683460
744.288260	0.688149
744.617477	0.694099
744.946647	0.695169
745.275768	0.701528
745.604842	0.700834
745.933869	0.710880
746.262847	0.710825
746.591778	0.705512
746.920662	0.711178
747.249498	0.717427
747.578286	0.708944
747.907027	0.704213
748.235720	0.705270
748.564365	0.701172
748.892963	0.700984
749.221514	0.703249
749.550017	0.708814
749.878473	0.707636
750.206881	0.714680
750.535242	0.716051
750.863555	0.715257
751.191821	0.717196
751.520039	0.719506
751.848210	0.724446
752.176334	0.717573
752.504411	0.717021
752.832440	0.724276
753.160421	0.728152
753.488356	0.726062
753.816243	0.724059
754.144082	0.732418
754.471875	0.736262
754.799620	0.731360
755.127318	0.733034
755.454969	0.732572
755.782572	0.731895
756.110129	0.737597
756.437638	0.739290
756.765100	0.735671
757.092515	0.733773
757.419882	0.732450
757.747203	0.738259
758.074477	0.737335
758.401703	0.734607
758.728882	0.729354
759.056014	0.728752
759.383099	0.727450
759.710138	0.729247
760.037129	0.725858
760.364073	0.719439
760.690970	0.722369
761.017820	0.727531
761.344623	0.722530
761.671379	0.713648
761.998088	0.702296
762.324751	0.678887
762.651366	0.638256
762.977935	0.571034
763.304456	0.519367
763.630931	0.509652
763.957359	0.548911
764.283740	0.593305
764.610074	0.621086
764.936362	0.652226
765.262602	0.677896
765.588796	0.699250
765.914943	0.716385
766.241044	0.735276
766.567097	0.741696
766.893104	0.751962
767.219064	0.757455
767.544978	0.764712
767.870845	0.777625
768.196665	0.781764
768.522438	0.780067
768.848165	0.780875
769.173846	0.789292
769.499479	0.794320
769.825066	0.798074
770.150607	0.802815
770.476101	0.797632
770.801548	0.799315
771.126949	0.810688
771.452303	0.814366
771.777611	0.813366
772.102872	0.812169
772.428087	0.818039
772.753256	0.821929
773.078378	0.823308
773.403453	0.832490
773.728482	0.836105
774.053465	0.830353
774.378401	0.834225
774.703291	0.842393
775.028135	0.841444
775.352932	0.844036
775.677683	0.845559
776.002388	0.847221
776.327046	0.845871
776.651658	0.849750
776.976224	0.852694
777.300743	0.853861
777.625216	0.854959
777.949643	0.856965
778.274024	0.855924
778.598359	0.858292
778.922647	0.857415
779.246889	0.858801
779.571086	0.862239
779.895236	0.864380
780.219339	0.860563
780.543397	0.857626
780.867409	0.856951
781.191374	0.859018
781.515294	0.860410
781.839167	0.858006
782.162995	0.863297
782.486776	0.859585
782.810511	0.860898
783.134201	0.864327
783.457844	0.861373
783.781441	0.864564
784.104993	0.870553
784.428498	0.871191
784.751958	0.866986
785.075372	0.868857
785.398739	0.872209
785.722061	0.869147
786.045337	0.864525
786.368568	0.870060
786.691752	0.871992
787.014891	0.856850
787.337983	0.848064
787.661030	0.841190
787.984031	0.823397
788.306987	0.811477
788.629897	0.813506
788.952760	0.816761
789.275579	0.820577
789.598351	0.836457
789.921078	0.849876
790.243759	0.851509
790.566395	0.857187
790.888984	0.863447
791.211529	0.868779
791.534027	0.871585
791.856480	0.874036
792.178888	0.879859
792.501249	0.880888
792.823566	0.882202
793.145836	0.883030
793.468062	0.885472
793.790241	0.885169
794.112375	0.883577
794.434464	0.877669
794.756507	0.877903
795.078505	0.877954
795.400457	0.872490
795.722364	0.859696
796.044226	0.853131
796.366042	0.852340
796.687812	0.856075
797.009538	0.851854
797.331218	0.855030
797.652852	0.859537
797.974442	0.865053
798.295986	0.864053
798.617484	0.866791
798.938938	0.870742
799.260346	0.876613
799.581709	0.877424
799.903026	0.879576
800.224299	0.880606
800.545526	0.884835
800.866708	0.889230
801.187845	0.893328
801.508936	0.891998
801.829983	0.889497
802.150984	0.892699
802.471940	0.897355
802.792851	0.897269
803.113717	0.898087
803.434538	0.896094
803.755314	0.899031
804.076045	0.899679
804.396731	0.899456
804.717372	0.899471
805.037967	0.901134
805.358518	0.899884
805.679024	0.896170
805.999485	0.896614
806.319901	0.898142
806.640272	0.898100
806.960598	0.896762
807.280879	0.894279
807.601115	0.892063
807.921306	0.896489
808.241453	0.895568
808.561554	0.894188
808.881611	0.894410
809.201623	0.896160
809.521590	0.896358
809.841513	0.898250
810.161390	0.896112
810.481223	0.898821
810.801011	0.901069
811.120755	0.903747
811.440453	0.902488
811.760107	0.900499
812.079716	0.900923
812.399281	0.904901
812.718801	0.906157
813.038276	0.907460
813.357707	0.907665
813.677093	0.903624
813.996434	0.907445
814.315731	0.908377
814.634983	0.910463
814.954191	0.907578
815.273354	0.905852
815.592473	0.901710
815.911547	0.901715
816.230577	0.899551
816.549562	0.896392
816.868502	0.896945
817.187399	0.894369
817.506250	0.888265
817.825058	0.890435
818.143821	0.886767
818.462539	0.881363
818.781213	0.873415
819.099843	0.862301
819.418429	0.846561
819.736970	0.829557
820.055466	0.810059
820.373919	0.784764
820.692327	0.752136
821.010691	0.716993
821.329011	0.639958
821.647286	0.524477
821.965517	0.411373
822.283704	0.368844
822.601847	0.369860
822.919945	0.405853
823.237999	0.438919
823.556010	0.485780
823.873976	0.541793
824.191897	0.592016
824.509775	0.635138
824.827609	0.679835
825.145398	0.701794
825.463144	0.704781
825.780845	0.688294
826.098502	0.669589
826.416116	0.623981
826.733685	0.579294
827.051210	0.571372
827.368692	0.586105
827.686129	0.623589
828.003522	0.676449
828.320872	0.722989
828.638177	0.767131
828.955439	0.800165
829.272656	0.822480
829.589830	0.839156
829.906960	0.854624
830.224046	0.867256
830.541088	0.877515
830.858086	0.881300
831.175041	0.887696
831.491952	0.886898
831.808819	0.883162
832.125642	0.876694
832.442421	0.862201
832.759157	0.840763
833.075849	0.794978
833.392497	0.730325
833.709101	0.690483
834.025662	0.699779
834.342179	0.731020
834.658653	0.770870
834.975083	0.805941
835.291469	0.832391
835.607811	0.854458
835.924110	0.871436
836.240366	0.886809
836.556578	0.901913
836.872746	0.909449
837.188871	0.915333
837.504952	0.919360
837.820990	0.923846
838.136984	0.926831
838.452935	0.930544
838.768842	0.931746
839.084706	0.925907
839.400526	0.899239
839.716303	0.859884
840.032037	0.837666
840.347727	0.840215
840.663373	0.858287
840.978977	0.879763
841.294537	0.902268
841.610054	0.918670
841.925527	0.925664
842.240957	0.932930
842.556344	0.941316
842.871687	0.946013
843.186987	0.950057
843.502244	0.950282
843.817458	0.953926
844.132629	0.955418
844.447756	0.960672
844.762840	0.960867
845.077881	0.959923
845.392879	0.959543
845.707833	0.963660
846.022745	0.965673
846.337613	0.965796
846.652438	0.966177
846.967221	0.964973
847.281960	0.965801
847.596656	0.968471
847.911309	0.966072
848.225919	0.968149
848.540485	0.967792
848.855009	0.969933
849.169490	0.968628
849.483928	0.969208
849.798323	0.969052
850.112675	0.970063
850.426984	0.969933
850.741251	0.969866
851.055474	0.970576
851.369654	0.968100
851.683792	0.969632
851.997887	0.970601
852.311938	0.970361
852.625947	0.970568
852.939914	0.967803
853.253837	0.969247
853.567718	0.971064
853.881555	0.971146
854.195350	0.968685
854.509103	0.969921
854.822812	0.970725
855.136479	0.970475
855.450103	0.970504
855.763685	0.968160
856.077224	0.969149
856.390720	0.970347
856.704173	0.970220
857.017584	0.969558
857.330953	0.966609
857.644278	0.968377
857.957561	0.968166
858.270802	0.969734
858.584000	0.968307
858.897155	0.967203
859.210268	0.967337
859.523339	0.968380
859.836367	0.970317
860.149352	0.971203
860.462295	0.968504
860.775195	0.970711
861.088054	0.969635
861.400869	0.969981
861.713642	0.970387
862.026373	0.970792
862.339062	0.971104
862.651708	0.968533
862.964312	0.967884
863.276873	0.969799
863.589392	0.968280
863.901869	0.967100
864.214303	0.965646
864.526696	0.964896
864.839045	0.964126
865.151353	0.961501
865.463619	0.962904
865.775842	0.964376
866.088023	0.962626
866.400162	0.962788
866.712258	0.962392
867.024313	0.963698
867.336325	0.963781
867.648296	0.964080
867.960224	0.963252
868.272110	0.962153
868.583954	0.963723
868.895755	0.964298
869.207515	0.962979
869.519233	0.959622
869.830909	0.962176
870.142542	0.961286
870.454134	0.963518
870.765684	0.960984
871.077191	0.958702
871.388657	0.958799
871.700081	0.958285
872.011463	0.958157
872.322803	0.959439
872.634101	0.956567
872.945357	0.956383
873.256571	0.953242
873.567744	0.953552
873.878874	0.953930
874.189963	0.952232
874.501010	0.951744
874.812015	0.949951
875.122979	0.951691
875.433900	0.952876
875.744780	0.955018
876.055618	0.951328
876.366415	0.950849
876.677169	0.950431
876.987882	0.951993
877.298554	0.951954
877.609183	0.947822
877.919771	0.946245
878.230317	0.943190
878.540822	0.940438
878.851285	0.934477
879.161707	0.927439
879.472087	0.916006
879.782425	0.899154
880.092722	0.865632
880.402977	0.813614
880.713191	0.752858
881.023363	0.694204
881.333494	0.660192
881.643583	0.632426
881.953631	0.632422
882.263637	0.661272
882.573602	0.701362
882.883526	0.725959
883.193408	0.749229
883.503248	0.771597
883.813048	0.798482
884.122806	0.828356
884.432522	0.851813
884.742197	0.871747
885.051831	0.882293
885.361424	0.891285
885.670975	0.904191
885.980485	0.913717
886.289954	0.919989
886.599382	0.926165
886.908768	0.929568
887.218113	0.934665
887.527417	0.939516
887.836680	0.942144
888.145901	0.943485
888.455082	0.947408
888.764221	0.950496
889.073319	0.953283
889.382376	0.953571
889.691392	0.953484
890.000366	0.952897
890.309300	0.954115
890.618193	0.953590
890.927044	0.951702
891.235855	0.951436
891.544625	0.952239
891.853353	0.951730
892.162041	0.949810
892.470687	0.943188
892.779293	0.938801
893.087858	0.935409
893.396381	0.926790
893.704864	0.913891
894.013306	0.889771
894.321707	0.863837
894.630068	0.849159
894.938387	0.845527
895.246665	0.846351
895.554903	0.858797
895.863100	0.871063
896.171256	0.888448
896.479371	0.906795
896.787446	0.920276
897.095480	0.925831
897.403473	0.930492
897.711425	0.933979
898.019336	0.940149
898.327207	0.943195
898.635038	0.946375
898.942827	0.944383
899.250576	0.949145
899.558284	0.951960
899.865952	0.955149
900.173579	0.955278
900.481165	0.955952
900.788711	0.960259
901.096216	0.962425
901.403681	0.962640
901.711105	0.963069
902.018489	0.963155
902.325832	0.963971
902.633135	0.963231
902.940397	0.956396
903.247619	0.944871
903.554800	0.919258
903.861941	0.879677
904.169041	0.844164
904.476101	0.827678
904.783121	0.827700
905.090100	0.844031
905.397039	0.865306
905.703938	0.886597
906.010796	0.906665
906.317614	0.924116
906.624391	0.934903
906.931129	0.944560
907.237826	0.952109
907.544483	0.960763
907.851099	0.963611
908.157675	0.968268
908.464211	0.970014
908.770707	0.973275
909.077163	0.974090
909.383578	0.976072
909.689954	0.974781
909.996289	0.976066
910.302584	0.978606
910.608839	0.980290
910.915054	0.978051
911.221229	0.976812
911.527363	0.977473
911.833458	0.977587
912.139513	0.978666
912.445527	0.975058
912.751502	0.974793
913.057436	0.972995
913.363331	0.970691
913.669186	0.966834
913.975000	0.961173
914.280775	0.956795
914.586510	0.948420
914.892205	0.935664
915.197859	0.915237
915.503475	0.887685
915.809050	0.869179
916.114585	0.863088
916.420081	0.860917
916.725536	0.857262
917.030952	0.865582
917.336328	0.877455
917.641665	0.893450
917.946961	0.908526
918.252218	0.919424
918.557435	0.928291
918.862612	0.936911
919.167750	0.943421
919.472848	0.947848
919.777906	0.953292
920.082925	0.958725
920.387904	0.962649
920.692843	0.963306
920.997743	0.964283
921.302603	0.968252
921.607423	0.968991
921.912204	0.971750
922.216946	0.971883
922.521647	0.973999
922.826310	0.975652
923.130932	0.977546
923.435516	0.979873
923.740059	0.979794
924.044564	0.978625
924.349028	0.980862
924.653454	0.984206
924.957840	0.984507
925.262186	0.984623
925.566493	0.983821
925.870761	0.985426
926.174989	0.985850
926.479178	0.989235
926.783328	0.989026
927.087438	0.988846
927.391509	0.988245
927.695541	0.990407
927.999533	0.989602
928.303486	0.989409
928.607400	0.991076
928.911275	0.989942
929.215110	0.990060
929.518906	0.991143
929.822663	0.990033
930.126381	0.990894
930.430060	0.992352
930.733699	0.990693
931.037299	0.989637
931.340861	0.990216
931.644383	0.989479
931.947866	0.989392
932.251309	0.990274
932.554714	0.991468
932.858080	0.992032
933.161407	0.990098
933.464694	0.992466
933.767943	0.990923
934.071153	0.991814
934.374323	0.992489
934.677455	0.991547
934.980548	0.992674
935.283602	0.991214
935.586617	0.991134
935.889593	0.990594
936.192530	0.989973
936.495428	0.991318
936.798287	0.991193
937.101108	0.990465
937.403890	0.989942
937.706632	0.989195
938.009336	0.987854
938.312002	0.986375
938.614628	0.984389
938.917216	0.983488
939.219765	0.981317
939.522275	0.983123
939.824747	0.983175
940.127179	0.984316
940.429573	0.984404
940.731929	0.983573
941.034246	0.985432
941.336524	0.985392
941.638763	0.986651
941.940964	0.986658
942.243126	0.987359
942.545250	0.987330
942.847335	0.988799
943.149381	0.988580
943.451389	0.989024
943.753359	0.988920
944.055290	0.990422
944.357182	0.989685
944.659036	0.989023
944.960851	0.988733
945.262628	0.989234
945.564367	0.989627
945.866067	0.990168
946.167729	0.989976
946.469352	0.990344
946.770937	0.989817
947.072484	0.991562
947.373992	0.990775
947.675462	0.991650
947.976893	0.990010
948.278286	0.990559
948.579641	0.990967
948.880958	0.991272
949.182236	0.991332
949.483476	0.992037
949.784678	0.990947
950.085841	0.991999
950.386967	0.990468
950.688054	0.991273
950.989103	0.992296
951.290114	0.989685
951.591087	0.989046
951.892021	0.991763
952.192917	0.988861
952.493776	0.989348
952.794596	0.990170
953.095378	0.988173
953.396122	0.987967
953.696828	0.988333
953.997496	0.990066
954.298126	0.990397
954.598718	0.990985
954.899272	0.992102
955.199788	0.990550
955.500266	0.992830
955.800706	0.994136
956.101108	0.993843
956.401472	0.993939
956.701798	0.993778
957.002087	0.992881
957.302337	0.993521
957.602550	0.995588
957.902724	0.994839
958.202861	0.995771
958.502960	0.995751
958.803022	0.993877
959.103045	0.996456
959.403031	0.995426
959.702979	0.996387
960.002889	0.996405
960.302762	0.995010
960.602596	0.996394
960.902393	0.995627
961.202153	0.997649
961.501875	0.997278
961.801559	0.996055
962.101205	0.996839
962.400814	0.996751
962.700385	0.996506
962.999918	0.997645
963.299414	0.995761
963.598873	0.996150
963.898293	0.997273
964.197677	0.995183
964.497022	0.996901
964.796331	0.999033
965.095601	0.998214
965.394835	0.996881
965.694030	0.997147
965.993189	0.997578
966.292309	0.996586
966.591393	0.997739
966.890439	0.996730
967.189447	0.996955
967.488419	0.998135
967.787353	0.996516
968.086249	0.997359
968.385108	0.997231
968.683930	0.997514
968.982714	0.996612
969.281462	0.997108
969.580172	0.997792
969.878844	0.997544
970.177480	0.996972
970.476078	0.997873
970.774639	0.996882
971.073162	0.997933
971.371649	0.996931
971.670098	0.996129
971.968510	0.999086
972.266885	0.995621
972.565223	0.996747
972.863524	0.995873
973.161788	0.996772
973.460014	0.997032
973.758204	0.996090
974.056356	0.996194
974.354471	0.994628
974.652550	0.996643
974.950591	0.996932
975.248595	0.997294
975.546563	0.997786
975.844493	0.996636
976.142386	0.997087
976.440243	0.997217
976.738062	0.997119
977.035845	0.998445
977.333590	0.996691
977.631299	0.998445
977.928971	0.996631
978.226606	0.996680
978.524204	0.996307
978.821765	0.997749
979.119290	0.997288
979.416777	0.996408
979.714228	0.996530
980.011642	0.996708
980.309020	0.997131
980.606360	0.998442
980.903664	0.997622
981.200931	0.997469
981.498162	0.995166
981.795356	0.995514
982.092513	0.994631
982.389633	0.995121
982.686717	0.991171
982.983764	0.991988
983.280775	0.991945
983.577749	0.991099
983.874686	0.992489
984.171587	0.991284
984.468451	0.994106
984.765279	0.994421
985.062070	0.994251
985.358824	0.994564
985.655543	0.994610
985.952224	0.996636
986.248869	0.996314
986.545478	0.997909
986.842050	0.999218
987.138586	0.996089
987.435086	0.997104
987.731549	0.999136
988.027975	0.996982
988.324366	0.998274
988.620719	0.996963
988.917037	0.997306
989.213318	0.997183
989.509563	0.999092
989.805772	0.997931
990.101944	0.998198
990.398080	0.997278
990.694180	0.997276
990.990244	0.996735
991.286271	0.998218
991.582262	0.998392
991.878217	0.998752
992.174136	0.998595
992.470019	0.999647
992.765865	0.998102
993.061676	0.998534
993.357450	0.996635
993.653188	0.997780
993.948890	0.997872
994.244556	0.997615
994.540186	0.997847
994.835780	0.997373
995.131337	0.998018
995.426859	0.996927
995.722345	0.997615
996.017795	0.996313
996.313208	0.996337
996.608586	0.996474
996.903928	0.997687
997.199234	0.996753
997.494504	0.997299
997.789738	0.996822
998.084936	0.996164
998.380099	0.999809
998.675225	0.998089
998.970316	0.997944
999.265371	0.998535
999.560390	0.998361
999.855373	0.998284
1000.150320	0.998729
1000.445232	0.998955
1000.740108	0.997636
1001.034948	0.999481
1001.329752	0.999245
1001.624521	0.998871
1001.919254	0.998442
1002.213951	0.999015
1002.508613	0.997574
1002.803239	0.999603
1003.097829	0.998923
1003.392384	0.999102
1003.686903	0.997978
1003.981386	0.999579
1004.275834	0.999552
1004.570246	0.998291
1004.864623	0.999984
1005.158964	0.999077
1005.453270	0.997917
1005.747540	0.997771
1006.041775	0.998266
1006.335974	1.000429
1006.630138	0.999247
1006.924266	0.998772
1007.218359	1.000744
1007.512416	0.999955
1007.806438	0.999860
1008.100425	0.999403
1008.394376	0.999080
1008.688292	0.998642
1008.982172	0.999890
1009.276017	0.999150
1009.569827	1.000105
1009.863602	0.998444
1010.157341	1.001133
1010.451045	0.999057
1010.744714	0.999984
1011.038347	0.999278
1011.331945	0.999706
1011.625508	0.997396
1011.919036	0.999420
1012.212528	0.999220
1012.505986	0.998326
1012.799408	0.998527
1013.092795	0.998658
1013.386147	1.000111
1013.679464	0.998986
1013.972745	0.998659
1014.265992	0.997415
1014.559204	1.000100
1014.852380	0.999434
1015.145521	1.000450
1015.438628	0.998894
1015.731699	0.999250
1016.024736	1.000114
1016.317737	0.999825
1016.610703	0.998637
1016.903635	1.000636
1017.196531	0.998405
1017.489393	1.000030
1017.782219	0.999296
1018.075011	0.998592
1018.367768	0.998032
1018.660490	0.999156
1018.953177	0.999156
1019.245829	0.999156
