Dividing Wavelength (nm)	Counts (n)	Blue Motor Position (mm): 0.000000	Red Motor Position (mm): 41.700000	
326.493990	1.000817
326.888308	1.000817
327.282561	1.000817
327.676750	0.999875
328.070874	0.998052
328.464933	1.000396
328.858929	0.997897
329.252859	1.000637
329.646726	1.000011
330.040528	0.999478
330.434265	0.998511
330.827938	1.000735
331.221547	1.000745
331.615091	1.000341
332.008571	1.000489
332.401986	0.999936
332.795338	0.999007
333.188625	0.998180
333.581847	1.001202
333.975006	0.999693
334.368100	0.999188
334.761129	0.999855
335.154095	1.000691
335.546996	0.998659
335.939833	0.997068
336.332606	0.996818
336.725315	0.997838
337.117960	0.999352
337.510540	0.997788
337.903056	0.999430
338.295508	0.996854
338.687896	0.998140
339.080220	0.998361
339.472480	0.998102
339.864676	0.997781
340.256807	0.996967
340.648875	0.999059
341.040879	0.998478
341.432818	0.997691
341.824694	0.998430
342.216506	0.999355
342.608253	0.996653
342.999937	0.997192
343.391557	0.998723
343.783113	0.997333
344.174605	0.998005
344.566033	0.998141
344.957397	0.997535
345.348697	0.997323
345.739934	0.998233
346.131106	0.997415
346.522215	0.998459
346.913260	0.998769
347.304241	0.996593
347.695159	0.998684
348.086012	0.996378
348.476802	0.996797
348.867528	0.998068
349.258191	0.996527
349.648789	0.998109
350.039324	0.997771
350.429796	0.998657
350.820203	0.997626
351.210548	0.998364
351.600828	0.996866
351.991045	0.997346
352.381198	0.997463
352.771288	0.996721
353.161314	0.997503
353.551276	0.999984
353.941175	0.997937
354.331010	0.997239
354.720782	0.997813
355.110490	0.997773
355.500135	0.997255
355.889717	0.997501
356.279235	0.998546
356.668689	0.998040
357.058080	0.998103
357.447408	0.999612
357.836672	0.997905
358.225873	0.998419
358.615010	0.998933
359.004084	0.998742
359.393095	0.999105
359.782043	0.997524
360.170927	0.999571
360.559748	0.998792
360.948505	0.996919
361.337199	0.998611
361.725830	0.998076
362.114398	0.998892
362.502903	0.998038
362.891344	0.999680
363.279722	0.998401
363.668037	0.999062
364.056289	0.998174
364.444478	0.999398
364.832603	0.998408
365.220665	0.997790
365.608665	0.998042
365.996601	0.997703
366.384474	0.997533
366.772284	0.997759
367.160031	0.997017
367.547715	0.996297
367.935336	0.998092
368.322893	0.997935
368.710388	0.997738
369.097820	0.998735
369.485189	0.997848
369.872495	0.997385
370.259738	0.996354
370.646918	1.000166
371.034035	0.998962
371.421090	0.998181
371.808081	0.996870
372.195010	0.997918
372.581875	0.998573
372.968678	0.998158
373.355418	0.997186
373.742096	0.998405
374.128710	0.999011
374.515262	0.997311
374.901751	0.998325
375.288177	0.997512
375.674540	0.999104
376.060841	0.996888
376.447079	0.999086
376.833254	0.997560
377.219367	0.998749
377.605417	0.998716
377.991404	0.998708
378.377329	0.997469
378.763191	0.997858
379.148991	0.999113
379.534727	0.998922
379.920402	0.999137
380.306013	0.999235
380.691563	0.998503
381.077049	0.997397
381.462474	0.999199
381.847835	0.998340
382.233134	0.998666
382.618371	0.999260
383.003545	0.998960
383.388657	0.998842
383.773706	0.999240
384.158693	0.999072
384.543618	0.999053
384.928480	0.999296
385.313280	0.999752
385.698017	0.999415
386.082692	0.999394
386.467305	0.999140
386.851856	0.999600
387.236344	0.997903
387.620770	0.998918
388.005133	0.999593
388.389435	0.999423
388.773674	0.998667
389.157851	0.999831
389.541965	0.998878
389.926018	1.000140
390.310008	0.999471
390.693936	0.998126
391.077802	0.999635
391.461606	0.998135
391.845348	0.999229
392.229027	0.999787
392.612645	0.999680
392.996200	1.000053
393.379694	0.999204
393.763125	0.999763
394.146494	0.999566
394.529801	0.998681
394.913047	1.000006
395.296230	1.000015
395.679351	0.999667
396.062410	0.998902
396.445408	1.000281
396.828343	0.999026
397.211217	0.999324
397.594028	0.998698
397.976778	0.998581
398.359466	0.998739
398.742092	0.999459
399.124656	0.998591
399.507158	0.998376
399.889598	0.999563
400.271977	1.000443
400.654294	0.999464
401.036549	1.000396
401.418742	0.999776
401.800874	0.999266
402.182944	0.999808
402.564952	0.998479
402.946898	1.000588
403.328783	0.999706
403.710606	0.999105
404.092367	0.999800
404.474067	1.000027
404.855705	0.999274
405.237282	0.999785
405.618797	0.999291
406.000250	0.998890
406.381642	1.000126
406.762972	0.999222
407.144240	1.001075
407.525447	0.999645
407.906593	0.999030
408.287677	1.000244
408.668700	1.000707
409.049661	0.999151
409.430560	1.000455
409.811399	0.999914
410.192176	0.999091
410.572891	0.999072
410.953545	0.999763
411.334138	0.998205
411.714669	1.000147
412.095139	0.999007
412.475547	0.999475
412.855894	0.999533
413.236180	1.000040
413.616405	0.999715
413.996568	1.000810
414.376670	0.999605
414.756711	1.000125
415.136691	0.999649
415.516609	1.000243
415.896466	0.999847
416.276262	0.998439
416.655997	0.999352
417.035670	0.997593
417.415283	0.999920
417.794834	1.000122
418.174324	0.999426
418.553753	1.000026
418.933121	0.999229
419.312428	0.999500
419.691674	0.999848
420.070859	0.999991
420.449983	1.000772
420.829045	0.999822
421.208047	1.000203
421.586988	1.000761
421.965867	1.000102
422.344686	1.000841
422.723444	0.999622
423.102141	0.999663
423.480777	1.000163
423.859352	1.000250
424.237866	0.999660
424.616319	1.000431
424.994712	0.999848
425.373044	1.000088
425.751314	1.000385
426.129524	0.999909
426.507673	0.999782
426.885762	1.000943
427.263789	1.000324
427.641756	0.999842
428.019662	1.000584
428.397508	0.999161
428.775292	0.999260
429.153016	1.000263
429.530679	1.000272
429.908282	1.000886
430.285824	1.000407
430.663305	1.000034
431.040726	1.000723
431.418086	1.000755
431.795385	1.001120
432.172624	0.999431
432.549802	1.000340
432.926920	1.001047
433.303977	0.999540
433.680974	1.000425
434.057910	0.999579
434.434786	1.001478
434.811601	0.999757
435.188355	0.999498
435.565050	0.999811
435.941683	0.999925
436.318257	0.999894
436.694770	0.998952
437.071222	1.000407
437.447614	1.000080
437.823946	0.999397
438.200218	0.999851
438.576429	1.000201
438.952580	1.000004
439.328670	0.999678
439.704700	1.000692
440.080670	1.000195
440.456580	0.999776
440.832429	1.000169
441.208218	1.000672
441.583947	1.000223
441.959616	1.000664
442.335224	0.999831
442.710773	1.000503
443.086261	0.999576
443.461689	0.999965
443.837057	1.000478
444.212365	1.000330
444.587612	1.000044
444.962800	0.999447
445.337927	0.999844
445.712995	1.000878
446.088002	1.000355
446.462949	1.000372
446.837837	1.000833
447.212664	1.000030
447.587431	1.001005
447.962139	0.999503
448.336786	1.000868
448.711374	1.000316
449.085901	0.999316
449.460369	1.000941
449.834776	0.999635
450.209124	1.001209
450.583412	0.999913
450.957640	0.999348
451.331808	1.000128
451.705917	0.999531
452.079965	1.000131
452.453954	1.000492
452.827883	1.000210
453.201752	1.000653
453.575562	1.001124
453.949311	1.000774
454.323001	1.000212
454.696632	1.000541
455.070202	1.000409
455.443713	1.000251
455.817164	1.000609
456.190556	1.000660
456.563888	1.000367
456.937160	1.000606
457.310373	1.000014
457.683526	1.000115
458.056619	0.999836
458.429653	1.001069
458.802628	0.999782
459.175542	0.999693
459.548398	0.999938
459.921194	1.000531
460.293930	1.000969
460.666607	0.999372
461.039224	0.999439
461.411782	0.999708
461.784280	0.999588
462.156719	1.001808
462.529099	1.001408
462.901419	1.000681
463.273680	1.000514
463.645882	1.000542
464.018024	1.000491
464.390106	1.000180
464.762130	1.001561
465.134094	1.000250
465.505999	1.000703
465.877845	1.000645
466.249631	1.000459
466.621358	1.000488
466.993026	1.000571
467.364634	1.000868
467.736184	1.000831
468.107674	1.000212
468.479105	1.000414
468.850477	1.001191
469.221790	1.000704
469.593043	1.001045
469.964238	1.001076
470.335373	1.000139
470.706449	1.000463
471.077467	1.000915
471.448425	1.000904
471.819324	1.001050
472.190164	1.000360
472.560945	1.000921
472.931667	1.000326
473.302330	0.999735
473.672934	1.000713
474.043479	1.000724
474.413965	1.000111
474.784393	1.000629
475.154761	1.000411
475.525070	0.999796
475.895321	1.001455
476.265513	1.000461
476.635645	1.000081
477.005719	1.001301
477.375734	1.000174
477.745691	1.000603
478.115588	1.000162
478.485427	1.000161
478.855207	1.000677
479.224928	1.000721
479.594591	1.000310
479.964194	1.000878
480.333739	1.000601
480.703226	1.000480
481.072653	1.001027
481.442022	1.000451
481.811333	1.000156
482.180584	1.000812
482.549777	1.000882
482.918912	1.000156
483.287988	1.000485
483.657005	1.000125
484.025964	1.001365
484.394864	1.001400
484.763706	1.000053
485.132489	1.001135
485.501213	1.001016
485.869879	1.000744
486.238487	1.000911
486.607036	1.000626
486.975527	1.000069
487.343959	1.000998
487.712333	1.000563
488.080648	1.000583
488.448905	1.000650
488.817104	1.000809
489.185244	1.000571
489.553326	1.000590
489.921350	1.000218
490.289315	1.000531
490.657222	1.000571
491.025070	1.001040
491.392861	1.000799
491.760593	1.001103
492.128267	1.000502
492.495883	1.000234
492.863440	1.000113
493.230939	1.000484
493.598380	1.000242
493.965763	1.000117
494.333088	1.000652
494.700354	1.000558
495.067563	1.000559
495.434713	1.000536
495.801805	1.001253
496.168839	1.000708
496.535815	1.000300
496.902733	0.999837
497.269593	1.000482
497.636395	1.001200
498.003139	1.000247
498.369825	1.000335
498.736453	1.000540
499.103023	0.999574
499.469535	0.999478
499.835989	0.999784
500.202385	1.000688
500.568723	1.000238
500.935003	1.000654
501.301226	1.000220
501.667390	1.000089
502.033497	1.000616
502.399546	1.001122
502.765537	1.000487
503.131470	0.999548
503.497345	1.000135
503.863163	1.001173
504.228923	1.000039
504.594625	1.000448
504.960269	1.001173
505.325856	1.000582
505.691385	1.000199
506.056856	1.000049
506.422270	1.000678
506.787625	1.000241
507.152924	1.000326
507.518164	1.000684
507.883347	1.000646
508.248472	1.000282
508.613540	1.000598
508.978550	1.000461
509.343503	0.999646
509.708398	0.999966
510.073236	1.000191
510.438016	1.000863
510.802738	0.999911
511.167403	1.000183
511.532010	0.999843
511.896561	1.000351
512.261053	1.001131
512.625488	0.999853
512.989866	1.000716
513.354186	0.999988
513.718449	1.000197
514.082655	1.000309
514.446803	1.000084
514.810894	1.000722
515.174927	1.000380
515.538904	1.000534
515.902822	1.000400
516.266684	1.000648
516.630488	1.000802
516.994235	1.000070
517.357925	1.000418
517.721558	1.000721
518.085133	0.999635
518.448651	1.000926
518.812112	1.000463
519.175516	0.999902
519.538863	0.999661
519.902152	0.999420
520.265385	0.999203
520.628560	0.999661
520.991678	1.000268
521.354739	1.000620
521.717743	1.000290
522.080690	1.000263
522.443580	1.000100
522.806413	0.999630
523.169189	0.999774
523.531908	0.999095
523.894569	0.999740
524.257174	1.000042
524.619722	1.000284
524.982213	0.999652
525.344647	1.000074
525.707025	0.999339
526.069345	0.999576
526.431608	0.999366
526.793815	1.000225
527.155964	0.999062
527.518057	1.000109
527.880093	1.000110
528.242072	0.999512
528.603995	0.999439
528.965860	1.000159
529.327669	0.998667
529.689421	0.999333
530.051117	1.000288
530.412755	0.999369
530.774337	0.999586
531.135862	0.999364
531.497331	0.999362
531.858743	0.999930
532.220098	0.999369
532.581396	0.999462
532.942638	1.000224
533.303824	0.999095
533.664953	1.000497
534.026025	0.999358
534.387040	0.999418
534.747999	1.000137
535.108902	0.999710
535.469748	0.999216
535.830537	0.999487
536.191270	0.999057
536.551947	0.998843
536.912567	0.999797
537.273131	1.000239
537.633638	0.998848
537.994089	0.999127
538.354483	0.999338
538.714821	0.999410
539.075103	0.999177
539.435328	0.999046
539.795497	0.998953
540.155609	0.998544
540.515665	0.999225
540.875665	0.999000
541.235609	0.998822
541.595496	0.998544
541.955328	0.998087
542.315102	0.999392
542.674821	0.998595
543.034483	0.998655
543.394090	0.998023
543.753640	0.998907
544.113134	0.998944
544.472571	0.998974
544.831953	0.999018
545.191278	0.998406
545.550548	0.999670
545.909761	0.998200
546.268918	0.998784
546.628019	0.999157
546.987064	0.998435
547.346053	0.999271
547.704986	0.999579
548.063863	0.998887
548.422684	0.998990
548.781449	0.999288
549.140158	0.998565
549.498811	0.998901
549.857408	0.998912
550.215949	0.998914
550.574434	0.998560
550.932864	0.998889
551.291237	0.999408
551.649555	0.998635
552.007817	0.998250
552.366022	0.998105
552.724173	0.999144
553.082267	0.998407
553.440305	0.998594
553.798288	0.998519
554.156215	0.999043
554.514086	0.998762
554.871902	0.998872
555.229661	0.998623
555.587365	0.998972
555.945014	0.998925
556.302606	0.998778
556.660143	0.998925
557.017625	0.998762
557.375050	0.998270
557.732421	0.998873
558.089735	0.998812
558.446994	0.999466
558.804197	0.999103
559.161345	0.999571
559.518437	0.999905
559.875474	0.998080
560.232455	0.998639
560.589381	0.999611
560.946251	0.998266
561.303065	0.998483
561.659825	0.998382
562.016528	0.998197
562.373177	0.998746
562.729770	0.998578
563.086307	0.998960
563.442789	0.998884
563.799216	0.998585
564.155587	0.997811
564.511904	0.997896
564.868164	0.998387
565.224370	0.998748
565.580520	0.998521
565.936615	0.998266
566.292654	0.998500
566.648638	0.997942
567.004567	0.998761
567.360441	0.998873
567.716260	0.998655
568.072023	0.998890
568.427732	0.998842
568.783385	0.999315
569.138982	0.998971
569.494525	0.998432
569.850013	0.998439
570.205445	0.998037
570.560823	0.998479
570.916145	0.998641
571.271412	0.998538
571.626625	0.998321
571.981782	0.998570
572.336884	0.999112
572.691931	0.998752
573.046923	0.998098
573.401860	0.998179
573.756743	0.998781
574.111570	0.998294
574.466342	0.998959
574.821059	0.998643
575.175722	0.998446
575.530330	0.998602
575.884882	0.998545
576.239380	0.999289
576.593823	0.998058
576.948211	0.997817
577.302544	0.997976
577.656823	0.998244
578.011047	0.998490
578.365216	0.997923
578.719330	0.997306
579.073389	0.998646
579.427394	0.997620
579.781344	0.998623
580.135239	0.997878
580.489080	0.997484
580.842866	0.998090
581.196597	0.997712
581.550273	0.997962
581.903895	0.997305
582.257463	0.996748
582.610975	0.997538
582.964434	0.997436
583.317837	0.998083
583.671186	0.997195
584.024481	0.997306
584.377721	0.997316
584.730906	0.996698
585.084037	0.997466
585.437113	0.996987
585.790135	0.996752
586.143103	0.996420
586.496016	0.997218
586.848874	0.996277
587.201679	0.996508
587.554428	0.996783
587.907124	0.996490
588.259765	0.996312
588.612352	0.997469
588.964884	0.996364
589.317362	0.996068
589.669786	0.996070
590.022155	0.996613
590.374470	0.994725
590.726731	0.995348
591.078937	0.995232
591.431090	0.994874
591.783188	0.995315
592.135232	0.995534
592.487222	0.994773
592.839157	0.994582
593.191038	0.995251
593.542866	0.994459
593.894639	0.995029
594.246358	0.993777
594.598022	0.994143
594.949633	0.993599
595.301190	0.993689
595.652692	0.993308
596.004141	0.994320
596.355535	0.993305
596.706876	0.992680
597.058162	0.993045
597.409395	0.992913
597.760573	0.992461
598.111698	0.991897
598.462768	0.991799
598.813785	0.992069
599.164748	0.991978
599.515657	0.991160
599.866511	0.990942
600.217312	0.991308
600.568060	0.991354
600.918753	0.990691
601.269392	0.989967
601.619978	0.989952
601.970510	0.989447
602.320988	0.990331
602.671412	0.988234
603.021783	0.989389
603.372100	0.989522
603.722363	0.988375
604.072572	0.987226
604.422728	0.987645
604.772830	0.987308
605.122878	0.986656
605.472872	0.987113
605.822813	0.985455
606.172701	0.985980
606.522534	0.985273
606.872314	0.984715
607.222041	0.984697
607.571714	0.984200
607.921333	0.983201
608.270899	0.983200
608.620411	0.982144
608.969870	0.982435
609.319276	0.980936
609.668627	0.980682
610.017926	0.979884
610.367171	0.978967
610.716362	0.978740
611.065500	0.977744
611.414585	0.976982
611.763616	0.977823
612.112594	0.976121
612.461518	0.975706
612.810389	0.974285
613.159207	0.974143
613.507971	0.972756
613.856682	0.972924
614.205340	0.972042
614.553945	0.970037
614.902496	0.970455
615.250994	0.968789
615.599439	0.969178
615.947830	0.967362
616.296169	0.965916
616.644454	0.964725
616.992686	0.964352
617.340864	0.963226
617.688990	0.962771
618.037063	0.962161
618.385082	0.960379
618.733048	0.957979
619.080961	0.957664
619.428821	0.956766
619.776628	0.954528
620.124382	0.953245
620.472083	0.951643
620.819731	0.952576
621.167326	0.951190
621.514868	0.950428
621.862357	0.949308
622.209793	0.949290
622.557176	0.946351
622.904506	0.946560
623.251783	0.945371
623.599007	0.944770
623.946179	0.943795
624.293297	0.943265
624.640363	0.942601
624.987376	0.940882
625.334336	0.941054
625.681243	0.939219
626.028097	0.938368
626.374899	0.937648
626.721647	0.936384
627.068343	0.936393
627.414987	0.934173
627.761577	0.932908
628.108115	0.931563
628.454600	0.931436
628.801032	0.928117
629.147412	0.928129
629.493739	0.926470
629.840014	0.925707
630.186236	0.924487
630.532405	0.923091
630.878521	0.920345
631.224585	0.919984
631.570597	0.918619
631.916556	0.916230
632.262462	0.915010
632.608316	0.913577
632.954117	0.911756
633.299866	0.910889
633.645562	0.909876
633.991206	0.909376
634.336797	0.908658
634.682336	0.907019
635.027823	0.906131
635.373257	0.905512
635.718639	0.904045
636.063968	0.902347
636.409245	0.902671
636.754470	0.900951
637.099642	0.900496
637.444762	0.898976
637.789829	0.897743
638.134845	0.896662
638.479808	0.895251
638.824719	0.894508
639.169577	0.893365
639.514383	0.891323
639.859137	0.890469
640.203839	0.889307
640.548489	0.886353
640.893086	0.886551
641.237632	0.884625
641.582125	0.882151
641.926566	0.881347
642.270955	0.879665
642.615292	0.878728
642.959576	0.876845
643.303809	0.875341
643.647990	0.872807
643.992118	0.872422
644.336195	0.871243
644.680219	0.868473
645.024192	0.868626
645.368112	0.863438
645.711981	0.861895
646.055797	0.859738
646.399562	0.857241
646.743274	0.852535
647.086935	0.850707
647.430544	0.849123
647.774101	0.846739
648.117606	0.845431
648.461059	0.843408
648.804460	0.841138
649.147810	0.842396
649.491108	0.841169
649.834354	0.839919
650.177548	0.840158
650.520690	0.839144
650.863781	0.837165
651.206820	0.835391
651.549807	0.836013
651.892742	0.834561
652.235626	0.832981
652.578458	0.831640
652.921238	0.831980
653.263967	0.829742
653.606644	0.830075
653.949269	0.827008
654.291843	0.827318
654.634365	0.824148
654.976836	0.822961
655.319255	0.821578
655.661622	0.820663
656.003938	0.817235
656.346203	0.819067
656.688416	0.815318
657.030577	0.816112
657.372687	0.813803
657.714746	0.812953
658.056753	0.810586
658.398708	0.809788
658.740612	0.809863
659.082465	0.805223
659.424266	0.804834
659.766016	0.802423
660.107715	0.800335
660.449362	0.798446
660.790958	0.797120
661.132503	0.795214
661.473996	0.792772
661.815438	0.792575
662.156829	0.790607
662.498168	0.789787
662.839456	0.788840
663.180693	0.785881
663.521879	0.784711
663.863013	0.783928
664.204097	0.779408
664.545129	0.777419
664.886110	0.775643
665.227040	0.771742
665.567918	0.772725
665.908746	0.769360
666.249522	0.767000
666.590248	0.766477
666.930922	0.763821
667.271545	0.761852
667.612118	0.759802
667.952639	0.759484
668.293109	0.755772
668.633528	0.756086
668.973896	0.754577
669.314213	0.753177
669.654480	0.751052
669.994695	0.750569
670.334859	0.749379
670.674973	0.745792
671.015035	0.745903
671.355047	0.743527
671.695008	0.743047
672.034918	0.742383
672.374777	0.740848
672.714585	0.738727
673.054342	0.738036
673.394049	0.735751
673.733705	0.732473
674.073310	0.730854
674.412864	0.732401
674.752368	0.730210
675.091820	0.728745
675.431223	0.729725
675.770574	0.727911
676.109875	0.728321
676.449125	0.725523
676.788324	0.725775
677.127473	0.727331
677.466571	0.724548
677.805619	0.724093
678.144616	0.722881
678.483562	0.721904
678.822458	0.722161
679.161303	0.721387
679.500098	0.719886
679.838842	0.720074
680.177535	0.718378
680.516179	0.716481
680.854771	0.714451
681.193314	0.709213
681.531805	0.703463
681.870247	0.695198
682.208638	0.690017
682.546978	0.688485
682.885268	0.687328
683.223508	0.689482
683.561697	0.689912
683.899836	0.690460
684.237925	0.690576
684.575963	0.691594
684.913951	0.692435
685.251889	0.686545
685.589776	0.688839
685.927614	0.689074
686.265401	0.683354
686.603137	0.683588
686.940824	0.679219
687.278460	0.676971
687.616046	0.675451
687.953582	0.672180
688.291068	0.672511
688.628504	0.666724
688.965889	0.667829
689.303224	0.669520
689.640510	0.669950
689.977745	0.671469
690.314930	0.675184
690.652065	0.675640
690.989150	0.679716
691.326185	0.680694
691.663170	0.681035
692.000105	0.684790
692.336990	0.687966
692.673825	0.687162
693.010610	0.691033
693.347345	0.693010
693.684030	0.690726
694.020665	0.693027
694.357251	0.699372
694.693786	0.696314
695.030272	0.699231
695.366707	0.698779
695.703093	0.700552
696.039429	0.697081
696.375716	0.696489
696.711952	0.697914
697.048139	0.699038
697.384276	0.698594
697.720363	0.696527
698.056400	0.694842
698.392388	0.698118
698.728326	0.699948
699.064214	0.700761
699.400053	0.699359
699.735842	0.700336
700.071581	0.701186
700.407270	0.702057
700.742910	0.702036
701.078501	0.705603
701.414042	0.704300
701.749533	0.704968
702.084974	0.710389
702.420366	0.703139
702.755709	0.708662
703.091002	0.712808
703.426246	0.705383
703.761440	0.710743
704.096584	0.713662
704.431679	0.709290
704.766725	0.709495
705.101721	0.709914
705.436668	0.704450
705.771565	0.709935
706.106413	0.707944
706.441212	0.701743
706.775961	0.700071
707.110661	0.703063
707.445311	0.699483
707.779913	0.695440
708.114465	0.694645
708.448967	0.692511
708.783421	0.684808
709.117825	0.681232
709.452180	0.681339
709.786485	0.675771
710.120742	0.668295
710.454949	0.670357
710.789107	0.664695
711.123216	0.657720
711.457275	0.660052
711.791286	0.652642
712.125247	0.651017
712.459159	0.660318
712.793023	0.654462
713.126837	0.653271
713.460602	0.653098
713.794318	0.659947
714.127985	0.656157
714.461602	0.662518
714.795171	0.663847
715.128691	0.666725
715.462162	0.671614
715.795584	0.674550
716.128957	0.676060
716.462281	0.679209
716.795556	0.681308
717.128782	0.683894
717.461960	0.689966
717.795088	0.687994
718.128167	0.692960
718.461198	0.698231
718.794180	0.698047
719.127113	0.699159
719.459997	0.701871
719.792833	0.705851
720.125619	0.706184
720.458357	0.710693
720.791046	0.708805
721.123686	0.711583
721.456278	0.717156
721.788821	0.714332
722.121315	0.716530
722.453761	0.720750
722.786158	0.717360
723.118506	0.713542
723.450805	0.720370
723.783056	0.717106
724.115259	0.713135
724.447412	0.711885
724.779518	0.714458
725.111574	0.711540
725.443582	0.708865
725.775542	0.709509
726.107453	0.703112
726.439315	0.702361
726.771129	0.702137
727.102895	0.697531
727.434612	0.690259
727.766281	0.687854
728.097901	0.687803
728.429473	0.687670
728.760996	0.684563
729.092471	0.684286
729.423897	0.686420
729.755276	0.684210
730.086606	0.684107
730.417887	0.679873
730.749120	0.671379
731.080305	0.662807
731.411442	0.659519
731.742530	0.662560
732.073570	0.660542
732.404562	0.653696
732.735506	0.655449
733.066401	0.658319
733.397249	0.664532
733.728048	0.673217
734.058798	0.682561
734.389501	0.690823
734.720156	0.698815
735.050762	0.704666
735.381320	0.704280
735.711831	0.712905
736.042293	0.716791
736.372707	0.712291
736.703073	0.716098
737.033391	0.719364
737.363661	0.715547
737.693883	0.710755
738.024056	0.711330
738.354182	0.711686
738.684260	0.702199
739.014290	0.698823
739.344272	0.699896
739.674207	0.694403
740.004093	0.693272
740.333931	0.694405
740.663722	0.693311
740.993464	0.693162
741.323159	0.695770
741.652806	0.699593
741.982405	0.702991
742.311956	0.705799
742.641460	0.707890
742.970915	0.709883
743.300323	0.716131
743.629683	0.721122
743.958996	0.721987
744.288260	0.725223
744.617477	0.730118
744.946647	0.731922
745.275768	0.735341
745.604842	0.735768
745.933869	0.744630
746.262847	0.744468
746.591778	0.736874
746.920662	0.742624
747.249498	0.749517
747.578286	0.740579
747.907027	0.736747
748.235720	0.738363
748.564365	0.733265
748.892963	0.732567
749.221514	0.735718
749.550017	0.739870
749.878473	0.739011
750.206881	0.744014
750.535242	0.745472
750.863555	0.745191
751.191821	0.745389
751.520039	0.747866
751.848210	0.753046
752.176334	0.745723
752.504411	0.744147
752.832440	0.753119
753.160421	0.756063
753.488356	0.754315
753.816243	0.751227
754.144082	0.758564
754.471875	0.762112
754.799620	0.757738
755.127318	0.757954
755.454969	0.758168
755.782572	0.757501
756.110129	0.761865
756.437638	0.764059
756.765100	0.760572
757.092515	0.759058
757.419882	0.758128
757.747203	0.763279
758.074477	0.762291
758.401703	0.760199
758.728882	0.755338
759.056014	0.754407
759.383099	0.753097
759.710138	0.754924
760.037129	0.751855
760.364073	0.745570
760.690970	0.747057
761.017820	0.751953
761.344623	0.748057
761.671379	0.738618
761.998088	0.727470
762.324751	0.706469
762.651366	0.669160
762.977935	0.608820
763.304456	0.560918
763.630931	0.550759
763.957359	0.585348
764.283740	0.626405
764.610074	0.650741
764.936362	0.679194
765.262602	0.704052
765.588796	0.723252
765.914943	0.740494
766.241044	0.757102
766.567097	0.762161
766.893104	0.771127
767.219064	0.777182
767.544978	0.783104
767.870845	0.794659
768.196665	0.798654
768.522438	0.796339
768.848165	0.796688
769.173846	0.805651
769.499479	0.809839
769.825066	0.813119
770.150607	0.818485
770.476101	0.812825
770.801548	0.813829
771.126949	0.824282
771.452303	0.828011
771.777611	0.826579
772.102872	0.825789
772.428087	0.830197
772.753256	0.833546
773.078378	0.835375
773.403453	0.845307
773.728482	0.848434
774.053465	0.841934
774.378401	0.845978
774.703291	0.853231
775.028135	0.852252
775.352932	0.853977
775.677683	0.856536
776.002388	0.857756
776.327046	0.856445
776.651658	0.859347
776.976224	0.863109
777.300743	0.862935
777.625216	0.864407
777.949643	0.865934
778.274024	0.867415
778.598359	0.867990
778.922647	0.866939
779.246889	0.866727
779.571086	0.871120
779.895236	0.873718
780.219339	0.871208
780.543397	0.867539
780.867409	0.865983
781.191374	0.868233
781.515294	0.869964
781.839167	0.868765
782.162995	0.872284
782.486776	0.868552
782.810511	0.869811
783.134201	0.872578
783.457844	0.870735
783.781441	0.872672
784.104993	0.879410
784.428498	0.879163
784.751958	0.874422
785.075372	0.877565
785.398739	0.880700
785.722061	0.876570
786.045337	0.872445
786.368568	0.877524
786.691752	0.879690
787.014891	0.867040
787.337983	0.856822
787.661030	0.850898
787.984031	0.834967
788.306987	0.822059
788.629897	0.823951
788.952760	0.828039
789.275579	0.831944
789.598351	0.846485
789.921078	0.858636
790.243759	0.860367
790.566395	0.864217
790.888984	0.872106
791.211529	0.876787
791.534027	0.880121
791.856480	0.881608
792.178888	0.887051
792.501249	0.889098
792.823566	0.889122
793.145836	0.890591
793.468062	0.891577
793.790241	0.890606
794.112375	0.889513
794.434464	0.884943
794.756507	0.885630
795.078505	0.885124
795.400457	0.879690
795.722364	0.868878
796.044226	0.862142
796.366042	0.860615
796.687812	0.864218
797.009538	0.859381
797.331218	0.863139
797.652852	0.867512
797.974442	0.872430
798.295986	0.872052
798.617484	0.875148
798.938938	0.878478
799.260346	0.882661
799.581709	0.886030
799.903026	0.887136
800.224299	0.887598
800.545526	0.890662
800.866708	0.896140
801.187845	0.899060
801.508936	0.899083
801.829983	0.897029
802.150984	0.898778
802.471940	0.903963
802.792851	0.902645
803.113717	0.904027
803.434538	0.901938
803.755314	0.905209
804.076045	0.907432
804.396731	0.906266
804.717372	0.906631
805.037967	0.907992
805.358518	0.905205
805.679024	0.902260
805.999485	0.903012
806.319901	0.903862
806.640272	0.904562
806.960598	0.903106
807.280879	0.899798
807.601115	0.897634
807.921306	0.902801
808.241453	0.902438
808.561554	0.899422
808.881611	0.900359
809.201623	0.901915
809.521590	0.902443
809.841513	0.904188
810.161390	0.902446
810.481223	0.903006
810.801011	0.907255
811.120755	0.909210
811.440453	0.908256
811.760107	0.905452
812.079716	0.906548
812.399281	0.909967
812.718801	0.911298
813.038276	0.913069
813.357707	0.912752
813.677093	0.909245
813.996434	0.912679
814.315731	0.912358
814.634983	0.915685
814.954191	0.913728
815.273354	0.910801
815.592473	0.907198
815.911547	0.907719
816.230577	0.904600
816.549562	0.902286
816.868502	0.903225
817.187399	0.898743
817.506250	0.894646
817.825058	0.896997
818.143821	0.893912
818.462539	0.888709
818.781213	0.880985
819.099843	0.869952
819.418429	0.854417
819.736970	0.838337
820.055466	0.819623
820.373919	0.794824
820.692327	0.763601
821.010691	0.730936
821.329011	0.657847
821.647286	0.549118
821.965517	0.440632
822.283704	0.400230
822.601847	0.402093
822.919945	0.435643
823.237999	0.465774
823.556010	0.509684
823.873976	0.563172
824.191897	0.610623
824.509775	0.651360
824.827609	0.695776
825.145398	0.717327
825.463144	0.719312
825.780845	0.702583
826.098502	0.684841
826.416116	0.641031
826.733685	0.598337
827.051210	0.591129
827.368692	0.604896
827.686129	0.640203
828.003522	0.691134
828.320872	0.736750
828.638177	0.778998
828.955439	0.810156
829.272656	0.831284
829.589830	0.847157
829.906960	0.862629
830.224046	0.874457
830.541088	0.884166
830.858086	0.888634
831.175041	0.894079
831.491952	0.893483
831.808819	0.890200
832.125642	0.883759
832.442421	0.869308
832.759157	0.849208
833.075849	0.805146
833.392497	0.743382
833.709101	0.703423
834.025662	0.713205
834.342179	0.743872
834.658653	0.781255
834.975083	0.816103
835.291469	0.841647
835.607811	0.862070
835.924110	0.877187
836.240366	0.893394
836.556578	0.907761
836.872746	0.914153
837.188871	0.919455
837.504952	0.925845
837.820990	0.929306
838.136984	0.931625
838.452935	0.935179
838.768842	0.936542
839.084706	0.928834
839.400526	0.905639
839.716303	0.867131
840.032037	0.845311
840.347727	0.849600
840.663373	0.866849
840.978977	0.886403
841.294537	0.908172
841.610054	0.923392
841.925527	0.931004
842.240957	0.937902
842.556344	0.944074
842.871687	0.950545
843.186987	0.954263
843.502244	0.954082
843.817458	0.956153
844.132629	0.960509
844.447756	0.964137
844.762840	0.964880
845.077881	0.963623
845.392879	0.962968
845.707833	0.966424
846.022745	0.968623
846.337613	0.968517
846.652438	0.970010
846.967221	0.967625
847.281960	0.968942
847.596656	0.970301
847.911309	0.968920
848.225919	0.971303
848.540485	0.970650
848.855009	0.972576
849.169490	0.972398
849.483928	0.972778
849.798323	0.972907
850.112675	0.973217
850.426984	0.972970
850.741251	0.973776
851.055474	0.975061
851.369654	0.970634
851.683792	0.973296
851.997887	0.974289
852.311938	0.974342
852.625947	0.972988
852.939914	0.971365
853.253837	0.971891
853.567718	0.973875
853.881555	0.974021
854.195350	0.971732
854.509103	0.973149
854.822812	0.973189
855.136479	0.973969
855.450103	0.972707
855.763685	0.971675
856.077224	0.971537
856.390720	0.973742
856.704173	0.974399
857.017584	0.971506
857.330953	0.970899
857.644278	0.971433
857.957561	0.973001
858.270802	0.972319
858.584000	0.971871
858.897155	0.971487
859.210268	0.970710
859.523339	0.971587
859.836367	0.973928
860.149352	0.973925
860.462295	0.972819
860.775195	0.973879
861.088054	0.971517
861.400869	0.973062
861.713642	0.973811
862.026373	0.974790
862.339062	0.973364
862.651708	0.972529
862.964312	0.971836
863.276873	0.973372
863.589392	0.972937
863.901869	0.970509
864.214303	0.968649
864.526696	0.968206
864.839045	0.968205
865.151353	0.965465
865.463619	0.966263
865.775842	0.967245
866.088023	0.965727
866.400162	0.967307
866.712258	0.966254
867.024313	0.965740
867.336325	0.967302
867.648296	0.967156
867.960224	0.966431
868.272110	0.964652
868.583954	0.967889
868.895755	0.967674
869.207515	0.966204
869.519233	0.963812
869.830909	0.965243
870.142542	0.968125
870.454134	0.965841
870.765684	0.966023
871.077191	0.962023
871.388657	0.963725
871.700081	0.961058
872.011463	0.963150
872.322803	0.962161
872.634101	0.960464
872.945357	0.958919
873.256571	0.957201
873.567744	0.957642
873.878874	0.958541
874.189963	0.956729
874.501010	0.957041
874.812015	0.955280
875.122979	0.955353
875.433900	0.957929
875.744780	0.958616
876.055618	0.956445
876.366415	0.955005
876.677169	0.955329
876.987882	0.956745
877.298554	0.955987
877.609183	0.952660
877.919771	0.949840
878.230317	0.947202
878.540822	0.944987
878.851285	0.940814
879.161707	0.932839
879.472087	0.922835
879.782425	0.906303
880.092722	0.874666
880.402977	0.825329
880.713191	0.769321
881.023363	0.713986
881.333494	0.682712
881.643583	0.654407
881.953631	0.653325
882.263637	0.680989
882.573602	0.720149
882.883526	0.744078
883.193408	0.765899
883.503248	0.786297
883.813048	0.811915
884.122806	0.841197
884.432522	0.862403
884.742197	0.880718
885.051831	0.890720
885.361424	0.899986
885.670975	0.911181
885.980485	0.921617
886.289954	0.925692
886.599382	0.931709
886.908768	0.935777
887.218113	0.940881
887.527417	0.944218
887.836680	0.948607
888.145901	0.949497
888.455082	0.951788
888.764221	0.956151
889.073319	0.957990
889.382376	0.959106
889.691392	0.959475
890.000366	0.957652
890.309300	0.958296
890.618193	0.957474
890.927044	0.956200
891.235855	0.957221
891.544625	0.955914
891.853353	0.958103
892.162041	0.954703
892.470687	0.948462
892.779293	0.943659
893.087858	0.940222
893.396381	0.933680
893.704864	0.921687
894.013306	0.898916
894.321707	0.873686
894.630068	0.860531
894.938387	0.855850
895.246665	0.857414
895.554903	0.867851
895.863100	0.881453
896.171256	0.896562
896.479371	0.915451
896.787446	0.927732
897.095480	0.931637
897.403473	0.935090
897.711425	0.939607
898.019336	0.945949
898.327207	0.948097
898.635038	0.951692
898.942827	0.949987
899.250576	0.954195
899.558284	0.957767
899.865952	0.960349
900.173579	0.960812
900.481165	0.961072
900.788711	0.964728
901.096216	0.966336
901.403681	0.966740
901.711105	0.968273
902.018489	0.967956
902.325832	0.968283
902.633135	0.966938
902.940397	0.960860
903.247619	0.950492
903.554800	0.925959
903.861941	0.889644
904.169041	0.856236
904.476101	0.841819
904.783121	0.841219
905.090100	0.857149
905.397039	0.876282
905.703938	0.897093
906.010796	0.914647
906.317614	0.930883
906.624391	0.941688
906.931129	0.951398
907.237826	0.956726
907.544483	0.964906
907.851099	0.967349
908.157675	0.971670
908.464211	0.973540
908.770707	0.977583
909.077163	0.977961
909.383578	0.978903
909.689954	0.979036
909.996289	0.980029
910.302584	0.981965
910.608839	0.983178
910.915054	0.981963
911.221229	0.981764
911.527363	0.980735
911.833458	0.980590
912.139513	0.982007
912.445527	0.979335
912.751502	0.978499
913.057436	0.976839
913.363331	0.974642
913.669186	0.970754
913.975000	0.966127
914.280775	0.962166
914.586510	0.954650
914.892205	0.942991
915.197859	0.922863
915.503475	0.897862
915.809050	0.879525
916.114585	0.875507
916.420081	0.873872
916.725536	0.869470
917.030952	0.877243
917.336328	0.888466
917.641665	0.902486
917.946961	0.917529
918.252218	0.928872
918.557435	0.936194
918.862612	0.944203
919.167750	0.949623
919.472848	0.953409
919.777906	0.958745
920.082925	0.963877
920.387904	0.967698
920.692843	0.967904
920.997743	0.969934
921.302603	0.972687
921.607423	0.974515
921.912204	0.977016
922.216946	0.976276
922.521647	0.977456
922.826310	0.980185
923.130932	0.981025
923.435516	0.981812
923.740059	0.983744
924.044564	0.983094
924.349028	0.984053
924.653454	0.986626
924.957840	0.988875
925.262186	0.987978
925.566493	0.986622
925.870761	0.987686
926.174989	0.989670
926.479178	0.991844
926.783328	0.991313
927.087438	0.991536
927.391509	0.991329
927.695541	0.992854
927.999533	0.992952
928.303486	0.992648
928.607400	0.994676
928.911275	0.991850
929.215110	0.993549
929.518906	0.993638
929.822663	0.993869
930.126381	0.994107
930.430060	0.994039
930.733699	0.993585
931.037299	0.993132
931.340861	0.993269
931.644383	0.992016
931.947866	0.992294
932.251309	0.992984
932.554714	0.993377
932.858080	0.993934
933.161407	0.992952
933.464694	0.993857
933.767943	0.992363
934.071153	0.993538
934.374323	0.994677
934.677455	0.993833
934.980548	0.994250
935.283602	0.993611
935.586617	0.994267
935.889593	0.993579
936.192530	0.992142
936.495428	0.994940
936.798287	0.993287
937.101108	0.993180
937.403890	0.991492
937.706632	0.991928
938.009336	0.989977
938.312002	0.989130
938.614628	0.988697
938.917216	0.987234
939.219765	0.984629
939.522275	0.987411
939.824747	0.988015
940.127179	0.985934
940.429573	0.988692
940.731929	0.987336
941.034246	0.988460
941.336524	0.988307
941.638763	0.989456
941.940964	0.989520
942.243126	0.989494
942.545250	0.990029
942.847335	0.991959
943.149381	0.992218
943.451389	0.991445
943.753359	0.992010
944.055290	0.993692
944.357182	0.992207
944.659036	0.990886
944.960851	0.992316
945.262628	0.992327
945.564367	0.993210
945.866067	0.993113
946.167729	0.992181
946.469352	0.993183
946.770937	0.992284
947.072484	0.993333
947.373992	0.993185
947.675462	0.992035
947.976893	0.993357
948.278286	0.993091
948.579641	0.994292
948.880958	0.992586
949.182236	0.993918
949.483476	0.993970
949.784678	0.993386
950.085841	0.994315
950.386967	0.993542
950.688054	0.992904
950.989103	0.993840
951.290114	0.992029
951.591087	0.992458
951.892021	0.992028
952.192917	0.992325
952.493776	0.991023
952.794596	0.992350
953.095378	0.989812
953.396122	0.993032
953.696828	0.990284
953.997496	0.993287
954.298126	0.993441
954.598718	0.993831
954.899272	0.994264
955.199788	0.992848
955.500266	0.995265
955.800706	0.995742
956.101108	0.996113
956.401472	0.994883
956.701798	0.996313
957.002087	0.996076
957.302337	0.996068
957.602550	0.997147
957.902724	0.997595
958.202861	0.997244
958.502960	0.996661
958.803022	0.996334
959.103045	0.997957
959.403031	0.997963
959.702979	0.996719
960.002889	0.998237
960.302762	0.996296
960.602596	0.997710
960.902393	0.997475
961.202153	0.998351
961.501875	0.998690
961.801559	0.998177
962.101205	0.997983
962.400814	0.997545
962.700385	0.999153
962.999918	0.998073
963.299414	0.997690
963.598873	0.998356
963.898293	0.997849
964.197677	0.997240
964.497022	0.998077
964.796331	1.000286
965.095601	0.998773
965.394835	0.998796
965.694030	0.997826
965.993189	0.998694
966.292309	0.998557
966.591393	0.998885
966.890439	0.999282
967.189447	0.998491
967.488419	0.998943
967.787353	0.998548
968.086249	0.998497
968.385108	0.998460
968.683930	0.999192
968.982714	0.998702
969.281462	0.999712
969.580172	0.997383
969.878844	0.999231
970.177480	0.997779
970.476078	0.999295
970.774639	0.998932
971.073162	0.998642
971.371649	0.997138
971.670098	0.997949
971.968510	0.998768
972.266885	0.997373
972.565223	0.997653
972.863524	0.997063
973.161788	0.997922
973.460014	0.998901
973.758204	0.996872
974.056356	0.997154
974.354471	0.996982
974.652550	0.997289
974.950591	0.997923
975.248595	0.998282
975.546563	0.999399
975.844493	1.000767
976.142386	0.997836
976.440243	0.999075
976.738062	0.997627
977.035845	0.999622
977.333590	0.998859
977.631299	0.999460
977.928971	0.999068
978.226606	0.997709
978.524204	0.998417
978.821765	0.999646
979.119290	0.997025
979.416777	0.997955
979.714228	0.999305
980.011642	0.996896
980.309020	0.998229
980.606360	0.998606
980.903664	1.000292
981.200931	0.998283
981.498162	0.996490
981.795356	0.996162
982.092513	0.995848
982.389633	0.996941
982.686717	0.993086
982.983764	0.995415
983.280775	0.992050
983.577749	0.993222
983.874686	0.994711
984.171587	0.993907
984.468451	0.996231
984.765279	0.996815
985.062070	0.996104
985.358824	0.997061
985.655543	0.995706
985.952224	0.997408
986.248869	0.998313
986.545478	0.998333
986.842050	1.000982
987.138586	0.996072
987.435086	0.999389
987.731549	0.999593
988.027975	0.998877
988.324366	0.999300
988.620719	0.998594
988.917037	0.997764
989.213318	0.998694
989.509563	0.999882
989.805772	0.999195
990.101944	1.000479
990.398080	0.997515
990.694180	0.998847
990.990244	0.999328
991.286271	0.999193
991.582262	0.998532
991.878217	0.999164
992.174136	1.000041
992.470019	0.999665
992.765865	0.999306
993.061676	0.999120
993.357450	0.998941
993.653188	0.998036
993.948890	0.998561
994.244556	0.999808
994.540186	0.998382
994.835780	0.998300
995.131337	0.998518
995.426859	0.998834
995.722345	0.998625
996.017795	0.997227
996.313208	0.998497
996.608586	0.996130
996.903928	0.998464
997.199234	0.997502
997.494504	0.997556
997.789738	0.998114
998.084936	0.996811
998.380099	1.000009
998.675225	0.997957
998.970316	0.999058
999.265371	0.999382
999.560390	0.999091
999.855373	0.999239
1000.150320	0.999041
1000.445232	0.999219
1000.740108	0.998322
1001.034948	0.999555
1001.329752	1.000193
1001.624521	0.999526
1001.919254	0.999533
1002.213951	0.999080
1002.508613	0.999430
1002.803239	0.999808
1003.097829	1.000088
1003.392384	1.000646
1003.686903	0.998875
1003.981386	0.998706
1004.275834	0.999910
1004.570246	0.998823
1004.864623	1.001249
1005.158964	1.000381
1005.453270	0.999757
1005.747540	0.998097
1006.041775	0.999271
1006.335974	1.000217
1006.630138	0.999719
1006.924266	1.000308
1007.218359	1.001183
1007.512416	0.999771
1007.806438	1.000439
1008.100425	0.999955
1008.394376	1.000135
1008.688292	0.998857
1008.982172	1.001090
1009.276017	1.000295
1009.569827	0.998622
1009.863602	0.998866
1010.157341	1.000847
1010.451045	1.000362
1010.744714	0.999615
1011.038347	0.999329
1011.331945	0.998433
1011.625508	0.998581
1011.919036	0.999655
1012.212528	0.999853
1012.505986	0.998962
1012.799408	0.999498
1013.092795	0.999553
1013.386147	0.999678
1013.679464	1.000001
1013.972745	0.999271
1014.265992	0.998699
1014.559204	1.000415
1014.852380	0.999937
1015.145521	0.998637
1015.438628	1.000230
1015.731699	0.999881
1016.024736	0.998921
1016.317737	0.999918
1016.610703	0.998919
1016.903635	1.000575
1017.196531	0.999683
1017.489393	0.999465
1017.782219	0.998869
1018.075011	0.999519
1018.367768	0.998651
1018.660490	1.000899
1018.953177	1.000899
1019.245829	1.000899
