Dividing Wavelength (nm)	Counts (n)	Blue Motor Position (mm): 0.000000	Red Motor Position (mm): 22.500000	
326.493990	1.000320
326.888308	1.000320
327.282561	1.000320
327.676750	1.000583
328.070874	0.998277
328.464933	0.999622
328.858929	1.000023
329.252859	1.000340
329.646726	1.000585
330.040528	0.998885
330.434265	0.998750
330.827938	1.001275
331.221547	1.001011
331.615091	1.000868
332.008571	0.999727
332.401986	0.999710
332.795338	1.000072
333.188625	0.998730
333.581847	1.000869
333.975006	0.999222
334.368100	1.000098
334.761129	1.001074
335.154095	1.000755
335.546996	0.998083
335.939833	0.993411
336.332606	0.993649
336.725315	0.994956
337.117960	0.995407
337.510540	0.993330
337.903056	0.995541
338.295508	0.994471
338.687896	0.994300
339.080220	0.994016
339.472480	0.994282
339.864676	0.994598
340.256807	0.995318
340.648875	0.995828
341.040879	0.994414
341.432818	0.994874
341.824694	0.994205
342.216506	0.994721
342.608253	0.994569
342.999937	0.994488
343.391557	0.993054
343.783113	0.995233
344.174605	0.994498
344.566033	0.996076
344.957397	0.993672
345.348697	0.993586
345.739934	0.994515
346.131106	0.993496
346.522215	0.993852
346.913260	0.993209
347.304241	0.994475
347.695159	0.994492
348.086012	0.993160
348.476802	0.993629
348.867528	0.993397
349.258191	0.993133
349.648789	0.995843
350.039324	0.994607
350.429796	0.995198
350.820203	0.994873
351.210548	0.994131
351.600828	0.993808
351.991045	0.993935
352.381198	0.992662
352.771288	0.994025
353.161314	0.993538
353.551276	0.995870
353.941175	0.993849
354.331010	0.994153
354.720782	0.994801
355.110490	0.994698
355.500135	0.994899
355.889717	0.994065
356.279235	0.994169
356.668689	0.994030
357.058080	0.995013
357.447408	0.995239
357.836672	0.994584
358.225873	0.995630
358.615010	0.993258
359.004084	0.995374
359.393095	0.994365
359.782043	0.994408
360.170927	0.993905
360.559748	0.994856
360.948505	0.994091
361.337199	0.995089
361.725830	0.994808
362.114398	0.994012
362.502903	0.994417
362.891344	0.995890
363.279722	0.993549
363.668037	0.993833
364.056289	0.994261
364.444478	0.995882
364.832603	0.995587
365.220665	0.994621
365.608665	0.994822
365.996601	0.994322
366.384474	0.994241
366.772284	0.994632
367.160031	0.993061
367.547715	0.993174
367.935336	0.994774
368.322893	0.993577
368.710388	0.993751
369.097820	0.994623
369.485189	0.993634
369.872495	0.993533
370.259738	0.993700
370.646918	0.995350
371.034035	0.994369
371.421090	0.993568
371.808081	0.993295
372.195010	0.994198
372.581875	0.995935
372.968678	0.994274
373.355418	0.994959
373.742096	0.994371
374.128710	0.996125
374.515262	0.994595
374.901751	0.994762
375.288177	0.995099
375.674540	0.995216
376.060841	0.993966
376.447079	0.995338
376.833254	0.994976
377.219367	0.995482
377.605417	0.995378
377.991404	0.995243
378.377329	0.994308
378.763191	0.993953
379.148991	0.995978
379.534727	0.995096
379.920402	0.995175
380.306013	0.995699
380.691563	0.996874
381.077049	0.995242
381.462474	0.996125
381.847835	0.995678
382.233134	0.995789
382.618371	0.995704
383.003545	0.995464
383.388657	0.996349
383.773706	0.996403
384.158693	0.996312
384.543618	0.995431
384.928480	0.997062
385.313280	0.996694
385.698017	0.996492
386.082692	0.996924
386.467305	0.997291
386.851856	0.996687
387.236344	0.997038
387.620770	0.995135
388.005133	0.996278
388.389435	0.997290
388.773674	0.996661
389.157851	0.996381
389.541965	0.996393
389.926018	0.995934
390.310008	0.997820
390.693936	0.996124
391.077802	0.997012
391.461606	0.996976
391.845348	0.997119
392.229027	0.997447
392.612645	0.996994
392.996200	0.997638
393.379694	0.996554
393.763125	0.997732
394.146494	0.997083
394.529801	0.996766
394.913047	0.997696
395.296230	0.997062
395.679351	0.996847
396.062410	0.997098
396.445408	0.997071
396.828343	0.996617
397.211217	0.996790
397.594028	0.997113
397.976778	0.996256
398.359466	0.997187
398.742092	0.997015
399.124656	0.995476
399.507158	0.996384
399.889598	0.996826
400.271977	0.997385
400.654294	0.997364
401.036549	0.996797
401.418742	0.997410
401.800874	0.996663
402.182944	0.996682
402.564952	0.996883
402.946898	0.997729
403.328783	0.997191
403.710606	0.996794
404.092367	0.996776
404.474067	0.997856
404.855705	0.996352
405.237282	0.996693
405.618797	0.997048
406.000250	0.997015
406.381642	0.997573
406.762972	0.996968
407.144240	0.996947
407.525447	0.997180
407.906593	0.997306
408.287677	0.997684
408.668700	0.997142
409.049661	0.996330
409.430560	0.996369
409.811399	0.996537
410.192176	0.996288
410.572891	0.996363
410.953545	0.996338
411.334138	0.995181
411.714669	0.996492
412.095139	0.996454
412.475547	0.996880
412.855894	0.997210
413.236180	0.996840
413.616405	0.997339
413.996568	0.997628
414.376670	0.996658
414.756711	0.996208
415.136691	0.996437
415.516609	0.996200
415.896466	0.996279
416.276262	0.995510
416.655997	0.995940
417.035670	0.995721
417.415283	0.996792
417.794834	0.996214
418.174324	0.995037
418.553753	0.995676
418.933121	0.995631
419.312428	0.996148
419.691674	0.995583
420.070859	0.995018
420.449983	0.994110
420.829045	0.993885
421.208047	0.994340
421.586988	0.993125
421.965867	0.991874
422.344686	0.991438
422.723444	0.990345
423.102141	0.988621
423.480777	0.987714
423.859352	0.986679
424.237866	0.984781
424.616319	0.983390
424.994712	0.981801
425.373044	0.980056
425.751314	0.978101
426.129524	0.976506
426.507673	0.973278
426.885762	0.970798
427.263789	0.968416
427.641756	0.966551
428.019662	0.964299
428.397508	0.959818
428.775292	0.955856
429.153016	0.952925
429.530679	0.950186
429.908282	0.946499
430.285824	0.942601
430.663305	0.936349
431.040726	0.934961
431.418086	0.932108
431.795385	0.925805
432.172624	0.919732
432.549802	0.916596
432.926920	0.910073
433.303977	0.905024
433.680974	0.899552
434.057910	0.893022
434.434786	0.887294
434.811601	0.882022
435.188355	0.872122
435.565050	0.867637
435.941683	0.860933
436.318257	0.849845
436.694770	0.842643
437.071222	0.835877
437.447614	0.829426
437.823946	0.824685
438.200218	0.813724
438.576429	0.809075
438.952580	0.798812
439.328670	0.789229
439.704700	0.784628
440.080670	0.777726
440.456580	0.759969
440.832429	0.754884
441.208218	0.751957
441.583947	0.739011
441.959616	0.730577
442.335224	0.724303
442.710773	0.712213
443.086261	0.700876
443.461689	0.700604
443.837057	0.686271
444.212365	0.672115
444.587612	0.668183
444.962800	0.653598
445.337927	0.645829
445.712995	0.653663
446.088002	0.622451
446.462949	0.620913
446.837837	0.615485
447.212664	0.601573
447.587431	0.585996
447.962139	0.558560
448.336786	0.523351
448.711374	0.523397
449.085901	0.546734
449.460369	0.540912
449.834776	0.535905
450.209124	0.513723
450.583412	0.500735
450.957640	0.490284
451.331808	0.490932
451.705917	0.502799
452.079965	0.500011
452.453954	0.484249
452.827883	0.484720
453.201752	0.474326
453.575562	0.479075
453.949311	0.463271
454.323001	0.464119
454.696632	0.455974
455.070202	0.444209
455.443713	0.432976
455.817164	0.424433
456.190556	0.416032
456.563888	0.409280
456.937160	0.403307
457.310373	0.414464
457.683526	0.409775
458.056619	0.411753
458.429653	0.409399
458.802628	0.409511
459.175542	0.401333
459.548398	0.382363
459.921194	0.372957
460.293930	0.371240
460.666607	0.347897
461.039224	0.335126
461.411782	0.328660
461.784280	0.325405
462.156719	0.327148
462.529099	0.329188
462.901419	0.343414
463.273680	0.346171
463.645882	0.344074
464.018024	0.348627
464.390106	0.340516
464.762130	0.324543
465.134094	0.307591
465.505999	0.276838
465.877845	0.247138
466.249631	0.233223
466.621358	0.239633
466.993026	0.252439
467.364634	0.257690
467.736184	0.266129
468.107674	0.274266
468.479105	0.273065
468.850477	0.279250
469.221790	0.285633
469.593043	0.295617
469.964238	0.300008
470.335373	0.298949
470.706449	0.297399
471.077467	0.297490
471.448425	0.259732
471.819324	0.235343
472.190164	0.234791
472.560945	0.263005
472.931667	0.284636
473.302330	0.289072
473.672934	0.300599
474.043479	0.288698
474.413965	0.290435
474.784393	0.294013
475.154761	0.288831
475.525070	0.285861
475.895321	0.291569
476.265513	0.286181
476.635645	0.281090
477.005719	0.281432
477.375734	0.277724
477.745691	0.271299
478.115588	0.267232
478.485427	0.260883
478.855207	0.247784
479.224928	0.230418
479.594591	0.218582
479.964194	0.221885
480.333739	0.222936
480.703226	0.224547
481.072653	0.222989
481.442022	0.218688
481.811333	0.214714
482.180584	0.218548
482.549777	0.223790
482.918912	0.226898
483.287988	0.226805
483.657005	0.226153
484.025964	0.232823
484.394864	0.230136
484.763706	0.230712
485.132489	0.235658
485.501213	0.236399
485.869879	0.234671
486.238487	0.238227
486.607036	0.235783
486.975527	0.240544
487.343959	0.236090
487.712333	0.235202
488.080648	0.236766
488.448905	0.235748
488.817104	0.237058
489.185244	0.231668
489.553326	0.228622
489.921350	0.218341
490.289315	0.201040
490.657222	0.195972
491.025070	0.197255
491.392861	0.199171
491.760593	0.204894
492.128267	0.210253
492.495883	0.215918
492.863440	0.222319
493.230939	0.228633
493.598380	0.229842
493.965763	0.231988
494.333088	0.234394
494.700354	0.235543
495.067563	0.234602
495.434713	0.237603
495.801805	0.235565
496.168839	0.237306
496.535815	0.238370
496.902733	0.238362
497.269593	0.239889
497.636395	0.237765
498.003139	0.238163
498.369825	0.241158
498.736453	0.237338
499.103023	0.239175
499.469535	0.238326
499.835989	0.238464
500.202385	0.239293
500.568723	0.242803
500.935003	0.237942
501.301226	0.242135
501.667390	0.236619
502.033497	0.234521
502.399546	0.237211
502.765537	0.239270
503.131470	0.237572
503.497345	0.233856
503.863163	0.242665
504.228923	0.235515
504.594625	0.234495
504.960269	0.239486
505.325856	0.234838
505.691385	0.239251
506.056856	0.235951
506.422270	0.235438
506.787625	0.237808
507.152924	0.235233
507.518164	0.235517
507.883347	0.237384
508.248472	0.239148
508.613540	0.234070
508.978550	0.236638
509.343503	0.237087
509.708398	0.234882
510.073236	0.232475
510.438016	0.232434
510.802738	0.233144
511.167403	0.232445
511.532010	0.234303
511.896561	0.229456
512.261053	0.228515
512.625488	0.230623
512.989866	0.230782
513.354186	0.231181
513.718449	0.233096
514.082655	0.229411
514.446803	0.231519
514.810894	0.229369
515.174927	0.232062
515.538904	0.231454
515.902822	0.228247
516.266684	0.230851
516.630488	0.231921
516.994235	0.230931
517.357925	0.229429
517.721558	0.227545
518.085133	0.227302
518.448651	0.227303
518.812112	0.229382
519.175516	0.229203
519.538863	0.227130
519.902152	0.228518
520.265385	0.225390
520.628560	0.227272
520.991678	0.227659
521.354739	0.226623
521.717743	0.227836
522.080690	0.228212
522.443580	0.225456
522.806413	0.226750
523.169189	0.225466
523.531908	0.224679
523.894569	0.228264
524.257174	0.228274
524.619722	0.226141
524.982213	0.227130
525.344647	0.225791
525.707025	0.226805
526.069345	0.224939
526.431608	0.226431
526.793815	0.224574
527.155964	0.228523
527.518057	0.227686
527.880093	0.228705
528.242072	0.227045
528.603995	0.228952
528.965860	0.230743
529.327669	0.229531
529.689421	0.230592
530.051117	0.231344
530.412755	0.229023
530.774337	0.231337
531.135862	0.231746
531.497331	0.230999
531.858743	0.234021
532.220098	0.230623
532.581396	0.233337
532.942638	0.233587
533.303824	0.234750
533.664953	0.234469
534.026025	0.235907
534.387040	0.234129
534.747999	0.233763
535.108902	0.232834
535.469748	0.237924
535.830537	0.235706
536.191270	0.236257
536.551947	0.235718
536.912567	0.235778
537.273131	0.237715
537.633638	0.237630
537.994089	0.238077
538.354483	0.239352
538.714821	0.236074
539.075103	0.235942
539.435328	0.236614
539.795497	0.240357
540.155609	0.236800
540.515665	0.235145
540.875665	0.240814
541.235609	0.239058
541.595496	0.239474
541.955328	0.235966
542.315102	0.238487
542.674821	0.239583
543.034483	0.239724
543.394090	0.239583
543.753640	0.241272
544.113134	0.236348
544.472571	0.239317
544.831953	0.236374
545.191278	0.240557
545.550548	0.240017
545.909761	0.236780
546.268918	0.237524
546.628019	0.235826
546.987064	0.238695
547.346053	0.240416
547.704986	0.237954
548.063863	0.238678
548.422684	0.238752
548.781449	0.240611
549.140158	0.238026
549.498811	0.241063
549.857408	0.244166
550.215949	0.239052
550.574434	0.241841
550.932864	0.239853
551.291237	0.238757
551.649555	0.240018
552.007817	0.239880
552.366022	0.240606
552.724173	0.241034
553.082267	0.241077
553.440305	0.238157
553.798288	0.242392
554.156215	0.239108
554.514086	0.239698
554.871902	0.242846
555.229661	0.242231
555.587365	0.242505
555.945014	0.245325
556.302606	0.242221
556.660143	0.244474
557.017625	0.241058
557.375050	0.243335
557.732421	0.240523
558.089735	0.242344
558.446994	0.242573
558.804197	0.241515
559.161345	0.241844
559.518437	0.245256
559.875474	0.242839
560.232455	0.242332
560.589381	0.243786
560.946251	0.243554
561.303065	0.241113
561.659825	0.242700
562.016528	0.243923
562.373177	0.246845
562.729770	0.244175
563.086307	0.246090
563.442789	0.244005
563.799216	0.246814
564.155587	0.245785
564.511904	0.246914
564.868164	0.246704
565.224370	0.246735
565.580520	0.248595
565.936615	0.248601
566.292654	0.251398
566.648638	0.248366
567.004567	0.249519
567.360441	0.250022
567.716260	0.251799
568.072023	0.249619
568.427732	0.250224
568.783385	0.252852
569.138982	0.250932
569.494525	0.250501
569.850013	0.253476
570.205445	0.252010
570.560823	0.254491
570.916145	0.256224
571.271412	0.254777
571.626625	0.256040
571.981782	0.256414
572.336884	0.257405
572.691931	0.257008
573.046923	0.258073
573.401860	0.259333
573.756743	0.261042
574.111570	0.259921
574.466342	0.260576
574.821059	0.259546
575.175722	0.262677
575.530330	0.262347
575.884882	0.262574
576.239380	0.264601
576.593823	0.264990
576.948211	0.264612
577.302544	0.267669
577.656823	0.267273
578.011047	0.267700
578.365216	0.268186
578.719330	0.270172
579.073389	0.269711
579.427394	0.271412
579.781344	0.271753
580.135239	0.273642
580.489080	0.272928
580.842866	0.275919
581.196597	0.275806
581.550273	0.274606
581.903895	0.275432
582.257463	0.273967
582.610975	0.277340
582.964434	0.276567
583.317837	0.279298
583.671186	0.279676
584.024481	0.279382
584.377721	0.281645
584.730906	0.282613
585.084037	0.281686
585.437113	0.283672
585.790135	0.282955
586.143103	0.285837
586.496016	0.287204
586.848874	0.284568
587.201679	0.285052
587.554428	0.288683
587.907124	0.287445
588.259765	0.287838
588.612352	0.288658
588.964884	0.292226
589.317362	0.292026
589.669786	0.291545
590.022155	0.290486
590.374470	0.289448
590.726731	0.291906
591.078937	0.296222
591.431090	0.292600
591.783188	0.296778
592.135232	0.297437
592.487222	0.297360
592.839157	0.295539
593.191038	0.297822
593.542866	0.299883
593.894639	0.303442
594.246358	0.301073
594.598022	0.300795
594.949633	0.304632
595.301190	0.305118
595.652692	0.304282
596.004141	0.300531
596.355535	0.308340
596.706876	0.308842
597.058162	0.311456
597.409395	0.308680
597.760573	0.306548
598.111698	0.309540
598.462768	0.310079
598.813785	0.311167
599.164748	0.312732
599.515657	0.313272
599.866511	0.316512
600.217312	0.311525
600.568060	0.316846
600.918753	0.313271
601.269392	0.313960
601.619978	0.317493
601.970510	0.315062
602.320988	0.315330
602.671412	0.313043
603.021783	0.315090
603.372100	0.316770
603.722363	0.316575
604.072572	0.317229
604.422728	0.317155
604.772830	0.319091
605.122878	0.318836
605.472872	0.319113
605.822813	0.317862
606.172701	0.320243
606.522534	0.318113
606.872314	0.317969
607.222041	0.318554
607.571714	0.316995
607.921333	0.318379
608.270899	0.318286
608.620411	0.314757
608.969870	0.318618
609.319276	0.318646
609.668627	0.318264
610.017926	0.317099
610.367171	0.315556
610.716362	0.316296
611.065500	0.316399
611.414585	0.315215
611.763616	0.315689
612.112594	0.316232
612.461518	0.315753
612.810389	0.313209
613.159207	0.315481
613.507971	0.317424
613.856682	0.313147
614.205340	0.314979
614.553945	0.311880
614.902496	0.315730
615.250994	0.313631
615.599439	0.314505
615.947830	0.314010
616.296169	0.314665
616.644454	0.314004
616.992686	0.314243
617.340864	0.312113
617.688990	0.315875
618.037063	0.312295
618.385082	0.314185
618.733048	0.311297
619.080961	0.313267
619.428821	0.312591
619.776628	0.312298
620.124382	0.314129
620.472083	0.314938
620.819731	0.314288
621.167326	0.317710
621.514868	0.317801
621.862357	0.321957
622.209793	0.321453
622.557176	0.323401
622.904506	0.324687
623.251783	0.327109
623.599007	0.328878
623.946179	0.329147
624.293297	0.330578
624.640363	0.334542
624.987376	0.335219
625.334336	0.337754
625.681243	0.340121
626.028097	0.340649
626.374899	0.341733
626.721647	0.341955
627.068343	0.345257
627.414987	0.346190
627.761577	0.348178
628.108115	0.347092
628.454600	0.351807
628.801032	0.349046
629.147412	0.351389
629.493739	0.351472
629.840014	0.354704
630.186236	0.352217
630.532405	0.357463
630.878521	0.354996
631.224585	0.357226
631.570597	0.360725
631.916556	0.359192
632.262462	0.359384
632.608316	0.361717
632.954117	0.362249
633.299866	0.363307
633.645562	0.363190
633.991206	0.367757
634.336797	0.371040
634.682336	0.373323
635.027823	0.374827
635.373257	0.375193
635.718639	0.378482
636.063968	0.377845
636.409245	0.383886
636.754470	0.384387
637.099642	0.386631
637.444762	0.389765
637.789829	0.388489
638.134845	0.392217
638.479808	0.393120
638.824719	0.393531
639.169577	0.397433
639.514383	0.396294
639.859137	0.400286
640.203839	0.400091
640.548489	0.400403
640.893086	0.402085
641.237632	0.403855
641.582125	0.402339
641.926566	0.403624
642.270955	0.403655
642.615292	0.404705
642.959576	0.403381
643.303809	0.403559
643.647990	0.403570
643.992118	0.403750
644.336195	0.407988
644.680219	0.405345
645.024192	0.406400
645.368112	0.400091
645.711981	0.399032
646.055797	0.394640
646.399562	0.396940
646.743274	0.389267
647.086935	0.386420
647.430544	0.386515
647.774101	0.385466
648.117606	0.384962
648.461059	0.385433
648.804460	0.388319
649.147810	0.393073
649.491108	0.395166
649.834354	0.396655
650.177548	0.402074
650.520690	0.407008
650.863781	0.408347
651.206820	0.407761
651.549807	0.412392
651.892742	0.416311
652.235626	0.415834
652.578458	0.416626
652.921238	0.422657
653.263967	0.420615
653.606644	0.424644
653.949269	0.424487
654.291843	0.428160
654.634365	0.424946
654.976836	0.427974
655.319255	0.428537
655.661622	0.430114
656.003938	0.429817
656.346203	0.432930
656.688416	0.430701
657.030577	0.434117
657.372687	0.436075
657.714746	0.436966
658.056753	0.434025
658.398708	0.437554
658.740612	0.438579
659.082465	0.435072
659.424266	0.435432
659.766016	0.434784
660.107715	0.437089
660.449362	0.436504
660.790958	0.436846
661.132503	0.437891
661.473996	0.435154
661.815438	0.436205
662.156829	0.436135
662.498168	0.436964
662.839456	0.438810
663.180693	0.435872
663.521879	0.436333
663.863013	0.437404
664.204097	0.435614
664.545129	0.432269
664.886110	0.432886
665.227040	0.430252
665.567918	0.432658
665.908746	0.430934
666.249522	0.430590
666.590248	0.431463
666.930922	0.429844
667.271545	0.429223
667.612118	0.428352
667.952639	0.430174
668.293109	0.428893
668.633528	0.431484
668.973896	0.431408
669.314213	0.432157
669.654480	0.434141
669.994695	0.434051
670.334859	0.434956
670.674973	0.435165
671.015035	0.435150
671.355047	0.435102
671.695008	0.436278
672.034918	0.437997
672.374777	0.437514
672.714585	0.438589
673.054342	0.438546
673.394049	0.438795
673.733705	0.436433
674.073310	0.437183
674.412864	0.440713
674.752368	0.441072
675.091820	0.440952
675.431223	0.445562
675.770574	0.445554
676.109875	0.448738
676.449125	0.448348
676.788324	0.450718
677.127473	0.455546
677.466571	0.455594
677.805619	0.457331
678.144616	0.458285
678.483562	0.460278
678.822458	0.462335
679.161303	0.463357
679.500098	0.463559
679.838842	0.466249
680.177535	0.465307
680.516179	0.463940
680.854771	0.463144
681.193314	0.457085
681.531805	0.447951
681.870247	0.436392
682.208638	0.428874
682.546978	0.427612
682.885268	0.429801
683.223508	0.435651
683.561697	0.439343
683.899836	0.442185
684.237925	0.445324
684.575963	0.447575
684.913951	0.451171
685.251889	0.447031
685.589776	0.448860
685.927614	0.451972
686.265401	0.445883
686.603137	0.446924
686.940824	0.440751
687.278460	0.439379
687.616046	0.438443
687.953582	0.433486
688.291068	0.435330
688.628504	0.430626
688.965889	0.432792
689.303224	0.437266
689.640510	0.440638
689.977745	0.446631
690.314930	0.454255
690.652065	0.458984
690.989150	0.466700
691.326185	0.473087
691.663170	0.477805
692.000105	0.484886
692.336990	0.491685
692.673825	0.493951
693.010610	0.501546
693.347345	0.506885
693.684030	0.508352
694.020665	0.512939
694.357251	0.521549
694.693786	0.521669
695.030272	0.525309
695.366707	0.528394
695.703093	0.532776
696.039429	0.530277
696.375716	0.531605
696.711952	0.534292
697.048139	0.536369
697.384276	0.538211
697.720363	0.536884
698.056400	0.536348
698.392388	0.541828
698.728326	0.544369
699.064214	0.547258
699.400053	0.547669
699.735842	0.551278
700.071581	0.554676
700.407270	0.557401
700.742910	0.560092
701.078501	0.566081
701.414042	0.566554
701.749533	0.569290
702.084974	0.578294
702.420366	0.570415
702.755709	0.577703
703.091002	0.585739
703.426246	0.579578
703.761440	0.585874
704.096584	0.589925
704.431679	0.587146
704.766725	0.589600
705.101721	0.590490
705.436668	0.587257
705.771565	0.593299
706.106413	0.591207
706.441212	0.586025
706.775961	0.584848
707.110661	0.586826
707.445311	0.584296
707.779913	0.581474
708.114465	0.580213
708.448967	0.576398
708.783421	0.568518
709.117825	0.562768
709.452180	0.562951
709.786485	0.556803
710.120742	0.546646
710.454949	0.548743
710.789107	0.541516
711.123216	0.532272
711.457275	0.533851
711.791286	0.524066
712.125247	0.523886
712.459159	0.534143
712.793023	0.526861
713.126837	0.531404
713.460602	0.531433
713.794318	0.540977
714.127985	0.538742
714.461602	0.549257
714.795171	0.553114
715.128691	0.561128
715.462162	0.567702
715.795584	0.573687
716.128957	0.577101
716.462281	0.582883
716.795556	0.586737
717.128782	0.591340
717.461960	0.601122
717.795088	0.599383
718.128167	0.605462
718.461198	0.614227
718.794180	0.614905
719.127113	0.617810
719.459997	0.621613
719.792833	0.628126
720.125619	0.629258
720.458357	0.635245
720.791046	0.634184
721.123686	0.638104
721.456278	0.645047
721.788821	0.641375
722.121315	0.646409
722.453761	0.649697
722.786158	0.647970
723.118506	0.644237
723.450805	0.652579
723.783056	0.648605
724.115259	0.645608
724.447412	0.645031
724.779518	0.646884
725.111574	0.646184
725.443582	0.641842
725.775542	0.643057
726.107453	0.635895
726.439315	0.635486
726.771129	0.633958
727.102895	0.627166
727.434612	0.620456
727.766281	0.617824
728.097901	0.617953
728.429473	0.617847
728.760996	0.615319
729.092471	0.615161
729.423897	0.619212
729.755276	0.618198
730.086606	0.618785
730.417887	0.612896
730.749120	0.603964
731.080305	0.595241
731.411442	0.590939
731.742530	0.596030
732.073570	0.595035
732.404562	0.587380
732.735506	0.588772
733.066401	0.593446
733.397249	0.602949
733.728048	0.614463
734.058798	0.626116
734.389501	0.637411
734.720156	0.646722
735.050762	0.655151
735.381320	0.655085
735.711831	0.665179
736.042293	0.669718
736.372707	0.665975
736.703073	0.670119
737.033391	0.672956
737.363661	0.669338
737.693883	0.664454
738.024056	0.663857
738.354182	0.664186
738.684260	0.653239
739.014290	0.648827
739.344272	0.650814
739.674207	0.642987
740.004093	0.642787
740.333931	0.642723
740.663722	0.642820
740.993464	0.643690
741.323159	0.648036
741.652806	0.652610
741.982405	0.657839
742.311956	0.662253
742.641460	0.663902
742.970915	0.668393
743.300323	0.675148
743.629683	0.682886
743.958996	0.684310
744.288260	0.688031
744.617477	0.693975
744.946647	0.695541
745.275768	0.700756
745.604842	0.701454
745.933869	0.710737
746.262847	0.711811
746.591778	0.705503
746.920662	0.711739
747.249498	0.717604
747.578286	0.708450
747.907027	0.705110
748.235720	0.705702
748.564365	0.700147
748.892963	0.700491
749.221514	0.703353
749.550017	0.708455
749.878473	0.707725
750.206881	0.714561
750.535242	0.716108
750.863555	0.715497
751.191821	0.716275
751.520039	0.720243
751.848210	0.724459
752.176334	0.717852
752.504411	0.716879
752.832440	0.723769
753.160421	0.727710
753.488356	0.726890
753.816243	0.723393
754.144082	0.732694
754.471875	0.736098
754.799620	0.731835
755.127318	0.732845
755.454969	0.733465
755.782572	0.731521
756.110129	0.737279
756.437638	0.738783
756.765100	0.736372
757.092515	0.733966
757.419882	0.732766
757.747203	0.738047
758.074477	0.736537
758.401703	0.735395
758.728882	0.729877
759.056014	0.729184
759.383099	0.727116
759.710138	0.729382
760.037129	0.725652
760.364073	0.719374
760.690970	0.721379
761.017820	0.727800
761.344623	0.722567
761.671379	0.713835
761.998088	0.701957
762.324751	0.680036
762.651366	0.637636
762.977935	0.571371
763.304456	0.519605
763.630931	0.510344
763.957359	0.548530
764.283740	0.593645
764.610074	0.620707
764.936362	0.651133
765.262602	0.678827
765.588796	0.699846
765.914943	0.717292
766.241044	0.735531
766.567097	0.742273
766.893104	0.751635
767.219064	0.758558
767.544978	0.764808
767.870845	0.777889
768.196665	0.781132
768.522438	0.778961
768.848165	0.780786
769.173846	0.789907
769.499479	0.795037
769.825066	0.797092
770.150607	0.803167
770.476101	0.798249
770.801548	0.799617
771.126949	0.810032
771.452303	0.814345
771.777611	0.813784
772.102872	0.813000
772.428087	0.818256
772.753256	0.820986
773.078378	0.823134
773.403453	0.832221
773.728482	0.836619
774.053465	0.829822
774.378401	0.833534
774.703291	0.841911
775.028135	0.840919
775.352932	0.843319
775.677683	0.845841
776.002388	0.847742
776.327046	0.845490
776.651658	0.849361
776.976224	0.852929
777.300743	0.852576
777.625216	0.855180
777.949643	0.857251
778.274024	0.856818
778.598359	0.858213
778.922647	0.857004
779.246889	0.857806
779.571086	0.862154
779.895236	0.864445
780.219339	0.861393
780.543397	0.857561
780.867409	0.857036
781.191374	0.859273
781.515294	0.861151
781.839167	0.858714
782.162995	0.862475
782.486776	0.859766
782.810511	0.860429
783.134201	0.864422
783.457844	0.861736
783.781441	0.864142
784.104993	0.869645
784.428498	0.870842
784.751958	0.865759
785.075372	0.868684
785.398739	0.872766
785.722061	0.868923
786.045337	0.864280
786.368568	0.869874
786.691752	0.871214
787.014891	0.857272
787.337983	0.848709
787.661030	0.841149
787.984031	0.823936
788.306987	0.811295
788.629897	0.812481
788.952760	0.816346
789.275579	0.821436
789.598351	0.836630
789.921078	0.849387
790.243759	0.852012
790.566395	0.855598
790.888984	0.863743
791.211529	0.868335
791.534027	0.871942
791.856480	0.873973
792.178888	0.879745
792.501249	0.881966
792.823566	0.882422
793.145836	0.882525
793.468062	0.884771
793.790241	0.885520
794.112375	0.883094
794.434464	0.878510
794.756507	0.877641
795.078505	0.877918
795.400457	0.872232
795.722364	0.859533
796.044226	0.852992
796.366042	0.851863
796.687812	0.855624
797.009538	0.851872
797.331218	0.854931
797.652852	0.859321
797.974442	0.864888
798.295986	0.863578
798.617484	0.865926
798.938938	0.871814
799.260346	0.876083
799.581709	0.876917
799.903026	0.881162
800.224299	0.880215
800.545526	0.884577
800.866708	0.888663
801.187845	0.892064
801.508936	0.891731
801.829983	0.890497
802.150984	0.892200
802.471940	0.898154
802.792851	0.897139
803.113717	0.898800
803.434538	0.895684
803.755314	0.898998
804.076045	0.900016
804.396731	0.900202
804.717372	0.899835
805.037967	0.901075
805.358518	0.899161
805.679024	0.896937
805.999485	0.897692
806.319901	0.897266
806.640272	0.898265
806.960598	0.897034
807.280879	0.893788
807.601115	0.891686
807.921306	0.895769
808.241453	0.896540
808.561554	0.894239
808.881611	0.894033
809.201623	0.895902
809.521590	0.897020
809.841513	0.897050
810.161390	0.897034
810.481223	0.897486
810.801011	0.901426
811.120755	0.903662
811.440453	0.900675
811.760107	0.900554
812.079716	0.899415
812.399281	0.904483
812.718801	0.906174
813.038276	0.907105
813.357707	0.906944
813.677093	0.904022
813.996434	0.906500
814.315731	0.908276
814.634983	0.909886
814.954191	0.907801
815.273354	0.905492
815.592473	0.901653
815.911547	0.901105
816.230577	0.899036
816.549562	0.896003
816.868502	0.896910
817.187399	0.892175
817.506250	0.889237
817.825058	0.890992
818.143821	0.886818
818.462539	0.881570
818.781213	0.872753
819.099843	0.862380
819.418429	0.846990
819.736970	0.829494
820.055466	0.810932
820.373919	0.784666
820.692327	0.752173
821.010691	0.717385
821.329011	0.640599
821.647286	0.525470
821.965517	0.411750
822.283704	0.369186
822.601847	0.370718
822.919945	0.406270
823.237999	0.439781
823.556010	0.486181
823.873976	0.541872
824.191897	0.591961
824.509775	0.633916
824.827609	0.679740
825.145398	0.702452
825.463144	0.705703
825.780845	0.688441
826.098502	0.670078
826.416116	0.623964
826.733685	0.580047
827.051210	0.571372
827.368692	0.586787
827.686129	0.623114
828.003522	0.677121
828.320872	0.724291
828.638177	0.767591
828.955439	0.799257
829.272656	0.821789
829.589830	0.839009
829.906960	0.855267
830.224046	0.867877
830.541088	0.877490
830.858086	0.881998
831.175041	0.887380
831.491952	0.887476
831.808819	0.883608
832.125642	0.877114
832.442421	0.861759
832.759157	0.840227
833.075849	0.794431
833.392497	0.730570
833.709101	0.689616
834.025662	0.700115
834.342179	0.731329
834.658653	0.770892
834.975083	0.805702
835.291469	0.832878
835.607811	0.854247
835.924110	0.871839
836.240366	0.887813
836.556578	0.901258
836.872746	0.909595
837.188871	0.914278
837.504952	0.921075
837.820990	0.923619
838.136984	0.926780
838.452935	0.930162
838.768842	0.931132
839.084706	0.925493
839.400526	0.900031
839.716303	0.859410
840.032037	0.837916
840.347727	0.840377
840.663373	0.858684
840.978977	0.879669
841.294537	0.901808
841.610054	0.917906
841.925527	0.926154
842.240957	0.932931
842.556344	0.940915
842.871687	0.946811
843.186987	0.950731
843.502244	0.950761
843.817458	0.952374
844.132629	0.955032
844.447756	0.960351
844.762840	0.960573
845.077881	0.959210
845.392879	0.958756
845.707833	0.962144
846.022745	0.964565
846.337613	0.964580
846.652438	0.966413
846.967221	0.965198
847.281960	0.964733
847.596656	0.967410
847.911309	0.965659
848.225919	0.968076
848.540485	0.968422
848.855009	0.969816
849.169490	0.968964
849.483928	0.969033
849.798323	0.969538
850.112675	0.970147
850.426984	0.969723
850.741251	0.970580
851.055474	0.970249
851.369654	0.966255
851.683792	0.970728
851.997887	0.969783
852.311938	0.970236
852.625947	0.969984
852.939914	0.968113
853.253837	0.969722
853.567718	0.969993
853.881555	0.970437
854.195350	0.967312
854.509103	0.970674
854.822812	0.970850
855.136479	0.969926
855.450103	0.969612
855.763685	0.968320
856.077224	0.968083
856.390720	0.970198
856.704173	0.971212
857.017584	0.968320
857.330953	0.967598
857.644278	0.967517
857.957561	0.968983
858.270802	0.969039
858.584000	0.967531
858.897155	0.966740
859.210268	0.966910
859.523339	0.968345
859.836367	0.970341
860.149352	0.970913
860.462295	0.969317
860.775195	0.971326
861.088054	0.969011
861.400869	0.969318
861.713642	0.970507
862.026373	0.970639
862.339062	0.971257
862.651708	0.967132
862.964312	0.968487
863.276873	0.968826
863.589392	0.969157
863.901869	0.967425
864.214303	0.965469
864.526696	0.964164
864.839045	0.964059
865.151353	0.962343
865.463619	0.962620
865.775842	0.963244
866.088023	0.962524
866.400162	0.962397
866.712258	0.961786
867.024313	0.963855
867.336325	0.963947
867.648296	0.963535
867.960224	0.961671
868.272110	0.962134
868.583954	0.962805
868.895755	0.964014
869.207515	0.961529
869.519233	0.959536
869.830909	0.961304
870.142542	0.962127
870.454134	0.960931
870.765684	0.961422
871.077191	0.957653
871.388657	0.958712
871.700081	0.958580
872.011463	0.958386
872.322803	0.959301
872.634101	0.956789
872.945357	0.954059
873.256571	0.953109
873.567744	0.953044
873.878874	0.954451
874.189963	0.950940
874.501010	0.952114
874.812015	0.949268
875.122979	0.950730
875.433900	0.953079
875.744780	0.953866
876.055618	0.950939
876.366415	0.950375
876.677169	0.948969
876.987882	0.952800
877.298554	0.950367
877.609183	0.948051
877.919771	0.945587
878.230317	0.943057
878.540822	0.940693
878.851285	0.935034
879.161707	0.928683
879.472087	0.915795
879.782425	0.898963
880.092722	0.865622
880.402977	0.813845
880.713191	0.753639
881.023363	0.694845
881.333494	0.661132
881.643583	0.633247
881.953631	0.632824
882.263637	0.661191
882.573602	0.700945
882.883526	0.726413
883.193408	0.749199
883.503248	0.772217
883.813048	0.799058
884.122806	0.827958
884.432522	0.852110
884.742197	0.870624
885.051831	0.881701
885.361424	0.891018
885.670975	0.904437
885.980485	0.913812
886.289954	0.919054
886.599382	0.925552
886.908768	0.928750
887.218113	0.935546
887.527417	0.939130
887.836680	0.941789
888.145901	0.943532
888.455082	0.946904
888.764221	0.951433
889.073319	0.951855
889.382376	0.953303
889.691392	0.953792
890.000366	0.953683
890.309300	0.952928
890.618193	0.953171
890.927044	0.951892
891.235855	0.951007
891.544625	0.952049
891.853353	0.953240
892.162041	0.949649
892.470687	0.943496
892.779293	0.939064
893.087858	0.934417
893.396381	0.926519
893.704864	0.912840
894.013306	0.889982
894.321707	0.864791
894.630068	0.849910
894.938387	0.844056
895.246665	0.845524
895.554903	0.858357
895.863100	0.871251
896.171256	0.888953
896.479371	0.908215
896.787446	0.919952
897.095480	0.926036
897.403473	0.929569
897.711425	0.933233
898.019336	0.940651
898.327207	0.942567
898.635038	0.945357
898.942827	0.945644
899.250576	0.948041
899.558284	0.952217
899.865952	0.954559
900.173579	0.955882
900.481165	0.956386
900.788711	0.960382
901.096216	0.960987
901.403681	0.962404
901.711105	0.963718
902.018489	0.964180
902.325832	0.962756
902.633135	0.961386
902.940397	0.955207
903.247619	0.943484
903.554800	0.920177
903.861941	0.880548
904.169041	0.845642
904.476101	0.827020
904.783121	0.828789
905.090100	0.844692
905.397039	0.865394
905.703938	0.886791
906.010796	0.906804
906.317614	0.923694
906.624391	0.934338
906.931129	0.943829
907.237826	0.951777
907.544483	0.959260
907.851099	0.962762
908.157675	0.968330
908.464211	0.970348
908.770707	0.973269
909.077163	0.974072
909.383578	0.974824
909.689954	0.975845
909.996289	0.975803
910.302584	0.977652
910.608839	0.979864
910.915054	0.979215
911.221229	0.977876
911.527363	0.977323
911.833458	0.977943
912.139513	0.976950
912.445527	0.975237
912.751502	0.973269
913.057436	0.972549
913.363331	0.970601
913.669186	0.967112
913.975000	0.962376
914.280775	0.955584
914.586510	0.948202
914.892205	0.935626
915.197859	0.915235
915.503475	0.887831
915.809050	0.868221
916.114585	0.863258
916.420081	0.860664
916.725536	0.857353
917.030952	0.865141
917.336328	0.877924
917.641665	0.893769
917.946961	0.908264
918.252218	0.919297
918.557435	0.929406
918.862612	0.936303
919.167750	0.942079
919.472848	0.947235
919.777906	0.953417
920.082925	0.958075
920.387904	0.962633
920.692843	0.962487
920.997743	0.963596
921.302603	0.967886
921.607423	0.969423
921.912204	0.971158
922.216946	0.972273
922.521647	0.973758
922.826310	0.974639
923.130932	0.976395
923.435516	0.977275
923.740059	0.979496
924.044564	0.979381
924.349028	0.980851
924.653454	0.982522
924.957840	0.984114
925.262186	0.984912
925.566493	0.983305
925.870761	0.984632
926.174989	0.986403
926.479178	0.988728
926.783328	0.987754
927.087438	0.988419
927.391509	0.986923
927.695541	0.989855
927.999533	0.988447
928.303486	0.988925
928.607400	0.991758
928.911275	0.990029
929.215110	0.990686
929.518906	0.991333
929.822663	0.989654
930.126381	0.991547
930.430060	0.990568
930.733699	0.990208
931.037299	0.989509
931.340861	0.990442
931.644383	0.990206
931.947866	0.988569
932.251309	0.991167
932.554714	0.991299
932.858080	0.990263
933.161407	0.989906
933.464694	0.990285
933.767943	0.989185
934.071153	0.990174
934.374323	0.991967
934.677455	0.991375
934.980548	0.992059
935.283602	0.990873
935.586617	0.990861
935.889593	0.991332
936.192530	0.990510
936.495428	0.991200
936.798287	0.990492
937.101108	0.991571
937.403890	0.989211
937.706632	0.988088
938.009336	0.987141
938.312002	0.985983
938.614628	0.984554
938.917216	0.983186
939.219765	0.981528
939.522275	0.982887
939.824747	0.983326
940.127179	0.983316
940.429573	0.984277
940.731929	0.984026
941.034246	0.984776
941.336524	0.986670
941.638763	0.986669
941.940964	0.985740
942.243126	0.985427
942.545250	0.987538
942.847335	0.988606
943.149381	0.988194
943.451389	0.987576
943.753359	0.988453
944.055290	0.990682
944.357182	0.989755
944.659036	0.987960
944.960851	0.989817
945.262628	0.989724
945.564367	0.990315
945.866067	0.990825
946.167729	0.990338
946.469352	0.988879
946.770937	0.988483
947.072484	0.990214
947.373992	0.990742
947.675462	0.989748
947.976893	0.991105
948.278286	0.990777
948.579641	0.991456
948.880958	0.990358
949.182236	0.990908
949.483476	0.991260
949.784678	0.989555
950.085841	0.991778
950.386967	0.990924
950.688054	0.990623
950.989103	0.992378
951.290114	0.988929
951.591087	0.990591
951.892021	0.989928
952.192917	0.988503
952.493776	0.988964
952.794596	0.987688
953.095378	0.987042
953.396122	0.987849
953.696828	0.987991
953.997496	0.989570
954.298126	0.989294
954.598718	0.990536
954.899272	0.990697
955.199788	0.990566
955.500266	0.990962
955.800706	0.992988
956.101108	0.993638
956.401472	0.993258
956.701798	0.993053
957.002087	0.992475
957.302337	0.993624
957.602550	0.995050
957.902724	0.995023
958.202861	0.995277
958.502960	0.995251
958.803022	0.993886
959.103045	0.995570
959.403031	0.994942
959.702979	0.994818
960.002889	0.996322
960.302762	0.994125
960.602596	0.996533
960.902393	0.994465
961.202153	0.997860
961.501875	0.997339
961.801559	0.995729
962.101205	0.996265
962.400814	0.996053
962.700385	0.996167
962.999918	0.997134
963.299414	0.996613
963.598873	0.995867
963.898293	0.995142
964.197677	0.995526
964.497022	0.997123
964.796331	0.997133
965.095601	0.997174
965.394835	0.995136
965.694030	0.996866
965.993189	0.996604
966.292309	0.996332
966.591393	0.998566
966.890439	0.996920
967.189447	0.997877
967.488419	0.997348
967.787353	0.995361
968.086249	0.996010
968.385108	0.996408
968.683930	0.996108
968.982714	0.996998
969.281462	0.996700
969.580172	0.997354
969.878844	0.997294
970.177480	0.996215
970.476078	0.998036
970.774639	0.996350
971.073162	0.997953
971.371649	0.997629
971.670098	0.996172
971.968510	0.997129
972.266885	0.995350
972.565223	0.997126
972.863524	0.996010
973.161788	0.996460
973.460014	0.997327
973.758204	0.995470
974.056356	0.995908
974.354471	0.994423
974.652550	0.995393
974.950591	0.996961
975.248595	0.995784
975.546563	0.995783
975.844493	0.997862
976.142386	0.997457
976.440243	0.997249
976.738062	0.996781
977.035845	0.998046
977.333590	0.997077
977.631299	0.997683
977.928971	0.996731
978.226606	0.997184
978.524204	0.995937
978.821765	0.998057
979.119290	0.996633
979.416777	0.997259
979.714228	0.997327
980.011642	0.995455
980.309020	0.997211
980.606360	0.998289
980.903664	0.998832
981.200931	0.996378
981.498162	0.994600
981.795356	0.995792
982.092513	0.994773
982.389633	0.994213
982.686717	0.991159
982.983764	0.991647
983.280775	0.990497
983.577749	0.990678
983.874686	0.991275
984.171587	0.990353
984.468451	0.994611
984.765279	0.995365
985.062070	0.994714
985.358824	0.995293
985.655543	0.994690
985.952224	0.995847
986.248869	0.996838
986.545478	0.996072
986.842050	0.998109
987.138586	0.995395
987.435086	0.997682
987.731549	0.998687
988.027975	0.997207
988.324366	0.998329
988.620719	0.997713
988.917037	0.995476
989.213318	0.998536
989.509563	0.998706
989.805772	0.998217
990.101944	0.997962
990.398080	0.997425
990.694180	0.997511
990.990244	0.997263
991.286271	0.997434
991.582262	0.997122
991.878217	0.997100
992.174136	0.998732
992.470019	0.998841
992.765865	0.997905
993.061676	0.997765
993.357450	0.997300
993.653188	0.997183
993.948890	0.997075
994.244556	0.997532
994.540186	0.997266
994.835780	0.996158
995.131337	0.997425
995.426859	0.996738
995.722345	0.998606
996.017795	0.996776
996.313208	0.994968
996.608586	0.996234
996.903928	0.996384
997.199234	0.996202
997.494504	0.997052
997.789738	0.996504
998.084936	0.996786
998.380099	0.998463
998.675225	0.997365
998.970316	0.997595
999.265371	0.998376
999.560390	0.998292
999.855373	0.999179
1000.150320	0.999257
1000.445232	0.998552
1000.740108	0.997708
1001.034948	0.998079
1001.329752	0.999320
1001.624521	0.998600
1001.919254	0.997905
1002.213951	0.997213
1002.508613	0.997368
1002.803239	0.999380
1003.097829	0.999342
1003.392384	0.998688
1003.686903	0.998086
1003.981386	0.998368
1004.275834	0.999111
1004.570246	0.998468
1004.864623	0.998547
1005.158964	0.998718
1005.453270	0.997842
1005.747540	0.996927
1006.041775	0.998199
1006.335974	0.999040
1006.630138	0.999512
1006.924266	0.999351
1007.218359	0.999359
1007.512416	0.999772
1007.806438	0.998634
1008.100425	0.999630
1008.394376	0.997692
1008.688292	0.998936
1008.982172	1.000919
1009.276017	0.999426
1009.569827	0.998988
1009.863602	0.998098
1010.157341	0.999664
1010.451045	0.998944
1010.744714	0.999045
1011.038347	0.997959
1011.331945	0.997700
1011.625508	0.997704
1011.919036	0.998302
1012.212528	0.999135
1012.505986	0.997795
1012.799408	0.999464
1013.092795	0.999489
1013.386147	0.999771
1013.679464	0.998603
1013.972745	0.998657
1014.265992	0.996610
1014.559204	0.998628
1014.852380	0.999172
1015.145521	0.999510
1015.438628	0.998080
1015.731699	0.999254
1016.024736	0.999359
1016.317737	0.999080
1016.610703	0.998710
1016.903635	1.000146
1017.196531	0.998332
1017.489393	0.999101
1017.782219	0.998600
1018.075011	0.997909
1018.367768	0.999023
1018.660490	0.998736
1018.953177	0.998736
1019.245829	0.998736
