Dividing Wavelength (nm)	Counts (n)	Blue Motor Position (mm): 0.000000	Red Motor Position (mm): 8.800000	
326.493990	1.001641
326.888308	1.001641
327.282561	1.001641
327.676750	1.001194
328.070874	1.000437
328.464933	1.000522
328.858929	0.999904
329.252859	1.000099
329.646726	1.000542
330.040528	1.001447
330.434265	0.999148
330.827938	1.001626
331.221547	1.000822
331.615091	1.001631
332.008571	1.001098
332.401986	1.001406
332.795338	1.000784
333.188625	0.999786
333.581847	1.001266
333.975006	1.000763
334.368100	1.000556
334.761129	1.000099
335.154095	1.002227
335.546996	1.000098
335.939833	0.993318
336.332606	0.993075
336.725315	0.995459
337.117960	0.995749
337.510540	0.993936
337.903056	0.995827
338.295508	0.994933
338.687896	0.993974
339.080220	0.994837
339.472480	0.993529
339.864676	0.993918
340.256807	0.994364
340.648875	0.994834
341.040879	0.995412
341.432818	0.993992
341.824694	0.994341
342.216506	0.993907
342.608253	0.995017
342.999937	0.993176
343.391557	0.994546
343.783113	0.994242
344.174605	0.993767
344.566033	0.994294
344.957397	0.992144
345.348697	0.993726
345.739934	0.993855
346.131106	0.994630
346.522215	0.993820
346.913260	0.992957
347.304241	0.994027
347.695159	0.994192
348.086012	0.992963
348.476802	0.993200
348.867528	0.994234
349.258191	0.991875
349.648789	0.994521
350.039324	0.994029
350.429796	0.994598
350.820203	0.994664
351.210548	0.993818
351.600828	0.994190
351.991045	0.992725
352.381198	0.993016
352.771288	0.993639
353.161314	0.992991
353.551276	0.995315
353.941175	0.993927
354.331010	0.993339
354.720782	0.994702
355.110490	0.994830
355.500135	0.993799
355.889717	0.994126
356.279235	0.993211
356.668689	0.994239
357.058080	0.993479
357.447408	0.994785
357.836672	0.994118
358.225873	0.994961
358.615010	0.994145
359.004084	0.994735
359.393095	0.993463
359.782043	0.993089
360.170927	0.994569
360.559748	0.994914
360.948505	0.992879
361.337199	0.993418
361.725830	0.994018
362.114398	0.992264
362.502903	0.993028
362.891344	0.993514
363.279722	0.992372
363.668037	0.994134
364.056289	0.992617
364.444478	0.994570
364.832603	0.993104
365.220665	0.992611
365.608665	0.992611
365.996601	0.993054
366.384474	0.992114
366.772284	0.993107
367.160031	0.991997
367.547715	0.992372
367.935336	0.992141
368.322893	0.991698
368.710388	0.992044
369.097820	0.992239
369.485189	0.992072
369.872495	0.991510
370.259738	0.989247
370.646918	0.994387
371.034035	0.991751
371.421090	0.991979
371.808081	0.992455
372.195010	0.992479
372.581875	0.991238
372.968678	0.991473
373.355418	0.991816
373.742096	0.990962
374.128710	0.992292
374.515262	0.991061
374.901751	0.991870
375.288177	0.990684
375.674540	0.991630
376.060841	0.990413
376.447079	0.990077
376.833254	0.988960
377.219367	0.988763
377.605417	0.986574
377.991404	0.985220
378.377329	0.982331
378.763191	0.979733
379.148991	0.978604
379.534727	0.974764
379.920402	0.970362
380.306013	0.969189
380.691563	0.964816
381.077049	0.959761
381.462474	0.956287
381.847835	0.950307
382.233134	0.944996
382.618371	0.941689
383.003545	0.932931
383.388657	0.926834
383.773706	0.921224
384.158693	0.914263
384.543618	0.906061
384.928480	0.899988
385.313280	0.889761
385.698017	0.885423
386.082692	0.874605
386.467305	0.867618
386.851856	0.856905
387.236344	0.849883
387.620770	0.838924
388.005133	0.831030
388.389435	0.822321
388.773674	0.812989
389.157851	0.802320
389.541965	0.793758
389.926018	0.792579
390.310008	0.778575
390.693936	0.768896
391.077802	0.758147
391.461606	0.752728
391.845348	0.738187
392.229027	0.734407
392.612645	0.726884
392.996200	0.711259
393.379694	0.700472
393.763125	0.687092
394.146494	0.686703
394.529801	0.673744
394.913047	0.663196
395.296230	0.663149
395.679351	0.651581
396.062410	0.644532
396.445408	0.643509
396.828343	0.635913
397.211217	0.628764
397.594028	0.638206
397.976778	0.625348
398.359466	0.619570
398.742092	0.613592
399.124656	0.623634
399.507158	0.610918
399.889598	0.605967
400.271977	0.596111
400.654294	0.600137
401.036549	0.596837
401.418742	0.601030
401.800874	0.585687
402.182944	0.582908
402.564952	0.573938
402.946898	0.575480
403.328783	0.575079
403.710606	0.586955
404.092367	0.561158
404.474067	0.566078
404.855705	0.563683
405.237282	0.573664
405.618797	0.559285
406.000250	0.555229
406.381642	0.545565
406.762972	0.550225
407.144240	0.549069
407.525447	0.549937
407.906593	0.542148
408.287677	0.536702
408.668700	0.545026
409.049661	0.538865
409.430560	0.534461
409.811399	0.542849
410.192176	0.524390
410.572891	0.531036
410.953545	0.520253
411.334138	0.532932
411.714669	0.525325
412.095139	0.537035
412.475547	0.522460
412.855894	0.523030
413.236180	0.522928
413.616405	0.528468
413.996568	0.518987
414.376670	0.524947
414.756711	0.529248
415.136691	0.526541
415.516609	0.518169
415.896466	0.514179
416.276262	0.510445
416.655997	0.512233
417.035670	0.493216
417.415283	0.485300
417.794834	0.490187
418.174324	0.495368
418.553753	0.504934
418.933121	0.486658
419.312428	0.480133
419.691674	0.485841
420.070859	0.475018
420.449983	0.482434
420.829045	0.472359
421.208047	0.481088
421.586988	0.474764
421.965867	0.473672
422.344686	0.461812
422.723444	0.475496
423.102141	0.491179
423.480777	0.464792
423.859352	0.485272
424.237866	0.462075
424.616319	0.462927
424.994712	0.454441
425.373044	0.463833
425.751314	0.452276
426.129524	0.468347
426.507673	0.452977
426.885762	0.446343
427.263789	0.451581
427.641756	0.461430
428.019662	0.451581
428.397508	0.450562
428.775292	0.454531
429.153016	0.446628
429.530679	0.453113
429.908282	0.446445
430.285824	0.456027
430.663305	0.435034
431.040726	0.455929
431.418086	0.456183
431.795385	0.447330
432.172624	0.446449
432.549802	0.447202
432.926920	0.445458
433.303977	0.444999
433.680974	0.442761
434.057910	0.440703
434.434786	0.440558
434.811601	0.443031
435.188355	0.425112
435.565050	0.434097
435.941683	0.435427
436.318257	0.420450
436.694770	0.420384
437.071222	0.419232
437.447614	0.423066
437.823946	0.429620
438.200218	0.419623
438.576429	0.428994
438.952580	0.422365
439.328670	0.419161
439.704700	0.425215
440.080670	0.426564
440.456580	0.407770
440.832429	0.415954
441.208218	0.426899
441.583947	0.415835
441.959616	0.415170
442.335224	0.420660
442.710773	0.411132
443.086261	0.408715
443.461689	0.423644
443.837057	0.413252
444.212365	0.403133
444.587612	0.410057
444.962800	0.400385
445.337927	0.401467
445.712995	0.427981
446.088002	0.390190
446.462949	0.399952
446.837837	0.405078
447.212664	0.393697
447.587431	0.385559
447.962139	0.356120
448.336786	0.315338
448.711374	0.325775
449.085901	0.369669
449.460369	0.374105
449.834776	0.377251
450.209124	0.356570
450.583412	0.349692
450.957640	0.342239
451.331808	0.353471
451.705917	0.377470
452.079965	0.381367
452.453954	0.369906
452.827883	0.376415
453.201752	0.371349
453.575562	0.382855
453.949311	0.371797
454.323001	0.377777
454.696632	0.373408
455.070202	0.365862
455.443713	0.357660
455.817164	0.352921
456.190556	0.348080
456.563888	0.345396
456.937160	0.343228
457.310373	0.359738
457.683526	0.359061
458.056619	0.364617
458.429653	0.365231
458.802628	0.368057
459.175542	0.362613
459.548398	0.345305
459.921194	0.337571
460.293930	0.338175
460.666607	0.315260
461.039224	0.303617
461.411782	0.299788
461.784280	0.298829
462.156719	0.303115
462.529099	0.307396
462.901419	0.322941
463.273680	0.327674
463.645882	0.327356
464.018024	0.333201
464.390106	0.326004
464.762130	0.310650
465.134094	0.293783
465.505999	0.263019
465.877845	0.233631
466.249631	0.220536
466.621358	0.227979
466.993026	0.241965
467.364634	0.248054
467.736184	0.256835
468.107674	0.265300
468.479105	0.264175
468.850477	0.271289
469.221790	0.277941
469.593043	0.288292
469.964238	0.293180
470.335373	0.292377
470.706449	0.290602
471.077467	0.291187
471.448425	0.253034
471.819324	0.229236
472.190164	0.228237
472.560945	0.256951
472.931667	0.279234
473.302330	0.283433
473.672934	0.295190
474.043479	0.283566
474.413965	0.285414
474.784393	0.288688
475.154761	0.283747
475.525070	0.280582
475.895321	0.286564
476.265513	0.280612
476.635645	0.276030
477.005719	0.276075
477.375734	0.272610
477.745691	0.266135
478.115588	0.262357
478.485427	0.255972
478.855207	0.242853
479.224928	0.225140
479.594591	0.213781
479.964194	0.216898
480.333739	0.218015
480.703226	0.219709
481.072653	0.218052
481.442022	0.213646
481.811333	0.210179
482.180584	0.213649
482.549777	0.218892
482.918912	0.222418
483.287988	0.222043
483.657005	0.221698
484.025964	0.228106
484.394864	0.225704
484.763706	0.226270
485.132489	0.231143
485.501213	0.231939
485.869879	0.230164
486.238487	0.233384
486.607036	0.231308
486.975527	0.235772
487.343959	0.231711
487.712333	0.230523
488.080648	0.232635
488.448905	0.231555
488.817104	0.232771
489.185244	0.227244
489.553326	0.224117
489.921350	0.213998
490.289315	0.196822
490.657222	0.191448
491.025070	0.192757
491.392861	0.194957
491.760593	0.200508
492.128267	0.206220
492.495883	0.211485
492.863440	0.217830
493.230939	0.224189
493.598380	0.225601
493.965763	0.227856
494.333088	0.230136
494.700354	0.231501
495.067563	0.230454
495.434713	0.233841
495.801805	0.231683
496.168839	0.233272
496.535815	0.234606
496.902733	0.234590
497.269593	0.236082
497.636395	0.234162
498.003139	0.234355
498.369825	0.237188
498.736453	0.233799
499.103023	0.234990
499.469535	0.234546
499.835989	0.234738
500.202385	0.235561
500.568723	0.238880
500.935003	0.234085
501.301226	0.238491
501.667390	0.232842
502.033497	0.230533
502.399546	0.233927
502.765537	0.235532
503.131470	0.234030
503.497345	0.230365
503.863163	0.238875
504.228923	0.232158
504.594625	0.230898
504.960269	0.236110
505.325856	0.231193
505.691385	0.235402
506.056856	0.232716
506.422270	0.231830
506.787625	0.234456
507.152924	0.231716
507.518164	0.231969
507.883347	0.234003
508.248472	0.235600
508.613540	0.230629
508.978550	0.233219
509.343503	0.233269
509.708398	0.231038
510.073236	0.229024
510.438016	0.228681
510.802738	0.229769
511.167403	0.228893
511.532010	0.230566
511.896561	0.226100
512.261053	0.224959
512.625488	0.227238
512.989866	0.227220
513.354186	0.227571
513.718449	0.229175
514.082655	0.226033
514.446803	0.227993
514.810894	0.225963
515.174927	0.228410
515.538904	0.227939
515.902822	0.224860
516.266684	0.226974
516.630488	0.228092
516.994235	0.227029
517.357925	0.225820
517.721558	0.224318
518.085133	0.223795
518.448651	0.223916
518.812112	0.226118
519.175516	0.225666
519.538863	0.223345
519.902152	0.224932
520.265385	0.221669
520.628560	0.223354
520.991678	0.223939
521.354739	0.222883
521.717743	0.223838
522.080690	0.224829
522.443580	0.221699
522.806413	0.222817
523.169189	0.221850
523.531908	0.220936
523.894569	0.224532
524.257174	0.224352
524.619722	0.222006
524.982213	0.223162
525.344647	0.222096
525.707025	0.223014
526.069345	0.221035
526.431608	0.222849
526.793815	0.221012
527.155964	0.224787
527.518057	0.223709
527.880093	0.224994
528.242072	0.223479
528.603995	0.225215
528.965860	0.226967
529.327669	0.225886
529.689421	0.227037
530.051117	0.227714
530.412755	0.225491
530.774337	0.227905
531.135862	0.227701
531.497331	0.227375
531.858743	0.230026
532.220098	0.226824
532.581396	0.229507
532.942638	0.230231
533.303824	0.230867
533.664953	0.230860
534.026025	0.232289
534.387040	0.230577
534.747999	0.230324
535.108902	0.229424
535.469748	0.234119
535.830537	0.231982
536.191270	0.232374
536.551947	0.231994
536.912567	0.231976
537.273131	0.233729
537.633638	0.233942
537.994089	0.234281
538.354483	0.235283
538.714821	0.232397
539.075103	0.232018
539.435328	0.232880
539.795497	0.236665
540.155609	0.233049
540.515665	0.231365
540.875665	0.237111
541.235609	0.235524
541.595496	0.235529
541.955328	0.232250
542.315102	0.234854
542.674821	0.235891
543.034483	0.235867
543.394090	0.235657
543.753640	0.237338
544.113134	0.232427
544.472571	0.235951
544.831953	0.232623
545.191278	0.236759
545.550548	0.236159
545.909761	0.232932
546.268918	0.233683
546.628019	0.231994
546.987064	0.234983
547.346053	0.236587
547.704986	0.234415
548.063863	0.234399
548.422684	0.234892
548.781449	0.236846
549.140158	0.234452
549.498811	0.237402
549.857408	0.240783
550.215949	0.235325
550.574434	0.238091
550.932864	0.236291
551.291237	0.234884
551.649555	0.236003
552.007817	0.235927
552.366022	0.236842
552.724173	0.236800
553.082267	0.237596
553.440305	0.234346
553.798288	0.238722
554.156215	0.235322
554.514086	0.235861
554.871902	0.239119
555.229661	0.238498
555.587365	0.238804
555.945014	0.241536
556.302606	0.238237
556.660143	0.240787
557.017625	0.237406
557.375050	0.239694
557.732421	0.236670
558.089735	0.238535
558.446994	0.238681
558.804197	0.237972
559.161345	0.237789
559.518437	0.241671
559.875474	0.238917
560.232455	0.238667
560.589381	0.239515
560.946251	0.239431
561.303065	0.237067
561.659825	0.238515
562.016528	0.240062
562.373177	0.242888
562.729770	0.240321
563.086307	0.242299
563.442789	0.240146
563.799216	0.243186
564.155587	0.241796
564.511904	0.243195
564.868164	0.242814
565.224370	0.242773
565.580520	0.244706
565.936615	0.244448
566.292654	0.247262
566.648638	0.244425
567.004567	0.245286
567.360441	0.245868
567.716260	0.247877
568.072023	0.245784
568.427732	0.246471
568.783385	0.249222
569.138982	0.246917
569.494525	0.246867
569.850013	0.249723
570.205445	0.248005
570.560823	0.250522
570.916145	0.252543
571.271412	0.250518
571.626625	0.252185
571.981782	0.252616
572.336884	0.253603
572.691931	0.253245
573.046923	0.254421
573.401860	0.255805
573.756743	0.257363
574.111570	0.256205
574.466342	0.256663
574.821059	0.255999
575.175722	0.258722
575.530330	0.258642
575.884882	0.258729
576.239380	0.260898
576.593823	0.261539
576.948211	0.260779
577.302544	0.264103
577.656823	0.263923
578.011047	0.263769
578.365216	0.264333
578.719330	0.266471
579.073389	0.266364
579.427394	0.267373
579.781344	0.268110
580.135239	0.269501
580.489080	0.269413
580.842866	0.272530
581.196597	0.272446
581.550273	0.271098
581.903895	0.271779
582.257463	0.270148
582.610975	0.273651
582.964434	0.272428
583.317837	0.275189
583.671186	0.275579
584.024481	0.275683
584.377721	0.278039
584.730906	0.278935
585.084037	0.277727
585.437113	0.279841
585.790135	0.279160
586.143103	0.282393
586.496016	0.283177
586.848874	0.280941
587.201679	0.281207
587.554428	0.284706
587.907124	0.283561
588.259765	0.284469
588.612352	0.284882
588.964884	0.288586
589.317362	0.288273
589.669786	0.288407
590.022155	0.286652
590.374470	0.286022
590.726731	0.287774
591.078937	0.292828
591.431090	0.289229
591.783188	0.293306
592.135232	0.293753
592.487222	0.293520
592.839157	0.292035
593.191038	0.294367
593.542866	0.296221
593.894639	0.299886
594.246358	0.297890
594.598022	0.297024
594.949633	0.300807
595.301190	0.301305
595.652692	0.300665
596.004141	0.297024
596.355535	0.304577
596.706876	0.305687
597.058162	0.308089
597.409395	0.305208
597.760573	0.302828
598.111698	0.305998
598.462768	0.306405
598.813785	0.307967
599.164748	0.309359
599.515657	0.309412
599.866511	0.312970
600.217312	0.308142
600.568060	0.313721
600.918753	0.309840
601.269392	0.310552
601.619978	0.313841
601.970510	0.311656
602.320988	0.311746
602.671412	0.309734
603.021783	0.311790
603.372100	0.313410
603.722363	0.312823
604.072572	0.313974
604.422728	0.313543
604.772830	0.315378
605.122878	0.315178
605.472872	0.315884
605.822813	0.314198
606.172701	0.317012
606.522534	0.314413
606.872314	0.314273
607.222041	0.315178
607.571714	0.313153
607.921333	0.314801
608.270899	0.314519
608.620411	0.311071
608.969870	0.315240
609.319276	0.315099
609.668627	0.315093
610.017926	0.313176
610.367171	0.312174
610.716362	0.312737
611.065500	0.312997
611.414585	0.312026
611.763616	0.312363
612.112594	0.312852
612.461518	0.312375
612.810389	0.310028
613.159207	0.312289
613.507971	0.314095
613.856682	0.309648
614.205340	0.311632
614.553945	0.308356
614.902496	0.312342
615.250994	0.310017
615.599439	0.311008
615.947830	0.309837
616.296169	0.311274
616.644454	0.310550
616.992686	0.310909
617.340864	0.308466
617.688990	0.312342
618.037063	0.308897
618.385082	0.310498
618.733048	0.307764
619.080961	0.309767
619.428821	0.309260
619.776628	0.308939
620.124382	0.310614
620.472083	0.311129
620.819731	0.310709
621.167326	0.314208
621.514868	0.314367
621.862357	0.318220
622.209793	0.318069
622.557176	0.320146
622.904506	0.321315
623.251783	0.323831
623.599007	0.326079
623.946179	0.325748
624.293297	0.327492
624.640363	0.331432
624.987376	0.332097
625.334336	0.334395
625.681243	0.336789
626.028097	0.337611
626.374899	0.338171
626.721647	0.338326
627.068343	0.342062
627.414987	0.342910
627.761577	0.345075
628.108115	0.343296
628.454600	0.348149
628.801032	0.345505
629.147412	0.347620
629.493739	0.348181
629.840014	0.351264
630.186236	0.349088
630.532405	0.354325
630.878521	0.351331
631.224585	0.353783
631.570597	0.357820
631.916556	0.356370
632.262462	0.356043
632.608316	0.358253
632.954117	0.358859
633.299866	0.359827
633.645562	0.360433
633.991206	0.364668
634.336797	0.367532
634.682336	0.369529
635.027823	0.371785
635.373257	0.372159
635.718639	0.375616
636.063968	0.375175
636.409245	0.381392
636.754470	0.381185
637.099642	0.383399
637.444762	0.386685
637.789829	0.386183
638.134845	0.389500
638.479808	0.390260
638.824719	0.390035
639.169577	0.394190
639.514383	0.392954
639.859137	0.397591
640.203839	0.397390
640.548489	0.397974
640.893086	0.399485
641.237632	0.400934
641.582125	0.399400
641.926566	0.400388
642.270955	0.400992
642.615292	0.401144
642.959576	0.400198
643.303809	0.400788
643.647990	0.400410
643.992118	0.400929
644.336195	0.404522
644.680219	0.402868
645.024192	0.403877
645.368112	0.396971
645.711981	0.396425
646.055797	0.391354
646.399562	0.393852
646.743274	0.386161
647.086935	0.383099
647.430544	0.383620
647.774101	0.382753
648.117606	0.382393
648.461059	0.382275
648.804460	0.385050
649.147810	0.389906
649.491108	0.391863
649.834354	0.392692
650.177548	0.398461
650.520690	0.404261
650.863781	0.405666
651.206820	0.404743
651.549807	0.408909
651.892742	0.413348
652.235626	0.412692
652.578458	0.413560
652.921238	0.420038
653.263967	0.417524
653.606644	0.421241
653.949269	0.420997
654.291843	0.425211
654.634365	0.422225
654.976836	0.425248
655.319255	0.425084
655.661622	0.426754
656.003938	0.426976
656.346203	0.430004
656.688416	0.427370
657.030577	0.431128
657.372687	0.433307
657.714746	0.433694
658.056753	0.431121
658.398708	0.434813
658.740612	0.436258
659.082465	0.432533
659.424266	0.432936
659.766016	0.431995
660.107715	0.435153
660.449362	0.433568
660.790958	0.434255
661.132503	0.434923
661.473996	0.433042
661.815438	0.433511
662.156829	0.433317
662.498168	0.434425
662.839456	0.436144
663.180693	0.433169
663.521879	0.433868
663.863013	0.434452
664.204097	0.433089
664.545129	0.430245
664.886110	0.430220
665.227040	0.427007
665.567918	0.429830
665.908746	0.427955
666.249522	0.427668
666.590248	0.428619
666.930922	0.426877
667.271545	0.425922
667.612118	0.426024
667.952639	0.427414
668.293109	0.425810
668.633528	0.429389
668.973896	0.428485
669.314213	0.429147
669.654480	0.430546
669.994695	0.431512
670.334859	0.432238
670.674973	0.432095
671.015035	0.432229
671.355047	0.432236
671.695008	0.433195
672.034918	0.435387
672.374777	0.434426
672.714585	0.435692
673.054342	0.435415
673.394049	0.435757
673.733705	0.433572
674.073310	0.434616
674.412864	0.437626
674.752368	0.438176
675.091820	0.438169
675.431223	0.442629
675.770574	0.442772
676.109875	0.445797
676.449125	0.445917
676.788324	0.447765
677.127473	0.453340
677.466571	0.453255
677.805619	0.455160
678.144616	0.455696
678.483562	0.457774
678.822458	0.460138
679.161303	0.460906
679.500098	0.461438
679.838842	0.463074
680.177535	0.462841
680.516179	0.461374
680.854771	0.460483
681.193314	0.453804
681.531805	0.444747
681.870247	0.433424
682.208638	0.426148
682.546978	0.425348
682.885268	0.426711
683.223508	0.433149
683.561697	0.436382
683.899836	0.439615
684.237925	0.442997
684.575963	0.445248
684.913951	0.448357
685.251889	0.444211
685.589776	0.446009
685.927614	0.448288
686.265401	0.442973
686.603137	0.444326
686.940824	0.438099
687.278460	0.436894
687.616046	0.435611
687.953582	0.430511
688.291068	0.432266
688.628504	0.427961
688.965889	0.430187
689.303224	0.434325
689.640510	0.437920
689.977745	0.443669
690.314930	0.451772
690.652065	0.456625
690.989150	0.463635
691.326185	0.470081
691.663170	0.475147
692.000105	0.481630
692.336990	0.489254
692.673825	0.491974
693.010610	0.498922
693.347345	0.503997
693.684030	0.505542
694.020665	0.511049
694.357251	0.519236
694.693786	0.518583
695.030272	0.523140
695.366707	0.526907
695.703093	0.530133
696.039429	0.527165
696.375716	0.530081
696.711952	0.532428
697.048139	0.534457
697.384276	0.537090
697.720363	0.533764
698.056400	0.533527
698.392388	0.538347
698.728326	0.542122
699.064214	0.545089
699.400053	0.545263
699.735842	0.549321
700.071581	0.551913
700.407270	0.555487
700.742910	0.557358
701.078501	0.563986
701.414042	0.564387
701.749533	0.567671
702.084974	0.576243
702.420366	0.568799
702.755709	0.576184
703.091002	0.584042
703.426246	0.577835
703.761440	0.582876
704.096584	0.587761
704.431679	0.585081
704.766725	0.586961
705.101721	0.589067
705.436668	0.585129
705.771565	0.592758
706.106413	0.588240
706.441212	0.583945
706.775961	0.582321
707.110661	0.585203
707.445311	0.582005
707.779913	0.579227
708.114465	0.577852
708.448967	0.573868
708.783421	0.565852
709.117825	0.560767
709.452180	0.561082
709.786485	0.554825
710.120742	0.544473
710.454949	0.546076
710.789107	0.539132
711.123216	0.529545
711.457275	0.531420
711.791286	0.521833
712.125247	0.521066
712.459159	0.531468
712.793023	0.524174
713.126837	0.528331
713.460602	0.529214
713.794318	0.537705
714.127985	0.537181
714.461602	0.547576
714.795171	0.550701
715.128691	0.558265
715.462162	0.565620
715.795584	0.571572
716.128957	0.573823
716.462281	0.581271
716.795556	0.584277
717.128782	0.589940
717.461960	0.599729
717.795088	0.597418
718.128167	0.603850
718.461198	0.612361
718.794180	0.613001
719.127113	0.615713
719.459997	0.619629
719.792833	0.625793
720.125619	0.627009
720.458357	0.632761
720.791046	0.632251
721.123686	0.635485
721.456278	0.643220
721.788821	0.640724
722.121315	0.644159
722.453761	0.649317
722.786158	0.645971
723.118506	0.643142
723.450805	0.651134
723.783056	0.646574
724.115259	0.643971
724.447412	0.643176
724.779518	0.644897
725.111574	0.644397
725.443582	0.639197
725.775542	0.641520
726.107453	0.633377
726.439315	0.633597
726.771129	0.632022
727.102895	0.624642
727.434612	0.618063
727.766281	0.616443
728.097901	0.615697
728.429473	0.614755
728.760996	0.613396
729.092471	0.613521
729.423897	0.617652
729.755276	0.616555
730.086606	0.616375
730.417887	0.610835
730.749120	0.602258
731.080305	0.592202
731.411442	0.589205
731.742530	0.593641
732.073570	0.592778
732.404562	0.585153
732.735506	0.586230
733.066401	0.591333
733.397249	0.600465
733.728048	0.611455
734.058798	0.624025
734.389501	0.635309
734.720156	0.644356
735.050762	0.653102
735.381320	0.653141
735.711831	0.663297
736.042293	0.667511
736.372707	0.663655
736.703073	0.668191
737.033391	0.670725
737.363661	0.667363
737.693883	0.662251
738.024056	0.662534
738.354182	0.661309
738.684260	0.651343
739.014290	0.647360
739.344272	0.648302
739.674207	0.641285
740.004093	0.641222
740.333931	0.641430
740.663722	0.641727
740.993464	0.642626
741.323159	0.645565
741.652806	0.651130
741.982405	0.655410
742.311956	0.660396
742.641460	0.662770
742.970915	0.666114
743.300323	0.674157
743.629683	0.679951
743.958996	0.681668
744.288260	0.685911
744.617477	0.692421
744.946647	0.693971
745.275768	0.698882
745.604842	0.699603
745.933869	0.709522
746.262847	0.709237
746.591778	0.703594
746.920662	0.709549
747.249498	0.715626
747.578286	0.707108
747.907027	0.703116
748.235720	0.704087
748.564365	0.698790
748.892963	0.698656
749.221514	0.701300
749.550017	0.706729
749.878473	0.706716
750.206881	0.712239
750.535242	0.714809
750.863555	0.714506
751.191821	0.715317
751.520039	0.718452
751.848210	0.723108
752.176334	0.715619
752.504411	0.714623
752.832440	0.721592
753.160421	0.727144
753.488356	0.724918
753.816243	0.721959
754.144082	0.730755
754.471875	0.735160
754.799620	0.730133
755.127318	0.730483
755.454969	0.731566
755.782572	0.730314
756.110129	0.736010
756.437638	0.737972
756.765100	0.734709
757.092515	0.732618
757.419882	0.731178
757.747203	0.737056
758.074477	0.736018
758.401703	0.733116
758.728882	0.728124
759.056014	0.726943
759.383099	0.725794
759.710138	0.727103
760.037129	0.723285
760.364073	0.717346
760.690970	0.719740
761.017820	0.725508
761.344623	0.721224
761.671379	0.711915
761.998088	0.700432
762.324751	0.676619
762.651366	0.635557
762.977935	0.568577
763.304456	0.515889
763.630931	0.507238
763.957359	0.545306
764.283740	0.590941
764.610074	0.618299
764.936362	0.648550
765.262602	0.676205
765.588796	0.697075
765.914943	0.715477
766.241044	0.733086
766.567097	0.739379
766.893104	0.749535
767.219064	0.756124
767.544978	0.762701
767.870845	0.775446
768.196665	0.779535
768.522438	0.777183
768.848165	0.779158
769.173846	0.788584
769.499479	0.792674
769.825066	0.795946
770.150607	0.802412
770.476101	0.795876
770.801548	0.797203
771.126949	0.808681
771.452303	0.813361
771.777611	0.813111
772.102872	0.812269
772.428087	0.816750
772.753256	0.820099
773.078378	0.821446
773.403453	0.830546
773.728482	0.834676
774.053465	0.829464
774.378401	0.831954
774.703291	0.840577
775.028135	0.840099
775.352932	0.841603
775.677683	0.845145
776.002388	0.845470
776.327046	0.844885
776.651658	0.848300
776.976224	0.851582
777.300743	0.852071
777.625216	0.853862
777.949643	0.855210
778.274024	0.856258
778.598359	0.857773
778.922647	0.856199
779.246889	0.856266
779.571086	0.860122
779.895236	0.863251
780.219339	0.860504
780.543397	0.857325
780.867409	0.855386
781.191374	0.857969
781.515294	0.858748
781.839167	0.857975
782.162995	0.861814
782.486776	0.857517
782.810511	0.860563
783.134201	0.862999
783.457844	0.860667
783.781441	0.863672
784.104993	0.868931
784.428498	0.870458
784.751958	0.865736
785.075372	0.866865
785.398739	0.871613
785.722061	0.867489
786.045337	0.863370
786.368568	0.867932
786.691752	0.871326
787.014891	0.855787
787.337983	0.847682
787.661030	0.840471
787.984031	0.822277
788.306987	0.808740
788.629897	0.811626
788.952760	0.816167
789.275579	0.819961
789.598351	0.835426
789.921078	0.848064
790.243759	0.850477
790.566395	0.854979
790.888984	0.862555
791.211529	0.867976
791.534027	0.872021
791.856480	0.873789
792.178888	0.879348
792.501249	0.881255
792.823566	0.882442
793.145836	0.882630
793.468062	0.883720
793.790241	0.883226
794.112375	0.881834
794.434464	0.877336
794.756507	0.877053
795.078505	0.876271
795.400457	0.871362
795.722364	0.859259
796.044226	0.852198
796.366042	0.850700
796.687812	0.854094
797.009538	0.850552
797.331218	0.853845
797.652852	0.858692
797.974442	0.863469
798.295986	0.862758
798.617484	0.865911
798.938938	0.869449
799.260346	0.874647
799.581709	0.876299
799.903026	0.878571
800.224299	0.880445
800.545526	0.882878
800.866708	0.887942
801.187845	0.890892
801.508936	0.891829
801.829983	0.888658
802.150984	0.892094
802.471940	0.897283
802.792851	0.895067
803.113717	0.897757
803.434538	0.895199
803.755314	0.897265
804.076045	0.898128
804.396731	0.899948
804.717372	0.898610
805.037967	0.901140
805.358518	0.897867
805.679024	0.896191
805.999485	0.895710
806.319901	0.896462
806.640272	0.897659
806.960598	0.895354
807.280879	0.893013
807.601115	0.890626
807.921306	0.894662
808.241453	0.895598
808.561554	0.892637
808.881611	0.893405
809.201623	0.894307
809.521590	0.894591
809.841513	0.896696
810.161390	0.896419
810.481223	0.896539
810.801011	0.900676
811.120755	0.902644
811.440453	0.901335
811.760107	0.900621
812.079716	0.898904
812.399281	0.903438
812.718801	0.905873
813.038276	0.906205
813.357707	0.905720
813.677093	0.903928
813.996434	0.906891
814.315731	0.908161
814.634983	0.908332
814.954191	0.907204
815.273354	0.904479
815.592473	0.900668
815.911547	0.901107
816.230577	0.898158
816.549562	0.894974
816.868502	0.895904
817.187399	0.892216
817.506250	0.887434
817.825058	0.889120
818.143821	0.885255
818.462539	0.880456
818.781213	0.871101
819.099843	0.861313
819.418429	0.844288
819.736970	0.827387
820.055466	0.807757
820.373919	0.781954
820.692327	0.748942
821.010691	0.713667
821.329011	0.634894
821.647286	0.517514
821.965517	0.403535
822.283704	0.360200
822.601847	0.361066
822.919945	0.396970
823.237999	0.431277
823.556010	0.478365
823.873976	0.535027
824.191897	0.586481
824.509775	0.629408
824.827609	0.675167
825.145398	0.698028
825.463144	0.700775
825.780845	0.684812
826.098502	0.665039
826.416116	0.618911
826.733685	0.574212
827.051210	0.565119
827.368692	0.580422
827.686129	0.617954
828.003522	0.671596
828.320872	0.719320
828.638177	0.764112
828.955439	0.796783
829.272656	0.819552
829.589830	0.836964
829.906960	0.852203
830.224046	0.865480
830.541088	0.875180
830.858086	0.879538
831.175041	0.885612
831.491952	0.885228
831.808819	0.882018
832.125642	0.875966
832.442421	0.859845
832.759157	0.838257
833.075849	0.791426
833.392497	0.726846
833.709101	0.685882
834.025662	0.694970
834.342179	0.726067
834.658653	0.767221
834.975083	0.803813
835.291469	0.829749
835.607811	0.852616
835.924110	0.869518
836.240366	0.886871
836.556578	0.899187
836.872746	0.907673
837.188871	0.913512
837.504952	0.919219
837.820990	0.922558
838.136984	0.926300
838.452935	0.929729
838.768842	0.930181
839.084706	0.924085
839.400526	0.897821
839.716303	0.857752
840.032037	0.834767
840.347727	0.837675
840.663373	0.857658
840.978977	0.877221
841.294537	0.901093
841.610054	0.917062
841.925527	0.925959
842.240957	0.932718
842.556344	0.940564
842.871687	0.945362
843.186987	0.949628
843.502244	0.949449
843.817458	0.951413
844.132629	0.956339
844.447756	0.960597
844.762840	0.961164
845.077881	0.959708
845.392879	0.959308
845.707833	0.961998
846.022745	0.964443
846.337613	0.965031
846.652438	0.966400
846.967221	0.964245
847.281960	0.965246
847.596656	0.967558
847.911309	0.965117
848.225919	0.967888
848.540485	0.968536
848.855009	0.968434
849.169490	0.967919
849.483928	0.967923
849.798323	0.968495
850.112675	0.970214
850.426984	0.969163
850.741251	0.970346
851.055474	0.970863
851.369654	0.967612
851.683792	0.970251
851.997887	0.970084
852.311938	0.971763
852.625947	0.969657
852.939914	0.968314
853.253837	0.968646
853.567718	0.970604
853.881555	0.971206
854.195350	0.967444
854.509103	0.969883
854.822812	0.968582
855.136479	0.969087
855.450103	0.969460
855.763685	0.967544
856.077224	0.967552
856.390720	0.970469
856.704173	0.970371
857.017584	0.967269
857.330953	0.966999
857.644278	0.967955
857.957561	0.968083
858.270802	0.968214
858.584000	0.968607
858.897155	0.966209
859.210268	0.967749
859.523339	0.967217
859.836367	0.969722
860.149352	0.970501
860.462295	0.968324
860.775195	0.969261
861.088054	0.968809
861.400869	0.969941
861.713642	0.970246
862.026373	0.970264
862.339062	0.970247
862.651708	0.968795
862.964312	0.967492
863.276873	0.968642
863.589392	0.968248
863.901869	0.965939
864.214303	0.965411
864.526696	0.963756
864.839045	0.963864
865.151353	0.960956
865.463619	0.962182
865.775842	0.962839
866.088023	0.961983
866.400162	0.961552
866.712258	0.961903
867.024313	0.962433
867.336325	0.963581
867.648296	0.963949
867.960224	0.961702
868.272110	0.961173
868.583954	0.963449
868.895755	0.962687
869.207515	0.961252
869.519233	0.958809
869.830909	0.960677
870.142542	0.961775
870.454134	0.961338
870.765684	0.960013
871.077191	0.957782
871.388657	0.958922
871.700081	0.957062
872.011463	0.959002
872.322803	0.957081
872.634101	0.955097
872.945357	0.954794
873.256571	0.953419
873.567744	0.952106
873.878874	0.953113
874.189963	0.952044
874.501010	0.950664
874.812015	0.948950
875.122979	0.950380
875.433900	0.953241
875.744780	0.952751
876.055618	0.951467
876.366415	0.948662
876.677169	0.949811
876.987882	0.950556
877.298554	0.949410
877.609183	0.945685
877.919771	0.944224
878.230317	0.941569
878.540822	0.940255
878.851285	0.933736
879.161707	0.926390
879.472087	0.913647
879.782425	0.896251
880.092722	0.860883
880.402977	0.810008
880.713191	0.747174
881.023363	0.686533
881.333494	0.651394
881.643583	0.623650
881.953631	0.623399
882.263637	0.651430
882.573602	0.691289
882.883526	0.718017
883.193408	0.742255
883.503248	0.765139
883.813048	0.794738
884.122806	0.823160
884.432522	0.847472
884.742197	0.866834
885.051831	0.878661
885.361424	0.890011
885.670975	0.901854
885.980485	0.911886
886.289954	0.917463
886.599382	0.922681
886.908768	0.926990
887.218113	0.932509
887.527417	0.938488
887.836680	0.940741
888.145901	0.942617
888.455082	0.945904
888.764221	0.950827
889.073319	0.951929
889.382376	0.951391
889.691392	0.952309
890.000366	0.952369
890.309300	0.952698
890.618193	0.952260
890.927044	0.950442
891.235855	0.950660
891.544625	0.950506
891.853353	0.951334
892.162041	0.948581
892.470687	0.941944
892.779293	0.937771
893.087858	0.932366
893.396381	0.924401
893.704864	0.911498
894.013306	0.886628
894.321707	0.859953
894.630068	0.844402
894.938387	0.839690
895.246665	0.840619
895.554903	0.853286
895.863100	0.866528
896.171256	0.884147
896.479371	0.903943
896.787446	0.917076
897.095480	0.923635
897.403473	0.927120
897.711425	0.931463
898.019336	0.938675
898.327207	0.941688
898.635038	0.943109
898.942827	0.944309
899.250576	0.946863
899.558284	0.950835
899.865952	0.952676
900.173579	0.953530
900.481165	0.954800
900.788711	0.958977
901.096216	0.959940
901.403681	0.960120
901.711105	0.962144
902.018489	0.962911
902.325832	0.963166
902.633135	0.960413
902.940397	0.955464
903.247619	0.942339
903.554800	0.914588
903.861941	0.875488
904.169041	0.838949
904.476101	0.820504
904.783121	0.821999
905.090100	0.838517
905.397039	0.860218
905.703938	0.883172
906.010796	0.903483
906.317614	0.921155
906.624391	0.931177
906.931129	0.942564
907.237826	0.951577
907.544483	0.957654
907.851099	0.961385
908.157675	0.966947
908.464211	0.969509
908.770707	0.972304
909.077163	0.973433
909.383578	0.974753
909.689954	0.974687
909.996289	0.974978
910.302584	0.977658
910.608839	0.979787
910.915054	0.978799
911.221229	0.977933
911.527363	0.976619
911.833458	0.977069
912.139513	0.976147
912.445527	0.974482
912.751502	0.972943
913.057436	0.972104
913.363331	0.970562
913.669186	0.966147
913.975000	0.960159
914.280775	0.954082
914.586510	0.947648
914.892205	0.933574
915.197859	0.911031
915.503475	0.883836
915.809050	0.862769
916.114585	0.856651
916.420081	0.853235
916.725536	0.850564
917.030952	0.859058
917.336328	0.873030
917.641665	0.888770
917.946961	0.904929
918.252218	0.915514
918.557435	0.924326
918.862612	0.933794
919.167750	0.939785
919.472848	0.945066
919.777906	0.950744
920.082925	0.957264
920.387904	0.960821
920.692843	0.961208
920.997743	0.962814
921.302603	0.966293
921.607423	0.968757
921.912204	0.971495
922.216946	0.971911
922.521647	0.972628
922.826310	0.974611
923.130932	0.976659
923.435516	0.977578
923.740059	0.978077
924.044564	0.977793
924.349028	0.980131
924.653454	0.982090
924.957840	0.984773
925.262186	0.984305
925.566493	0.983764
925.870761	0.984949
926.174989	0.986540
926.479178	0.988427
926.783328	0.988264
927.087438	0.988119
927.391509	0.988102
927.695541	0.989784
927.999533	0.989393
928.303486	0.989029
928.607400	0.991009
928.911275	0.989319
929.215110	0.990978
929.518906	0.990214
929.822663	0.990033
930.126381	0.990991
930.430060	0.990117
930.733699	0.989814
931.037299	0.989127
931.340861	0.991291
931.644383	0.989751
931.947866	0.989219
932.251309	0.990726
932.554714	0.989926
932.858080	0.990225
933.161407	0.989969
933.464694	0.990984
933.767943	0.990027
934.071153	0.990901
934.374323	0.991660
934.677455	0.991557
934.980548	0.990877
935.283602	0.990300
935.586617	0.991755
935.889593	0.990987
936.192530	0.990632
936.495428	0.991365
936.798287	0.990106
937.101108	0.990552
937.403890	0.988496
937.706632	0.988670
938.009336	0.986929
938.312002	0.985423
938.614628	0.983460
938.917216	0.983444
939.219765	0.981910
939.522275	0.984055
939.824747	0.983029
940.127179	0.982091
940.429573	0.984490
940.731929	0.984045
941.034246	0.983574
941.336524	0.985526
941.638763	0.985372
941.940964	0.986047
942.243126	0.986169
942.545250	0.986781
942.847335	0.987729
943.149381	0.987447
943.451389	0.987573
943.753359	0.987609
944.055290	0.990904
944.357182	0.989321
944.659036	0.988257
944.960851	0.989677
945.262628	0.989793
945.564367	0.992066
945.866067	0.989189
946.167729	0.990898
946.469352	0.989843
946.770937	0.988525
947.072484	0.990206
947.373992	0.989925
947.675462	0.990410
947.976893	0.990937
948.278286	0.990439
948.579641	0.991936
948.880958	0.991498
949.182236	0.991417
949.483476	0.990716
949.784678	0.989874
950.085841	0.991824
950.386967	0.990759
950.688054	0.990419
950.989103	0.991755
951.290114	0.990043
951.591087	0.989398
951.892021	0.988490
952.192917	0.989063
952.493776	0.988726
952.794596	0.989224
953.095378	0.987562
953.396122	0.987939
953.696828	0.987893
953.997496	0.989535
954.298126	0.990252
954.598718	0.990280
954.899272	0.990783
955.199788	0.989169
955.500266	0.991733
955.800706	0.992435
956.101108	0.993304
956.401472	0.992781
956.701798	0.994406
957.002087	0.993261
957.302337	0.993914
957.602550	0.994796
957.902724	0.995442
958.202861	0.995031
958.502960	0.995550
958.803022	0.995733
959.103045	0.996503
959.403031	0.996394
959.702979	0.994817
960.002889	0.995882
960.302762	0.994947
960.602596	0.996210
960.902393	0.995712
961.202153	0.997858
961.501875	0.997198
961.801559	0.996427
962.101205	0.996322
962.400814	0.997341
962.700385	0.996586
962.999918	0.996984
963.299414	0.996856
963.598873	0.995664
963.898293	0.997197
964.197677	0.995175
964.497022	0.996885
964.796331	0.997686
965.095601	0.997392
965.394835	0.996134
965.694030	0.997496
965.993189	0.997352
966.292309	0.997233
966.591393	0.997020
966.890439	0.998046
967.189447	0.996748
967.488419	0.997201
967.787353	0.996452
968.086249	0.997421
968.385108	0.997488
968.683930	0.997906
968.982714	0.997958
969.281462	0.997607
969.580172	0.996664
969.878844	0.997011
970.177480	0.996924
970.476078	0.997357
970.774639	0.996497
971.073162	0.997020
971.371649	0.997019
971.670098	0.997521
971.968510	0.996832
972.266885	0.996013
972.565223	0.998402
972.863524	0.994544
973.161788	0.997498
973.460014	0.997685
973.758204	0.995883
974.056356	0.996360
974.354471	0.993945
974.652550	0.996133
974.950591	0.995818
975.248595	0.996775
975.546563	0.997386
975.844493	0.997532
976.142386	0.996963
976.440243	0.996717
976.738062	0.997429
977.035845	0.997896
977.333590	0.997578
977.631299	0.998904
977.928971	0.996483
978.226606	0.996602
978.524204	0.996802
978.821765	0.998712
979.119290	0.997492
979.416777	0.996132
979.714228	0.997681
980.011642	0.995756
980.309020	0.996596
980.606360	0.996825
980.903664	0.999082
981.200931	0.997405
981.498162	0.994764
981.795356	0.994820
982.092513	0.993690
982.389633	0.993980
982.686717	0.991629
982.983764	0.991268
983.280775	0.989759
983.577749	0.991213
983.874686	0.990883
984.171587	0.991632
984.468451	0.994315
984.765279	0.994198
985.062070	0.994738
985.358824	0.995382
985.655543	0.994801
985.952224	0.995922
986.248869	0.997136
986.545478	0.997111
986.842050	0.998026
987.138586	0.996232
987.435086	0.997381
987.731549	0.999010
988.027975	0.997989
988.324366	0.997997
988.620719	0.999011
988.917037	0.997411
989.213318	0.998642
989.509563	0.998969
989.805772	0.999411
990.101944	0.998451
990.398080	0.997242
990.694180	0.998475
990.990244	0.997402
991.286271	0.998080
991.582262	0.998255
991.878217	0.997547
992.174136	0.999640
992.470019	0.999210
992.765865	0.998366
993.061676	0.999939
993.357450	0.999185
993.653188	0.998781
993.948890	0.998065
994.244556	0.997771
994.540186	0.998334
994.835780	0.996318
995.131337	0.997727
995.426859	0.998046
995.722345	0.997475
996.017795	0.995931
996.313208	0.995512
996.608586	0.995953
996.903928	0.997318
997.199234	0.996507
997.494504	0.997061
997.789738	0.996757
998.084936	0.996400
998.380099	0.998338
998.675225	0.998001
998.970316	0.997255
999.265371	0.998858
999.560390	0.998176
999.855373	0.999137
1000.150320	0.998715
1000.445232	0.998138
1000.740108	0.998769
1001.034948	0.998869
1001.329752	0.999470
1001.624521	0.998883
1001.919254	0.998436
1002.213951	0.997459
1002.508613	0.999203
1002.803239	0.999615
1003.097829	0.999975
1003.392384	0.999250
1003.686903	0.999520
1003.981386	0.998334
1004.275834	0.999921
1004.570246	0.998903
1004.864623	0.999158
1005.158964	0.999317
1005.453270	0.999359
1005.747540	0.997856
1006.041775	0.998480
1006.335974	1.001301
1006.630138	0.999359
1006.924266	1.000347
1007.218359	1.000507
1007.512416	1.000413
1007.806438	0.999858
1008.100425	0.999885
1008.394376	0.999173
1008.688292	0.998128
1008.982172	1.001893
1009.276017	1.000068
1009.569827	0.999571
1009.863602	0.998381
1010.157341	0.999898
1010.451045	0.999725
1010.744714	0.999182
1011.038347	1.000105
1011.331945	0.998855
1011.625508	0.996777
1011.919036	0.999396
1012.212528	0.999830
1012.505986	0.998018
1012.799408	0.999031
1013.092795	0.999788
1013.386147	0.999179
1013.679464	0.999472
1013.972745	0.998463
1014.265992	0.997523
1014.559204	1.000045
1014.852380	0.999549
1015.145521	0.999142
1015.438628	0.998292
1015.731699	0.999213
1016.024736	0.999245
1016.317737	0.999826
1016.610703	0.999725
1016.903635	0.999950
1017.196531	0.997902
1017.489393	1.000057
1017.782219	0.999658
1018.075011	0.999036
1018.367768	0.999465
1018.660490	1.000779
1018.953177	1.000779
1019.245829	1.000779
