Dividing Wavelength (nm)	Counts (n)	Blue Motor Position (mm): 0.000000	Red Motor Position (mm): 24.800000	
326.493990	0.999708
326.888308	0.999708
327.282561	0.999708
327.676750	0.999228
328.070874	0.998181
328.464933	1.000638
328.858929	0.999535
329.252859	1.000815
329.646726	0.999028
330.040528	0.999670
330.434265	0.999054
330.827938	0.999452
331.221547	1.001268
331.615091	0.999445
332.008571	0.998714
332.401986	0.999282
332.795338	0.999895
333.188625	0.998476
333.581847	1.001324
333.975006	0.999548
334.368100	0.999364
334.761129	1.000228
335.154095	1.000341
335.546996	0.997747
335.939833	0.992709
336.332606	0.994895
336.725315	0.995291
337.117960	0.996060
337.510540	0.993422
337.903056	0.995047
338.295508	0.993479
338.687896	0.994146
339.080220	0.995001
339.472480	0.994096
339.864676	0.993872
340.256807	0.995822
340.648875	0.995391
341.040879	0.993830
341.432818	0.994052
341.824694	0.994195
342.216506	0.995201
342.608253	0.994431
342.999937	0.994416
343.391557	0.995131
343.783113	0.994076
344.174605	0.994945
344.566033	0.995693
344.957397	0.993198
345.348697	0.994360
345.739934	0.994522
346.131106	0.994346
346.522215	0.993125
346.913260	0.993832
347.304241	0.993051
347.695159	0.994076
348.086012	0.993195
348.476802	0.993539
348.867528	0.993917
349.258191	0.992774
349.648789	0.993992
350.039324	0.995021
350.429796	0.994654
350.820203	0.993795
351.210548	0.994302
351.600828	0.994433
351.991045	0.994628
352.381198	0.993629
352.771288	0.994375
353.161314	0.993852
353.551276	0.995441
353.941175	0.994126
354.331010	0.993705
354.720782	0.994462
355.110490	0.993508
355.500135	0.995803
355.889717	0.994552
356.279235	0.993247
356.668689	0.994356
357.058080	0.995138
357.447408	0.995183
357.836672	0.994233
358.225873	0.994624
358.615010	0.994895
359.004084	0.995710
359.393095	0.993478
359.782043	0.994649
360.170927	0.995016
360.559748	0.995325
360.948505	0.993533
361.337199	0.994996
361.725830	0.994736
362.114398	0.993855
362.502903	0.996130
362.891344	0.994828
363.279722	0.994232
363.668037	0.994867
364.056289	0.995362
364.444478	0.994574
364.832603	0.994536
365.220665	0.994356
365.608665	0.994457
365.996601	0.993747
366.384474	0.995267
366.772284	0.995442
367.160031	0.993170
367.547715	0.993473
367.935336	0.995688
368.322893	0.993303
368.710388	0.993307
369.097820	0.994435
369.485189	0.993863
369.872495	0.993640
370.259738	0.992961
370.646918	0.994205
371.034035	0.994546
371.421090	0.994668
371.808081	0.994580
372.195010	0.995758
372.581875	0.995308
372.968678	0.994519
373.355418	0.994240
373.742096	0.994197
374.128710	0.994774
374.515262	0.993629
374.901751	0.995542
375.288177	0.995557
375.674540	0.995011
376.060841	0.994663
376.447079	0.995530
376.833254	0.995413
377.219367	0.996026
377.605417	0.996013
377.991404	0.994830
378.377329	0.994909
378.763191	0.994922
379.148991	0.995403
379.534727	0.995625
379.920402	0.995620
380.306013	0.995470
380.691563	0.997088
381.077049	0.995291
381.462474	0.994970
381.847835	0.995338
382.233134	0.995411
382.618371	0.996120
383.003545	0.994677
383.388657	0.995157
383.773706	0.996946
384.158693	0.995216
384.543618	0.994941
384.928480	0.996226
385.313280	0.996114
385.698017	0.996865
386.082692	0.996971
386.467305	0.996836
386.851856	0.996111
387.236344	0.995817
387.620770	0.996102
388.005133	0.996672
388.389435	0.997341
388.773674	0.995372
389.157851	0.996396
389.541965	0.995916
389.926018	0.995146
390.310008	0.997870
390.693936	0.995629
391.077802	0.996711
391.461606	0.996002
391.845348	0.995949
392.229027	0.997140
392.612645	0.997194
392.996200	0.997004
393.379694	0.996214
393.763125	0.996926
394.146494	0.996666
394.529801	0.995439
394.913047	0.996148
395.296230	0.996880
395.679351	0.995986
396.062410	0.995896
396.445408	0.996464
396.828343	0.995751
397.211217	0.996590
397.594028	0.996878
397.976778	0.996102
398.359466	0.996662
398.742092	0.996050
399.124656	0.996324
399.507158	0.997373
399.889598	0.997067
400.271977	0.997093
400.654294	0.997216
401.036549	0.996953
401.418742	0.997047
401.800874	0.996068
402.182944	0.996537
402.564952	0.996070
402.946898	0.997738
403.328783	0.997141
403.710606	0.996391
404.092367	0.997364
404.474067	0.997729
404.855705	0.996473
405.237282	0.996797
405.618797	0.996813
406.000250	0.995927
406.381642	0.996811
406.762972	0.996633
407.144240	0.996883
407.525447	0.997328
407.906593	0.996604
408.287677	0.996727
408.668700	0.996855
409.049661	0.995772
409.430560	0.997310
409.811399	0.996250
410.192176	0.996365
410.572891	0.996650
410.953545	0.996058
411.334138	0.995382
411.714669	0.996207
412.095139	0.996669
412.475547	0.997845
412.855894	0.996393
413.236180	0.995837
413.616405	0.996482
413.996568	0.996956
414.376670	0.996568
414.756711	0.996252
415.136691	0.996531
415.516609	0.997081
415.896466	0.996645
416.276262	0.995489
416.655997	0.997494
417.035670	0.996322
417.415283	0.996676
417.794834	0.996291
418.174324	0.996884
418.553753	0.997115
418.933121	0.996348
419.312428	0.996933
419.691674	0.995294
420.070859	0.997465
420.449983	0.996615
420.829045	0.995914
421.208047	0.996684
421.586988	0.997807
421.965867	0.996184
422.344686	0.997707
422.723444	0.997419
423.102141	0.996255
423.480777	0.996791
423.859352	0.996097
424.237866	0.996229
424.616319	0.996715
424.994712	0.996200
425.373044	0.996815
425.751314	0.995586
426.129524	0.996289
426.507673	0.996060
426.885762	0.997204
427.263789	0.996093
427.641756	0.996485
428.019662	0.996391
428.397508	0.995078
428.775292	0.994752
429.153016	0.994555
429.530679	0.995471
429.908282	0.995792
430.285824	0.994742
430.663305	0.994386
431.040726	0.994511
431.418086	0.995239
431.795385	0.994243
432.172624	0.993019
432.549802	0.993245
432.926920	0.992593
433.303977	0.990953
433.680974	0.992366
434.057910	0.990687
434.434786	0.990361
434.811601	0.988399
435.188355	0.986766
435.565050	0.985027
435.941683	0.985310
436.318257	0.984401
436.694770	0.981882
437.071222	0.980427
437.447614	0.979566
437.823946	0.977213
438.200218	0.975119
438.576429	0.973295
438.952580	0.970476
439.328670	0.968274
439.704700	0.966349
440.080670	0.964178
440.456580	0.959572
440.832429	0.956574
441.208218	0.955659
441.583947	0.951485
441.959616	0.947815
442.335224	0.945237
442.710773	0.941703
443.086261	0.936913
443.461689	0.934916
443.837057	0.929285
444.212365	0.924584
444.587612	0.920640
444.962800	0.914588
445.337927	0.910335
445.712995	0.908779
446.088002	0.899336
446.462949	0.895926
446.837837	0.890826
447.212664	0.884331
447.587431	0.875867
447.962139	0.862235
448.336786	0.846272
448.711374	0.845126
449.085901	0.848104
449.460369	0.843224
449.834776	0.836437
450.209124	0.823765
450.583412	0.812734
450.957640	0.805445
451.331808	0.801485
451.705917	0.800211
452.079965	0.793988
452.453954	0.782634
452.827883	0.777879
453.201752	0.769202
453.575562	0.765279
453.949311	0.751804
454.323001	0.747099
454.696632	0.737462
455.070202	0.725345
455.443713	0.715054
455.817164	0.704077
456.190556	0.693147
456.563888	0.683160
456.937160	0.675294
457.310373	0.674779
457.683526	0.665448
458.056619	0.660240
458.429653	0.652456
458.802628	0.646152
459.175542	0.634446
459.548398	0.617214
459.921194	0.605233
460.293930	0.598290
460.666607	0.575252
461.039224	0.560977
461.411782	0.551041
461.784280	0.541445
462.156719	0.536022
462.529099	0.530183
462.901419	0.532647
463.273680	0.528145
463.645882	0.520539
464.018024	0.515870
464.390106	0.504322
464.762130	0.486944
465.134094	0.468884
465.505999	0.442102
465.877845	0.414423
466.249631	0.397833
466.621358	0.394220
466.993026	0.395568
467.364634	0.392760
467.736184	0.392989
468.107674	0.393939
468.479105	0.386994
468.850477	0.387988
469.221790	0.387546
469.593043	0.390028
469.964238	0.388334
470.335373	0.383161
470.706449	0.377012
471.077467	0.373778
471.448425	0.336328
471.819324	0.311016
472.190164	0.306308
472.560945	0.327906
472.931667	0.343603
473.302330	0.343530
473.672934	0.351578
474.043479	0.337053
474.413965	0.336056
474.784393	0.336051
475.154761	0.328795
475.525070	0.323112
475.895321	0.326238
476.265513	0.318617
476.635645	0.311960
477.005719	0.309931
477.375734	0.304298
477.745691	0.295924
478.115588	0.290681
478.485427	0.282846
478.855207	0.268645
479.224928	0.250629
479.594591	0.237787
479.964194	0.239708
480.333739	0.239335
480.703226	0.239296
481.072653	0.236722
481.442022	0.231503
481.811333	0.227011
482.180584	0.229474
482.549777	0.233851
482.918912	0.236454
483.287988	0.235711
483.657005	0.234702
484.025964	0.240413
484.394864	0.236855
484.763706	0.237226
485.132489	0.241706
485.501213	0.242135
485.869879	0.240117
486.238487	0.243208
486.607036	0.240557
486.975527	0.244910
487.343959	0.240608
487.712333	0.239313
488.080648	0.240648
488.448905	0.239575
488.817104	0.240532
489.185244	0.234860
489.553326	0.231623
489.921350	0.221637
490.289315	0.204052
490.657222	0.198887
491.025070	0.200048
491.392861	0.201782
491.760593	0.207236
492.128267	0.212673
492.495883	0.218354
492.863440	0.224223
493.230939	0.230623
493.598380	0.232030
493.965763	0.234045
494.333088	0.236191
494.700354	0.237324
495.067563	0.236234
495.434713	0.239620
495.801805	0.237480
496.168839	0.238753
496.535815	0.240014
496.902733	0.239888
497.269593	0.241571
497.636395	0.239090
498.003139	0.239513
498.369825	0.242264
498.736453	0.238602
499.103023	0.240179
499.469535	0.239730
499.835989	0.239862
500.202385	0.240802
500.568723	0.243804
500.935003	0.239229
501.301226	0.243270
501.667390	0.237454
502.033497	0.235840
502.399546	0.238587
502.765537	0.240206
503.131470	0.238550
503.497345	0.234751
503.863163	0.243766
504.228923	0.236685
504.594625	0.235334
504.960269	0.240538
505.325856	0.236012
505.691385	0.240201
506.056856	0.236944
506.422270	0.236249
506.787625	0.238630
507.152924	0.236170
507.518164	0.236510
507.883347	0.238417
508.248472	0.239977
508.613540	0.235082
508.978550	0.237279
509.343503	0.237945
509.708398	0.235575
510.073236	0.233321
510.438016	0.233144
510.802738	0.234352
511.167403	0.232860
511.532010	0.235070
511.896561	0.230413
512.261053	0.229627
512.625488	0.231403
512.989866	0.231728
513.354186	0.231810
513.718449	0.234066
514.082655	0.230149
514.446803	0.232307
514.810894	0.229915
515.174927	0.232798
515.538904	0.231987
515.902822	0.229027
516.266684	0.231332
516.630488	0.232473
516.994235	0.231552
517.357925	0.230066
517.721558	0.228507
518.085133	0.227998
518.448651	0.227995
518.812112	0.230099
519.175516	0.229815
519.538863	0.227673
519.902152	0.229155
520.265385	0.225831
520.628560	0.227708
520.991678	0.228300
521.354739	0.227169
521.717743	0.228111
522.080690	0.228663
522.443580	0.225953
522.806413	0.226979
523.169189	0.226205
523.531908	0.225284
523.894569	0.228760
524.257174	0.228771
524.619722	0.226505
524.982213	0.227628
525.344647	0.226346
525.707025	0.227235
526.069345	0.225407
526.431608	0.227260
526.793815	0.225008
527.155964	0.229021
527.518057	0.227948
527.880093	0.229271
528.242072	0.227799
528.603995	0.229596
528.965860	0.231474
529.327669	0.230108
529.689421	0.231116
530.051117	0.231935
530.412755	0.229394
530.774337	0.231794
531.135862	0.232580
531.497331	0.231676
531.858743	0.234531
532.220098	0.231380
532.581396	0.233693
532.942638	0.234233
533.303824	0.235001
533.664953	0.234993
534.026025	0.236582
534.387040	0.234498
534.747999	0.234641
535.108902	0.233610
535.469748	0.238399
535.830537	0.236053
536.191270	0.236752
536.551947	0.236328
536.912567	0.236252
537.273131	0.238196
537.633638	0.238225
537.994089	0.238544
538.354483	0.239487
538.714821	0.236687
539.075103	0.236494
539.435328	0.237050
539.795497	0.241070
540.155609	0.237534
540.515665	0.235457
540.875665	0.241313
541.235609	0.239631
541.595496	0.239781
541.955328	0.236199
542.315102	0.239211
542.674821	0.240105
543.034483	0.239875
543.394090	0.239993
543.753640	0.241901
544.113134	0.236789
544.472571	0.240053
544.831953	0.236597
545.191278	0.240865
545.550548	0.240355
545.909761	0.237271
546.268918	0.238094
546.628019	0.236497
546.987064	0.239023
547.346053	0.240641
547.704986	0.238550
548.063863	0.239180
548.422684	0.239283
548.781449	0.241181
549.140158	0.238579
549.498811	0.241584
549.857408	0.244789
550.215949	0.239413
550.574434	0.242588
550.932864	0.240551
551.291237	0.238963
551.649555	0.240683
552.007817	0.240158
552.366022	0.240995
552.724173	0.241371
553.082267	0.241583
553.440305	0.238713
553.798288	0.243216
554.156215	0.239650
554.514086	0.240177
554.871902	0.243755
555.229661	0.242478
555.587365	0.243280
555.945014	0.245593
556.302606	0.242598
556.660143	0.245094
557.017625	0.241765
557.375050	0.244022
557.732421	0.240952
558.089735	0.242752
558.446994	0.243021
558.804197	0.242243
559.161345	0.242485
559.518437	0.245771
559.875474	0.243331
560.232455	0.242773
560.589381	0.243953
560.946251	0.244114
561.303065	0.241454
561.659825	0.243250
562.016528	0.244644
562.373177	0.247419
562.729770	0.244795
563.086307	0.246861
563.442789	0.244808
563.799216	0.247670
564.155587	0.245937
564.511904	0.247312
564.868164	0.247424
565.224370	0.247398
565.580520	0.248916
565.936615	0.248748
566.292654	0.251797
566.648638	0.248739
567.004567	0.249778
567.360441	0.250251
567.716260	0.252366
568.072023	0.250113
568.427732	0.250836
568.783385	0.253334
569.138982	0.251381
569.494525	0.251093
569.850013	0.253827
570.205445	0.252381
570.560823	0.254748
570.916145	0.256677
571.271412	0.255127
571.626625	0.256494
571.981782	0.257150
572.336884	0.257872
572.691931	0.257829
573.046923	0.259023
573.401860	0.260018
573.756743	0.261830
574.111570	0.260654
574.466342	0.261146
574.821059	0.260135
575.175722	0.262930
575.530330	0.262897
575.884882	0.262908
576.239380	0.265255
576.593823	0.265623
576.948211	0.264961
577.302544	0.268589
577.656823	0.267977
578.011047	0.268181
578.365216	0.268652
578.719330	0.270828
579.073389	0.270557
579.427394	0.272085
579.781344	0.272503
580.135239	0.274352
580.489080	0.273951
580.842866	0.277077
581.196597	0.276550
581.550273	0.275175
581.903895	0.276143
582.257463	0.274423
582.610975	0.277433
582.964434	0.277427
583.317837	0.279771
583.671186	0.279928
584.024481	0.280022
584.377721	0.282669
584.730906	0.283257
585.084037	0.282625
585.437113	0.284267
585.790135	0.283669
586.143103	0.286786
586.496016	0.287306
586.848874	0.285084
587.201679	0.285826
587.554428	0.289291
587.907124	0.288326
588.259765	0.288690
588.612352	0.289183
588.964884	0.292932
589.317362	0.292734
589.669786	0.292635
590.022155	0.290985
590.374470	0.290667
590.726731	0.292482
591.078937	0.297239
591.431090	0.293509
591.783188	0.297795
592.135232	0.298152
592.487222	0.297876
592.839157	0.296151
593.191038	0.298632
593.542866	0.300557
593.894639	0.304058
594.246358	0.302097
594.598022	0.301381
594.949633	0.305161
595.301190	0.305755
595.652692	0.305030
596.004141	0.301440
596.355535	0.309333
596.706876	0.310021
597.058162	0.312018
597.409395	0.309197
597.760573	0.306900
598.111698	0.310119
598.462768	0.310597
598.813785	0.312213
599.164748	0.313487
599.515657	0.313744
599.866511	0.317081
600.217312	0.312627
600.568060	0.317989
600.918753	0.314121
601.269392	0.314958
601.619978	0.318042
601.970510	0.316098
602.320988	0.316194
602.671412	0.313757
603.021783	0.316348
603.372100	0.317479
603.722363	0.317055
604.072572	0.318271
604.422728	0.318032
604.772830	0.320247
605.122878	0.319699
605.472872	0.319783
605.822813	0.318250
606.172701	0.320816
606.522534	0.318456
606.872314	0.318502
607.222041	0.319240
607.571714	0.317699
607.921333	0.318917
608.270899	0.318590
608.620411	0.315488
608.969870	0.319314
609.319276	0.319191
609.668627	0.319331
610.017926	0.317680
610.367171	0.316700
610.716362	0.317171
611.065500	0.317461
611.414585	0.316257
611.763616	0.316750
612.112594	0.317126
612.461518	0.316294
612.810389	0.314464
613.159207	0.316397
613.507971	0.318281
613.856682	0.313810
614.205340	0.315678
614.553945	0.312622
614.902496	0.316625
615.250994	0.314253
615.599439	0.315176
615.947830	0.314480
616.296169	0.315755
616.644454	0.314929
616.992686	0.315133
617.340864	0.313017
617.688990	0.316514
618.037063	0.313120
618.385082	0.315175
618.733048	0.312198
619.080961	0.314106
619.428821	0.313236
619.776628	0.313168
620.124382	0.315384
620.472083	0.315454
620.819731	0.315028
621.167326	0.318654
621.514868	0.318539
621.862357	0.322990
622.209793	0.322068
622.557176	0.324778
622.904506	0.325696
623.251783	0.327397
623.599007	0.330023
623.946179	0.329802
624.293297	0.331457
624.640363	0.335465
624.987376	0.335999
625.334336	0.338708
625.681243	0.340872
626.028097	0.341717
626.374899	0.342491
626.721647	0.342451
627.068343	0.345838
627.414987	0.346778
627.761577	0.348878
628.108115	0.347085
628.454600	0.352608
628.801032	0.350226
629.147412	0.352036
629.493739	0.351989
629.840014	0.355693
630.186236	0.352876
630.532405	0.358172
630.878521	0.355706
631.224585	0.358039
631.570597	0.361548
631.916556	0.359899
632.262462	0.360502
632.608316	0.362099
632.954117	0.363229
633.299866	0.363854
633.645562	0.364149
633.991206	0.369015
634.336797	0.371742
634.682336	0.374187
635.027823	0.375727
635.373257	0.375850
635.718639	0.379926
636.063968	0.378851
636.409245	0.384476
636.754470	0.384617
637.099642	0.387267
637.444762	0.390335
637.789829	0.389881
638.134845	0.393460
638.479808	0.394278
638.824719	0.393852
639.169577	0.398287
639.514383	0.396875
639.859137	0.401398
640.203839	0.401021
640.548489	0.401667
640.893086	0.403110
641.237632	0.404413
641.582125	0.402910
641.926566	0.404472
642.270955	0.404630
642.615292	0.404850
642.959576	0.404221
643.303809	0.404810
643.647990	0.404711
643.992118	0.404749
644.336195	0.408261
644.680219	0.406407
645.024192	0.407296
645.368112	0.400860
645.711981	0.400096
646.055797	0.395182
646.399562	0.397725
646.743274	0.389980
647.086935	0.387396
647.430544	0.387540
647.774101	0.386060
648.117606	0.386105
648.461059	0.385922
648.804460	0.388833
649.147810	0.394303
649.491108	0.395549
649.834354	0.396769
650.177548	0.402774
650.520690	0.407783
650.863781	0.409256
651.206820	0.408380
651.549807	0.412935
651.892742	0.416738
652.235626	0.416115
652.578458	0.417523
652.921238	0.423049
653.263967	0.420856
653.606644	0.425599
653.949269	0.425056
654.291843	0.428900
654.634365	0.425549
654.976836	0.428700
655.319255	0.429120
655.661622	0.430850
656.003938	0.430724
656.346203	0.433738
656.688416	0.431366
657.030577	0.435064
657.372687	0.436806
657.714746	0.437362
658.056753	0.434339
658.398708	0.437949
658.740612	0.439392
659.082465	0.435996
659.424266	0.436341
659.766016	0.435704
660.107715	0.438654
660.449362	0.437058
660.790958	0.437960
661.132503	0.438556
661.473996	0.436530
661.815438	0.437288
662.156829	0.437189
662.498168	0.438054
662.839456	0.439290
663.180693	0.437053
663.521879	0.437198
663.863013	0.437763
664.204097	0.436400
664.545129	0.433756
664.886110	0.433655
665.227040	0.430910
665.567918	0.433623
665.908746	0.432129
666.249522	0.431035
666.590248	0.432195
666.930922	0.430355
667.271545	0.429294
667.612118	0.429411
667.952639	0.430867
668.293109	0.429826
668.633528	0.432643
668.973896	0.432251
669.314213	0.432626
669.654480	0.434696
669.994695	0.434567
670.334859	0.435968
670.674973	0.435447
671.015035	0.436206
671.355047	0.436215
671.695008	0.436842
672.034918	0.438752
672.374777	0.438346
672.714585	0.439476
673.054342	0.439124
673.394049	0.439208
673.733705	0.436971
674.073310	0.437606
674.412864	0.441630
674.752368	0.441093
675.091820	0.442227
675.431223	0.446740
675.770574	0.446253
676.109875	0.449382
676.449125	0.449422
676.788324	0.451109
677.127473	0.457250
677.466571	0.456214
677.805619	0.458278
678.144616	0.459203
678.483562	0.461136
678.822458	0.463536
679.161303	0.464659
679.500098	0.464805
679.838842	0.466582
680.177535	0.465805
680.516179	0.464813
680.854771	0.463897
681.193314	0.457145
681.531805	0.448189
681.870247	0.437113
682.208638	0.429712
682.546978	0.428784
682.885268	0.430235
683.223508	0.436536
683.561697	0.439857
683.899836	0.442531
684.237925	0.446350
684.575963	0.448798
684.913951	0.451920
685.251889	0.447806
685.589776	0.449726
685.927614	0.452089
686.265401	0.446744
686.603137	0.447733
686.940824	0.441682
687.278460	0.440575
687.616046	0.439332
687.953582	0.434481
688.291068	0.435505
688.628504	0.431594
688.965889	0.433339
689.303224	0.437657
689.640510	0.441278
689.977745	0.447558
690.314930	0.455412
690.652065	0.459704
690.989150	0.467444
691.326185	0.473481
691.663170	0.478153
692.000105	0.485345
692.336990	0.492414
692.673825	0.495006
693.010610	0.501626
693.347345	0.507148
693.684030	0.509003
694.020665	0.513191
694.357251	0.522313
694.693786	0.522214
695.030272	0.526714
695.366707	0.529494
695.703093	0.532762
696.039429	0.530957
696.375716	0.532458
696.711952	0.535284
697.048139	0.537059
697.384276	0.539340
697.720363	0.537530
698.056400	0.535797
698.392388	0.541786
698.728326	0.545011
699.064214	0.547092
699.400053	0.548134
699.735842	0.552198
700.071581	0.554889
700.407270	0.557125
700.742910	0.560033
701.078501	0.566630
701.414042	0.567336
701.749533	0.569775
702.084974	0.578680
702.420366	0.570918
702.755709	0.578804
703.091002	0.586268
703.426246	0.579789
703.761440	0.585430
704.096584	0.590804
704.431679	0.587103
704.766725	0.589390
705.101721	0.590841
705.436668	0.587264
705.771565	0.594336
706.106413	0.591285
706.441212	0.586663
706.775961	0.585017
707.110661	0.588486
707.445311	0.584937
707.779913	0.581592
708.114465	0.579729
708.448967	0.576628
708.783421	0.569025
709.117825	0.563497
709.452180	0.563503
709.786485	0.557430
710.120742	0.547094
710.454949	0.549452
710.789107	0.541452
711.123216	0.532553
711.457275	0.534638
711.791286	0.525154
712.125247	0.523577
712.459159	0.534956
712.793023	0.527483
713.126837	0.531760
713.460602	0.532090
713.794318	0.541439
714.127985	0.540142
714.461602	0.550242
714.795171	0.553340
715.128691	0.560726
715.462162	0.568626
715.795584	0.573733
716.128957	0.576887
716.462281	0.584050
716.795556	0.587062
717.128782	0.592530
717.461960	0.601672
717.795088	0.599588
718.128167	0.606176
718.461198	0.614959
718.794180	0.615358
719.127113	0.617655
719.459997	0.621544
719.792833	0.627812
720.125619	0.628865
720.458357	0.635572
720.791046	0.634721
721.123686	0.637967
721.456278	0.644655
721.788821	0.642823
722.121315	0.646265
722.453761	0.651174
722.786158	0.648230
723.118506	0.645734
723.450805	0.653505
723.783056	0.649245
724.115259	0.646067
724.447412	0.645736
724.779518	0.647701
725.111574	0.646028
725.443582	0.641059
725.775542	0.644163
726.107453	0.635901
726.439315	0.635790
726.771129	0.634024
727.102895	0.626994
727.434612	0.621265
727.766281	0.618643
728.097901	0.618071
728.429473	0.617434
728.760996	0.617003
729.092471	0.616166
729.423897	0.619899
729.755276	0.618624
730.086606	0.618678
730.417887	0.612912
730.749120	0.604883
731.080305	0.594673
731.411442	0.591536
731.742530	0.596761
732.073570	0.595317
732.404562	0.587999
732.735506	0.589180
733.066401	0.594584
733.397249	0.602836
733.728048	0.614866
734.058798	0.627362
734.389501	0.637483
734.720156	0.647538
735.050762	0.655231
735.381320	0.656148
735.711831	0.665919
736.042293	0.669717
736.372707	0.665868
736.703073	0.671029
737.033391	0.673241
737.363661	0.670066
737.693883	0.664936
738.024056	0.663841
738.354182	0.664851
738.684260	0.653387
739.014290	0.649670
739.344272	0.650625
739.674207	0.644493
740.004093	0.643537
740.333931	0.644368
740.663722	0.643778
740.993464	0.644217
741.323159	0.648260
741.652806	0.653754
741.982405	0.658364
742.311956	0.662565
742.641460	0.664565
742.970915	0.668289
743.300323	0.676126
743.629683	0.681832
743.958996	0.684116
744.288260	0.688711
744.617477	0.694555
744.946647	0.696891
745.275768	0.702192
745.604842	0.701546
745.933869	0.711819
746.262847	0.712070
746.591778	0.705120
746.920662	0.711811
747.249498	0.717970
747.578286	0.709780
747.907027	0.705163
748.235720	0.706091
748.564365	0.701590
748.892963	0.699720
749.221514	0.703511
749.550017	0.708809
749.878473	0.708184
750.206881	0.714921
750.535242	0.715851
750.863555	0.715929
751.191821	0.716403
751.520039	0.720693
751.848210	0.725893
752.176334	0.717746
752.504411	0.717127
752.832440	0.724875
753.160421	0.728779
753.488356	0.726967
753.816243	0.724695
754.144082	0.732315
754.471875	0.736440
754.799620	0.731933
755.127318	0.732604
755.454969	0.732893
755.782572	0.731704
756.110129	0.737766
756.437638	0.739399
756.765100	0.737219
757.092515	0.734582
757.419882	0.733315
757.747203	0.738524
758.074477	0.737996
758.401703	0.735714
758.728882	0.730683
759.056014	0.729723
759.383099	0.728053
759.710138	0.728950
760.037129	0.725387
760.364073	0.720363
760.690970	0.721794
761.017820	0.728771
761.344623	0.724153
761.671379	0.714214
761.998088	0.703714
762.324751	0.680561
762.651366	0.638273
762.977935	0.571631
763.304456	0.520202
763.630931	0.510969
763.957359	0.549510
764.283740	0.593592
764.610074	0.621035
764.936362	0.651635
765.262602	0.677986
765.588796	0.699286
765.914943	0.717886
766.241044	0.734866
766.567097	0.742172
766.893104	0.752110
767.219064	0.758210
767.544978	0.764617
767.870845	0.778392
768.196665	0.781298
768.522438	0.779954
768.848165	0.781755
769.173846	0.790875
769.499479	0.795064
769.825066	0.798133
770.150607	0.803059
770.476101	0.797385
770.801548	0.800016
771.126949	0.810654
771.452303	0.814459
771.777611	0.813623
772.102872	0.813493
772.428087	0.818085
772.753256	0.820664
773.078378	0.823654
773.403453	0.832083
773.728482	0.835987
774.053465	0.830063
774.378401	0.833511
774.703291	0.842148
775.028135	0.841033
775.352932	0.842239
775.677683	0.847251
776.002388	0.846631
776.327046	0.845766
776.651658	0.849212
776.976224	0.852383
777.300743	0.852992
777.625216	0.855061
777.949643	0.856342
778.274024	0.856789
778.598359	0.858675
778.922647	0.856954
779.246889	0.857982
779.571086	0.861188
779.895236	0.864528
780.219339	0.861608
780.543397	0.858306
780.867409	0.856148
781.191374	0.859238
781.515294	0.859657
781.839167	0.859304
782.162995	0.863009
782.486776	0.859705
782.810511	0.860173
783.134201	0.863800
783.457844	0.861532
783.781441	0.864642
784.104993	0.869944
784.428498	0.871175
784.751958	0.866662
785.075372	0.869409
785.398739	0.872647
785.722061	0.868758
786.045337	0.864833
786.368568	0.870166
786.691752	0.871852
787.014891	0.856498
787.337983	0.849079
787.661030	0.842052
787.984031	0.823855
788.306987	0.810917
788.629897	0.813214
788.952760	0.817542
789.275579	0.821595
789.598351	0.836799
789.921078	0.850530
790.243759	0.852410
790.566395	0.857251
790.888984	0.864101
791.211529	0.869072
791.534027	0.871817
791.856480	0.875645
792.178888	0.878525
792.501249	0.882626
792.823566	0.883385
793.145836	0.882008
793.468062	0.885441
793.790241	0.884924
794.112375	0.883591
794.434464	0.878295
794.756507	0.877572
795.078505	0.877350
795.400457	0.872609
795.722364	0.860334
796.044226	0.852807
796.366042	0.853031
796.687812	0.855830
797.009538	0.852090
797.331218	0.855008
797.652852	0.860090
797.974442	0.865063
798.295986	0.864766
798.617484	0.866813
798.938938	0.871171
799.260346	0.876056
799.581709	0.877714
799.903026	0.880933
800.224299	0.880678
800.545526	0.885142
800.866708	0.888595
801.187845	0.893076
801.508936	0.892204
801.829983	0.890227
802.150984	0.892441
802.471940	0.898716
802.792851	0.897345
803.113717	0.898244
803.434538	0.895481
803.755314	0.898337
804.076045	0.900243
804.396731	0.899412
804.717372	0.899610
805.037967	0.902140
805.358518	0.900483
805.679024	0.897247
805.999485	0.896478
806.319901	0.897368
806.640272	0.898560
806.960598	0.897369
807.280879	0.893446
807.601115	0.892321
807.921306	0.896671
808.241453	0.896437
808.561554	0.894233
808.881611	0.894195
809.201623	0.897156
809.521590	0.897208
809.841513	0.897048
810.161390	0.896833
810.481223	0.898339
810.801011	0.901490
811.120755	0.903390
811.440453	0.902106
811.760107	0.900265
812.079716	0.901564
812.399281	0.903592
812.718801	0.906964
813.038276	0.906666
813.357707	0.907194
813.677093	0.904282
813.996434	0.906998
814.315731	0.909022
814.634983	0.910135
814.954191	0.907550
815.273354	0.906191
815.592473	0.902111
815.911547	0.901907
816.230577	0.898716
816.549562	0.895980
816.868502	0.896236
817.187399	0.893181
817.506250	0.889218
817.825058	0.890136
818.143821	0.886289
818.462539	0.881284
818.781213	0.874136
819.099843	0.861984
819.418429	0.846542
819.736970	0.829429
820.055466	0.810704
820.373919	0.785809
820.692327	0.752214
821.010691	0.716973
821.329011	0.641057
821.647286	0.526314
821.965517	0.412903
822.283704	0.370738
822.601847	0.372462
822.919945	0.408162
823.237999	0.440750
823.556010	0.487750
823.873976	0.543715
824.191897	0.594316
824.509775	0.636314
824.827609	0.680068
825.145398	0.703667
825.463144	0.706164
825.780845	0.689278
826.098502	0.671050
826.416116	0.625481
826.733685	0.581238
827.051210	0.572929
827.368692	0.587653
827.686129	0.624243
828.003522	0.676887
828.320872	0.724483
828.638177	0.767575
828.955439	0.801645
829.272656	0.822472
829.589830	0.840500
829.906960	0.855176
830.224046	0.867164
830.541088	0.877643
830.858086	0.881942
831.175041	0.888295
831.491952	0.887336
831.808819	0.883950
832.125642	0.878513
832.442421	0.862900
832.759157	0.841604
833.075849	0.794849
833.392497	0.732092
833.709101	0.691362
834.025662	0.700368
834.342179	0.732004
834.658653	0.771507
834.975083	0.806635
835.291469	0.832563
835.607811	0.854973
835.924110	0.870960
836.240366	0.887590
836.556578	0.901677
836.872746	0.909654
837.188871	0.914526
837.504952	0.919403
837.820990	0.924622
838.136984	0.926848
838.452935	0.930750
838.768842	0.930995
839.084706	0.925220
839.400526	0.899914
839.716303	0.859718
840.032037	0.837651
840.347727	0.840792
840.663373	0.859198
840.978977	0.880646
841.294537	0.902971
841.610054	0.919260
841.925527	0.926197
842.240957	0.932340
842.556344	0.941454
842.871687	0.945928
843.186987	0.950257
843.502244	0.949836
843.817458	0.951403
844.132629	0.955675
844.447756	0.961276
844.762840	0.960858
845.077881	0.959543
845.392879	0.960193
845.707833	0.964038
846.022745	0.964184
846.337613	0.964777
846.652438	0.966742
846.967221	0.963592
847.281960	0.965945
847.596656	0.966407
847.911309	0.965865
848.225919	0.967695
848.540485	0.968419
848.855009	0.969043
849.169490	0.968226
849.483928	0.968562
849.798323	0.969131
850.112675	0.969426
850.426984	0.969787
850.741251	0.970029
851.055474	0.970267
851.369654	0.968365
851.683792	0.970395
851.997887	0.969264
852.311938	0.969929
852.625947	0.970945
852.939914	0.969044
853.253837	0.969918
853.567718	0.969715
853.881555	0.970607
854.195350	0.968716
854.509103	0.969614
854.822812	0.970299
855.136479	0.969373
855.450103	0.969835
855.763685	0.967020
856.077224	0.968530
856.390720	0.969978
856.704173	0.969524
857.017584	0.967745
857.330953	0.967235
857.644278	0.967966
857.957561	0.969282
858.270802	0.968443
858.584000	0.967465
858.897155	0.966182
859.210268	0.967658
859.523339	0.968889
859.836367	0.970552
860.149352	0.970518
860.462295	0.968877
860.775195	0.969992
861.088054	0.969637
861.400869	0.969770
861.713642	0.970478
862.026373	0.969903
862.339062	0.969796
862.651708	0.968010
862.964312	0.967034
863.276873	0.970212
863.589392	0.968995
863.901869	0.967692
864.214303	0.964820
864.526696	0.964713
864.839045	0.964018
865.151353	0.962664
865.463619	0.963643
865.775842	0.962488
866.088023	0.962989
866.400162	0.962795
866.712258	0.961051
867.024313	0.963024
867.336325	0.963323
867.648296	0.963684
867.960224	0.961860
868.272110	0.961878
868.583954	0.963839
868.895755	0.964443
869.207515	0.961840
869.519233	0.959365
869.830909	0.960740
870.142542	0.962727
870.454134	0.961620
870.765684	0.961374
871.077191	0.958795
871.388657	0.958725
871.700081	0.957055
872.011463	0.958728
872.322803	0.958675
872.634101	0.957810
872.945357	0.954692
873.256571	0.953461
873.567744	0.953612
873.878874	0.953565
874.189963	0.952877
874.501010	0.951453
874.812015	0.949470
875.122979	0.951896
875.433900	0.952719
875.744780	0.954485
876.055618	0.951620
876.366415	0.950167
876.677169	0.949339
876.987882	0.951483
877.298554	0.950994
877.609183	0.947034
877.919771	0.945637
878.230317	0.942842
878.540822	0.941745
878.851285	0.936319
879.161707	0.927427
879.472087	0.915386
879.782425	0.901414
880.092722	0.866224
880.402977	0.814955
880.713191	0.754638
881.023363	0.697374
881.333494	0.663149
881.643583	0.635239
881.953631	0.634414
882.263637	0.663411
882.573602	0.701860
882.883526	0.727620
883.193408	0.750658
883.503248	0.773140
883.813048	0.799572
884.122806	0.829627
884.432522	0.852963
884.742197	0.872160
885.051831	0.882703
885.361424	0.891872
885.670975	0.905197
885.980485	0.915281
886.289954	0.920480
886.599382	0.926415
886.908768	0.929793
887.218113	0.935279
887.527417	0.940039
887.836680	0.942748
888.145901	0.943745
888.455082	0.946404
888.764221	0.951015
889.073319	0.953610
889.382376	0.954351
889.691392	0.953512
890.000366	0.953768
890.309300	0.953986
890.618193	0.952687
890.927044	0.951387
891.235855	0.952409
891.544625	0.951931
891.853353	0.952444
892.162041	0.949433
892.470687	0.943054
892.779293	0.938599
893.087858	0.934774
893.396381	0.928212
893.704864	0.913862
894.013306	0.892134
894.321707	0.864930
894.630068	0.850174
894.938387	0.845825
895.246665	0.846387
895.554903	0.858631
895.863100	0.871129
896.171256	0.887963
896.479371	0.907024
896.787446	0.920300
897.095480	0.926134
897.403473	0.929422
897.711425	0.933128
898.019336	0.940826
898.327207	0.945334
898.635038	0.945635
898.942827	0.946473
899.250576	0.948999
899.558284	0.953404
899.865952	0.954731
900.173579	0.955777
900.481165	0.956584
900.788711	0.960500
901.096216	0.961696
901.403681	0.962541
901.711105	0.962675
902.018489	0.963848
902.325832	0.962974
902.633135	0.962327
902.940397	0.956385
903.247619	0.944628
903.554800	0.919412
903.861941	0.880073
904.169041	0.846029
904.476101	0.828049
904.783121	0.829381
905.090100	0.844987
905.397039	0.867145
905.703938	0.887784
906.010796	0.906878
906.317614	0.922655
906.624391	0.935192
906.931129	0.945473
907.237826	0.953177
907.544483	0.959195
907.851099	0.963491
908.157675	0.967703
908.464211	0.970535
908.770707	0.972913
909.077163	0.973440
909.383578	0.974125
909.689954	0.975294
909.996289	0.975060
910.302584	0.977831
910.608839	0.979356
910.915054	0.979275
911.221229	0.978565
911.527363	0.976925
911.833458	0.977843
912.139513	0.977940
912.445527	0.975442
912.751502	0.973487
913.057436	0.971811
913.363331	0.969799
913.669186	0.967792
913.975000	0.961789
914.280775	0.956815
914.586510	0.949663
914.892205	0.936858
915.197859	0.915508
915.503475	0.887012
915.809050	0.869842
916.114585	0.863110
916.420081	0.861663
916.725536	0.857753
917.030952	0.866271
917.336328	0.878731
917.641665	0.893513
917.946961	0.909542
918.252218	0.920463
918.557435	0.929133
918.862612	0.937200
919.167750	0.942439
919.472848	0.948365
919.777906	0.953886
920.082925	0.958271
920.387904	0.962773
920.692843	0.962799
920.997743	0.965388
921.302603	0.967470
921.607423	0.969321
921.912204	0.972367
922.216946	0.971626
922.521647	0.973353
922.826310	0.975443
923.130932	0.976500
923.435516	0.978857
923.740059	0.978884
924.044564	0.979380
924.349028	0.980732
924.653454	0.982485
924.957840	0.985146
925.262186	0.984494
925.566493	0.983620
925.870761	0.985080
926.174989	0.985753
926.479178	0.986773
926.783328	0.987920
927.087438	0.987838
927.391509	0.986600
927.695541	0.991258
927.999533	0.989339
928.303486	0.989150
928.607400	0.991496
928.911275	0.989277
929.215110	0.990333
929.518906	0.989748
929.822663	0.990367
930.126381	0.990864
930.430060	0.990631
930.733699	0.990355
931.037299	0.988917
931.340861	0.990988
931.644383	0.989142
931.947866	0.989150
932.251309	0.990765
932.554714	0.988534
932.858080	0.990463
933.161407	0.990003
933.464694	0.990184
933.767943	0.990380
934.071153	0.990279
934.374323	0.991697
934.677455	0.990790
934.980548	0.992084
935.283602	0.990340
935.586617	0.991157
935.889593	0.990371
936.192530	0.991480
936.495428	0.990615
936.798287	0.991800
937.101108	0.990050
937.403890	0.988910
937.706632	0.988751
938.009336	0.986984
938.312002	0.986026
938.614628	0.985279
938.917216	0.983033
939.219765	0.981553
939.522275	0.983329
939.824747	0.984353
940.127179	0.983321
940.429573	0.984334
940.731929	0.984067
941.034246	0.984174
941.336524	0.986217
941.638763	0.986358
941.940964	0.986681
942.243126	0.986918
942.545250	0.987309
942.847335	0.988132
943.149381	0.987525
943.451389	0.988082
943.753359	0.987898
944.055290	0.992211
944.357182	0.989332
944.659036	0.989415
944.960851	0.989259
945.262628	0.989171
945.564367	0.990614
945.866067	0.989495
946.167729	0.990217
946.469352	0.989726
946.770937	0.988446
947.072484	0.989228
947.373992	0.990493
947.675462	0.989697
947.976893	0.989235
948.278286	0.991145
948.579641	0.990722
948.880958	0.990143
949.182236	0.990305
949.483476	0.991896
949.784678	0.990872
950.085841	0.991393
950.386967	0.990919
950.688054	0.990217
950.989103	0.991413
951.290114	0.990172
951.591087	0.989119
951.892021	0.989686
952.192917	0.987944
952.493776	0.987768
952.794596	0.988920
953.095378	0.987233
953.396122	0.988955
953.696828	0.987190
953.997496	0.989978
954.298126	0.990545
954.598718	0.989793
954.899272	0.991005
955.199788	0.990587
955.500266	0.992173
955.800706	0.993320
956.101108	0.993112
956.401472	0.993551
956.701798	0.994596
957.002087	0.992258
957.302337	0.992664
957.602550	0.994962
957.902724	0.994885
958.202861	0.995923
958.502960	0.994903
958.803022	0.994145
959.103045	0.995824
959.403031	0.995205
959.702979	0.995324
960.002889	0.994903
960.302762	0.994392
960.602596	0.995528
960.902393	0.994881
961.202153	0.996362
961.501875	0.996657
961.801559	0.994460
962.101205	0.995180
962.400814	0.996117
962.700385	0.996369
962.999918	0.995621
963.299414	0.995722
963.598873	0.995360
963.898293	0.995119
964.197677	0.995747
964.497022	0.996332
964.796331	0.998657
965.095601	0.996708
965.394835	0.995012
965.694030	0.996165
965.993189	0.997198
966.292309	0.996414
966.591393	0.997799
966.890439	0.997109
967.189447	0.995554
967.488419	0.997387
967.787353	0.995808
968.086249	0.995533
968.385108	0.996752
968.683930	0.997121
968.982714	0.996675
969.281462	0.997433
969.580172	0.996044
969.878844	0.996358
970.177480	0.995740
970.476078	0.997425
970.774639	0.996857
971.073162	0.998338
971.371649	0.995979
971.670098	0.995656
971.968510	0.997700
972.266885	0.995005
972.565223	0.996223
972.863524	0.995811
973.161788	0.995540
973.460014	0.997459
973.758204	0.995817
974.056356	0.996594
974.354471	0.993578
974.652550	0.995885
974.950591	0.996205
975.248595	0.996264
975.546563	0.996623
975.844493	0.996734
976.142386	0.996228
976.440243	0.997162
976.738062	0.996981
977.035845	0.997229
977.333590	0.996285
977.631299	0.996794
977.928971	0.996839
978.226606	0.996446
978.524204	0.995627
978.821765	0.998003
979.119290	0.996793
979.416777	0.996683
979.714228	0.996897
980.011642	0.995538
980.309020	0.996750
980.606360	0.996812
980.903664	0.998175
981.200931	0.995318
981.498162	0.995736
981.795356	0.994829
982.092513	0.993084
982.389633	0.993882
982.686717	0.991384
982.983764	0.991211
983.280775	0.990112
983.577749	0.990323
983.874686	0.992278
984.171587	0.991375
984.468451	0.994454
984.765279	0.994167
985.062070	0.993717
985.358824	0.995471
985.655543	0.994561
985.952224	0.996058
986.248869	0.996906
986.545478	0.996618
986.842050	0.997706
987.138586	0.993948
987.435086	0.996020
987.731549	0.998827
988.027975	0.997955
988.324366	0.997239
988.620719	0.996865
988.917037	0.996147
989.213318	0.998776
989.509563	0.998603
989.805772	0.997534
990.101944	0.998348
990.398080	0.997458
990.694180	0.997592
990.990244	0.996553
991.286271	0.997771
991.582262	0.998450
991.878217	0.997730
992.174136	0.998739
992.470019	0.999339
992.765865	0.997643
993.061676	0.999130
993.357450	0.997552
993.653188	0.996387
993.948890	0.996849
994.244556	0.997936
994.540186	0.997373
994.835780	0.996608
995.131337	0.997317
995.426859	0.996467
995.722345	0.996961
996.017795	0.996044
996.313208	0.995289
996.608586	0.995151
996.903928	0.996861
997.199234	0.996494
997.494504	0.997379
997.789738	0.996230
998.084936	0.997119
998.380099	0.997586
998.675225	0.996714
998.970316	0.997499
999.265371	0.998200
999.560390	0.997101
999.855373	0.998890
1000.150320	0.997971
1000.445232	0.997416
1000.740108	0.996710
1001.034948	0.997884
1001.329752	0.997938
1001.624521	0.999421
1001.919254	0.998462
1002.213951	0.998532
1002.508613	0.998008
1002.803239	0.998389
1003.097829	0.997923
1003.392384	0.998955
1003.686903	0.998390
1003.981386	0.998638
1004.275834	0.999280
1004.570246	0.999654
1004.864623	0.999192
1005.158964	0.998856
1005.453270	0.998315
1005.747540	0.996078
1006.041775	0.997688
1006.335974	1.000325
1006.630138	0.998032
1006.924266	0.999762
1007.218359	0.999389
1007.512416	0.998370
1007.806438	0.998891
1008.100425	0.998424
1008.394376	0.997854
1008.688292	0.998942
1008.982172	1.000523
1009.276017	0.999147
1009.569827	0.998420
1009.863602	0.998656
1010.157341	0.999127
1010.451045	0.998358
1010.744714	0.999091
1011.038347	0.999877
1011.331945	0.997867
1011.625508	0.997323
1011.919036	0.999705
1012.212528	0.998268
1012.505986	0.998091
1012.799408	0.997966
1013.092795	0.998326
1013.386147	0.998817
1013.679464	0.997728
1013.972745	0.998345
1014.265992	0.997544
1014.559204	0.998717
1014.852380	0.998480
1015.145521	0.998862
1015.438628	0.998639
1015.731699	0.998673
1016.024736	0.999293
1016.317737	0.998323
1016.610703	0.997292
1016.903635	1.000012
1017.196531	0.998761
1017.489393	0.998822
1017.782219	0.999387
1018.075011	0.997933
1018.367768	0.998842
1018.660490	1.000268
1018.953177	1.000268
1019.245829	1.000268
