Dividing Wavelength (nm)	Counts (n)	Blue Motor Position (mm): 0.000000	Red Motor Position (mm): 21.400000	
326.493990	1.001460
326.888308	1.001460
327.282561	1.001460
327.676750	1.000491
328.070874	0.998461
328.464933	1.000168
328.858929	0.999528
329.252859	1.000020
329.646726	1.000002
330.040528	1.000968
330.434265	0.999300
330.827938	1.001457
331.221547	1.001742
331.615091	1.000127
332.008571	0.999997
332.401986	0.999095
332.795338	1.000666
333.188625	0.997874
333.581847	1.002109
333.975006	1.000082
334.368100	0.999337
334.761129	1.000410
335.154095	1.000703
335.546996	0.998686
335.939833	0.993894
336.332606	0.993363
336.725315	0.994944
337.117960	0.995571
337.510540	0.994978
337.903056	0.994661
338.295508	0.993581
338.687896	0.994616
339.080220	0.995007
339.472480	0.994948
339.864676	0.995303
340.256807	0.994908
340.648875	0.994789
341.040879	0.995974
341.432818	0.994582
341.824694	0.994611
342.216506	0.995439
342.608253	0.995112
342.999937	0.994998
343.391557	0.994117
343.783113	0.993993
344.174605	0.994878
344.566033	0.994547
344.957397	0.993460
345.348697	0.995214
345.739934	0.993484
346.131106	0.993722
346.522215	0.993514
346.913260	0.994416
347.304241	0.993952
347.695159	0.994940
348.086012	0.993411
348.476802	0.994311
348.867528	0.993568
349.258191	0.993753
349.648789	0.994925
350.039324	0.993505
350.429796	0.995316
350.820203	0.994385
351.210548	0.994739
351.600828	0.995308
351.991045	0.995049
352.381198	0.993022
352.771288	0.994180
353.161314	0.994189
353.551276	0.996713
353.941175	0.993956
354.331010	0.994739
354.720782	0.995267
355.110490	0.994009
355.500135	0.995244
355.889717	0.994797
356.279235	0.994891
356.668689	0.993686
357.058080	0.995126
357.447408	0.994876
357.836672	0.995137
358.225873	0.994326
358.615010	0.993791
359.004084	0.995168
359.393095	0.994690
359.782043	0.994507
360.170927	0.994750
360.559748	0.995181
360.948505	0.992998
361.337199	0.994829
361.725830	0.994951
362.114398	0.993866
362.502903	0.994350
362.891344	0.995681
363.279722	0.993583
363.668037	0.995663
364.056289	0.995434
364.444478	0.994925
364.832603	0.995352
365.220665	0.992494
365.608665	0.993131
365.996601	0.994649
366.384474	0.994913
366.772284	0.995355
367.160031	0.991507
367.547715	0.992705
367.935336	0.994645
368.322893	0.993476
368.710388	0.993659
369.097820	0.994620
369.485189	0.994223
369.872495	0.994060
370.259738	0.992944
370.646918	0.995006
371.034035	0.995758
371.421090	0.994185
371.808081	0.993358
372.195010	0.994880
372.581875	0.994951
372.968678	0.994909
373.355418	0.994991
373.742096	0.992806
374.128710	0.995019
374.515262	0.994450
374.901751	0.995177
375.288177	0.995104
375.674540	0.995942
376.060841	0.994598
376.447079	0.995270
376.833254	0.995043
377.219367	0.994958
377.605417	0.995196
377.991404	0.994924
378.377329	0.994363
378.763191	0.994282
379.148991	0.996247
379.534727	0.996216
379.920402	0.995381
380.306013	0.995926
380.691563	0.995722
381.077049	0.994688
381.462474	0.996063
381.847835	0.995928
382.233134	0.994264
382.618371	0.995459
383.003545	0.996007
383.388657	0.995661
383.773706	0.996616
384.158693	0.996134
384.543618	0.995624
384.928480	0.996387
385.313280	0.996707
385.698017	0.996170
386.082692	0.996886
386.467305	0.996783
386.851856	0.996925
387.236344	0.995723
387.620770	0.995379
388.005133	0.996324
388.389435	0.996564
388.773674	0.995751
389.157851	0.996351
389.541965	0.996651
389.926018	0.995806
390.310008	0.996601
390.693936	0.995912
391.077802	0.996726
391.461606	0.996475
391.845348	0.996415
392.229027	0.997483
392.612645	0.996843
392.996200	0.997243
393.379694	0.995952
393.763125	0.997384
394.146494	0.996902
394.529801	0.995899
394.913047	0.997431
395.296230	0.996967
395.679351	0.997076
396.062410	0.996013
396.445408	0.996251
396.828343	0.996953
397.211217	0.995630
397.594028	0.996484
397.976778	0.996017
398.359466	0.996814
398.742092	0.996009
399.124656	0.996270
399.507158	0.996513
399.889598	0.996031
400.271977	0.996974
400.654294	0.996778
401.036549	0.997211
401.418742	0.997129
401.800874	0.995836
402.182944	0.996344
402.564952	0.995853
402.946898	0.997568
403.328783	0.996081
403.710606	0.996634
404.092367	0.996429
404.474067	0.995867
404.855705	0.996080
405.237282	0.996479
405.618797	0.996331
406.000250	0.995908
406.381642	0.996521
406.762972	0.996201
407.144240	0.997484
407.525447	0.996290
407.906593	0.996445
408.287677	0.996945
408.668700	0.996686
409.049661	0.994830
409.430560	0.995789
409.811399	0.995258
410.192176	0.996027
410.572891	0.995394
410.953545	0.994954
411.334138	0.994924
411.714669	0.995899
412.095139	0.994848
412.475547	0.996296
412.855894	0.995626
413.236180	0.995632
413.616405	0.995315
413.996568	0.995654
414.376670	0.994736
414.756711	0.994535
415.136691	0.993884
415.516609	0.993605
415.896466	0.993107
416.276262	0.992138
416.655997	0.992630
417.035670	0.990948
417.415283	0.990637
417.794834	0.988576
418.174324	0.987919
418.553753	0.986965
418.933121	0.984822
419.312428	0.983474
419.691674	0.982278
420.070859	0.980241
420.449983	0.977598
420.829045	0.976187
421.208047	0.974330
421.586988	0.972004
421.965867	0.968099
422.344686	0.965130
422.723444	0.963149
423.102141	0.960518
423.480777	0.956540
423.859352	0.953086
424.237866	0.948708
424.616319	0.944986
424.994712	0.941067
425.373044	0.936979
425.751314	0.931111
426.129524	0.928085
426.507673	0.921697
426.885762	0.917446
427.263789	0.911300
427.641756	0.908015
428.019662	0.900477
428.397508	0.893746
428.775292	0.887031
429.153016	0.880522
429.530679	0.876858
429.908282	0.868784
430.285824	0.863688
430.663305	0.850991
431.040726	0.849252
431.418086	0.843701
431.795385	0.832432
432.172624	0.824454
432.549802	0.817361
432.926920	0.809237
433.303977	0.799955
433.680974	0.792246
434.057910	0.782989
434.434786	0.774702
434.811601	0.766619
435.188355	0.751350
435.565050	0.746533
435.941683	0.739020
436.318257	0.722735
436.694770	0.713416
437.071222	0.704280
437.447614	0.697093
437.823946	0.692229
438.200218	0.677774
438.576429	0.674677
438.952580	0.661811
439.328670	0.651492
439.704700	0.647682
440.080670	0.640437
440.456580	0.619226
440.832429	0.616044
441.208218	0.615841
441.583947	0.600363
441.959616	0.592619
442.335224	0.588080
442.710773	0.575217
443.086261	0.565178
443.461689	0.569861
443.837057	0.554089
444.212365	0.539840
444.587612	0.538919
444.962800	0.524324
445.337927	0.518871
445.712995	0.533987
446.088002	0.496954
446.462949	0.500576
446.837837	0.498365
447.212664	0.484346
447.587431	0.470584
447.962139	0.441051
448.336786	0.400905
448.711374	0.405594
449.085901	0.439094
449.460369	0.437804
449.834776	0.437026
450.209124	0.414406
450.583412	0.403382
450.957640	0.394240
451.331808	0.400670
451.705917	0.418990
452.079965	0.420459
452.453954	0.406393
452.827883	0.410329
453.201752	0.402795
453.575562	0.411725
453.949311	0.398260
454.323001	0.402688
454.696632	0.396696
455.070202	0.387813
455.443713	0.377830
455.817164	0.371413
456.190556	0.366052
456.563888	0.361598
456.937160	0.358061
457.310373	0.373874
457.683526	0.371584
458.056619	0.376245
458.429653	0.376431
458.802628	0.378333
459.175542	0.372385
459.548398	0.354684
459.921194	0.346705
460.293930	0.346295
460.666607	0.323661
461.039224	0.311644
461.411782	0.307079
461.784280	0.306191
462.156719	0.309883
462.529099	0.313399
462.901419	0.329483
463.273680	0.333594
463.645882	0.332726
464.018024	0.338228
464.390106	0.331026
464.762130	0.315763
465.134094	0.298781
465.505999	0.268255
465.877845	0.238590
466.249631	0.225719
466.621358	0.232791
466.993026	0.246475
467.364634	0.252329
467.736184	0.261042
468.107674	0.269716
468.479105	0.268503
468.850477	0.275660
469.221790	0.282596
469.593043	0.292352
469.964238	0.297395
470.335373	0.296288
470.706449	0.294358
471.077467	0.295247
471.448425	0.257435
471.819324	0.233286
472.190164	0.232431
472.560945	0.261238
472.931667	0.283181
473.302330	0.287122
473.672934	0.299656
474.043479	0.287576
474.413965	0.289218
474.784393	0.292656
475.154761	0.287702
475.525070	0.284865
475.895321	0.290457
476.265513	0.284709
476.635645	0.279904
477.005719	0.280137
477.375734	0.276773
477.745691	0.270064
478.115588	0.266523
478.485427	0.259806
478.855207	0.246790
479.224928	0.229561
479.594591	0.217677
479.964194	0.221137
480.333739	0.222286
480.703226	0.223723
481.072653	0.222250
481.442022	0.217834
481.811333	0.214338
482.180584	0.218056
482.549777	0.223077
482.918912	0.226541
483.287988	0.226230
483.657005	0.225921
484.025964	0.232357
484.394864	0.229557
484.763706	0.230094
485.132489	0.235021
485.501213	0.236097
485.869879	0.234022
486.238487	0.237843
486.607036	0.235548
486.975527	0.239958
487.343959	0.236052
487.712333	0.234867
488.080648	0.236236
488.448905	0.235668
488.817104	0.236760
489.185244	0.231132
489.553326	0.228214
489.921350	0.218009
490.289315	0.200695
490.657222	0.195716
491.025070	0.196787
491.392861	0.198818
491.760593	0.204580
492.128267	0.210115
492.495883	0.215412
492.863440	0.221733
493.230939	0.228097
493.598380	0.229307
493.965763	0.231610
494.333088	0.233937
494.700354	0.235152
495.067563	0.234159
495.434713	0.237370
495.801805	0.235309
496.168839	0.236672
496.535815	0.238121
496.902733	0.238116
497.269593	0.239720
497.636395	0.237366
498.003139	0.237639
498.369825	0.240597
498.736453	0.236917
499.103023	0.238476
499.469535	0.237966
499.835989	0.238266
500.202385	0.239227
500.568723	0.242273
500.935003	0.237522
501.301226	0.241609
501.667390	0.235959
502.033497	0.233876
502.399546	0.237244
502.765537	0.238774
503.131470	0.237203
503.497345	0.233515
503.863163	0.242487
504.228923	0.235176
504.594625	0.234042
504.960269	0.239561
505.325856	0.234715
505.691385	0.238771
506.056856	0.235966
506.422270	0.235060
506.787625	0.237436
507.152924	0.235129
507.518164	0.235280
507.883347	0.236934
508.248472	0.238801
508.613540	0.233803
508.978550	0.236561
509.343503	0.236782
509.708398	0.234574
510.073236	0.232149
510.438016	0.232228
510.802738	0.232813
511.167403	0.232029
511.532010	0.234141
511.896561	0.229385
512.261053	0.228361
512.625488	0.230266
512.989866	0.230654
513.354186	0.231144
513.718449	0.232817
514.082655	0.229324
514.446803	0.231444
514.810894	0.229082
515.174927	0.231707
515.538904	0.231213
515.902822	0.228336
516.266684	0.230603
516.630488	0.231604
516.994235	0.230552
517.357925	0.229203
517.721558	0.227621
518.085133	0.227110
518.448651	0.227326
518.812112	0.229335
519.175516	0.229150
519.538863	0.226661
519.902152	0.228476
520.265385	0.225079
520.628560	0.227073
520.991678	0.227457
521.354739	0.226160
521.717743	0.227489
522.080690	0.227866
522.443580	0.225118
522.806413	0.226092
523.169189	0.225450
523.531908	0.224380
523.894569	0.227727
524.257174	0.227880
524.619722	0.225471
524.982213	0.226901
525.344647	0.225703
525.707025	0.226609
526.069345	0.224707
526.431608	0.226474
526.793815	0.224141
527.155964	0.228242
527.518057	0.227516
527.880093	0.228426
528.242072	0.226861
528.603995	0.228894
528.965860	0.230595
529.327669	0.229235
529.689421	0.230127
530.051117	0.231281
530.412755	0.228740
530.774337	0.231324
531.135862	0.231514
531.497331	0.230805
531.858743	0.233707
532.220098	0.230535
532.581396	0.233246
532.942638	0.233408
533.303824	0.234589
533.664953	0.233967
534.026025	0.235894
534.387040	0.234099
534.747999	0.233933
535.108902	0.232645
535.469748	0.237592
535.830537	0.235710
536.191270	0.236195
536.551947	0.235691
536.912567	0.235510
537.273131	0.237264
537.633638	0.237369
537.994089	0.237890
538.354483	0.238999
538.714821	0.236159
539.075103	0.235598
539.435328	0.236570
539.795497	0.239962
540.155609	0.236749
540.515665	0.234925
540.875665	0.240267
541.235609	0.239109
541.595496	0.239077
541.955328	0.235492
542.315102	0.238117
542.674821	0.239475
543.034483	0.239641
543.394090	0.239025
543.753640	0.241249
544.113134	0.236000
544.472571	0.239245
544.831953	0.236427
545.191278	0.240402
545.550548	0.239778
545.909761	0.236430
546.268918	0.237288
546.628019	0.235428
546.987064	0.238591
547.346053	0.240283
547.704986	0.237958
548.063863	0.238293
548.422684	0.238930
548.781449	0.240276
549.140158	0.237946
549.498811	0.240700
549.857408	0.243900
550.215949	0.238652
550.574434	0.241669
550.932864	0.239977
551.291237	0.238426
551.649555	0.239841
552.007817	0.239633
552.366022	0.240329
552.724173	0.240634
553.082267	0.241000
553.440305	0.237941
553.798288	0.242295
554.156215	0.238829
554.514086	0.239355
554.871902	0.242661
555.229661	0.241783
555.587365	0.242439
555.945014	0.244933
556.302606	0.241875
556.660143	0.244611
557.017625	0.240891
557.375050	0.243092
557.732421	0.240261
558.089735	0.242182
558.446994	0.242163
558.804197	0.241309
559.161345	0.241345
559.518437	0.244876
559.875474	0.242697
560.232455	0.242117
560.589381	0.243302
560.946251	0.243076
561.303065	0.240671
561.659825	0.242145
562.016528	0.243812
562.373177	0.246575
562.729770	0.243753
563.086307	0.246212
563.442789	0.243809
563.799216	0.246580
564.155587	0.245392
564.511904	0.246475
564.868164	0.246672
565.224370	0.246411
565.580520	0.248166
565.936615	0.248040
566.292654	0.250864
566.648638	0.248009
567.004567	0.248928
567.360441	0.249481
567.716260	0.251648
568.072023	0.249228
568.427732	0.249978
568.783385	0.252406
569.138982	0.250250
569.494525	0.250302
569.850013	0.253169
570.205445	0.251709
570.560823	0.254041
570.916145	0.255700
571.271412	0.254182
571.626625	0.255472
571.981782	0.256029
572.336884	0.257183
572.691931	0.256627
573.046923	0.257780
573.401860	0.259319
573.756743	0.260733
574.111570	0.259819
574.466342	0.260330
574.821059	0.259473
575.175722	0.262373
575.530330	0.261728
575.884882	0.262163
576.239380	0.264236
576.593823	0.264791
576.948211	0.264043
577.302544	0.267423
577.656823	0.267052
578.011047	0.267369
578.365216	0.267674
578.719330	0.269810
579.073389	0.269666
579.427394	0.270895
579.781344	0.271547
580.135239	0.273077
580.489080	0.272620
580.842866	0.275490
581.196597	0.275848
581.550273	0.274345
581.903895	0.275301
582.257463	0.273864
582.610975	0.276824
582.964434	0.276272
583.317837	0.278520
583.671186	0.278948
584.024481	0.279192
584.377721	0.281696
584.730906	0.282211
585.084037	0.281246
585.437113	0.283347
585.790135	0.282387
586.143103	0.285500
586.496016	0.286617
586.848874	0.284168
587.201679	0.284783
587.554428	0.288041
587.907124	0.287130
588.259765	0.287912
588.612352	0.288003
588.964884	0.291860
589.317362	0.291585
589.669786	0.291382
590.022155	0.289790
590.374470	0.289311
590.726731	0.291228
591.078937	0.296297
591.431090	0.292253
591.783188	0.296764
592.135232	0.297266
592.487222	0.297218
592.839157	0.295238
593.191038	0.297677
593.542866	0.299580
593.894639	0.302847
594.246358	0.300884
594.598022	0.300382
594.949633	0.304081
595.301190	0.305011
595.652692	0.304202
596.004141	0.300121
596.355535	0.308141
596.706876	0.308664
597.058162	0.311023
597.409395	0.308231
597.760573	0.306364
598.111698	0.309369
598.462768	0.309567
598.813785	0.311341
599.164748	0.312476
599.515657	0.312864
599.866511	0.315881
600.217312	0.311242
600.568060	0.316643
600.918753	0.313266
601.269392	0.313876
601.619978	0.317278
601.970510	0.314740
602.320988	0.315029
602.671412	0.312620
603.021783	0.315484
603.372100	0.316715
603.722363	0.315880
604.072572	0.317064
604.422728	0.316793
604.772830	0.318970
605.122878	0.318355
605.472872	0.318491
605.822813	0.317267
606.172701	0.319710
606.522534	0.317183
606.872314	0.317603
607.222041	0.318130
607.571714	0.316766
607.921333	0.317835
608.270899	0.317709
608.620411	0.314323
608.969870	0.318177
609.319276	0.318355
609.668627	0.318339
610.017926	0.316467
610.367171	0.315337
610.716362	0.316143
611.065500	0.316069
611.414585	0.314764
611.763616	0.315748
612.112594	0.316155
612.461518	0.315331
612.810389	0.312917
613.159207	0.315510
613.507971	0.317146
613.856682	0.312789
614.205340	0.314287
614.553945	0.311453
614.902496	0.315095
615.250994	0.313308
615.599439	0.314201
615.947830	0.313266
616.296169	0.314338
616.644454	0.313730
616.992686	0.314137
617.340864	0.311945
617.688990	0.315134
618.037063	0.312220
618.385082	0.313659
618.733048	0.310773
619.080961	0.313004
619.428821	0.312516
619.776628	0.311924
620.124382	0.314083
620.472083	0.314452
620.819731	0.313737
621.167326	0.317681
621.514868	0.317096
621.862357	0.321515
622.209793	0.320966
622.557176	0.323566
622.904506	0.324400
623.251783	0.326960
623.599007	0.328962
623.946179	0.328389
624.293297	0.330405
624.640363	0.334571
624.987376	0.334986
625.334336	0.337623
625.681243	0.339808
626.028097	0.340053
626.374899	0.341359
626.721647	0.341483
627.068343	0.344954
627.414987	0.345758
627.761577	0.348022
628.108115	0.346406
628.454600	0.351251
628.801032	0.348654
629.147412	0.350819
629.493739	0.350982
629.840014	0.354467
630.186236	0.351780
630.532405	0.357289
630.878521	0.354764
631.224585	0.357065
631.570597	0.360607
631.916556	0.358609
632.262462	0.359134
632.608316	0.360910
632.954117	0.361917
633.299866	0.362577
633.645562	0.363084
633.991206	0.367507
634.336797	0.370481
634.682336	0.372891
635.027823	0.374307
635.373257	0.374902
635.718639	0.378480
636.063968	0.377527
636.409245	0.383495
636.754470	0.383739
637.099642	0.386378
637.444762	0.389500
637.789829	0.388580
638.134845	0.392349
638.479808	0.392923
638.824719	0.392978
639.169577	0.396898
639.514383	0.395819
639.859137	0.400146
640.203839	0.399810
640.548489	0.400866
640.893086	0.401803
641.237632	0.403261
641.582125	0.401884
641.926566	0.403901
642.270955	0.403667
642.615292	0.403640
642.959576	0.402970
643.303809	0.404034
643.647990	0.403420
643.992118	0.403787
644.336195	0.407321
644.680219	0.405536
645.024192	0.406292
645.368112	0.399943
645.711981	0.398818
646.055797	0.394575
646.399562	0.396669
646.743274	0.388823
647.086935	0.385964
647.430544	0.386225
647.774101	0.385317
648.117606	0.385070
648.461059	0.385177
648.804460	0.387793
649.147810	0.392392
649.491108	0.395012
649.834354	0.395899
650.177548	0.401520
650.520690	0.406490
650.863781	0.408026
651.206820	0.407505
651.549807	0.412193
651.892742	0.415695
652.235626	0.415113
652.578458	0.416525
652.921238	0.422031
653.263967	0.420032
653.606644	0.424428
653.949269	0.424424
654.291843	0.427779
654.634365	0.424624
654.976836	0.427910
655.319255	0.427800
655.661622	0.430016
656.003938	0.429415
656.346203	0.432905
656.688416	0.430575
657.030577	0.433758
657.372687	0.435429
657.714746	0.436426
658.056753	0.433613
658.398708	0.437175
658.740612	0.438678
659.082465	0.434257
659.424266	0.435375
659.766016	0.434833
660.107715	0.436825
660.449362	0.436359
660.790958	0.436867
661.132503	0.436776
661.473996	0.435564
661.815438	0.436125
662.156829	0.435977
662.498168	0.436394
662.839456	0.438282
663.180693	0.436443
663.521879	0.435948
663.863013	0.437090
664.204097	0.434842
664.545129	0.432509
664.886110	0.432585
665.227040	0.430423
665.567918	0.432845
665.908746	0.430671
666.249522	0.430498
666.590248	0.431230
666.930922	0.429517
667.271545	0.428182
667.612118	0.428440
667.952639	0.430270
668.293109	0.428752
668.633528	0.431485
668.973896	0.431891
669.314213	0.431936
669.654480	0.433533
669.994695	0.433848
670.334859	0.435000
670.674973	0.434873
671.015035	0.435070
671.355047	0.434708
671.695008	0.435980
672.034918	0.437854
672.374777	0.437366
672.714585	0.438798
673.054342	0.438469
673.394049	0.438820
673.733705	0.435938
674.073310	0.437154
674.412864	0.440317
674.752368	0.440518
675.091820	0.440832
675.431223	0.445352
675.770574	0.445131
676.109875	0.448571
676.449125	0.448040
676.788324	0.450455
677.127473	0.455981
677.466571	0.455769
677.805619	0.456891
678.144616	0.458847
678.483562	0.460044
678.822458	0.462348
679.161303	0.463516
679.500098	0.463985
679.838842	0.465806
680.177535	0.465609
680.516179	0.464097
680.854771	0.463240
681.193314	0.456441
681.531805	0.447713
681.870247	0.436127
682.208638	0.428793
682.546978	0.427842
682.885268	0.429327
683.223508	0.435285
683.561697	0.438875
683.899836	0.442349
684.237925	0.444933
684.575963	0.447983
684.913951	0.451104
685.251889	0.446720
685.589776	0.448961
685.927614	0.450974
686.265401	0.444892
686.603137	0.447026
686.940824	0.441038
687.278460	0.439173
687.616046	0.438455
687.953582	0.432864
688.291068	0.434618
688.628504	0.429816
688.965889	0.432195
689.303224	0.436833
689.640510	0.440450
689.977745	0.446197
690.314930	0.454057
690.652065	0.459106
690.989150	0.466482
691.326185	0.472441
691.663170	0.477790
692.000105	0.484373
692.336990	0.491727
692.673825	0.494176
693.010610	0.500892
693.347345	0.506324
693.684030	0.508040
694.020665	0.512636
694.357251	0.521626
694.693786	0.521032
695.030272	0.525458
695.366707	0.528572
695.703093	0.532450
696.039429	0.529765
696.375716	0.531011
696.711952	0.535002
697.048139	0.536406
697.384276	0.538334
697.720363	0.535589
698.056400	0.534954
698.392388	0.541538
698.728326	0.543569
699.064214	0.546500
699.400053	0.547833
699.735842	0.551051
700.071581	0.554270
700.407270	0.556671
700.742910	0.559341
701.078501	0.565594
701.414042	0.566349
701.749533	0.569087
702.084974	0.577774
702.420366	0.569932
702.755709	0.577760
703.091002	0.586048
703.426246	0.579428
703.761440	0.585173
704.096584	0.590439
704.431679	0.587164
704.766725	0.588940
705.101721	0.590309
705.436668	0.587252
705.771565	0.593896
706.106413	0.590478
706.441212	0.585923
706.775961	0.584411
707.110661	0.587115
707.445311	0.584064
707.779913	0.580433
708.114465	0.579049
708.448967	0.576044
708.783421	0.568257
709.117825	0.562579
709.452180	0.562838
709.786485	0.557134
710.120742	0.546295
710.454949	0.548689
710.789107	0.540919
711.123216	0.531959
711.457275	0.533730
711.791286	0.524290
712.125247	0.523268
712.459159	0.534313
712.793023	0.526631
713.126837	0.530570
713.460602	0.531441
713.794318	0.540385
714.127985	0.539314
714.461602	0.549622
714.795171	0.552751
715.128691	0.561106
715.462162	0.567609
715.795584	0.573445
716.128957	0.576493
716.462281	0.582964
716.795556	0.586684
717.128782	0.591492
717.461960	0.601288
717.795088	0.599869
718.128167	0.605333
718.461198	0.613535
718.794180	0.614587
719.127113	0.617461
719.459997	0.621824
719.792833	0.627664
720.125619	0.628776
720.458357	0.635083
720.791046	0.634412
721.123686	0.637614
721.456278	0.644442
721.788821	0.641878
722.121315	0.646133
722.453761	0.650447
722.786158	0.647641
723.118506	0.644374
723.450805	0.652927
723.783056	0.648323
724.115259	0.645691
724.447412	0.644988
724.779518	0.647343
725.111574	0.645524
725.443582	0.641181
725.775542	0.643331
726.107453	0.635587
726.439315	0.635022
726.771129	0.633634
727.102895	0.627959
727.434612	0.620441
727.766281	0.617217
728.097901	0.617305
728.429473	0.616782
728.760996	0.616052
729.092471	0.615846
729.423897	0.619751
729.755276	0.618724
730.086606	0.618464
730.417887	0.613040
730.749120	0.603863
731.080305	0.594639
731.411442	0.590798
731.742530	0.594942
732.073570	0.595015
732.404562	0.587309
732.735506	0.588457
733.066401	0.592907
733.397249	0.602215
733.728048	0.613629
734.058798	0.626715
734.389501	0.636404
734.720156	0.646050
735.050762	0.654911
735.381320	0.655348
735.711831	0.664704
736.042293	0.669941
736.372707	0.665184
736.703073	0.670292
737.033391	0.673213
737.363661	0.669349
737.693883	0.665038
738.024056	0.663869
738.354182	0.663737
738.684260	0.653119
739.014290	0.649090
739.344272	0.650214
739.674207	0.643731
740.004093	0.642177
740.333931	0.643790
740.663722	0.642980
740.993464	0.644214
741.323159	0.647387
741.652806	0.652483
741.982405	0.657440
742.311956	0.661818
742.641460	0.663999
742.970915	0.667857
743.300323	0.675294
743.629683	0.682393
743.958996	0.683737
744.288260	0.688476
744.617477	0.694431
744.946647	0.695787
745.275768	0.701281
745.604842	0.700707
745.933869	0.712090
746.262847	0.711681
746.591778	0.705353
746.920662	0.711291
747.249498	0.717222
747.578286	0.708773
747.907027	0.704410
748.235720	0.705293
748.564365	0.700017
748.892963	0.700687
749.221514	0.703724
749.550017	0.708685
749.878473	0.707706
750.206881	0.714602
750.535242	0.716025
750.863555	0.715998
751.191821	0.716015
751.520039	0.719855
751.848210	0.725382
752.176334	0.718199
752.504411	0.716428
752.832440	0.723475
753.160421	0.729055
753.488356	0.726998
753.816243	0.722921
754.144082	0.733124
754.471875	0.735926
754.799620	0.732113
755.127318	0.732685
755.454969	0.732533
755.782572	0.731910
756.110129	0.736793
756.437638	0.739406
756.765100	0.736187
757.092515	0.734121
757.419882	0.733247
757.747203	0.738260
758.074477	0.737609
758.401703	0.734728
758.728882	0.729691
759.056014	0.729147
759.383099	0.727202
759.710138	0.728525
760.037129	0.725427
760.364073	0.718925
760.690970	0.722114
761.017820	0.728534
761.344623	0.722592
761.671379	0.713795
761.998088	0.703288
762.324751	0.679595
762.651366	0.637697
762.977935	0.571082
763.304456	0.519136
763.630931	0.509952
763.957359	0.548906
764.283740	0.593542
764.610074	0.620396
764.936362	0.651793
765.262602	0.678254
765.588796	0.699760
765.914943	0.717456
766.241044	0.734825
766.567097	0.742045
766.893104	0.751175
767.219064	0.758492
767.544978	0.764059
767.870845	0.778769
768.196665	0.781681
768.522438	0.779155
768.848165	0.781072
769.173846	0.790093
769.499479	0.794262
769.825066	0.797626
770.150607	0.803437
770.476101	0.797573
770.801548	0.798761
771.126949	0.810408
771.452303	0.814800
771.777611	0.813098
772.102872	0.812357
772.428087	0.818094
772.753256	0.820631
773.078378	0.823241
773.403453	0.832570
773.728482	0.836898
774.053465	0.831000
774.378401	0.833030
774.703291	0.842435
775.028135	0.841886
775.352932	0.842901
775.677683	0.846474
776.002388	0.846221
776.327046	0.845621
776.651658	0.848800
776.976224	0.851892
777.300743	0.853251
777.625216	0.855601
777.949643	0.856973
778.274024	0.857121
778.598359	0.858188
778.922647	0.856704
779.246889	0.857486
779.571086	0.861474
779.895236	0.864725
780.219339	0.860859
780.543397	0.857912
780.867409	0.856932
781.191374	0.859233
781.515294	0.860569
781.839167	0.859049
782.162995	0.862718
782.486776	0.859630
782.810511	0.860894
783.134201	0.863347
783.457844	0.861948
783.781441	0.863915
784.104993	0.870445
784.428498	0.870761
784.751958	0.866503
785.075372	0.869288
785.398739	0.872455
785.722061	0.869808
786.045337	0.864387
786.368568	0.870091
786.691752	0.871819
787.014891	0.857032
787.337983	0.848573
787.661030	0.841103
787.984031	0.823077
788.306987	0.810816
788.629897	0.812843
788.952760	0.817276
789.275579	0.821457
789.598351	0.836050
789.921078	0.850141
790.243759	0.851977
790.566395	0.856693
790.888984	0.862976
791.211529	0.869398
791.534027	0.870974
791.856480	0.873410
792.178888	0.878975
792.501249	0.881772
792.823566	0.882088
793.145836	0.882009
793.468062	0.884054
793.790241	0.884687
794.112375	0.883942
794.434464	0.879085
794.756507	0.878554
795.078505	0.878462
795.400457	0.872194
795.722364	0.860918
796.044226	0.853409
796.366042	0.852601
796.687812	0.854863
797.009538	0.852695
797.331218	0.855172
797.652852	0.859872
797.974442	0.863964
798.295986	0.863955
798.617484	0.867281
798.938938	0.870945
799.260346	0.875831
799.581709	0.878425
799.903026	0.880663
800.224299	0.881111
800.545526	0.883962
800.866708	0.888506
801.187845	0.892592
801.508936	0.891753
801.829983	0.889288
802.150984	0.892994
802.471940	0.897818
802.792851	0.897960
803.113717	0.898413
803.434538	0.896826
803.755314	0.898432
804.076045	0.899827
804.396731	0.898909
804.717372	0.899784
805.037967	0.901189
805.358518	0.899198
805.679024	0.896986
805.999485	0.896362
806.319901	0.897254
806.640272	0.898179
806.960598	0.896969
807.280879	0.893287
807.601115	0.893290
807.921306	0.895779
808.241453	0.895505
808.561554	0.894155
808.881611	0.894157
809.201623	0.896138
809.521590	0.896194
809.841513	0.897034
810.161390	0.896811
810.481223	0.898808
810.801011	0.901669
811.120755	0.902372
811.440453	0.901833
811.760107	0.900537
812.079716	0.899931
812.399281	0.903552
812.718801	0.906345
813.038276	0.906795
813.357707	0.907295
813.677093	0.903952
813.996434	0.906837
814.315731	0.908028
814.634983	0.910023
814.954191	0.908394
815.273354	0.905572
815.592473	0.901178
815.911547	0.901649
816.230577	0.899922
816.549562	0.896601
816.868502	0.897509
817.187399	0.893486
817.506250	0.887508
817.825058	0.890397
818.143821	0.886152
818.462539	0.881867
818.781213	0.873586
819.099843	0.862829
819.418429	0.846605
819.736970	0.830104
820.055466	0.809066
820.373919	0.784889
820.692327	0.752121
821.010691	0.717315
821.329011	0.640169
821.647286	0.524751
821.965517	0.411430
822.283704	0.368713
822.601847	0.369843
822.919945	0.405667
823.237999	0.439208
823.556010	0.485694
823.873976	0.542192
824.191897	0.592092
824.509775	0.635148
824.827609	0.679475
825.145398	0.701782
825.463144	0.705164
825.780845	0.687746
826.098502	0.669561
826.416116	0.623619
826.733685	0.579570
827.051210	0.571237
827.368692	0.585335
827.686129	0.623221
828.003522	0.676180
828.320872	0.723721
828.638177	0.767052
828.955439	0.800018
829.272656	0.821914
829.589830	0.839211
829.906960	0.854667
830.224046	0.866693
830.541088	0.878802
830.858086	0.881294
831.175041	0.888126
831.491952	0.887614
831.808819	0.883096
832.125642	0.877833
832.442421	0.862489
832.759157	0.840602
833.075849	0.794178
833.392497	0.730917
833.709101	0.690509
834.025662	0.699644
834.342179	0.731757
834.658653	0.769873
834.975083	0.807031
835.291469	0.831801
835.607811	0.854966
835.924110	0.870232
836.240366	0.888265
836.556578	0.901702
836.872746	0.907565
837.188871	0.915219
837.504952	0.920505
837.820990	0.923067
838.136984	0.927636
838.452935	0.931321
838.768842	0.931694
839.084706	0.924926
839.400526	0.898576
839.716303	0.859517
840.032037	0.836945
840.347727	0.840748
840.663373	0.859112
840.978977	0.880919
841.294537	0.902439
841.610054	0.917938
841.925527	0.926113
842.240957	0.933502
842.556344	0.939871
842.871687	0.947453
843.186987	0.950701
843.502244	0.949828
843.817458	0.951960
844.132629	0.956574
844.447756	0.960955
844.762840	0.961106
845.077881	0.959778
845.392879	0.959827
845.707833	0.962801
846.022745	0.964666
846.337613	0.964295
846.652438	0.966125
846.967221	0.965823
847.281960	0.964498
847.596656	0.967510
847.911309	0.966172
848.225919	0.967909
848.540485	0.968387
848.855009	0.968826
849.169490	0.968226
849.483928	0.969440
849.798323	0.969309
850.112675	0.970005
850.426984	0.970545
850.741251	0.970588
851.055474	0.969708
851.369654	0.968066
851.683792	0.969526
851.997887	0.969762
852.311938	0.971097
852.625947	0.969853
852.939914	0.968861
853.253837	0.969473
853.567718	0.971509
853.881555	0.971116
854.195350	0.968857
854.509103	0.969051
854.822812	0.970728
855.136479	0.970420
855.450103	0.970552
855.763685	0.967696
856.077224	0.968644
856.390720	0.971166
856.704173	0.970004
857.017584	0.969089
857.330953	0.966484
857.644278	0.968714
857.957561	0.968909
858.270802	0.968506
858.584000	0.967839
858.897155	0.967790
859.210268	0.967377
859.523339	0.968964
859.836367	0.970027
860.149352	0.971444
860.462295	0.967880
860.775195	0.969671
861.088054	0.969273
861.400869	0.970530
861.713642	0.969710
862.026373	0.971236
862.339062	0.971148
862.651708	0.969379
862.964312	0.968496
863.276873	0.969747
863.589392	0.967970
863.901869	0.966749
864.214303	0.965763
864.526696	0.964349
864.839045	0.964493
865.151353	0.961385
865.463619	0.963266
865.775842	0.963382
866.088023	0.961975
866.400162	0.962041
866.712258	0.963229
867.024313	0.963080
867.336325	0.963664
867.648296	0.963390
867.960224	0.962022
868.272110	0.962476
868.583954	0.964996
868.895755	0.963629
869.207515	0.961983
869.519233	0.960368
869.830909	0.961859
870.142542	0.963221
870.454134	0.962558
870.765684	0.961089
871.077191	0.958885
871.388657	0.958938
871.700081	0.957506
872.011463	0.958538
872.322803	0.957599
872.634101	0.957651
872.945357	0.954760
873.256571	0.954163
873.567744	0.952469
873.878874	0.954089
874.189963	0.952529
874.501010	0.951214
874.812015	0.950696
875.122979	0.951301
875.433900	0.953739
875.744780	0.953603
876.055618	0.950825
876.366415	0.950497
876.677169	0.951045
876.987882	0.951921
877.298554	0.951716
877.609183	0.948916
877.919771	0.946811
878.230317	0.944527
878.540822	0.941001
878.851285	0.935039
879.161707	0.927291
879.472087	0.915751
879.782425	0.899487
880.092722	0.865223
880.402977	0.813367
880.713191	0.753764
881.023363	0.694687
881.333494	0.661090
881.643583	0.633179
881.953631	0.632370
882.263637	0.661545
882.573602	0.700545
882.883526	0.726390
883.193408	0.748456
883.503248	0.771750
883.813048	0.799485
884.122806	0.828351
884.432522	0.851445
884.742197	0.871134
885.051831	0.882062
885.361424	0.891902
885.670975	0.903444
885.980485	0.914594
886.289954	0.920582
886.599382	0.925918
886.908768	0.928623
887.218113	0.935058
887.527417	0.938911
887.836680	0.942560
888.145901	0.943188
888.455082	0.946575
888.764221	0.950905
889.073319	0.953971
889.382376	0.953480
889.691392	0.954014
890.000366	0.953156
890.309300	0.953496
890.618193	0.953990
890.927044	0.951590
891.235855	0.952568
891.544625	0.950995
891.853353	0.952294
892.162041	0.950051
892.470687	0.943328
892.779293	0.938697
893.087858	0.934551
893.396381	0.926472
893.704864	0.914075
894.013306	0.889847
894.321707	0.864622
894.630068	0.849248
894.938387	0.843199
895.246665	0.845094
895.554903	0.857781
895.863100	0.871648
896.171256	0.888574
896.479371	0.907137
896.787446	0.920027
897.095480	0.925582
897.403473	0.929606
897.711425	0.933317
898.019336	0.940758
898.327207	0.942891
898.635038	0.946241
898.942827	0.945082
899.250576	0.949239
899.558284	0.952943
899.865952	0.954110
900.173579	0.955943
900.481165	0.955028
900.788711	0.960409
901.096216	0.961331
901.403681	0.962241
901.711105	0.963895
902.018489	0.964283
902.325832	0.962084
902.633135	0.962506
902.940397	0.955899
903.247619	0.944150
903.554800	0.919414
903.861941	0.879608
904.169041	0.843190
904.476101	0.827200
904.783121	0.827118
905.090100	0.844365
905.397039	0.865545
905.703938	0.886474
906.010796	0.906912
906.317614	0.923362
906.624391	0.934473
906.931129	0.944135
907.237826	0.951752
907.544483	0.959960
907.851099	0.962868
908.157675	0.968947
908.464211	0.970117
908.770707	0.973036
909.077163	0.975003
909.383578	0.974747
909.689954	0.975933
909.996289	0.975217
910.302584	0.978652
910.608839	0.979303
910.915054	0.979234
911.221229	0.977457
911.527363	0.977392
911.833458	0.976970
912.139513	0.977849
912.445527	0.976036
912.751502	0.973471
913.057436	0.973666
913.363331	0.970392
913.669186	0.966364
913.975000	0.962093
914.280775	0.956271
914.586510	0.949637
914.892205	0.935761
915.197859	0.915168
915.503475	0.887373
915.809050	0.867989
916.114585	0.862439
916.420081	0.860728
916.725536	0.857136
917.030952	0.865666
917.336328	0.878346
917.641665	0.892844
917.946961	0.907725
918.252218	0.919726
918.557435	0.928442
918.862612	0.937364
919.167750	0.943104
919.472848	0.946782
919.777906	0.951970
920.082925	0.958745
920.387904	0.962263
920.692843	0.963705
920.997743	0.963614
921.302603	0.968067
921.607423	0.969140
921.912204	0.971926
922.216946	0.972973
922.521647	0.974325
922.826310	0.975856
923.130932	0.977234
923.435516	0.978700
923.740059	0.980489
924.044564	0.979004
924.349028	0.980346
924.653454	0.982967
924.957840	0.985397
925.262186	0.985423
925.566493	0.984643
925.870761	0.984693
926.174989	0.986481
926.479178	0.987957
926.783328	0.988960
927.087438	0.988825
927.391509	0.988541
927.695541	0.991255
927.999533	0.990354
928.303486	0.989670
928.607400	0.991807
928.911275	0.989766
929.215110	0.990633
929.518906	0.991125
929.822663	0.989095
930.126381	0.990700
930.430060	0.990487
930.733699	0.991275
931.037299	0.989754
931.340861	0.991150
931.644383	0.990251
931.947866	0.990140
932.251309	0.991254
932.554714	0.990689
932.858080	0.989722
933.161407	0.990607
933.464694	0.990756
933.767943	0.990758
934.071153	0.990756
934.374323	0.991376
934.677455	0.990715
934.980548	0.992049
935.283602	0.990988
935.586617	0.992815
935.889593	0.990232
936.192530	0.990623
936.495428	0.990922
936.798287	0.991807
937.101108	0.991361
937.403890	0.990450
937.706632	0.988829
938.009336	0.987118
938.312002	0.987172
938.614628	0.984045
938.917216	0.983716
939.219765	0.981647
939.522275	0.983722
939.824747	0.983393
940.127179	0.983423
940.429573	0.984210
940.731929	0.984776
941.034246	0.983671
941.336524	0.986228
941.638763	0.986658
941.940964	0.986494
942.243126	0.984958
942.545250	0.988772
942.847335	0.987595
943.149381	0.988775
943.451389	0.988581
943.753359	0.988780
944.055290	0.990463
944.357182	0.989859
944.659036	0.988862
944.960851	0.989740
945.262628	0.990696
945.564367	0.990777
945.866067	0.990753
946.167729	0.990841
946.469352	0.990600
946.770937	0.988809
947.072484	0.990944
947.373992	0.990049
947.675462	0.990445
947.976893	0.991352
948.278286	0.989965
948.579641	0.990760
948.880958	0.991289
949.182236	0.991566
949.483476	0.991458
949.784678	0.990095
950.085841	0.992062
950.386967	0.991389
950.688054	0.990866
950.989103	0.990560
951.290114	0.988072
951.591087	0.989748
951.892021	0.989685
952.192917	0.988882
952.493776	0.988946
952.794596	0.988518
953.095378	0.988598
953.396122	0.989062
953.696828	0.987699
953.997496	0.990550
954.298126	0.991521
954.598718	0.990879
954.899272	0.990333
955.199788	0.990434
955.500266	0.991621
955.800706	0.993648
956.101108	0.993065
956.401472	0.992604
956.701798	0.994207
957.002087	0.992987
957.302337	0.994652
957.602550	0.995355
957.902724	0.995166
958.202861	0.994626
958.502960	0.994980
958.803022	0.994090
959.103045	0.996556
959.403031	0.996904
959.702979	0.995503
960.002889	0.995163
960.302762	0.994328
960.602596	0.996844
960.902393	0.994184
961.202153	0.997665
961.501875	0.997224
961.801559	0.996238
962.101205	0.996676
962.400814	0.996154
962.700385	0.996225
962.999918	0.996233
963.299414	0.997177
963.598873	0.995554
963.898293	0.995552
964.197677	0.996774
964.497022	0.996444
964.796331	0.997254
965.095601	0.997482
965.394835	0.996885
965.694030	0.997084
965.993189	0.998130
966.292309	0.996606
966.591393	0.996887
966.890439	0.997087
967.189447	0.997369
967.488419	0.998257
967.787353	0.996249
968.086249	0.996257
968.385108	0.997032
968.683930	0.996617
968.982714	0.996826
969.281462	0.997915
969.580172	0.996439
969.878844	0.997642
970.177480	0.997544
970.476078	0.998093
970.774639	0.996983
971.073162	0.997959
971.371649	0.997366
971.670098	0.995627
971.968510	0.997264
972.266885	0.995155
972.565223	0.997061
972.863524	0.996497
973.161788	0.996086
973.460014	0.997784
973.758204	0.995074
974.056356	0.996624
974.354471	0.994796
974.652550	0.997056
974.950591	0.996746
975.248595	0.996229
975.546563	0.995981
975.844493	0.998122
976.142386	0.997277
976.440243	0.998460
976.738062	0.997362
977.035845	0.997412
977.333590	0.997032
977.631299	0.998920
977.928971	0.996935
978.226606	0.996209
978.524204	0.996124
978.821765	0.997820
979.119290	0.997482
979.416777	0.996432
979.714228	0.997281
980.011642	0.996126
980.309020	0.997781
980.606360	0.996942
980.903664	0.998226
981.200931	0.996108
981.498162	0.995590
981.795356	0.995451
982.092513	0.993838
982.389633	0.994125
982.686717	0.991364
982.983764	0.991337
983.280775	0.990283
983.577749	0.991335
983.874686	0.990805
984.171587	0.992025
984.468451	0.994516
984.765279	0.995585
985.062070	0.993643
985.358824	0.994962
985.655543	0.995669
985.952224	0.996351
986.248869	0.995230
986.545478	0.997930
986.842050	0.998390
987.138586	0.996137
987.435086	0.997525
987.731549	0.998760
988.027975	0.997794
988.324366	0.997157
988.620719	0.997514
988.917037	0.997396
989.213318	0.997549
989.509563	0.998238
989.805772	0.999492
990.101944	0.998437
990.398080	0.997172
990.694180	0.998017
990.990244	0.997335
991.286271	0.998121
991.582262	0.998268
991.878217	0.997393
992.174136	0.998510
992.470019	0.999130
992.765865	0.997283
993.061676	0.998267
993.357450	0.997525
993.653188	0.997293
993.948890	0.997937
994.244556	0.998094
994.540186	0.997661
994.835780	0.996434
995.131337	0.998162
995.426859	0.995636
995.722345	0.997670
996.017795	0.997774
996.313208	0.997200
996.608586	0.995469
996.903928	0.996433
997.199234	0.996190
997.494504	0.997452
997.789738	0.997055
998.084936	0.996864
998.380099	0.998226
998.675225	0.997553
998.970316	0.998252
999.265371	0.998089
999.560390	0.997296
999.855373	0.998978
1000.150320	0.998235
1000.445232	0.998635
1000.740108	0.998503
1001.034948	0.998386
1001.329752	0.999430
1001.624521	0.999017
1001.919254	0.999700
1002.213951	0.998859
1002.508613	0.998440
1002.803239	0.999265
1003.097829	0.998631
1003.392384	1.000229
1003.686903	0.997932
1003.981386	0.999191
1004.275834	0.999693
1004.570246	0.997615
1004.864623	0.999417
1005.158964	1.000004
1005.453270	0.998715
1005.747540	0.997801
1006.041775	0.998570
1006.335974	1.001282
1006.630138	0.998994
1006.924266	1.000424
1007.218359	1.000833
1007.512416	0.999223
1007.806438	0.999532
1008.100425	0.998899
1008.394376	0.999936
1008.688292	0.998170
1008.982172	1.001425
1009.276017	0.999045
1009.569827	0.999077
1009.863602	0.998267
1010.157341	0.998952
1010.451045	0.999189
1010.744714	0.999715
1011.038347	0.999463
1011.331945	0.998105
1011.625508	0.998445
1011.919036	0.998957
1012.212528	0.998114
1012.505986	0.997704
1012.799408	1.000296
1013.092795	0.999278
1013.386147	0.998863
1013.679464	0.998543
1013.972745	0.997818
1014.265992	0.998361
1014.559204	0.999511
1014.852380	0.999159
1015.145521	0.998742
1015.438628	0.998084
1015.731699	0.998993
1016.024736	0.999425
1016.317737	0.998430
1016.610703	0.998173
1016.903635	1.000440
1017.196531	1.000008
1017.489393	1.000705
1017.782219	0.999141
1018.075011	0.998249
1018.367768	0.998597
1018.660490	1.000304
1018.953177	1.000304
1019.245829	1.000304
