Dividing Wavelength (nm)	Counts (n)	Blue Motor Position (mm): 0.000000	Red Motor Position (mm): 11.500000	
326.493990	1.000031
326.888308	1.000031
327.282561	1.000031
327.676750	0.998569
328.070874	0.999115
328.464933	0.999959
328.858929	0.998360
329.252859	0.999765
329.646726	0.998162
330.040528	1.000831
330.434265	0.999793
330.827938	1.000208
331.221547	0.999468
331.615091	0.999589
332.008571	0.999821
332.401986	0.999233
332.795338	1.000147
333.188625	0.999075
333.581847	0.999500
333.975006	0.999395
334.368100	0.999381
334.761129	0.998417
335.154095	1.000211
335.546996	0.997386
335.939833	0.992884
336.332606	0.991803
336.725315	0.993520
337.117960	0.994318
337.510540	0.992980
337.903056	0.993489
338.295508	0.992777
338.687896	0.994518
339.080220	0.993182
339.472480	0.993240
339.864676	0.993253
340.256807	0.993144
340.648875	0.993777
341.040879	0.993823
341.432818	0.992605
341.824694	0.992577
342.216506	0.992847
342.608253	0.993584
342.999937	0.993294
343.391557	0.993283
343.783113	0.992378
344.174605	0.992212
344.566033	0.994479
344.957397	0.991595
345.348697	0.992405
345.739934	0.994518
346.131106	0.992872
346.522215	0.992708
346.913260	0.993182
347.304241	0.993218
347.695159	0.993309
348.086012	0.991337
348.476802	0.994047
348.867528	0.992865
349.258191	0.992825
349.648789	0.993109
350.039324	0.993859
350.429796	0.993290
350.820203	0.992920
351.210548	0.993083
351.600828	0.993070
351.991045	0.992670
352.381198	0.992020
352.771288	0.992515
353.161314	0.993068
353.551276	0.994890
353.941175	0.992988
354.331010	0.992642
354.720782	0.994065
355.110490	0.992352
355.500135	0.993517
355.889717	0.992887
356.279235	0.993563
356.668689	0.993092
357.058080	0.993162
357.447408	0.994623
357.836672	0.993581
358.225873	0.993231
358.615010	0.994254
359.004084	0.994033
359.393095	0.992223
359.782043	0.992524
360.170927	0.994925
360.559748	0.992553
360.948505	0.992621
361.337199	0.992327
361.725830	0.992821
362.114398	0.991945
362.502903	0.992700
362.891344	0.994871
363.279722	0.992149
363.668037	0.993093
364.056289	0.992694
364.444478	0.993569
364.832603	0.994251
365.220665	0.992262
365.608665	0.992465
365.996601	0.991980
366.384474	0.992115
366.772284	0.991688
367.160031	0.991979
367.547715	0.991422
367.935336	0.992496
368.322893	0.992337
368.710388	0.990746
369.097820	0.991739
369.485189	0.992556
369.872495	0.990871
370.259738	0.989928
370.646918	0.992202
371.034035	0.992938
371.421090	0.991512
371.808081	0.990718
372.195010	0.991927
372.581875	0.991330
372.968678	0.991432
373.355418	0.991197
373.742096	0.990369
374.128710	0.992657
374.515262	0.991327
374.901751	0.992601
375.288177	0.992176
375.674540	0.992090
376.060841	0.992200
376.447079	0.992904
376.833254	0.991875
377.219367	0.992324
377.605417	0.992060
377.991404	0.991481
378.377329	0.990373
378.763191	0.992107
379.148991	0.993013
379.534727	0.992773
379.920402	0.992269
380.306013	0.992499
380.691563	0.993409
381.077049	0.991542
381.462474	0.992339
381.847835	0.991635
382.233134	0.991001
382.618371	0.991152
383.003545	0.990697
383.388657	0.988795
383.773706	0.988565
384.158693	0.987711
384.543618	0.985014
384.928480	0.985066
385.313280	0.981386
385.698017	0.979824
386.082692	0.975992
386.467305	0.973086
386.851856	0.968997
387.236344	0.965259
387.620770	0.960643
388.005133	0.956885
388.389435	0.952615
388.773674	0.947053
389.157851	0.940930
389.541965	0.935252
389.926018	0.931389
390.310008	0.924198
390.693936	0.917058
391.077802	0.909160
391.461606	0.903514
391.845348	0.894219
392.229027	0.888427
392.612645	0.880314
392.996200	0.868639
393.379694	0.857245
393.763125	0.847774
394.146494	0.840295
394.529801	0.828091
394.913047	0.817216
395.296230	0.811530
395.679351	0.798214
396.062410	0.787499
396.445408	0.782088
396.828343	0.770653
397.211217	0.760574
397.594028	0.759563
397.976778	0.744231
398.359466	0.734445
398.742092	0.722942
399.124656	0.724621
399.507158	0.708856
399.889598	0.700442
400.271977	0.686551
400.654294	0.683462
401.036549	0.675068
401.418742	0.672717
401.800874	0.654405
402.182944	0.646592
402.564952	0.633584
402.946898	0.630759
403.328783	0.626120
403.710606	0.631182
404.092367	0.604221
404.474067	0.604886
404.855705	0.599947
405.237282	0.605367
405.618797	0.588326
406.000250	0.581456
406.381642	0.570197
406.762972	0.571619
407.144240	0.567562
407.525447	0.566002
407.906593	0.556535
408.287677	0.549541
408.668700	0.557009
409.049661	0.548544
409.430560	0.543207
409.811399	0.550176
410.192176	0.530507
410.572891	0.536888
410.953545	0.524737
411.334138	0.536896
411.714669	0.530034
412.095139	0.540557
412.475547	0.524684
412.855894	0.526141
413.236180	0.524667
413.616405	0.529571
413.996568	0.520590
414.376670	0.526037
414.756711	0.530513
415.136691	0.527374
415.516609	0.518138
415.896466	0.515379
416.276262	0.511199
416.655997	0.513188
417.035670	0.493914
417.415283	0.486174
417.794834	0.490702
418.174324	0.495294
418.553753	0.505047
418.933121	0.486900
419.312428	0.480961
419.691674	0.485972
420.070859	0.474851
420.449983	0.483168
420.829045	0.472733
421.208047	0.481724
421.586988	0.475154
421.965867	0.474453
422.344686	0.462919
422.723444	0.474668
423.102141	0.491405
423.480777	0.464608
423.859352	0.485095
424.237866	0.461645
424.616319	0.463017
424.994712	0.454172
425.373044	0.463895
425.751314	0.452915
426.129524	0.468898
426.507673	0.452867
426.885762	0.446111
427.263789	0.451496
427.641756	0.461331
428.019662	0.451348
428.397508	0.450295
428.775292	0.454803
429.153016	0.446920
429.530679	0.453366
429.908282	0.447219
430.285824	0.456890
430.663305	0.434802
431.040726	0.455967
431.418086	0.456628
431.795385	0.447816
432.172624	0.445876
432.549802	0.447315
432.926920	0.445770
433.303977	0.445510
433.680974	0.441998
434.057910	0.440971
434.434786	0.440741
434.811601	0.442748
435.188355	0.425033
435.565050	0.434724
435.941683	0.435623
436.318257	0.420625
436.694770	0.420623
437.071222	0.419413
437.447614	0.423375
437.823946	0.429936
438.200218	0.419357
438.576429	0.428852
438.952580	0.422177
439.328670	0.418968
439.704700	0.425515
440.080670	0.427128
440.456580	0.407646
440.832429	0.415432
441.208218	0.426537
441.583947	0.415619
441.959616	0.415591
442.335224	0.420477
442.710773	0.411276
443.086261	0.409450
443.461689	0.423142
443.837057	0.413228
444.212365	0.402936
444.587612	0.409904
444.962800	0.400040
445.337927	0.401448
445.712995	0.427493
446.088002	0.390054
446.462949	0.400445
446.837837	0.404518
447.212664	0.393983
447.587431	0.385380
447.962139	0.356153
448.336786	0.315577
448.711374	0.325591
449.085901	0.369533
449.460369	0.374126
449.834776	0.377508
450.209124	0.356967
450.583412	0.349420
450.957640	0.342558
451.331808	0.353955
451.705917	0.377227
452.079965	0.381736
452.453954	0.370262
452.827883	0.376420
453.201752	0.371510
453.575562	0.383166
453.949311	0.371694
454.323001	0.377540
454.696632	0.373651
455.070202	0.365898
455.443713	0.358198
455.817164	0.353206
456.190556	0.348690
456.563888	0.345506
456.937160	0.343472
457.310373	0.360451
457.683526	0.359144
458.056619	0.364630
458.429653	0.365529
458.802628	0.368696
459.175542	0.363130
459.548398	0.345687
459.921194	0.338277
460.293930	0.338035
460.666607	0.315789
461.039224	0.304128
461.411782	0.299761
461.784280	0.299126
462.156719	0.303005
462.529099	0.307471
462.901419	0.323916
463.273680	0.327607
463.645882	0.327637
464.018024	0.333403
464.390106	0.326241
464.762130	0.311127
465.134094	0.294186
465.505999	0.263250
465.877845	0.233872
466.249631	0.220911
466.621358	0.228381
466.993026	0.242201
467.364634	0.248281
467.736184	0.257029
468.107674	0.265872
468.479105	0.264708
468.850477	0.271678
469.221790	0.278694
469.593043	0.288741
469.964238	0.293679
470.335373	0.292523
470.706449	0.291203
471.077467	0.291532
471.448425	0.253681
471.819324	0.229546
472.190164	0.228825
472.560945	0.257515
472.931667	0.279571
473.302330	0.284006
473.672934	0.295456
474.043479	0.283944
474.413965	0.285779
474.784393	0.289284
475.154761	0.284239
475.525070	0.281259
475.895321	0.287517
476.265513	0.281278
476.635645	0.276427
477.005719	0.276291
477.375734	0.273210
477.745691	0.266467
478.115588	0.262687
478.485427	0.256351
478.855207	0.243141
479.224928	0.226031
479.594591	0.213898
479.964194	0.217367
480.333739	0.218395
480.703226	0.220048
481.072653	0.218554
481.442022	0.214288
481.811333	0.210798
482.180584	0.214151
482.549777	0.219585
482.918912	0.222660
483.287988	0.222567
483.657005	0.222023
484.025964	0.228731
484.394864	0.225783
484.763706	0.226590
485.132489	0.231575
485.501213	0.232239
485.869879	0.230491
486.238487	0.233945
486.607036	0.231751
486.975527	0.236148
487.343959	0.232252
487.712333	0.231239
488.080648	0.233046
488.448905	0.231942
488.817104	0.233101
489.185244	0.227633
489.553326	0.224652
489.921350	0.214514
490.289315	0.196994
490.657222	0.192024
491.025070	0.193511
491.392861	0.195327
491.760593	0.200911
492.128267	0.206534
492.495883	0.212107
492.863440	0.218372
493.230939	0.224636
493.598380	0.226114
493.965763	0.228106
494.333088	0.230525
494.700354	0.232414
495.067563	0.230746
495.434713	0.234366
495.801805	0.231896
496.168839	0.233739
496.535815	0.235023
496.902733	0.234815
497.269593	0.236559
497.636395	0.234377
498.003139	0.234340
498.369825	0.237541
498.736453	0.233848
499.103023	0.235521
499.469535	0.234709
499.835989	0.235259
500.202385	0.235760
500.568723	0.239223
500.935003	0.234692
501.301226	0.238526
501.667390	0.232988
502.033497	0.231039
502.399546	0.234030
502.765537	0.235980
503.131470	0.234400
503.497345	0.230588
503.863163	0.239326
504.228923	0.232487
504.594625	0.231167
504.960269	0.236521
505.325856	0.231718
505.691385	0.236217
506.056856	0.232524
506.422270	0.232238
506.787625	0.234540
507.152924	0.231973
507.518164	0.232300
507.883347	0.234381
508.248472	0.235867
508.613540	0.230827
508.978550	0.233522
509.343503	0.233999
509.708398	0.231752
510.073236	0.229123
510.438016	0.229313
510.802738	0.230184
511.167403	0.229138
511.532010	0.231266
511.896561	0.226579
512.261053	0.225228
512.625488	0.227412
512.989866	0.227827
513.354186	0.227997
513.718449	0.229939
514.082655	0.226450
514.446803	0.228548
514.810894	0.226106
515.174927	0.228969
515.538904	0.228286
515.902822	0.225074
516.266684	0.227525
516.630488	0.228737
516.994235	0.227452
517.357925	0.226154
517.721558	0.224709
518.085133	0.223779
518.448651	0.224167
518.812112	0.226258
519.175516	0.225790
519.538863	0.223837
519.902152	0.225025
520.265385	0.222248
520.628560	0.223914
520.991678	0.224429
521.354739	0.223314
521.717743	0.224481
522.080690	0.224834
522.443580	0.222215
522.806413	0.223070
523.169189	0.222227
523.531908	0.221417
523.894569	0.224844
524.257174	0.224897
524.619722	0.222296
524.982213	0.223583
525.344647	0.222404
525.707025	0.223480
526.069345	0.221393
526.431608	0.223147
526.793815	0.221483
527.155964	0.225241
527.518057	0.224330
527.880093	0.225323
528.242072	0.223716
528.603995	0.225735
528.965860	0.227453
529.327669	0.226120
529.689421	0.227146
530.051117	0.227989
530.412755	0.225596
530.774337	0.228111
531.135862	0.228319
531.497331	0.227400
531.858743	0.230730
532.220098	0.227245
532.581396	0.229824
532.942638	0.230053
533.303824	0.231427
533.664953	0.231001
534.026025	0.232840
534.387040	0.230733
534.747999	0.230765
535.108902	0.229595
535.469748	0.234455
535.830537	0.232417
536.191270	0.232824
536.551947	0.232547
536.912567	0.232430
537.273131	0.234174
537.633638	0.234353
537.994089	0.234701
538.354483	0.235610
538.714821	0.232815
539.075103	0.232455
539.435328	0.233065
539.795497	0.237204
540.155609	0.233478
540.515665	0.231660
540.875665	0.237256
541.235609	0.235668
541.595496	0.235880
541.955328	0.232525
542.315102	0.235062
542.674821	0.236261
543.034483	0.236354
543.394090	0.235760
543.753640	0.237808
544.113134	0.232832
544.472571	0.236167
544.831953	0.232861
545.191278	0.236753
545.550548	0.236743
545.909761	0.233592
546.268918	0.234345
546.628019	0.232725
546.987064	0.234941
547.346053	0.236772
547.704986	0.234658
548.063863	0.235213
548.422684	0.235296
548.781449	0.236964
549.140158	0.234900
549.498811	0.237645
549.857408	0.240828
550.215949	0.235456
550.574434	0.238435
550.932864	0.236654
551.291237	0.235201
551.649555	0.236700
552.007817	0.236190
552.366022	0.237145
552.724173	0.237282
553.082267	0.237481
553.440305	0.234725
553.798288	0.239087
554.156215	0.235671
554.514086	0.236344
554.871902	0.239466
555.229661	0.238791
555.587365	0.238993
555.945014	0.241812
556.302606	0.238564
556.660143	0.241198
557.017625	0.237457
557.375050	0.239631
557.732421	0.237025
558.089735	0.239113
558.446994	0.239177
558.804197	0.238147
559.161345	0.238161
559.518437	0.241524
559.875474	0.239082
560.232455	0.238770
560.589381	0.239797
560.946251	0.240059
561.303065	0.237698
561.659825	0.238998
562.016528	0.240433
562.373177	0.243048
562.729770	0.240574
563.086307	0.242804
563.442789	0.240443
563.799216	0.243531
564.155587	0.242232
564.511904	0.243089
564.868164	0.243394
565.224370	0.243127
565.580520	0.245052
565.936615	0.244946
566.292654	0.247720
566.648638	0.244698
567.004567	0.245807
567.360441	0.246425
567.716260	0.248152
568.072023	0.245946
568.427732	0.246697
568.783385	0.249322
569.138982	0.247172
569.494525	0.246987
569.850013	0.249776
570.205445	0.248186
570.560823	0.250772
570.916145	0.252838
571.271412	0.251026
571.626625	0.252132
571.981782	0.253121
572.336884	0.253999
572.691931	0.253859
573.046923	0.254870
573.401860	0.256106
573.756743	0.257952
574.111570	0.256688
574.466342	0.257220
574.821059	0.256545
575.175722	0.259282
575.530330	0.258879
575.884882	0.259182
576.239380	0.261117
576.593823	0.261532
576.948211	0.261071
577.302544	0.264455
577.656823	0.263717
578.011047	0.264095
578.365216	0.264991
578.719330	0.266815
579.073389	0.266543
579.427394	0.267775
579.781344	0.268493
580.135239	0.269993
580.489080	0.270016
580.842866	0.272759
581.196597	0.272507
581.550273	0.271289
581.903895	0.272338
582.257463	0.270512
582.610975	0.273383
582.964434	0.273183
583.317837	0.275480
583.671186	0.275969
584.024481	0.275845
584.377721	0.278427
584.730906	0.279140
585.084037	0.278409
585.437113	0.280070
585.790135	0.279507
586.143103	0.282335
586.496016	0.283789
586.848874	0.281405
587.201679	0.281812
587.554428	0.285364
587.907124	0.283910
588.259765	0.284551
588.612352	0.285275
588.964884	0.289099
589.317362	0.288665
589.669786	0.288504
590.022155	0.287190
590.374470	0.286310
590.726731	0.288500
591.078937	0.293262
591.431090	0.289623
591.783188	0.293720
592.135232	0.294245
592.487222	0.294002
592.839157	0.292400
593.191038	0.294587
593.542866	0.296510
593.894639	0.299894
594.246358	0.297866
594.598022	0.297192
594.949633	0.301119
595.301190	0.301851
595.652692	0.301030
596.004141	0.297520
596.355535	0.305310
596.706876	0.305224
597.058162	0.308088
597.409395	0.305237
597.760573	0.302826
598.111698	0.306292
598.462768	0.306633
598.813785	0.308149
599.164748	0.309451
599.515657	0.309603
599.866511	0.313416
600.217312	0.308313
600.568060	0.313331
600.918753	0.310007
601.269392	0.311119
601.619978	0.314053
601.970510	0.311821
602.320988	0.312024
602.671412	0.309654
603.021783	0.311957
603.372100	0.313998
603.722363	0.313093
604.072572	0.314028
604.422728	0.314097
604.772830	0.315930
605.122878	0.315373
605.472872	0.316051
605.822813	0.314622
606.172701	0.316944
606.522534	0.314632
606.872314	0.314700
607.222041	0.315254
607.571714	0.313630
607.921333	0.315029
608.270899	0.314636
608.620411	0.311167
608.969870	0.315154
609.319276	0.315244
609.668627	0.315697
610.017926	0.313810
610.367171	0.312452
610.716362	0.313163
611.065500	0.313194
611.414585	0.312217
611.763616	0.312605
612.112594	0.313116
612.461518	0.312497
612.810389	0.310139
613.159207	0.312647
613.507971	0.314313
613.856682	0.310453
614.205340	0.311601
614.553945	0.308308
614.902496	0.312260
615.250994	0.310285
615.599439	0.311146
615.947830	0.310599
616.296169	0.311597
616.644454	0.311234
616.992686	0.311261
617.340864	0.308534
617.688990	0.312438
618.037063	0.309122
618.385082	0.311170
618.733048	0.308293
619.080961	0.310046
619.428821	0.309428
619.776628	0.309013
620.124382	0.311320
620.472083	0.311240
620.819731	0.310907
621.167326	0.314574
621.514868	0.314229
621.862357	0.318774
622.209793	0.318296
622.557176	0.320648
622.904506	0.321703
623.251783	0.323982
623.599007	0.326356
623.946179	0.325895
624.293297	0.327538
624.640363	0.331922
624.987376	0.332269
625.334336	0.334479
625.681243	0.336956
626.028097	0.337551
626.374899	0.338504
626.721647	0.339184
627.068343	0.342075
627.414987	0.343029
627.761577	0.345232
628.108115	0.343496
628.454600	0.348528
628.801032	0.346052
629.147412	0.348301
629.493739	0.348379
629.840014	0.351704
630.186236	0.349037
630.532405	0.354652
630.878521	0.351647
631.224585	0.354905
631.570597	0.357785
631.916556	0.356242
632.262462	0.356512
632.608316	0.357911
632.954117	0.359103
633.299866	0.360068
633.645562	0.360593
633.991206	0.364861
634.336797	0.367909
634.682336	0.370071
635.027823	0.371825
635.373257	0.372116
635.718639	0.375728
636.063968	0.374936
636.409245	0.380878
636.754470	0.381365
637.099642	0.383970
637.444762	0.387032
637.789829	0.385780
638.134845	0.389783
638.479808	0.390459
638.824719	0.390438
639.169577	0.394875
639.514383	0.392992
639.859137	0.397523
640.203839	0.397511
640.548489	0.397747
640.893086	0.398741
641.237632	0.400905
641.582125	0.399435
641.926566	0.401149
642.270955	0.401258
642.615292	0.401284
642.959576	0.400580
643.303809	0.400778
643.647990	0.400794
643.992118	0.401375
644.336195	0.404746
644.680219	0.403078
645.024192	0.403729
645.368112	0.397208
645.711981	0.396173
646.055797	0.391341
646.399562	0.393950
646.743274	0.386088
647.086935	0.383717
647.430544	0.383961
647.774101	0.382667
648.117606	0.382026
648.461059	0.382465
648.804460	0.384530
649.147810	0.390238
649.491108	0.391779
649.834354	0.393597
650.177548	0.398863
650.520690	0.404519
650.863781	0.405501
651.206820	0.404680
651.549807	0.409549
651.892742	0.413432
652.235626	0.412487
652.578458	0.414119
652.921238	0.420223
653.263967	0.418035
653.606644	0.421848
653.949269	0.421677
654.291843	0.425183
654.634365	0.422147
654.976836	0.425455
655.319255	0.425314
655.661622	0.427132
656.003938	0.427212
656.346203	0.430159
656.688416	0.427805
657.030577	0.431393
657.372687	0.433007
657.714746	0.434024
658.056753	0.431109
658.398708	0.434732
658.740612	0.436138
659.082465	0.431940
659.424266	0.432777
659.766016	0.432348
660.107715	0.434335
660.449362	0.433768
660.790958	0.434347
661.132503	0.434906
661.473996	0.432667
661.815438	0.433570
662.156829	0.434071
662.498168	0.434567
662.839456	0.435487
663.180693	0.433687
663.521879	0.433722
663.863013	0.434538
664.204097	0.433098
664.545129	0.430280
664.886110	0.430507
665.227040	0.427403
665.567918	0.430359
665.908746	0.427903
666.249522	0.428287
666.590248	0.428558
666.930922	0.427127
667.271545	0.426038
667.612118	0.425647
667.952639	0.427655
668.293109	0.426427
668.633528	0.429379
668.973896	0.429099
669.314213	0.429818
669.654480	0.430785
669.994695	0.431254
670.334859	0.432392
670.674973	0.432382
671.015035	0.432691
671.355047	0.432178
671.695008	0.433518
672.034918	0.435245
672.374777	0.434618
672.714585	0.436119
673.054342	0.435765
673.394049	0.436297
673.733705	0.433706
674.073310	0.434786
674.412864	0.438017
674.752368	0.438508
675.091820	0.438321
675.431223	0.442378
675.770574	0.442850
676.109875	0.445991
676.449125	0.445951
676.788324	0.447703
677.127473	0.453426
677.466571	0.453217
677.805619	0.454756
678.144616	0.455396
678.483562	0.457462
678.822458	0.460131
679.161303	0.461374
679.500098	0.461428
679.838842	0.463803
680.177535	0.462648
680.516179	0.460977
680.854771	0.460634
681.193314	0.454151
681.531805	0.445155
681.870247	0.433799
682.208638	0.426098
682.546978	0.425129
682.885268	0.427102
683.223508	0.432452
683.561697	0.436645
683.899836	0.439677
684.237925	0.442965
684.575963	0.445360
684.913951	0.448701
685.251889	0.444430
685.589776	0.446373
685.927614	0.448755
686.265401	0.442820
686.603137	0.444146
686.940824	0.438304
687.278460	0.436006
687.616046	0.435969
687.953582	0.430672
688.291068	0.432335
688.628504	0.428084
688.965889	0.430048
689.303224	0.434394
689.640510	0.438165
689.977745	0.444138
690.314930	0.451833
690.652065	0.456648
690.989150	0.464175
691.326185	0.470193
691.663170	0.474637
692.000105	0.482021
692.336990	0.489209
692.673825	0.491314
693.010610	0.498819
693.347345	0.503474
693.684030	0.505563
694.020665	0.510104
694.357251	0.519197
694.693786	0.519210
695.030272	0.522842
695.366707	0.526538
695.703093	0.529414
696.039429	0.527882
696.375716	0.529824
696.711952	0.531670
697.048139	0.533492
697.384276	0.535959
697.720363	0.534610
698.056400	0.533520
698.392388	0.538997
698.728326	0.541945
699.064214	0.545261
699.400053	0.545618
699.735842	0.549029
700.071581	0.551548
700.407270	0.554957
700.742910	0.556945
701.078501	0.563886
701.414042	0.564412
701.749533	0.566977
702.084974	0.575806
702.420366	0.567917
702.755709	0.576186
703.091002	0.584524
703.426246	0.577178
703.761440	0.582939
704.096584	0.587847
704.431679	0.584240
704.766725	0.587011
705.101721	0.588359
705.436668	0.584775
705.771565	0.591468
706.106413	0.588478
706.441212	0.583423
706.775961	0.582195
707.110661	0.584750
707.445311	0.581117
707.779913	0.578435
708.114465	0.577534
708.448967	0.573900
708.783421	0.565744
709.117825	0.560527
709.452180	0.560571
709.786485	0.554054
710.120742	0.544195
710.454949	0.546452
710.789107	0.538518
711.123216	0.529463
711.457275	0.530653
711.791286	0.522270
712.125247	0.520499
712.459159	0.531750
712.793023	0.523711
713.126837	0.528327
713.460602	0.529218
713.794318	0.538246
714.127985	0.536684
714.461602	0.547207
714.795171	0.549765
715.128691	0.558032
715.462162	0.565258
715.795584	0.570689
716.128957	0.574674
716.462281	0.580399
716.795556	0.584178
717.128782	0.588811
717.461960	0.598876
717.795088	0.596656
718.128167	0.603516
718.461198	0.612255
718.794180	0.612620
719.127113	0.615764
719.459997	0.619889
719.792833	0.625432
720.125619	0.626590
720.458357	0.632403
720.791046	0.632187
721.123686	0.635044
721.456278	0.642674
721.788821	0.639827
722.121315	0.644212
722.453761	0.648651
722.786158	0.645852
723.118506	0.642481
723.450805	0.650341
723.783056	0.646388
724.115259	0.644060
724.447412	0.642703
724.779518	0.643913
725.111574	0.643679
725.443582	0.638917
725.775542	0.640993
726.107453	0.633456
726.439315	0.632946
726.771129	0.631947
727.102895	0.624906
727.434612	0.618494
727.766281	0.615335
728.097901	0.615452
728.429473	0.614916
728.760996	0.613762
729.092471	0.613200
729.423897	0.616952
729.755276	0.616190
730.086606	0.616426
730.417887	0.610721
730.749120	0.601160
731.080305	0.592050
731.411442	0.588426
731.742530	0.593188
732.073570	0.592813
732.404562	0.584851
732.735506	0.585993
733.066401	0.591382
733.397249	0.600111
733.728048	0.611173
734.058798	0.623483
734.389501	0.634607
734.720156	0.644465
735.050762	0.652153
735.381320	0.653271
735.711831	0.663036
736.042293	0.667811
736.372707	0.663474
736.703073	0.667906
737.033391	0.669876
737.363661	0.667159
737.693883	0.662441
738.024056	0.660431
738.354182	0.661593
738.684260	0.651524
739.014290	0.647274
739.344272	0.648098
739.674207	0.641488
740.004093	0.640825
740.333931	0.641447
740.663722	0.640553
740.993464	0.642395
741.323159	0.644836
741.652806	0.650613
741.982405	0.655588
742.311956	0.659419
742.641460	0.662076
742.970915	0.665773
743.300323	0.673860
743.629683	0.679890
743.958996	0.681709
744.288260	0.686235
744.617477	0.692700
744.946647	0.693352
745.275768	0.699342
745.604842	0.699045
745.933869	0.708788
746.262847	0.709362
746.591778	0.702659
746.920662	0.708635
747.249498	0.715654
747.578286	0.706286
747.907027	0.702445
748.235720	0.703346
748.564365	0.698717
748.892963	0.698015
749.221514	0.701096
749.550017	0.706862
749.878473	0.705619
750.206881	0.711831
750.535242	0.713498
750.863555	0.713355
751.191821	0.714687
751.520039	0.717857
751.848210	0.722869
752.176334	0.714942
752.504411	0.714498
752.832440	0.722234
753.160421	0.725345
753.488356	0.725157
753.816243	0.721584
754.144082	0.729565
754.471875	0.734093
754.799620	0.729702
755.127318	0.730046
755.454969	0.730626
755.782572	0.730250
756.110129	0.735399
756.437638	0.737089
756.765100	0.734345
757.092515	0.732458
757.419882	0.731133
757.747203	0.735905
758.074477	0.736663
758.401703	0.733132
758.728882	0.727709
759.056014	0.726562
759.383099	0.725719
759.710138	0.726807
760.037129	0.723759
760.364073	0.717009
760.690970	0.719591
761.017820	0.725326
761.344623	0.720633
761.671379	0.711650
761.998088	0.700602
762.324751	0.677171
762.651366	0.635682
762.977935	0.567975
763.304456	0.515815
763.630931	0.507148
763.957359	0.545807
764.283740	0.590414
764.610074	0.618029
764.936362	0.648894
765.262602	0.675623
765.588796	0.696434
765.914943	0.714661
766.241044	0.733293
766.567097	0.739632
766.893104	0.749322
767.219064	0.755786
767.544978	0.761997
767.870845	0.775178
768.196665	0.778752
768.522438	0.777590
768.848165	0.778828
769.173846	0.788322
769.499479	0.792754
769.825066	0.795473
770.150607	0.801517
770.476101	0.795891
770.801548	0.796964
771.126949	0.808887
771.452303	0.811868
771.777611	0.811511
772.102872	0.810439
772.428087	0.815569
772.753256	0.819738
773.078378	0.821458
773.403453	0.830322
773.728482	0.834115
774.053465	0.828373
774.378401	0.831612
774.703291	0.839988
775.028135	0.839720
775.352932	0.841468
775.677683	0.844512
776.002388	0.844677
776.327046	0.843719
776.651658	0.847710
776.976224	0.851424
777.300743	0.851784
777.625216	0.853230
777.949643	0.854809
778.274024	0.855172
778.598359	0.856041
778.922647	0.856194
779.246889	0.855551
779.571086	0.859496
779.895236	0.862578
780.219339	0.859622
780.543397	0.857169
780.867409	0.854909
781.191374	0.857294
781.515294	0.858364
781.839167	0.857536
782.162995	0.860919
782.486776	0.857184
782.810511	0.858211
783.134201	0.862395
783.457844	0.859571
783.781441	0.862915
784.104993	0.869420
784.428498	0.868819
784.751958	0.864519
785.075372	0.866935
785.398739	0.871059
785.722061	0.867393
786.045337	0.862330
786.368568	0.867541
786.691752	0.870709
787.014891	0.856296
787.337983	0.847102
787.661030	0.839108
787.984031	0.821886
788.306987	0.809236
788.629897	0.810315
788.952760	0.814853
789.275579	0.818247
789.598351	0.835063
789.921078	0.847308
790.243759	0.849683
790.566395	0.856002
790.888984	0.861795
791.211529	0.867711
791.534027	0.870017
791.856480	0.872703
792.178888	0.876926
792.501249	0.879646
792.823566	0.881753
793.145836	0.881165
793.468062	0.882731
793.790241	0.883050
794.112375	0.881641
794.434464	0.876303
794.756507	0.876352
795.078505	0.875487
795.400457	0.869952
795.722364	0.858961
796.044226	0.851103
796.366042	0.850375
796.687812	0.853382
797.009538	0.849064
797.331218	0.852303
797.652852	0.858193
797.974442	0.862325
798.295986	0.862317
798.617484	0.864626
798.938938	0.869154
799.260346	0.874650
799.581709	0.875548
799.903026	0.878231
800.224299	0.878718
800.545526	0.882612
800.866708	0.886082
801.187845	0.890302
801.508936	0.890314
801.829983	0.888550
802.150984	0.890814
802.471940	0.896196
802.792851	0.895773
803.113717	0.895915
803.434538	0.894542
803.755314	0.897201
804.076045	0.899398
804.396731	0.898415
804.717372	0.898900
805.037967	0.899482
805.358518	0.897553
805.679024	0.894933
805.999485	0.895201
806.319901	0.895949
806.640272	0.895927
806.960598	0.894492
807.280879	0.891307
807.601115	0.889880
807.921306	0.893977
808.241453	0.894634
808.561554	0.892579
808.881611	0.892151
809.201623	0.893717
809.521590	0.894197
809.841513	0.894725
810.161390	0.894374
810.481223	0.896045
810.801011	0.899498
811.120755	0.901722
811.440453	0.899622
811.760107	0.898881
812.079716	0.899414
812.399281	0.902751
812.718801	0.905213
813.038276	0.905953
813.357707	0.904667
813.677093	0.902015
813.996434	0.905177
814.315731	0.907353
814.634983	0.907609
814.954191	0.906156
815.273354	0.902757
815.592473	0.899842
815.911547	0.899701
816.230577	0.897705
816.549562	0.894850
816.868502	0.895440
817.187399	0.891463
817.506250	0.886523
817.825058	0.887316
818.143821	0.884842
818.462539	0.879600
818.781213	0.870845
819.099843	0.860410
819.418429	0.844962
819.736970	0.827379
820.055466	0.806679
820.373919	0.781819
820.692327	0.748465
821.010691	0.713399
821.329011	0.634825
821.647286	0.518608
821.965517	0.403956
822.283704	0.361333
822.601847	0.361700
822.919945	0.397621
823.237999	0.432206
823.556010	0.479853
823.873976	0.535540
824.191897	0.586238
824.509775	0.629683
824.827609	0.674946
825.145398	0.698384
825.463144	0.701090
825.780845	0.683981
826.098502	0.664624
826.416116	0.618589
826.733685	0.574801
827.051210	0.565248
827.368692	0.580466
827.686129	0.618315
828.003522	0.672115
828.320872	0.719017
828.638177	0.763580
828.955439	0.796760
829.272656	0.819578
829.589830	0.836035
829.906960	0.852532
830.224046	0.863982
830.541088	0.875328
830.858086	0.879271
831.175041	0.885729
831.491952	0.884648
831.808819	0.881408
832.125642	0.875065
832.442421	0.859212
832.759157	0.837803
833.075849	0.790502
833.392497	0.727469
833.709101	0.685571
834.025662	0.694941
834.342179	0.728018
834.658653	0.766764
834.975083	0.802887
835.291469	0.828361
835.607811	0.852737
835.924110	0.867061
836.240366	0.885620
836.556578	0.899927
836.872746	0.906048
837.188871	0.911892
837.504952	0.917441
837.820990	0.922541
838.136984	0.925551
838.452935	0.928125
838.768842	0.929393
839.084706	0.923301
839.400526	0.897002
839.716303	0.856095
840.032037	0.833926
840.347727	0.837674
840.663373	0.855378
840.978977	0.877173
841.294537	0.900517
841.610054	0.917049
841.925527	0.924339
842.240957	0.932118
842.556344	0.938281
842.871687	0.944897
843.186987	0.949138
843.502244	0.949703
843.817458	0.950781
844.132629	0.953884
844.447756	0.958502
844.762840	0.960087
845.077881	0.958682
845.392879	0.958809
845.707833	0.961336
846.022745	0.963850
846.337613	0.964496
846.652438	0.965128
846.967221	0.963404
847.281960	0.964252
847.596656	0.966644
847.911309	0.965622
848.225919	0.966539
848.540485	0.967063
848.855009	0.968550
849.169490	0.967107
849.483928	0.967485
849.798323	0.967770
850.112675	0.968325
850.426984	0.968901
850.741251	0.969439
851.055474	0.968787
851.369654	0.966508
851.683792	0.968706
851.997887	0.968693
852.311938	0.969486
852.625947	0.969915
852.939914	0.967504
853.253837	0.967837
853.567718	0.970021
853.881555	0.969661
854.195350	0.967516
854.509103	0.969135
854.822812	0.969049
855.136479	0.969561
855.450103	0.968564
855.763685	0.967482
856.077224	0.967278
856.390720	0.969455
856.704173	0.970104
857.017584	0.967641
857.330953	0.966326
857.644278	0.966623
857.957561	0.966955
858.270802	0.967209
858.584000	0.967484
858.897155	0.966351
859.210268	0.966490
859.523339	0.966843
859.836367	0.969183
860.149352	0.969428
860.462295	0.967985
860.775195	0.967917
861.088054	0.967721
861.400869	0.969286
861.713642	0.970296
862.026373	0.969509
862.339062	0.969858
862.651708	0.966763
862.964312	0.966844
863.276873	0.968993
863.589392	0.967828
863.901869	0.965379
864.214303	0.964861
864.526696	0.962914
864.839045	0.962575
865.151353	0.961633
865.463619	0.960844
865.775842	0.961431
866.088023	0.961316
866.400162	0.961278
866.712258	0.960715
867.024313	0.961539
867.336325	0.962457
867.648296	0.961558
867.960224	0.961269
868.272110	0.961292
868.583954	0.962396
868.895755	0.963172
869.207515	0.959930
869.519233	0.958773
869.830909	0.960110
870.142542	0.961700
870.454134	0.961190
870.765684	0.958742
871.077191	0.956955
871.388657	0.957633
871.700081	0.956167
872.011463	0.956750
872.322803	0.956171
872.634101	0.955854
872.945357	0.951938
873.256571	0.952823
873.567744	0.951820
873.878874	0.952188
874.189963	0.950416
874.501010	0.949648
874.812015	0.948363
875.122979	0.950992
875.433900	0.951272
875.744780	0.952931
876.055618	0.949895
876.366415	0.949116
876.677169	0.948266
876.987882	0.950427
877.298554	0.948966
877.609183	0.946640
877.919771	0.943465
878.230317	0.941628
878.540822	0.939296
878.851285	0.934000
879.161707	0.925276
879.472087	0.913490
879.782425	0.896591
880.092722	0.862010
880.402977	0.809202
880.713191	0.746747
881.023363	0.686481
881.333494	0.652078
881.643583	0.624098
881.953631	0.624245
882.263637	0.652062
882.573602	0.691910
882.883526	0.718453
883.193408	0.742225
883.503248	0.765865
883.813048	0.793637
884.122806	0.822923
884.432522	0.846561
884.742197	0.867781
885.051831	0.878107
885.361424	0.888305
885.670975	0.900406
885.980485	0.911281
886.289954	0.917003
886.599382	0.923232
886.908768	0.926710
887.218113	0.932617
887.527417	0.937872
887.836680	0.940823
888.145901	0.941454
888.455082	0.944762
888.764221	0.948766
889.073319	0.951421
889.382376	0.951419
889.691392	0.951988
890.000366	0.951103
890.309300	0.953372
890.618193	0.952347
890.927044	0.949195
891.235855	0.950224
891.544625	0.949588
891.853353	0.950207
892.162041	0.947620
892.470687	0.941687
892.779293	0.936989
893.087858	0.932046
893.396381	0.923452
893.704864	0.909949
894.013306	0.886298
894.321707	0.859404
894.630068	0.844523
894.938387	0.839432
895.246665	0.840244
895.554903	0.853708
895.863100	0.867568
896.171256	0.884994
896.479371	0.903194
896.787446	0.917187
897.095480	0.923871
897.403473	0.926631
897.711425	0.931458
898.019336	0.937667
898.327207	0.941027
898.635038	0.943177
898.942827	0.943129
899.250576	0.945807
899.558284	0.949711
899.865952	0.953227
900.173579	0.953560
900.481165	0.953793
900.788711	0.957843
901.096216	0.959998
901.403681	0.960556
901.711105	0.960918
902.018489	0.962466
902.325832	0.960095
902.633135	0.960374
902.940397	0.954898
903.247619	0.940800
903.554800	0.915867
903.861941	0.874595
904.169041	0.838856
904.476101	0.819912
904.783121	0.821357
905.090100	0.838219
905.397039	0.861112
905.703938	0.882964
906.010796	0.903667
906.317614	0.920173
906.624391	0.931531
906.931129	0.942949
907.237826	0.950196
907.544483	0.957620
907.851099	0.960437
908.157675	0.966926
908.464211	0.968543
908.770707	0.971224
909.077163	0.972141
909.383578	0.973649
909.689954	0.973955
909.996289	0.974269
910.302584	0.977629
910.608839	0.978514
910.915054	0.977390
911.221229	0.978102
911.527363	0.976658
911.833458	0.975548
912.139513	0.975332
912.445527	0.973309
912.751502	0.973134
913.057436	0.970548
913.363331	0.969275
913.669186	0.964997
913.975000	0.959739
914.280775	0.954310
914.586510	0.945769
914.892205	0.932481
915.197859	0.910592
915.503475	0.882633
915.809050	0.863282
916.114585	0.856697
916.420081	0.854837
916.725536	0.849852
917.030952	0.860096
917.336328	0.871463
917.641665	0.888134
917.946961	0.904169
918.252218	0.915202
918.557435	0.923954
918.862612	0.933147
919.167750	0.939899
919.472848	0.944861
919.777906	0.950608
920.082925	0.955477
920.387904	0.958766
920.692843	0.961501
920.997743	0.962407
921.302603	0.966249
921.607423	0.968689
921.912204	0.969752
922.216946	0.970717
922.521647	0.971790
922.826310	0.973347
923.130932	0.975196
923.435516	0.976428
923.740059	0.978804
924.044564	0.977696
924.349028	0.979920
924.653454	0.981731
924.957840	0.984562
925.262186	0.983234
925.566493	0.982819
925.870761	0.983968
926.174989	0.985186
926.479178	0.987102
926.783328	0.987162
927.087438	0.986475
927.391509	0.987258
927.695541	0.989180
927.999533	0.988953
928.303486	0.988959
928.607400	0.990672
928.911275	0.988573
929.215110	0.988312
929.518906	0.990036
929.822663	0.988453
930.126381	0.990275
930.430060	0.990031
930.733699	0.989684
931.037299	0.988212
931.340861	0.990282
931.644383	0.988152
931.947866	0.988350
932.251309	0.990004
932.554714	0.990663
932.858080	0.990453
933.161407	0.989272
933.464694	0.990562
933.767943	0.988742
934.071153	0.990961
934.374323	0.990904
934.677455	0.990797
934.980548	0.989717
935.283602	0.989082
935.586617	0.990806
935.889593	0.989957
936.192530	0.990094
936.495428	0.990139
936.798287	0.990771
937.101108	0.989405
937.403890	0.986974
937.706632	0.988116
938.009336	0.985806
938.312002	0.986160
938.614628	0.982562
938.917216	0.981831
939.219765	0.980231
939.522275	0.982116
939.824747	0.981828
940.127179	0.981317
940.429573	0.983184
940.731929	0.982472
941.034246	0.983096
941.336524	0.983830
941.638763	0.985916
941.940964	0.984826
942.243126	0.986021
942.545250	0.985727
942.847335	0.987443
943.149381	0.987106
943.451389	0.987242
943.753359	0.986712
944.055290	0.989999
944.357182	0.988315
944.659036	0.987642
944.960851	0.988335
945.262628	0.989268
945.564367	0.989996
945.866067	0.988773
946.167729	0.988853
946.469352	0.988245
946.770937	0.986198
947.072484	0.990471
947.373992	0.989127
947.675462	0.989331
947.976893	0.989570
948.278286	0.989848
948.579641	0.989476
948.880958	0.988958
949.182236	0.989369
949.483476	0.990753
949.784678	0.989479
950.085841	0.989042
950.386967	0.990594
950.688054	0.989359
950.989103	0.989892
951.290114	0.988464
951.591087	0.988645
951.892021	0.989149
952.192917	0.988881
952.493776	0.986705
952.794596	0.987594
953.095378	0.986907
953.396122	0.988215
953.696828	0.986758
953.997496	0.989026
954.298126	0.990805
954.598718	0.989857
954.899272	0.990695
955.199788	0.990551
955.500266	0.991079
955.800706	0.992430
956.101108	0.991308
956.401472	0.992438
956.701798	0.993824
957.002087	0.992463
957.302337	0.993586
957.602550	0.993928
957.902724	0.993886
958.202861	0.994141
958.502960	0.993958
958.803022	0.993712
959.103045	0.994453
959.403031	0.995380
959.702979	0.994589
960.002889	0.995547
960.302762	0.992389
960.602596	0.995614
960.902393	0.994173
961.202153	0.995579
961.501875	0.996837
961.801559	0.995196
962.101205	0.995134
962.400814	0.995839
962.700385	0.995749
962.999918	0.994575
963.299414	0.995351
963.598873	0.995798
963.898293	0.994989
964.197677	0.995358
964.497022	0.995741
964.796331	0.997925
965.095601	0.995917
965.394835	0.995252
965.694030	0.996009
965.993189	0.997457
966.292309	0.995891
966.591393	0.996982
966.890439	0.996038
967.189447	0.996444
967.488419	0.996186
967.787353	0.995605
968.086249	0.995898
968.385108	0.996411
968.683930	0.995856
968.982714	0.997559
969.281462	0.996825
969.580172	0.995604
969.878844	0.995791
970.177480	0.996071
970.476078	0.995307
970.774639	0.995220
971.073162	0.997054
971.371649	0.995731
971.670098	0.995012
971.968510	0.996658
972.266885	0.995611
972.565223	0.995575
972.863524	0.996058
973.161788	0.994939
973.460014	0.997239
973.758204	0.994134
974.056356	0.995092
974.354471	0.993468
974.652550	0.996260
974.950591	0.995926
975.248595	0.995150
975.546563	0.996516
975.844493	0.997535
976.142386	0.996940
976.440243	0.997851
976.738062	0.995373
977.035845	0.997421
977.333590	0.996800
977.631299	0.997814
977.928971	0.996070
978.226606	0.995191
978.524204	0.994471
978.821765	0.997818
979.119290	0.995792
979.416777	0.996692
979.714228	0.995285
980.011642	0.996052
980.309020	0.996404
980.606360	0.995994
980.903664	0.997780
981.200931	0.996467
981.498162	0.994604
981.795356	0.994377
982.092513	0.993147
982.389633	0.995204
982.686717	0.990113
982.983764	0.991145
983.280775	0.989301
983.577749	0.988945
983.874686	0.991009
984.171587	0.989997
984.468451	0.992545
984.765279	0.994584
985.062070	0.993768
985.358824	0.995221
985.655543	0.993239
985.952224	0.996115
986.248869	0.994787
986.545478	0.994176
986.842050	0.997715
987.138586	0.995171
987.435086	0.996803
987.731549	0.998137
988.027975	0.997301
988.324366	0.997229
988.620719	0.996501
988.917037	0.996517
989.213318	0.997399
989.509563	0.997551
989.805772	0.998332
990.101944	0.997597
990.398080	0.996250
990.694180	0.998495
990.990244	0.996860
991.286271	0.997141
991.582262	0.997489
991.878217	0.997066
992.174136	0.998342
992.470019	0.996731
992.765865	0.997418
993.061676	0.996963
993.357450	0.996422
993.653188	0.995434
993.948890	0.996818
994.244556	0.997385
994.540186	0.996463
994.835780	0.995687
995.131337	0.996186
995.426859	0.996226
995.722345	0.996558
996.017795	0.995381
996.313208	0.995655
996.608586	0.995314
996.903928	0.995423
997.199234	0.995477
997.494504	0.996285
997.789738	0.995062
998.084936	0.996034
998.380099	0.997484
998.675225	0.996820
998.970316	0.997209
999.265371	0.998513
999.560390	0.996090
999.855373	0.998028
1000.150320	0.997471
1000.445232	0.997364
1000.740108	0.996799
1001.034948	0.997671
1001.329752	0.998598
1001.624521	0.997554
1001.919254	0.997717
1002.213951	0.997407
1002.508613	0.997145
1002.803239	0.998826
1003.097829	0.998039
1003.392384	0.997690
1003.686903	0.997316
1003.981386	0.999228
1004.275834	0.999253
1004.570246	0.997342
1004.864623	0.998679
1005.158964	0.998824
1005.453270	0.998608
1005.747540	0.997279
1006.041775	0.998139
1006.335974	0.999038
1006.630138	0.998731
1006.924266	0.998773
1007.218359	0.999254
1007.512416	0.998821
1007.806438	0.998677
1008.100425	0.999737
1008.394376	0.998062
1008.688292	0.998048
1008.982172	0.999728
1009.276017	0.998822
1009.569827	0.998004
1009.863602	0.998910
1010.157341	0.997932
1010.451045	0.999032
1010.744714	0.997998
1011.038347	0.998543
1011.331945	0.998676
1011.625508	0.997139
1011.919036	0.997747
1012.212528	0.997577
1012.505986	0.997917
1012.799408	0.997477
1013.092795	0.998527
1013.386147	0.998708
1013.679464	0.998809
1013.972745	0.997847
1014.265992	0.996096
1014.559204	0.998343
1014.852380	0.999230
1015.145521	0.998638
1015.438628	0.999541
1015.731699	0.998093
1016.024736	0.997980
1016.317737	0.997781
1016.610703	0.998252
1016.903635	0.998981
1017.196531	0.999184
1017.489393	0.999287
1017.782219	0.998329
1018.075011	0.998161
1018.367768	0.997688
1018.660490	0.999590
1018.953177	0.999590
1019.245829	0.999590
