Dividing Wavelength (nm)	Counts (n)	Blue Motor Position (mm): 0.000000	Red Motor Position (mm): 9.600000	
326.493990	1.001891
326.888308	1.001891
327.282561	1.001891
327.676750	1.000591
328.070874	1.000202
328.464933	1.000975
328.858929	1.000472
329.252859	0.999591
329.646726	1.000630
330.040528	1.001900
330.434265	0.999650
330.827938	1.001312
331.221547	1.001292
331.615091	1.001168
332.008571	1.001136
332.401986	1.000552
332.795338	1.001148
333.188625	0.999275
333.581847	1.000862
333.975006	0.999433
334.368100	1.000205
334.761129	1.000857
335.154095	1.001014
335.546996	0.998767
335.939833	0.993365
336.332606	0.994667
336.725315	0.993767
337.117960	0.995398
337.510540	0.994434
337.903056	0.994540
338.295508	0.993476
338.687896	0.993972
339.080220	0.994447
339.472480	0.994716
339.864676	0.994698
340.256807	0.994956
340.648875	0.994782
341.040879	0.994505
341.432818	0.994224
341.824694	0.994608
342.216506	0.995731
342.608253	0.994662
342.999937	0.994236
343.391557	0.994847
343.783113	0.994808
344.174605	0.994966
344.566033	0.995217
344.957397	0.992900
345.348697	0.994717
345.739934	0.995108
346.131106	0.994279
346.522215	0.994329
346.913260	0.994648
347.304241	0.993765
347.695159	0.994933
348.086012	0.994275
348.476802	0.992233
348.867528	0.994447
349.258191	0.993664
349.648789	0.995447
350.039324	0.993825
350.429796	0.994544
350.820203	0.994082
351.210548	0.993655
351.600828	0.994406
351.991045	0.994143
352.381198	0.993426
352.771288	0.994255
353.161314	0.994141
353.551276	0.995657
353.941175	0.994175
354.331010	0.994048
354.720782	0.993410
355.110490	0.993945
355.500135	0.994197
355.889717	0.994329
356.279235	0.993922
356.668689	0.994193
357.058080	0.994342
357.447408	0.995164
357.836672	0.995314
358.225873	0.994091
358.615010	0.994678
359.004084	0.995114
359.393095	0.993914
359.782043	0.993536
360.170927	0.994598
360.559748	0.994822
360.948505	0.993047
361.337199	0.992960
361.725830	0.994082
362.114398	0.992867
362.502903	0.993732
362.891344	0.993845
363.279722	0.992902
363.668037	0.994125
364.056289	0.992911
364.444478	0.994982
364.832603	0.994657
365.220665	0.992744
365.608665	0.994130
365.996601	0.992178
366.384474	0.994051
366.772284	0.992836
367.160031	0.992502
367.547715	0.991900
367.935336	0.992698
368.322893	0.992652
368.710388	0.992171
369.097820	0.993209
369.485189	0.992336
369.872495	0.992085
370.259738	0.990528
370.646918	0.993168
371.034035	0.992981
371.421090	0.991273
371.808081	0.991432
372.195010	0.991718
372.581875	0.992892
372.968678	0.992325
373.355418	0.992842
373.742096	0.991933
374.128710	0.993352
374.515262	0.991499
374.901751	0.992081
375.288177	0.993046
375.674540	0.992731
376.060841	0.991629
376.447079	0.992358
376.833254	0.992424
377.219367	0.991218
377.605417	0.990733
377.991404	0.991381
378.377329	0.989964
378.763191	0.988689
379.148991	0.987859
379.534727	0.986151
379.920402	0.984243
380.306013	0.983475
380.691563	0.980405
381.077049	0.977233
381.462474	0.974516
381.847835	0.970261
382.233134	0.965680
382.618371	0.964232
383.003545	0.958296
383.388657	0.954150
383.773706	0.949239
384.158693	0.943485
384.543618	0.937572
384.928480	0.932512
385.313280	0.924805
385.698017	0.919784
386.082692	0.912374
386.467305	0.905059
386.851856	0.897209
387.236344	0.889884
387.620770	0.879777
388.005133	0.873516
388.389435	0.864179
388.773674	0.855886
389.157851	0.845294
389.541965	0.837191
389.926018	0.834324
390.310008	0.820447
390.693936	0.811167
391.077802	0.800457
391.461606	0.794132
391.845348	0.779842
392.229027	0.774314
392.612645	0.766544
392.996200	0.750495
393.379694	0.738998
393.763125	0.725906
394.146494	0.722918
394.529801	0.709122
394.913047	0.696419
395.296230	0.694911
395.679351	0.682451
396.062410	0.673531
396.445408	0.671281
396.828343	0.661984
397.211217	0.653914
397.594028	0.660462
397.976778	0.646308
398.359466	0.639478
398.742092	0.631333
399.124656	0.639893
399.507158	0.625830
399.889598	0.619838
400.271977	0.609318
400.654294	0.611844
401.036549	0.607620
401.418742	0.609940
401.800874	0.594127
402.182944	0.589973
402.564952	0.579585
402.946898	0.580400
403.328783	0.580054
403.710606	0.589792
404.092367	0.564943
404.474067	0.568927
404.855705	0.567293
405.237282	0.575706
405.618797	0.561554
406.000250	0.556700
406.381642	0.547184
406.762972	0.552141
407.144240	0.550298
407.525447	0.550586
407.906593	0.542859
408.287677	0.537819
408.668700	0.546328
409.049661	0.539876
409.430560	0.535313
409.811399	0.543573
410.192176	0.525254
410.572891	0.532033
410.953545	0.520204
411.334138	0.533348
411.714669	0.526089
412.095139	0.537801
412.475547	0.522969
412.855894	0.524262
413.236180	0.523172
413.616405	0.528895
413.996568	0.519143
414.376670	0.524590
414.756711	0.530291
415.136691	0.526468
415.516609	0.518190
415.896466	0.514521
416.276262	0.510203
416.655997	0.512244
417.035670	0.493808
417.415283	0.485622
417.794834	0.490388
418.174324	0.495562
418.553753	0.505313
418.933121	0.487082
419.312428	0.481125
419.691674	0.486084
420.070859	0.474765
420.449983	0.482753
420.829045	0.472519
421.208047	0.481176
421.586988	0.475171
421.965867	0.473082
422.344686	0.462379
422.723444	0.474761
423.102141	0.490971
423.480777	0.464886
423.859352	0.485024
424.237866	0.462241
424.616319	0.462557
424.994712	0.454245
425.373044	0.464467
425.751314	0.452236
426.129524	0.468748
426.507673	0.453047
426.885762	0.446308
427.263789	0.451277
427.641756	0.461385
428.019662	0.451893
428.397508	0.450823
428.775292	0.455044
429.153016	0.447272
429.530679	0.453114
429.908282	0.446556
430.285824	0.456820
430.663305	0.435228
431.040726	0.456120
431.418086	0.456241
431.795385	0.447919
432.172624	0.446400
432.549802	0.447393
432.926920	0.445899
433.303977	0.445885
433.680974	0.442695
434.057910	0.441227
434.434786	0.440595
434.811601	0.442964
435.188355	0.425858
435.565050	0.434484
435.941683	0.436261
436.318257	0.420856
436.694770	0.421634
437.071222	0.419271
437.447614	0.423734
437.823946	0.430395
438.200218	0.419465
438.576429	0.429024
438.952580	0.422534
439.328670	0.419783
439.704700	0.425847
440.080670	0.426804
440.456580	0.408097
440.832429	0.415841
441.208218	0.426519
441.583947	0.416150
441.959616	0.415698
442.335224	0.420251
442.710773	0.411678
443.086261	0.409619
443.461689	0.423455
443.837057	0.413639
444.212365	0.403221
444.587612	0.409849
444.962800	0.400000
445.337927	0.401621
445.712995	0.427924
446.088002	0.390047
446.462949	0.400687
446.837837	0.404969
447.212664	0.394302
447.587431	0.385394
447.962139	0.356103
448.336786	0.315225
448.711374	0.326011
449.085901	0.369763
449.460369	0.374397
449.834776	0.377411
450.209124	0.357085
450.583412	0.350072
450.957640	0.342930
451.331808	0.353940
451.705917	0.377760
452.079965	0.381783
452.453954	0.370120
452.827883	0.376769
453.201752	0.371859
453.575562	0.383041
453.949311	0.371625
454.323001	0.377880
454.696632	0.373316
455.070202	0.366377
455.443713	0.357937
455.817164	0.353047
456.190556	0.348907
456.563888	0.345336
456.937160	0.342884
457.310373	0.360217
457.683526	0.359236
458.056619	0.364656
458.429653	0.365544
458.802628	0.368678
459.175542	0.362804
459.548398	0.345780
459.921194	0.337962
460.293930	0.338232
460.666607	0.315692
461.039224	0.304055
461.411782	0.299637
461.784280	0.299258
462.156719	0.303221
462.529099	0.307598
462.901419	0.323590
463.273680	0.328105
463.645882	0.327811
464.018024	0.333437
464.390106	0.326238
464.762130	0.311219
465.134094	0.294091
465.505999	0.263261
465.877845	0.233529
466.249631	0.220674
466.621358	0.228064
466.993026	0.242086
467.364634	0.248061
467.736184	0.256976
468.107674	0.265682
468.479105	0.264739
468.850477	0.271773
469.221790	0.278228
469.593043	0.288417
469.964238	0.292938
470.335373	0.292589
470.706449	0.290891
471.077467	0.291572
471.448425	0.253393
471.819324	0.229246
472.190164	0.228512
472.560945	0.257439
472.931667	0.279349
473.302330	0.283746
473.672934	0.295681
474.043479	0.283891
474.413965	0.285485
474.784393	0.288878
475.154761	0.284163
475.525070	0.281250
475.895321	0.286959
476.265513	0.280953
476.635645	0.276255
477.005719	0.276696
477.375734	0.272889
477.745691	0.266055
478.115588	0.262780
478.485427	0.256270
478.855207	0.243099
479.224928	0.225626
479.594591	0.213842
479.964194	0.217172
480.333739	0.218324
480.703226	0.219726
481.072653	0.218215
481.442022	0.213932
481.811333	0.210632
482.180584	0.213929
482.549777	0.219203
482.918912	0.222336
483.287988	0.222284
483.657005	0.221962
484.025964	0.228370
484.394864	0.225634
484.763706	0.226614
485.132489	0.231251
485.501213	0.231917
485.869879	0.230573
486.238487	0.233838
486.607036	0.231685
486.975527	0.236020
487.343959	0.232272
487.712333	0.231017
488.080648	0.232396
488.448905	0.231483
488.817104	0.232996
489.185244	0.227570
489.553326	0.224261
489.921350	0.214148
490.289315	0.196746
490.657222	0.191739
491.025070	0.193197
491.392861	0.195109
491.760593	0.200928
492.128267	0.206185
492.495883	0.211802
492.863440	0.218019
493.230939	0.224434
493.598380	0.225705
493.965763	0.228228
494.333088	0.230226
494.700354	0.231751
495.067563	0.230530
495.434713	0.234225
495.801805	0.231852
496.168839	0.233426
496.535815	0.234688
496.902733	0.234769
497.269593	0.236282
497.636395	0.233888
498.003139	0.234397
498.369825	0.237200
498.736453	0.234059
499.103023	0.235170
499.469535	0.234900
499.835989	0.234868
500.202385	0.235880
500.568723	0.239064
500.935003	0.234405
501.301226	0.238498
501.667390	0.233058
502.033497	0.230965
502.399546	0.234049
502.765537	0.235799
503.131470	0.234123
503.497345	0.230588
503.863163	0.239227
504.228923	0.232118
504.594625	0.230951
504.960269	0.236183
505.325856	0.231528
505.691385	0.235786
506.056856	0.232644
506.422270	0.231944
506.787625	0.234456
507.152924	0.231610
507.518164	0.232158
507.883347	0.233992
508.248472	0.235981
508.613540	0.230659
508.978550	0.233440
509.343503	0.233860
509.708398	0.231313
510.073236	0.228881
510.438016	0.228944
510.802738	0.230229
511.167403	0.229089
511.532010	0.230939
511.896561	0.226386
512.261053	0.225309
512.625488	0.227472
512.989866	0.227613
513.354186	0.227731
513.718449	0.229687
514.082655	0.225904
514.446803	0.228502
514.810894	0.225986
515.174927	0.228932
515.538904	0.228027
515.902822	0.225081
516.266684	0.227414
516.630488	0.228678
516.994235	0.227234
517.357925	0.225881
517.721558	0.224173
518.085133	0.223787
518.448651	0.224042
518.812112	0.226237
519.175516	0.225665
519.538863	0.223641
519.902152	0.225105
520.265385	0.221924
520.628560	0.223526
520.991678	0.224015
521.354739	0.223150
521.717743	0.224193
522.080690	0.224788
522.443580	0.221917
522.806413	0.223123
523.169189	0.222098
523.531908	0.220898
523.894569	0.224690
524.257174	0.224672
524.619722	0.222365
524.982213	0.223496
525.344647	0.222390
525.707025	0.223158
526.069345	0.221332
526.431608	0.223064
526.793815	0.220815
527.155964	0.225274
527.518057	0.224018
527.880093	0.225016
528.242072	0.223702
528.603995	0.225616
528.965860	0.227393
529.327669	0.226160
529.689421	0.226923
530.051117	0.227933
530.412755	0.225330
530.774337	0.228153
531.135862	0.228099
531.497331	0.227446
531.858743	0.230432
532.220098	0.227231
532.581396	0.229653
532.942638	0.230086
533.303824	0.231237
533.664953	0.231000
534.026025	0.232384
534.387040	0.230476
534.747999	0.230463
535.108902	0.229351
535.469748	0.234520
535.830537	0.232428
536.191270	0.232797
536.551947	0.232035
536.912567	0.232321
537.273131	0.233942
537.633638	0.234250
537.994089	0.234712
538.354483	0.235842
538.714821	0.232580
539.075103	0.232184
539.435328	0.233363
539.795497	0.236729
540.155609	0.233462
540.515665	0.231466
540.875665	0.237371
541.235609	0.235709
541.595496	0.235800
541.955328	0.232249
542.315102	0.235211
542.674821	0.235974
543.034483	0.236168
543.394090	0.235846
543.753640	0.237950
544.113134	0.232486
544.472571	0.236137
544.831953	0.232757
545.191278	0.237115
545.550548	0.236398
545.909761	0.233172
546.268918	0.233933
546.628019	0.232324
546.987064	0.234933
547.346053	0.236794
547.704986	0.234738
548.063863	0.235091
548.422684	0.235457
548.781449	0.237221
549.140158	0.234616
549.498811	0.237455
549.857408	0.240494
550.215949	0.235298
550.574434	0.238298
550.932864	0.236459
551.291237	0.235266
551.649555	0.236412
552.007817	0.236255
552.366022	0.236882
552.724173	0.237315
553.082267	0.237632
553.440305	0.234375
553.798288	0.238945
554.156215	0.235447
554.514086	0.235775
554.871902	0.239518
555.229661	0.238303
555.587365	0.239079
555.945014	0.241291
556.302606	0.238457
556.660143	0.241059
557.017625	0.237471
557.375050	0.240065
557.732421	0.236615
558.089735	0.238655
558.446994	0.238805
558.804197	0.237989
559.161345	0.238173
559.518437	0.241297
559.875474	0.239183
560.232455	0.238621
560.589381	0.239699
560.946251	0.239852
561.303065	0.237349
561.659825	0.238995
562.016528	0.240412
562.373177	0.242932
562.729770	0.240549
563.086307	0.242799
563.442789	0.240602
563.799216	0.243177
564.155587	0.241800
564.511904	0.243163
564.868164	0.243187
565.224370	0.242999
565.580520	0.245084
565.936615	0.244707
566.292654	0.247792
566.648638	0.244781
567.004567	0.245840
567.360441	0.246073
567.716260	0.248435
568.072023	0.246030
568.427732	0.246681
568.783385	0.249349
569.138982	0.247295
569.494525	0.247007
569.850013	0.249827
570.205445	0.248060
570.560823	0.250555
570.916145	0.252706
571.271412	0.250836
571.626625	0.252408
571.981782	0.252799
572.336884	0.253588
572.691931	0.253567
573.046923	0.254840
573.401860	0.256070
573.756743	0.257570
574.111570	0.256770
574.466342	0.257004
574.821059	0.256246
575.175722	0.259244
575.530330	0.258603
575.884882	0.258845
576.239380	0.261053
576.593823	0.261552
576.948211	0.260814
577.302544	0.264120
577.656823	0.263479
578.011047	0.263916
578.365216	0.264632
578.719330	0.266842
579.073389	0.266238
579.427394	0.267745
579.781344	0.268439
580.135239	0.270054
580.489080	0.269220
580.842866	0.272548
581.196597	0.272792
581.550273	0.271112
581.903895	0.272125
582.257463	0.269984
582.610975	0.273631
582.964434	0.273016
583.317837	0.275628
583.671186	0.275970
584.024481	0.275731
584.377721	0.278261
584.730906	0.278922
585.084037	0.278353
585.437113	0.280076
585.790135	0.279509
586.143103	0.282465
586.496016	0.283859
586.848874	0.280656
587.201679	0.281749
587.554428	0.285019
587.907124	0.284116
588.259765	0.284343
588.612352	0.284911
588.964884	0.288574
589.317362	0.288573
589.669786	0.288567
590.022155	0.287039
590.374470	0.286169
590.726731	0.288315
591.078937	0.293087
591.431090	0.289381
591.783188	0.293738
592.135232	0.294127
592.487222	0.293739
592.839157	0.292268
593.191038	0.294631
593.542866	0.296324
593.894639	0.300190
594.246358	0.297745
594.598022	0.297396
594.949633	0.301116
595.301190	0.301470
595.652692	0.301035
596.004141	0.296821
596.355535	0.305018
596.706876	0.305437
597.058162	0.308005
597.409395	0.305446
597.760573	0.302949
598.111698	0.306212
598.462768	0.306720
598.813785	0.308384
599.164748	0.309296
599.515657	0.309456
599.866511	0.312979
600.217312	0.308080
600.568060	0.313685
600.918753	0.309998
601.269392	0.311064
601.619978	0.313998
601.970510	0.311628
602.320988	0.311982
602.671412	0.309490
603.021783	0.312058
603.372100	0.313765
603.722363	0.313392
604.072572	0.313928
604.422728	0.313944
604.772830	0.315746
605.122878	0.315466
605.472872	0.316094
605.822813	0.314147
606.172701	0.317108
606.522534	0.314370
606.872314	0.314597
607.222041	0.315403
607.571714	0.313626
607.921333	0.315010
608.270899	0.314591
608.620411	0.311239
608.969870	0.315025
609.319276	0.315177
609.668627	0.315220
610.017926	0.313718
610.367171	0.312538
610.716362	0.312943
611.065500	0.313180
611.414585	0.312200
611.763616	0.312574
612.112594	0.312996
612.461518	0.312719
612.810389	0.309661
613.159207	0.312714
613.507971	0.314514
613.856682	0.309953
614.205340	0.311780
614.553945	0.308554
614.902496	0.312272
615.250994	0.310252
615.599439	0.311091
615.947830	0.310651
616.296169	0.311682
616.644454	0.311309
616.992686	0.311284
617.340864	0.308810
617.688990	0.312305
618.037063	0.308939
618.385082	0.310945
618.733048	0.307880
619.080961	0.310254
619.428821	0.309470
619.776628	0.309162
620.124382	0.311045
620.472083	0.311308
620.819731	0.310883
621.167326	0.314405
621.514868	0.314300
621.862357	0.318685
622.209793	0.318208
622.557176	0.320360
622.904506	0.321645
623.251783	0.323926
623.599007	0.326226
623.946179	0.325520
624.293297	0.327988
624.640363	0.331732
624.987376	0.332060
625.334336	0.334782
625.681243	0.336974
626.028097	0.337362
626.374899	0.338849
626.721647	0.338903
627.068343	0.342233
627.414987	0.342987
627.761577	0.345884
628.108115	0.343394
628.454600	0.348876
628.801032	0.346042
629.147412	0.348046
629.493739	0.348444
629.840014	0.351583
630.186236	0.348765
630.532405	0.354847
630.878521	0.352008
631.224585	0.354539
631.570597	0.358154
631.916556	0.356356
632.262462	0.356449
632.608316	0.358418
632.954117	0.359660
633.299866	0.359954
633.645562	0.360402
633.991206	0.364597
634.336797	0.367874
634.682336	0.370234
635.027823	0.372230
635.373257	0.372799
635.718639	0.376418
636.063968	0.375366
636.409245	0.380826
636.754470	0.381556
637.099642	0.383528
637.444762	0.387357
637.789829	0.386268
638.134845	0.389409
638.479808	0.390654
638.824719	0.390105
639.169577	0.394451
639.514383	0.393542
639.859137	0.397567
640.203839	0.397798
640.548489	0.397908
640.893086	0.399340
641.237632	0.401117
641.582125	0.399998
641.926566	0.400955
642.270955	0.401219
642.615292	0.401820
642.959576	0.400379
643.303809	0.401057
643.647990	0.400709
643.992118	0.400871
644.336195	0.404688
644.680219	0.402795
645.024192	0.404137
645.368112	0.397469
645.711981	0.396354
646.055797	0.391878
646.399562	0.393729
646.743274	0.386657
647.086935	0.383338
647.430544	0.383590
647.774101	0.382788
648.117606	0.382283
648.461059	0.382757
648.804460	0.385700
649.147810	0.389831
649.491108	0.391788
649.834354	0.393818
650.177548	0.399125
650.520690	0.404480
650.863781	0.405610
651.206820	0.404905
651.549807	0.409377
651.892742	0.413229
652.235626	0.413151
652.578458	0.414240
652.921238	0.420843
653.263967	0.417705
653.606644	0.421797
653.949269	0.421239
654.291843	0.425613
654.634365	0.422409
654.976836	0.425366
655.319255	0.425975
655.661622	0.427377
656.003938	0.427167
656.346203	0.430328
656.688416	0.427982
657.030577	0.431496
657.372687	0.433312
657.714746	0.434032
658.056753	0.431170
658.398708	0.435095
658.740612	0.436243
659.082465	0.432089
659.424266	0.433020
659.766016	0.432007
660.107715	0.435540
660.449362	0.433720
660.790958	0.434606
661.132503	0.435342
661.473996	0.432590
661.815438	0.434009
662.156829	0.433595
662.498168	0.434532
662.839456	0.435773
663.180693	0.433664
663.521879	0.433371
663.863013	0.434328
664.204097	0.433440
664.545129	0.430267
664.886110	0.430536
665.227040	0.427616
665.567918	0.429958
665.908746	0.427728
666.249522	0.427819
666.590248	0.428613
666.930922	0.427010
667.271545	0.425954
667.612118	0.425475
667.952639	0.427652
668.293109	0.426352
668.633528	0.429530
668.973896	0.429012
669.314213	0.429819
669.654480	0.431128
669.994695	0.431612
670.334859	0.432249
670.674973	0.432365
671.015035	0.433026
671.355047	0.432655
671.695008	0.433788
672.034918	0.435097
672.374777	0.435059
672.714585	0.435762
673.054342	0.435903
673.394049	0.435794
673.733705	0.433737
674.073310	0.434832
674.412864	0.437670
674.752368	0.438390
675.091820	0.438721
675.431223	0.443084
675.770574	0.442824
676.109875	0.445952
676.449125	0.445893
676.788324	0.447830
677.127473	0.453658
677.466571	0.453224
677.805619	0.454802
678.144616	0.455634
678.483562	0.457664
678.822458	0.460068
679.161303	0.461394
679.500098	0.461468
679.838842	0.463289
680.177535	0.463208
680.516179	0.461431
680.854771	0.460754
681.193314	0.453957
681.531805	0.444874
681.870247	0.434117
682.208638	0.426526
682.546978	0.424876
682.885268	0.427158
683.223508	0.433514
683.561697	0.436512
683.899836	0.439792
684.237925	0.442512
684.575963	0.445770
684.913951	0.448330
685.251889	0.444097
685.589776	0.446343
685.927614	0.449144
686.265401	0.443520
686.603137	0.444776
686.940824	0.438440
687.278460	0.437122
687.616046	0.435874
687.953582	0.430234
688.291068	0.432562
688.628504	0.427991
688.965889	0.429950
689.303224	0.434423
689.640510	0.437748
689.977745	0.444273
690.314930	0.452446
690.652065	0.456500
690.989150	0.463769
691.326185	0.470792
691.663170	0.474809
692.000105	0.482671
692.336990	0.489313
692.673825	0.491872
693.010610	0.498681
693.347345	0.504402
693.684030	0.505739
694.020665	0.510911
694.357251	0.519280
694.693786	0.518806
695.030272	0.522818
695.366707	0.526449
695.703093	0.530248
696.039429	0.527949
696.375716	0.529373
696.711952	0.532434
697.048139	0.533638
697.384276	0.536468
697.720363	0.533953
698.056400	0.533901
698.392388	0.539589
698.728326	0.541789
699.064214	0.544214
699.400053	0.545629
699.735842	0.549602
700.071581	0.552153
700.407270	0.555699
700.742910	0.557024
701.078501	0.563935
701.414042	0.564362
701.749533	0.567424
702.084974	0.576636
702.420366	0.568528
702.755709	0.576724
703.091002	0.584409
703.426246	0.577975
703.761440	0.583807
704.096584	0.588248
704.431679	0.585197
704.766725	0.586931
705.101721	0.589259
705.436668	0.585548
705.771565	0.591693
706.106413	0.588952
706.441212	0.584162
706.775961	0.582643
707.110661	0.585361
707.445311	0.581590
707.779913	0.579085
708.114465	0.577642
708.448967	0.573371
708.783421	0.566761
709.117825	0.561105
709.452180	0.561060
709.786485	0.554869
710.120742	0.544955
710.454949	0.546986
710.789107	0.537584
711.123216	0.529630
711.457275	0.531491
711.791286	0.522152
712.125247	0.521350
712.459159	0.531848
712.793023	0.524685
713.126837	0.528777
713.460602	0.528897
713.794318	0.538318
714.127985	0.537347
714.461602	0.546979
714.795171	0.550234
715.128691	0.558177
715.462162	0.566040
715.795584	0.571484
716.128957	0.573903
716.462281	0.581074
716.795556	0.584665
717.128782	0.589712
717.461960	0.599250
717.795088	0.597943
718.128167	0.603879
718.461198	0.612988
718.794180	0.612822
719.127113	0.615651
719.459997	0.619367
719.792833	0.625968
720.125619	0.627248
720.458357	0.633168
720.791046	0.632763
721.123686	0.635975
721.456278	0.643406
721.788821	0.640622
722.121315	0.644293
722.453761	0.648909
722.786158	0.646231
723.118506	0.643167
723.450805	0.651102
723.783056	0.646485
724.115259	0.644718
724.447412	0.643408
724.779518	0.645519
725.111574	0.644718
725.443582	0.639356
725.775542	0.641636
726.107453	0.633444
726.439315	0.633949
726.771129	0.632627
727.102895	0.625488
727.434612	0.618006
727.766281	0.615925
728.097901	0.615118
728.429473	0.615747
728.760996	0.613766
729.092471	0.614323
729.423897	0.617391
729.755276	0.616958
730.086606	0.616308
730.417887	0.611015
730.749120	0.601356
731.080305	0.592829
731.411442	0.588538
731.742530	0.593517
732.073570	0.593233
732.404562	0.585157
732.735506	0.586697
733.066401	0.590674
733.397249	0.600783
733.728048	0.611957
734.058798	0.624555
734.389501	0.635523
734.720156	0.644965
735.050762	0.652734
735.381320	0.654082
735.711831	0.663593
736.042293	0.667903
736.372707	0.663787
736.703073	0.668581
737.033391	0.670984
737.363661	0.667252
737.693883	0.662301
738.024056	0.662083
738.354182	0.663022
738.684260	0.651940
739.014290	0.647366
739.344272	0.648932
739.674207	0.641495
740.004093	0.641303
740.333931	0.642140
740.663722	0.641832
740.993464	0.641857
741.323159	0.645787
741.652806	0.650257
741.982405	0.655926
742.311956	0.660125
742.641460	0.662316
742.970915	0.666312
743.300323	0.674208
743.629683	0.680495
743.958996	0.682076
744.288260	0.686524
744.617477	0.693036
744.946647	0.693854
745.275768	0.699821
745.604842	0.699187
745.933869	0.710351
746.262847	0.709027
746.591778	0.704013
746.920662	0.709446
747.249498	0.715739
747.578286	0.707968
747.907027	0.702767
748.235720	0.704274
748.564365	0.698811
748.892963	0.699031
749.221514	0.701927
749.550017	0.706275
749.878473	0.706355
750.206881	0.713342
750.535242	0.713601
750.863555	0.714710
751.191821	0.714929
751.520039	0.717911
751.848210	0.723287
752.176334	0.715010
752.504411	0.715118
752.832440	0.723583
753.160421	0.726847
753.488356	0.725027
753.816243	0.722675
754.144082	0.730234
754.471875	0.735067
754.799620	0.729822
755.127318	0.731572
755.454969	0.731449
755.782572	0.730334
756.110129	0.736177
756.437638	0.737706
756.765100	0.735258
757.092515	0.732962
757.419882	0.731833
757.747203	0.735758
758.074477	0.736182
758.401703	0.733651
758.728882	0.728474
759.056014	0.727382
759.383099	0.725907
759.710138	0.728115
760.037129	0.723244
760.364073	0.718491
760.690970	0.719856
761.017820	0.726292
761.344623	0.721264
761.671379	0.711926
761.998088	0.700923
762.324751	0.678002
762.651366	0.635516
762.977935	0.568614
763.304456	0.515723
763.630931	0.507251
763.957359	0.545993
764.283740	0.590352
764.610074	0.618364
764.936362	0.648667
765.262602	0.676186
765.588796	0.697052
765.914943	0.715163
766.241044	0.733881
766.567097	0.739857
766.893104	0.749079
767.219064	0.756987
767.544978	0.762879
767.870845	0.776575
768.196665	0.781136
768.522438	0.779276
768.848165	0.779186
769.173846	0.788689
769.499479	0.792459
769.825066	0.796435
770.150607	0.801504
770.476101	0.796652
770.801548	0.798384
771.126949	0.809422
771.452303	0.813195
771.777611	0.812859
772.102872	0.812284
772.428087	0.816363
772.753256	0.820404
773.078378	0.822157
773.403453	0.831501
773.728482	0.835459
774.053465	0.829521
774.378401	0.832218
774.703291	0.840649
775.028135	0.840893
775.352932	0.843084
775.677683	0.845689
776.002388	0.846424
776.327046	0.844785
776.651658	0.848636
776.976224	0.852031
777.300743	0.852123
777.625216	0.854373
777.949643	0.856034
778.274024	0.856520
778.598359	0.856522
778.922647	0.855889
779.246889	0.857423
779.571086	0.860600
779.895236	0.863995
780.219339	0.860647
780.543397	0.857486
780.867409	0.856148
781.191374	0.857721
781.515294	0.859288
781.839167	0.858089
782.162995	0.861353
782.486776	0.858871
782.810511	0.859641
783.134201	0.863241
783.457844	0.860714
783.781441	0.862571
784.104993	0.869944
784.428498	0.870036
784.751958	0.866163
785.075372	0.867412
785.398739	0.871859
785.722061	0.868543
786.045337	0.863910
786.368568	0.868034
786.691752	0.871322
787.014891	0.856085
787.337983	0.848215
787.661030	0.839865
787.984031	0.822981
788.306987	0.809925
788.629897	0.811892
788.952760	0.816083
789.275579	0.819659
789.598351	0.834951
789.921078	0.848387
790.243759	0.851130
790.566395	0.855534
790.888984	0.862255
791.211529	0.867729
791.534027	0.871653
791.856480	0.874227
792.178888	0.878116
792.501249	0.880295
792.823566	0.881655
793.145836	0.881824
793.468062	0.883584
793.790241	0.883866
794.112375	0.882928
794.434464	0.877022
794.756507	0.877186
795.078505	0.876073
795.400457	0.872163
795.722364	0.858789
796.044226	0.851452
796.366042	0.851360
796.687812	0.854648
797.009538	0.849962
797.331218	0.853867
797.652852	0.858522
797.974442	0.863363
798.295986	0.863102
798.617484	0.866058
798.938938	0.870118
799.260346	0.875166
799.581709	0.876891
799.903026	0.879598
800.224299	0.879223
800.545526	0.883195
800.866708	0.888460
801.187845	0.891892
801.508936	0.891828
801.829983	0.889403
802.150984	0.892067
802.471940	0.897262
802.792851	0.895664
803.113717	0.898001
803.434538	0.895387
803.755314	0.897551
804.076045	0.898717
804.396731	0.898899
804.717372	0.899821
805.037967	0.901453
805.358518	0.899493
805.679024	0.895663
805.999485	0.895769
806.319901	0.896445
806.640272	0.896694
806.960598	0.895703
807.280879	0.893156
807.601115	0.891759
807.921306	0.894849
808.241453	0.895897
808.561554	0.892926
808.881611	0.893494
809.201623	0.894969
809.521590	0.896057
809.841513	0.895983
810.161390	0.895897
810.481223	0.897331
810.801011	0.899692
811.120755	0.902166
811.440453	0.899937
811.760107	0.899327
812.079716	0.899466
812.399281	0.903370
812.718801	0.905173
813.038276	0.906574
813.357707	0.905912
813.677093	0.903015
813.996434	0.905685
814.315731	0.907549
814.634983	0.908363
814.954191	0.907139
815.273354	0.903718
815.592473	0.901646
815.911547	0.901139
816.230577	0.897195
816.549562	0.896057
816.868502	0.895946
817.187399	0.892332
817.506250	0.886694
817.825058	0.889211
818.143821	0.886018
818.462539	0.880110
818.781213	0.872558
819.099843	0.860509
819.418429	0.843718
819.736970	0.828696
820.055466	0.807826
820.373919	0.781871
820.692327	0.749735
821.010691	0.713761
821.329011	0.635203
821.647286	0.518092
821.965517	0.403498
822.283704	0.360570
822.601847	0.361465
822.919945	0.397116
823.237999	0.431460
823.556010	0.479015
823.873976	0.535559
824.191897	0.586145
824.509775	0.629549
824.827609	0.675557
825.145398	0.698767
825.463144	0.700976
825.780845	0.683909
826.098502	0.665025
826.416116	0.618910
826.733685	0.574084
827.051210	0.565406
827.368692	0.580768
827.686129	0.617679
828.003522	0.672044
828.320872	0.719111
828.638177	0.764163
828.955439	0.797516
829.272656	0.820056
829.589830	0.837234
829.906960	0.853062
830.224046	0.865731
830.541088	0.875994
830.858086	0.880345
831.175041	0.886698
831.491952	0.886588
831.808819	0.881895
832.125642	0.875154
832.442421	0.860558
832.759157	0.838149
833.075849	0.791150
833.392497	0.727336
833.709101	0.686590
834.025662	0.695871
834.342179	0.727403
834.658653	0.766287
834.975083	0.803805
835.291469	0.829931
835.607811	0.853523
835.924110	0.869269
836.240366	0.886628
836.556578	0.900727
836.872746	0.908042
837.188871	0.914808
837.504952	0.919462
837.820990	0.922595
838.136984	0.926462
838.452935	0.929445
838.768842	0.930521
839.084706	0.925318
839.400526	0.898406
839.716303	0.858487
840.032037	0.834373
840.347727	0.837746
840.663373	0.856712
840.978977	0.879487
841.294537	0.901326
841.610054	0.918606
841.925527	0.925259
842.240957	0.932948
842.556344	0.939550
842.871687	0.946343
843.186987	0.948759
843.502244	0.950577
843.817458	0.952013
844.132629	0.955200
844.447756	0.960451
844.762840	0.959522
845.077881	0.959540
845.392879	0.960454
845.707833	0.963088
846.022745	0.964291
846.337613	0.965902
846.652438	0.965933
846.967221	0.964537
847.281960	0.965820
847.596656	0.968038
847.911309	0.965977
848.225919	0.966366
848.540485	0.968351
848.855009	0.969052
849.169490	0.968507
849.483928	0.969730
849.798323	0.969060
850.112675	0.971309
850.426984	0.969257
850.741251	0.969480
851.055474	0.969475
851.369654	0.967947
851.683792	0.968634
851.997887	0.969666
852.311938	0.970682
852.625947	0.970109
852.939914	0.968109
853.253837	0.969221
853.567718	0.970290
853.881555	0.971589
854.195350	0.968000
854.509103	0.968807
854.822812	0.970107
855.136479	0.969632
855.450103	0.969275
855.763685	0.968235
856.077224	0.968412
856.390720	0.970711
856.704173	0.970218
857.017584	0.967950
857.330953	0.966938
857.644278	0.968400
857.957561	0.969523
858.270802	0.967801
858.584000	0.967505
858.897155	0.966890
859.210268	0.967278
859.523339	0.967925
859.836367	0.970652
860.149352	0.970223
860.462295	0.969520
860.775195	0.969373
861.088054	0.968689
861.400869	0.969848
861.713642	0.971205
862.026373	0.970147
862.339062	0.971141
862.651708	0.967314
862.964312	0.967005
863.276873	0.969809
863.589392	0.968117
863.901869	0.965890
864.214303	0.965793
864.526696	0.964366
864.839045	0.962984
865.151353	0.961980
865.463619	0.961927
865.775842	0.962801
866.088023	0.961550
866.400162	0.962210
866.712258	0.962098
867.024313	0.963578
867.336325	0.963227
867.648296	0.963699
867.960224	0.962445
868.272110	0.961159
868.583954	0.964119
868.895755	0.963530
869.207515	0.962278
869.519233	0.958801
869.830909	0.960685
870.142542	0.962684
870.454134	0.961425
870.765684	0.961151
871.077191	0.957286
871.388657	0.958453
871.700081	0.958366
872.011463	0.958550
872.322803	0.957994
872.634101	0.955764
872.945357	0.953844
873.256571	0.953591
873.567744	0.953197
873.878874	0.953201
874.189963	0.952618
874.501010	0.950947
874.812015	0.949607
875.122979	0.951179
875.433900	0.952591
875.744780	0.953934
876.055618	0.951597
876.366415	0.949621
876.677169	0.948862
876.987882	0.950782
877.298554	0.950666
877.609183	0.946787
877.919771	0.945106
878.230317	0.942517
878.540822	0.938412
878.851285	0.933793
879.161707	0.925936
879.472087	0.913853
879.782425	0.896601
880.092722	0.862733
880.402977	0.808900
880.713191	0.746646
881.023363	0.686533
881.333494	0.651926
881.643583	0.623619
881.953631	0.623795
882.263637	0.652117
882.573602	0.691783
882.883526	0.718880
883.193408	0.742818
883.503248	0.765445
883.813048	0.793872
884.122806	0.823413
884.432522	0.848961
884.742197	0.867962
885.051831	0.878907
885.361424	0.888754
885.670975	0.901215
885.980485	0.911563
886.289954	0.917982
886.599382	0.923656
886.908768	0.927330
887.218113	0.932823
887.527417	0.938484
887.836680	0.941185
888.145901	0.943527
888.455082	0.945061
888.764221	0.949965
889.073319	0.951595
889.382376	0.952844
889.691392	0.952264
890.000366	0.952440
890.309300	0.953179
890.618193	0.952686
890.927044	0.952069
891.235855	0.950498
891.544625	0.950420
891.853353	0.951596
892.162041	0.948971
892.470687	0.941635
892.779293	0.938060
893.087858	0.933235
893.396381	0.924962
893.704864	0.911710
894.013306	0.887786
894.321707	0.860013
894.630068	0.845111
894.938387	0.839845
895.246665	0.841872
895.554903	0.853872
895.863100	0.867024
896.171256	0.884548
896.479371	0.904428
896.787446	0.917489
897.095480	0.924105
897.403473	0.926860
897.711425	0.930612
898.019336	0.938759
898.327207	0.941882
898.635038	0.944381
898.942827	0.944270
899.250576	0.948823
899.558284	0.952242
899.865952	0.952879
900.173579	0.954639
900.481165	0.954554
900.788711	0.958737
901.096216	0.960876
901.403681	0.959933
901.711105	0.962437
902.018489	0.962481
902.325832	0.961985
902.633135	0.961411
902.940397	0.954387
903.247619	0.943559
903.554800	0.916998
903.861941	0.875295
904.169041	0.839970
904.476101	0.820501
904.783121	0.821290
905.090100	0.839571
905.397039	0.860895
905.703938	0.883144
906.010796	0.904344
906.317614	0.921424
906.624391	0.933437
906.931129	0.942378
907.237826	0.951752
907.544483	0.958392
907.851099	0.962479
908.157675	0.966704
908.464211	0.970541
908.770707	0.972119
909.077163	0.974187
909.383578	0.974291
909.689954	0.975594
909.996289	0.975053
910.302584	0.978178
910.608839	0.979736
910.915054	0.978212
911.221229	0.978159
911.527363	0.976178
911.833458	0.977598
912.139513	0.976523
912.445527	0.976010
912.751502	0.973880
913.057436	0.972474
913.363331	0.970120
913.669186	0.966123
913.975000	0.961106
914.280775	0.954351
914.586510	0.947713
914.892205	0.933041
915.197859	0.911835
915.503475	0.883460
915.809050	0.863341
916.114585	0.857420
916.420081	0.854271
916.725536	0.851822
917.030952	0.860703
917.336328	0.873727
917.641665	0.888906
917.946961	0.904482
918.252218	0.916543
918.557435	0.924677
918.862612	0.935241
919.167750	0.939573
919.472848	0.944861
919.777906	0.951301
920.082925	0.957084
920.387904	0.960944
920.692843	0.962585
920.997743	0.963276
921.302603	0.966197
921.607423	0.968143
921.912204	0.971132
922.216946	0.971535
922.521647	0.973333
922.826310	0.975114
923.130932	0.976580
923.435516	0.978612
923.740059	0.979000
924.044564	0.978021
924.349028	0.980266
924.653454	0.982134
924.957840	0.985779
925.262186	0.984938
925.566493	0.983298
925.870761	0.985158
926.174989	0.986205
926.479178	0.988687
926.783328	0.988846
927.087438	0.988778
927.391509	0.987569
927.695541	0.990346
927.999533	0.989476
928.303486	0.990203
928.607400	0.992307
928.911275	0.989029
929.215110	0.990411
929.518906	0.992055
929.822663	0.989816
930.126381	0.992308
930.430060	0.990768
930.733699	0.990418
931.037299	0.988323
931.340861	0.990821
931.644383	0.990786
931.947866	0.989270
932.251309	0.991194
932.554714	0.990412
932.858080	0.990033
933.161407	0.991111
933.464694	0.990936
933.767943	0.990350
934.071153	0.991527
934.374323	0.992138
934.677455	0.991678
934.980548	0.992122
935.283602	0.991189
935.586617	0.990617
935.889593	0.990387
936.192530	0.991632
936.495428	0.991436
936.798287	0.991007
937.101108	0.990941
937.403890	0.988622
937.706632	0.988921
938.009336	0.987145
938.312002	0.986184
938.614628	0.984299
938.917216	0.984278
939.219765	0.981004
939.522275	0.983974
939.824747	0.982476
940.127179	0.983341
940.429573	0.983409
940.731929	0.983603
941.034246	0.983559
941.336524	0.984739
941.638763	0.986166
941.940964	0.985314
942.243126	0.986064
942.545250	0.986975
942.847335	0.988060
943.149381	0.988058
943.451389	0.987420
943.753359	0.988345
944.055290	0.990654
944.357182	0.990062
944.659036	0.988550
944.960851	0.989587
945.262628	0.989544
945.564367	0.990778
945.866067	0.990546
946.167729	0.990409
946.469352	0.990272
946.770937	0.988875
947.072484	0.990599
947.373992	0.989601
947.675462	0.990414
947.976893	0.990576
948.278286	0.991281
948.579641	0.991612
948.880958	0.990836
949.182236	0.992092
949.483476	0.991170
949.784678	0.990428
950.085841	0.991644
950.386967	0.991529
950.688054	0.991243
950.989103	0.991216
951.290114	0.988793
951.591087	0.990494
951.892021	0.989081
952.192917	0.989256
952.493776	0.988889
952.794596	0.987766
953.095378	0.987534
953.396122	0.987974
953.696828	0.987336
953.997496	0.989088
954.298126	0.990484
954.598718	0.990891
954.899272	0.991991
955.199788	0.990913
955.500266	0.992595
955.800706	0.993622
956.101108	0.993173
956.401472	0.993756
956.701798	0.994504
957.002087	0.993546
957.302337	0.994678
957.602550	0.995245
957.902724	0.995368
958.202861	0.995243
958.502960	0.997234
958.803022	0.994160
959.103045	0.997263
959.403031	0.997059
959.702979	0.995657
960.002889	0.996974
960.302762	0.995767
960.602596	0.997014
960.902393	0.995564
961.202153	0.997379
961.501875	0.997911
961.801559	0.996265
962.101205	0.996449
962.400814	0.996482
962.700385	0.997982
962.999918	0.996391
963.299414	0.997617
963.598873	0.995805
963.898293	0.997032
964.197677	0.996659
964.497022	0.997163
964.796331	0.998225
965.095601	0.997252
965.394835	0.996681
965.694030	0.997187
965.993189	0.997804
966.292309	0.996304
966.591393	0.998044
966.890439	0.998403
967.189447	0.997301
967.488419	0.998366
967.787353	0.996590
968.086249	0.996106
968.385108	0.998257
968.683930	0.997078
968.982714	0.997539
969.281462	0.997966
969.580172	0.998088
969.878844	0.997859
970.177480	0.997992
970.476078	0.998184
970.774639	0.997066
971.073162	0.997902
971.371649	0.997298
971.670098	0.996306
971.968510	0.997960
972.266885	0.996447
972.565223	0.996911
972.863524	0.995631
973.161788	0.996285
973.460014	0.998056
973.758204	0.995080
974.056356	0.997014
974.354471	0.994932
974.652550	0.996648
974.950591	0.996898
975.248595	0.996496
975.546563	0.997634
975.844493	0.998007
976.142386	0.997338
976.440243	0.997918
976.738062	0.997300
977.035845	0.998585
977.333590	0.997108
977.631299	0.998052
977.928971	0.996647
978.226606	0.997467
978.524204	0.997000
978.821765	0.998523
979.119290	0.997719
979.416777	0.997466
979.714228	0.997661
980.011642	0.996724
980.309020	0.997535
980.606360	0.997949
980.903664	0.998141
981.200931	0.996633
981.498162	0.995754
981.795356	0.995355
982.092513	0.995071
982.389633	0.994696
982.686717	0.992356
982.983764	0.991756
983.280775	0.990881
983.577749	0.990339
983.874686	0.991949
984.171587	0.991859
984.468451	0.995004
984.765279	0.995362
985.062070	0.994351
985.358824	0.995816
985.655543	0.995906
985.952224	0.996729
986.248869	0.996286
986.545478	0.998544
986.842050	0.999171
987.138586	0.996162
987.435086	0.997580
987.731549	0.998719
988.027975	0.999243
988.324366	0.997368
988.620719	0.997575
988.917037	0.997055
989.213318	0.998980
989.509563	0.997860
989.805772	0.999324
990.101944	0.999241
990.398080	0.997436
990.694180	0.998812
990.990244	0.998186
991.286271	0.998836
991.582262	0.998440
991.878217	0.999068
992.174136	0.999944
992.470019	0.999032
992.765865	0.999213
993.061676	0.998348
993.357450	0.998031
993.653188	0.997444
993.948890	0.997562
994.244556	0.999090
994.540186	0.997502
994.835780	0.997166
995.131337	0.998757
995.426859	0.996888
995.722345	0.996992
996.017795	0.996273
996.313208	0.996183
996.608586	0.996532
996.903928	0.997517
997.199234	0.997235
997.494504	0.997573
997.789738	0.997308
998.084936	0.995615
998.380099	0.998488
998.675225	0.998345
998.970316	0.998542
999.265371	0.998350
999.560390	0.999031
999.855373	0.999989
1000.150320	0.998935
1000.445232	0.998918
1000.740108	0.998490
1001.034948	0.998549
1001.329752	0.999779
1001.624521	0.999650
1001.919254	0.999057
1002.213951	0.998422
1002.508613	0.998618
1002.803239	0.999072
1003.097829	0.999249
1003.392384	0.999009
1003.686903	0.997900
1003.981386	0.998181
1004.275834	0.999824
1004.570246	0.999711
1004.864623	1.000560
1005.158964	0.999887
1005.453270	0.999976
1005.747540	0.997844
1006.041775	0.999101
1006.335974	1.000220
1006.630138	0.998512
1006.924266	0.999657
1007.218359	1.001253
1007.512416	0.999781
1007.806438	0.999911
1008.100425	0.999353
1008.394376	0.999659
1008.688292	0.997715
1008.982172	1.000323
1009.276017	0.999897
1009.569827	0.998863
1009.863602	0.999424
1010.157341	1.000245
1010.451045	0.999101
1010.744714	0.998841
1011.038347	0.999352
1011.331945	1.000909
1011.625508	0.997675
1011.919036	0.999761
1012.212528	0.999117
1012.505986	0.998519
1012.799408	0.999784
1013.092795	1.000371
1013.386147	0.999543
1013.679464	0.998359
1013.972745	0.999530
1014.265992	0.997966
1014.559204	1.000054
1014.852380	1.000427
1015.145521	1.000185
1015.438628	0.999280
1015.731699	1.000248
1016.024736	0.999218
1016.317737	0.999142
1016.610703	0.999395
1016.903635	1.000502
1017.196531	0.998576
1017.489393	1.000178
1017.782219	0.999091
1018.075011	0.998272
1018.367768	0.999503
1018.660490	1.000313
1018.953177	1.000313
1019.245829	1.000313
