Dividing Wavelength (nm)	Counts (n)	Blue Motor Position (mm): 0.000000	Red Motor Position (mm): 27.200000	
326.493990	1.000765
326.888308	1.000765
327.282561	1.000765
327.676750	1.000601
328.070874	0.999353
328.464933	1.000876
328.858929	0.999853
329.252859	0.999195
329.646726	0.999104
330.040528	1.000176
330.434265	0.998721
330.827938	1.000192
331.221547	1.000802
331.615091	1.000350
332.008571	0.999283
332.401986	0.999203
332.795338	1.000727
333.188625	0.999193
333.581847	1.000131
333.975006	0.999540
334.368100	0.999388
334.761129	0.999850
335.154095	1.000312
335.546996	0.998074
335.939833	0.994746
336.332606	0.994327
336.725315	0.995676
337.117960	0.996809
337.510540	0.995692
337.903056	0.995346
338.295508	0.994295
338.687896	0.995035
339.080220	0.994291
339.472480	0.995995
339.864676	0.994923
340.256807	0.994919
340.648875	0.995660
341.040879	0.995079
341.432818	0.994667
341.824694	0.994753
342.216506	0.995782
342.608253	0.995941
342.999937	0.994722
343.391557	0.995126
343.783113	0.995612
344.174605	0.994250
344.566033	0.997029
344.957397	0.994950
345.348697	0.995300
345.739934	0.995193
346.131106	0.994160
346.522215	0.994621
346.913260	0.993937
347.304241	0.995518
347.695159	0.995039
348.086012	0.993266
348.476802	0.994891
348.867528	0.994952
349.258191	0.994476
349.648789	0.994959
350.039324	0.994686
350.429796	0.995444
350.820203	0.995934
351.210548	0.994866
351.600828	0.994999
351.991045	0.994428
352.381198	0.993872
352.771288	0.994348
353.161314	0.995208
353.551276	0.995726
353.941175	0.994348
354.331010	0.994795
354.720782	0.995044
355.110490	0.994082
355.500135	0.995744
355.889717	0.995837
356.279235	0.995488
356.668689	0.994836
357.058080	0.995801
357.447408	0.996103
357.836672	0.995524
358.225873	0.996084
358.615010	0.994596
359.004084	0.996250
359.393095	0.994655
359.782043	0.993641
360.170927	0.996532
360.559748	0.996653
360.948505	0.995175
361.337199	0.994788
361.725830	0.995680
362.114398	0.995612
362.502903	0.996466
362.891344	0.996614
363.279722	0.994578
363.668037	0.995850
364.056289	0.995352
364.444478	0.994569
364.832603	0.995836
365.220665	0.995151
365.608665	0.994086
365.996601	0.995877
366.384474	0.995514
366.772284	0.995144
367.160031	0.993285
367.547715	0.994310
367.935336	0.994926
368.322893	0.994873
368.710388	0.994298
369.097820	0.994425
369.485189	0.994539
369.872495	0.995265
370.259738	0.993812
370.646918	0.995577
371.034035	0.996146
371.421090	0.994219
371.808081	0.994830
372.195010	0.995302
372.581875	0.995183
372.968678	0.993946
373.355418	0.995123
373.742096	0.995128
374.128710	0.995571
374.515262	0.995019
374.901751	0.995299
375.288177	0.995509
375.674540	0.996715
376.060841	0.994989
376.447079	0.995716
376.833254	0.995206
377.219367	0.995220
377.605417	0.995944
377.991404	0.996463
378.377329	0.994963
378.763191	0.995521
379.148991	0.996243
379.534727	0.995930
379.920402	0.996429
380.306013	0.996173
380.691563	0.997062
381.077049	0.996540
381.462474	0.996875
381.847835	0.996036
382.233134	0.995656
382.618371	0.995876
383.003545	0.996647
383.388657	0.995998
383.773706	0.996327
384.158693	0.996774
384.543618	0.995760
384.928480	0.997227
385.313280	0.995852
385.698017	0.996565
386.082692	0.996945
386.467305	0.996631
386.851856	0.996479
387.236344	0.995744
387.620770	0.995396
388.005133	0.995829
388.389435	0.997174
388.773674	0.996542
389.157851	0.997031
389.541965	0.996420
389.926018	0.996394
390.310008	0.998330
390.693936	0.996917
391.077802	0.996795
391.461606	0.996920
391.845348	0.996821
392.229027	0.998034
392.612645	0.996893
392.996200	0.997826
393.379694	0.996787
393.763125	0.996805
394.146494	0.997371
394.529801	0.996713
394.913047	0.997234
395.296230	0.997502
395.679351	0.997046
396.062410	0.997050
396.445408	0.997414
396.828343	0.997328
397.211217	0.996844
397.594028	0.998249
397.976778	0.996824
398.359466	0.997532
398.742092	0.995682
399.124656	0.996133
399.507158	0.996725
399.889598	0.997031
400.271977	0.996902
400.654294	0.997753
401.036549	0.997544
401.418742	0.996974
401.800874	0.997269
402.182944	0.996786
402.564952	0.996776
402.946898	0.996829
403.328783	0.997407
403.710606	0.996204
404.092367	0.996310
404.474067	0.997610
404.855705	0.996608
405.237282	0.997005
405.618797	0.996514
406.000250	0.995823
406.381642	0.996600
406.762972	0.997495
407.144240	0.998159
407.525447	0.997273
407.906593	0.997265
408.287677	0.997751
408.668700	0.997254
409.049661	0.996686
409.430560	0.997461
409.811399	0.997110
410.192176	0.997264
410.572891	0.996659
410.953545	0.996192
411.334138	0.996114
411.714669	0.997592
412.095139	0.996128
412.475547	0.998088
412.855894	0.996877
413.236180	0.996644
413.616405	0.996637
413.996568	0.998239
414.376670	0.997337
414.756711	0.996589
415.136691	0.997290
415.516609	0.997248
415.896466	0.996783
416.276262	0.996303
416.655997	0.997313
417.035670	0.996788
417.415283	0.997043
417.794834	0.997331
418.174324	0.997174
418.553753	0.997778
418.933121	0.996413
419.312428	0.996868
419.691674	0.997482
420.070859	0.997272
420.449983	0.996210
420.829045	0.996702
421.208047	0.997669
421.586988	0.997365
421.965867	0.996992
422.344686	0.998122
422.723444	0.997177
423.102141	0.997112
423.480777	0.997075
423.859352	0.997389
424.237866	0.996759
424.616319	0.997443
424.994712	0.997104
425.373044	0.998236
425.751314	0.997131
426.129524	0.996404
426.507673	0.996555
426.885762	0.997599
427.263789	0.997411
427.641756	0.997163
428.019662	0.997258
428.397508	0.996440
428.775292	0.995834
429.153016	0.996555
429.530679	0.996649
429.908282	0.997559
430.285824	0.995851
430.663305	0.996225
431.040726	0.996735
431.418086	0.998440
431.795385	0.997373
432.172624	0.997118
432.549802	0.997446
432.926920	0.997024
433.303977	0.995793
433.680974	0.996904
434.057910	0.996302
434.434786	0.997415
434.811601	0.996718
435.188355	0.995641
435.565050	0.995891
435.941683	0.996862
436.318257	0.997242
436.694770	0.995893
437.071222	0.997283
437.447614	0.996453
437.823946	0.996087
438.200218	0.996951
438.576429	0.996869
438.952580	0.996959
439.328670	0.995259
439.704700	0.996443
440.080670	0.995591
440.456580	0.996182
440.832429	0.995769
441.208218	0.996677
441.583947	0.995679
441.959616	0.996084
442.335224	0.995098
442.710773	0.995803
443.086261	0.995062
443.461689	0.994922
443.837057	0.994521
444.212365	0.994187
444.587612	0.994203
444.962800	0.993322
445.337927	0.992969
445.712995	0.993268
446.088002	0.992826
446.462949	0.992518
446.837837	0.991536
447.212664	0.991124
447.587431	0.990738
447.962139	0.988921
448.336786	0.987182
448.711374	0.985940
449.085901	0.985630
449.460369	0.985104
449.834776	0.984379
450.209124	0.982130
450.583412	0.980076
450.957640	0.978627
451.331808	0.977766
451.705917	0.976963
452.079965	0.974623
452.453954	0.973153
452.827883	0.971577
453.201752	0.969454
453.575562	0.968820
453.949311	0.965335
454.323001	0.963431
454.696632	0.961245
455.070202	0.957634
455.443713	0.954630
455.817164	0.952459
456.190556	0.949045
456.563888	0.945134
456.937160	0.942449
457.310373	0.940471
457.683526	0.937827
458.056619	0.934757
458.429653	0.931396
458.802628	0.927392
459.175542	0.922974
459.548398	0.917400
459.921194	0.911573
460.293930	0.906961
460.666607	0.895589
461.039224	0.888388
461.411782	0.883442
461.784280	0.879039
462.156719	0.876344
462.529099	0.871367
462.901419	0.869367
463.273680	0.865114
463.645882	0.860877
464.018024	0.855398
464.390106	0.847723
464.762130	0.838161
465.134094	0.824896
465.505999	0.808324
465.877845	0.792067
466.249631	0.783732
466.621358	0.780421
466.993026	0.776507
467.364634	0.773067
467.736184	0.767390
468.107674	0.762287
468.479105	0.751983
468.850477	0.749363
469.221790	0.742601
469.593043	0.739063
469.964238	0.732117
470.335373	0.723867
470.706449	0.714711
471.077467	0.708360
471.448425	0.682540
471.819324	0.663708
472.190164	0.657263
472.560945	0.662237
472.931667	0.662890
473.302330	0.657144
473.672934	0.654383
474.043479	0.640344
474.413965	0.633531
474.784393	0.626669
475.154761	0.616138
475.525070	0.605697
475.895321	0.602285
476.265513	0.590317
476.635645	0.581039
477.005719	0.572206
477.375734	0.562809
477.745691	0.551304
478.115588	0.540400
478.485427	0.528852
478.855207	0.512807
479.224928	0.494589
479.594591	0.480542
479.964194	0.474674
480.333739	0.467109
480.703226	0.458283
481.072653	0.450602
481.442022	0.440730
481.811333	0.431781
482.180584	0.427036
482.549777	0.422287
482.918912	0.418703
483.287988	0.411699
483.657005	0.405238
484.025964	0.403422
484.394864	0.394500
484.763706	0.388022
485.132489	0.386694
485.501213	0.380740
485.869879	0.374235
486.238487	0.370613
486.607036	0.364103
486.975527	0.362084
487.343959	0.353540
487.712333	0.347723
488.080648	0.344725
488.448905	0.338193
488.817104	0.335322
489.185244	0.326077
489.553326	0.318666
489.921350	0.306309
490.289315	0.287069
490.657222	0.278926
491.025070	0.275984
491.392861	0.273909
491.760593	0.274827
492.128267	0.275965
492.495883	0.277571
492.863440	0.279720
493.230939	0.282570
493.598380	0.280838
493.965763	0.279572
494.333088	0.279829
494.700354	0.277872
495.067563	0.274950
495.434713	0.275648
495.801805	0.271224
496.168839	0.270594
496.535815	0.269754
496.902733	0.268075
497.269593	0.267574
497.636395	0.264268
498.003139	0.262650
498.369825	0.264010
498.736453	0.259075
499.103023	0.259353
499.469535	0.257498
499.835989	0.256660
500.202385	0.256301
500.568723	0.258306
500.935003	0.252940
501.301226	0.255925
501.667390	0.249853
502.033497	0.247066
502.399546	0.249391
502.765537	0.250449
503.131470	0.248216
503.497345	0.243800
503.863163	0.252153
504.228923	0.244746
504.594625	0.242905
504.960269	0.247831
505.325856	0.242679
505.691385	0.246883
506.056856	0.242918
506.422270	0.242087
506.787625	0.244494
507.152924	0.241612
507.518164	0.241703
507.883347	0.243000
508.248472	0.244578
508.613540	0.239721
508.978550	0.241747
509.343503	0.241972
509.708398	0.239543
510.073236	0.237206
510.438016	0.236792
510.802738	0.237518
511.167403	0.236728
511.532010	0.238358
511.896561	0.233694
512.261053	0.232361
512.625488	0.234384
512.989866	0.234498
513.354186	0.234646
513.718449	0.236368
514.082655	0.232684
514.446803	0.234661
514.810894	0.232164
515.174927	0.234908
515.538904	0.234178
515.902822	0.231163
516.266684	0.233372
516.630488	0.234748
516.994235	0.233299
517.357925	0.231944
517.721558	0.230152
518.085133	0.229566
518.448651	0.229992
518.812112	0.231781
519.175516	0.231341
519.538863	0.229264
519.902152	0.230631
520.265385	0.227467
520.628560	0.229151
520.991678	0.230035
521.354739	0.228487
521.717743	0.229549
522.080690	0.229950
522.443580	0.227089
522.806413	0.228478
523.169189	0.227545
523.531908	0.226097
523.894569	0.229742
524.257174	0.229915
524.619722	0.227683
524.982213	0.228713
525.344647	0.227725
525.707025	0.228452
526.069345	0.226591
526.431608	0.228142
526.793815	0.226195
527.155964	0.230325
527.518057	0.229326
527.880093	0.230243
528.242072	0.228952
528.603995	0.230532
528.965860	0.232506
529.327669	0.231265
529.689421	0.232374
530.051117	0.232879
530.412755	0.230767
530.774337	0.232991
531.135862	0.232942
531.497331	0.232511
531.858743	0.235105
532.220098	0.232380
532.581396	0.234651
532.942638	0.235085
533.303824	0.235954
533.664953	0.235881
534.026025	0.237527
534.387040	0.235394
534.747999	0.235495
535.108902	0.234369
535.469748	0.239405
535.830537	0.237173
536.191270	0.237775
536.551947	0.237230
536.912567	0.237067
537.273131	0.238790
537.633638	0.239083
537.994089	0.239402
538.354483	0.240446
538.714821	0.237358
539.075103	0.236993
539.435328	0.237908
539.795497	0.241937
540.155609	0.238023
540.515665	0.236205
540.875665	0.242041
541.235609	0.240537
541.595496	0.240364
541.955328	0.237311
542.315102	0.239956
542.674821	0.241036
543.034483	0.240677
543.394090	0.240599
543.753640	0.242815
544.113134	0.237412
544.472571	0.240654
544.831953	0.237520
545.191278	0.241855
545.550548	0.241195
545.909761	0.238158
546.268918	0.238810
546.628019	0.237159
546.987064	0.239687
547.346053	0.241744
547.704986	0.239340
548.063863	0.239804
548.422684	0.240126
548.781449	0.241682
549.140158	0.239205
549.498811	0.242274
549.857408	0.245493
550.215949	0.240261
550.574434	0.243210
550.932864	0.241277
551.291237	0.239880
551.649555	0.241233
552.007817	0.241034
552.366022	0.241930
552.724173	0.242153
553.082267	0.242677
553.440305	0.239401
553.798288	0.243878
554.156215	0.240304
554.514086	0.241127
554.871902	0.244281
555.229661	0.243174
555.587365	0.244190
555.945014	0.246674
556.302606	0.243373
556.660143	0.245786
557.017625	0.242247
557.375050	0.244623
557.732421	0.241689
558.089735	0.243713
558.446994	0.243652
558.804197	0.242952
559.161345	0.243099
559.518437	0.246270
559.875474	0.243975
560.232455	0.243312
560.589381	0.244854
560.946251	0.244480
561.303065	0.242335
561.659825	0.243894
562.016528	0.244950
562.373177	0.247933
562.729770	0.245524
563.086307	0.247523
563.442789	0.245446
563.799216	0.248149
564.155587	0.246787
564.511904	0.247834
564.868164	0.248132
565.224370	0.248040
565.580520	0.249873
565.936615	0.249586
566.292654	0.252657
566.648638	0.249490
567.004567	0.249984
567.360441	0.250967
567.716260	0.253130
568.072023	0.250714
568.427732	0.251248
568.783385	0.254278
569.138982	0.252036
569.494525	0.251562
569.850013	0.254735
570.205445	0.252830
570.560823	0.255535
570.916145	0.257416
571.271412	0.255765
571.626625	0.257287
571.981782	0.257544
572.336884	0.258611
572.691931	0.258159
573.046923	0.259591
573.401860	0.260895
573.756743	0.262242
574.111570	0.261095
574.466342	0.261904
574.821059	0.260874
575.175722	0.263750
575.530330	0.263709
575.884882	0.263737
576.239380	0.265823
576.593823	0.266205
576.948211	0.265732
577.302544	0.269170
577.656823	0.268470
578.011047	0.268481
578.365216	0.269384
578.719330	0.271263
579.073389	0.271078
579.427394	0.272463
579.781344	0.273178
580.135239	0.274657
580.489080	0.274477
580.842866	0.277572
581.196597	0.277933
581.550273	0.275893
581.903895	0.277050
582.257463	0.274913
582.610975	0.278438
582.964434	0.277774
583.317837	0.280115
583.671186	0.280719
584.024481	0.280728
584.377721	0.283073
584.730906	0.283835
585.084037	0.282882
585.437113	0.284638
585.790135	0.284171
586.143103	0.287115
586.496016	0.288498
586.848874	0.285773
587.201679	0.286362
587.554428	0.290053
587.907124	0.288523
588.259765	0.289332
588.612352	0.289801
588.964884	0.293849
589.317362	0.293457
589.669786	0.292982
590.022155	0.291735
590.374470	0.291026
590.726731	0.293367
591.078937	0.297530
591.431090	0.294345
591.783188	0.298305
592.135232	0.298860
592.487222	0.299140
592.839157	0.297113
593.191038	0.299206
593.542866	0.301135
593.894639	0.304791
594.246358	0.302262
594.598022	0.302371
594.949633	0.305529
595.301190	0.306782
595.652692	0.305486
596.004141	0.301730
596.355535	0.309877
596.706876	0.310250
597.058162	0.312896
597.409395	0.310269
597.760573	0.307795
598.111698	0.311199
598.462768	0.311771
598.813785	0.312927
599.164748	0.313972
599.515657	0.314368
599.866511	0.317479
600.217312	0.312874
600.568060	0.318242
600.918753	0.314559
601.269392	0.315628
601.619978	0.318816
601.970510	0.316833
602.320988	0.316601
602.671412	0.314684
603.021783	0.316697
603.372100	0.317877
603.722363	0.318106
604.072572	0.318817
604.422728	0.318609
604.772830	0.320750
605.122878	0.320063
605.472872	0.321025
605.822813	0.318943
606.172701	0.321883
606.522534	0.319041
606.872314	0.319229
607.222041	0.320118
607.571714	0.318239
607.921333	0.319604
608.270899	0.319415
608.620411	0.316227
608.969870	0.320177
609.319276	0.320190
609.668627	0.319919
610.017926	0.318489
610.367171	0.316990
610.716362	0.318156
611.065500	0.318328
611.414585	0.316917
611.763616	0.317096
612.112594	0.317949
612.461518	0.317419
612.810389	0.314761
613.159207	0.317290
613.507971	0.319242
613.856682	0.314762
614.205340	0.316392
614.553945	0.313340
614.902496	0.317118
615.250994	0.314645
615.599439	0.315835
615.947830	0.314947
616.296169	0.316146
616.644454	0.315560
616.992686	0.315785
617.340864	0.313600
617.688990	0.317231
618.037063	0.314245
618.385082	0.315711
618.733048	0.312603
619.080961	0.314963
619.428821	0.314304
619.776628	0.314140
620.124382	0.316053
620.472083	0.316305
620.819731	0.315570
621.167326	0.319464
621.514868	0.318903
621.862357	0.323530
622.209793	0.323099
622.557176	0.324966
622.904506	0.326976
623.251783	0.328620
623.599007	0.330972
623.946179	0.330652
624.293297	0.332173
624.640363	0.336405
624.987376	0.336892
625.334336	0.339326
625.681243	0.341574
626.028097	0.342016
626.374899	0.343444
626.721647	0.343493
627.068343	0.347060
627.414987	0.347983
627.761577	0.349928
628.108115	0.348355
628.454600	0.353794
628.801032	0.351031
629.147412	0.352281
629.493739	0.353249
629.840014	0.356175
630.186236	0.353689
630.532405	0.359216
630.878521	0.356758
631.224585	0.358738
631.570597	0.362372
631.916556	0.360798
632.262462	0.360900
632.608316	0.363153
632.954117	0.364056
633.299866	0.364736
633.645562	0.365310
633.991206	0.369324
634.336797	0.372535
634.682336	0.374421
635.027823	0.376543
635.373257	0.376921
635.718639	0.380145
636.063968	0.379514
636.409245	0.385216
636.754470	0.385868
637.099642	0.387994
637.444762	0.391661
637.789829	0.390467
638.134845	0.394183
638.479808	0.395069
638.824719	0.394739
639.169577	0.398835
639.514383	0.397432
639.859137	0.401958
640.203839	0.402039
640.548489	0.402610
640.893086	0.403572
641.237632	0.405120
641.582125	0.404390
641.926566	0.405298
642.270955	0.405567
642.615292	0.406144
642.959576	0.405061
643.303809	0.405205
643.647990	0.404583
643.992118	0.405490
644.336195	0.409552
644.680219	0.407417
645.024192	0.408371
645.368112	0.401950
645.711981	0.401154
646.055797	0.395876
646.399562	0.398776
646.743274	0.390552
647.086935	0.387989
647.430544	0.388002
647.774101	0.386892
648.117606	0.386724
648.461059	0.387562
648.804460	0.389286
649.147810	0.394570
649.491108	0.396731
649.834354	0.398195
650.177548	0.403673
650.520690	0.408521
650.863781	0.409774
651.206820	0.409328
651.549807	0.414095
651.892742	0.418227
652.235626	0.417113
652.578458	0.418451
652.921238	0.424444
653.263967	0.421774
653.606644	0.426410
653.949269	0.425599
654.291843	0.429942
654.634365	0.426455
654.976836	0.430070
655.319255	0.429688
655.661622	0.431596
656.003938	0.431610
656.346203	0.434520
656.688416	0.431924
657.030577	0.435698
657.372687	0.437861
657.714746	0.438800
658.056753	0.435957
658.398708	0.438521
658.740612	0.439954
659.082465	0.436527
659.424266	0.437233
659.766016	0.436582
660.107715	0.438984
660.449362	0.438340
660.790958	0.438386
661.132503	0.438935
661.473996	0.436754
661.815438	0.438149
662.156829	0.437751
662.498168	0.439030
662.839456	0.440353
663.180693	0.438198
663.521879	0.438119
663.863013	0.438706
664.204097	0.437010
664.545129	0.434110
664.886110	0.434735
665.227040	0.431769
665.567918	0.434462
665.908746	0.432301
666.249522	0.431936
666.590248	0.433088
666.930922	0.431347
667.271545	0.430449
667.612118	0.429959
667.952639	0.432110
668.293109	0.430697
668.633528	0.433585
668.973896	0.433502
669.314213	0.433717
669.654480	0.435457
669.994695	0.435747
670.334859	0.436416
670.674973	0.436722
671.015035	0.437371
671.355047	0.436793
671.695008	0.437874
672.034918	0.439743
672.374777	0.439120
672.714585	0.440054
673.054342	0.440238
673.394049	0.440568
673.733705	0.438239
674.073310	0.439296
674.412864	0.442005
674.752368	0.442762
675.091820	0.442528
675.431223	0.447162
675.770574	0.447377
676.109875	0.450299
676.449125	0.450293
676.788324	0.451974
677.127473	0.457801
677.466571	0.457436
677.805619	0.459189
678.144616	0.460327
678.483562	0.461892
678.822458	0.464546
679.161303	0.466061
679.500098	0.465784
679.838842	0.467718
680.177535	0.467019
680.516179	0.466038
680.854771	0.464818
681.193314	0.458064
681.531805	0.449168
681.870247	0.437690
682.208638	0.430566
682.546978	0.429726
682.885268	0.431368
683.223508	0.437486
683.561697	0.441085
683.899836	0.444082
684.237925	0.447395
684.575963	0.449393
684.913951	0.453128
685.251889	0.448566
685.589776	0.450871
685.927614	0.452746
686.265401	0.447117
686.603137	0.448897
686.940824	0.443198
687.278460	0.441356
687.616046	0.440137
687.953582	0.434997
688.291068	0.436553
688.628504	0.432001
688.965889	0.434392
689.303224	0.438791
689.640510	0.442475
689.977745	0.448565
690.314930	0.456205
690.652065	0.460644
690.989150	0.468214
691.326185	0.474449
691.663170	0.478965
692.000105	0.486148
692.336990	0.493033
692.673825	0.495897
693.010610	0.502169
693.347345	0.508126
693.684030	0.509678
694.020665	0.514301
694.357251	0.522465
694.693786	0.522591
695.030272	0.526956
695.366707	0.530971
695.703093	0.533718
696.039429	0.532101
696.375716	0.533345
696.711952	0.536540
697.048139	0.538361
697.384276	0.539709
697.720363	0.538435
698.056400	0.536914
698.392388	0.542720
698.728326	0.546198
699.064214	0.548704
699.400053	0.549176
699.735842	0.552904
700.071581	0.556112
700.407270	0.558088
700.742910	0.561309
701.078501	0.567471
701.414042	0.568070
701.749533	0.571312
702.084974	0.580256
702.420366	0.571627
702.755709	0.579839
703.091002	0.587156
703.426246	0.580560
703.761440	0.586801
704.096584	0.592293
704.431679	0.589146
704.766725	0.590591
705.101721	0.592220
705.436668	0.588800
705.771565	0.595392
706.106413	0.592058
706.441212	0.587783
706.775961	0.585825
707.110661	0.588945
707.445311	0.585525
707.779913	0.582227
708.114465	0.581081
708.448967	0.577558
708.783421	0.569710
709.117825	0.564437
709.452180	0.564735
709.786485	0.558647
710.120742	0.548381
710.454949	0.550376
710.789107	0.542984
711.123216	0.533908
711.457275	0.535263
711.791286	0.526131
712.125247	0.524596
712.459159	0.535621
712.793023	0.528445
713.126837	0.532447
713.460602	0.532969
713.794318	0.542626
714.127985	0.541160
714.461602	0.551256
714.795171	0.553837
715.128691	0.562438
715.462162	0.569541
715.795584	0.575118
716.128957	0.577814
716.462281	0.584496
716.795556	0.588040
717.128782	0.592715
717.461960	0.602891
717.795088	0.601401
718.128167	0.607450
718.461198	0.615891
718.794180	0.616811
719.127113	0.619230
719.459997	0.623473
719.792833	0.628896
720.125619	0.630535
720.458357	0.636294
720.791046	0.635574
721.123686	0.638913
721.456278	0.645754
721.788821	0.643254
722.121315	0.647634
722.453761	0.651427
722.786158	0.648866
723.118506	0.645965
723.450805	0.653686
723.783056	0.650223
724.115259	0.647141
724.447412	0.647215
724.779518	0.648281
725.111574	0.646883
725.443582	0.643133
725.775542	0.644459
726.107453	0.637769
726.439315	0.636664
726.771129	0.634733
727.102895	0.629051
727.434612	0.621647
727.766281	0.619579
728.097901	0.618901
728.429473	0.618723
728.760996	0.617273
729.092471	0.617633
729.423897	0.621082
729.755276	0.619880
730.086606	0.620230
730.417887	0.614967
730.749120	0.606419
731.080305	0.596187
731.411442	0.592529
731.742530	0.597354
732.073570	0.596811
732.404562	0.588574
732.735506	0.590645
733.066401	0.595207
733.397249	0.603999
733.728048	0.616219
734.058798	0.628330
734.389501	0.638817
734.720156	0.648546
735.050762	0.656096
735.381320	0.657271
735.711831	0.666610
736.042293	0.670693
736.372707	0.667241
736.703073	0.671504
737.033391	0.673964
737.363661	0.670622
737.693883	0.666041
738.024056	0.665556
738.354182	0.665184
738.684260	0.654970
739.014290	0.650830
739.344272	0.651806
739.674207	0.644855
740.004093	0.644216
740.333931	0.644962
740.663722	0.644653
740.993464	0.645453
741.323159	0.649694
741.652806	0.654526
741.982405	0.659088
742.311956	0.664207
742.641460	0.665865
742.970915	0.669215
743.300323	0.676697
743.629683	0.683499
743.958996	0.685564
744.288260	0.690040
744.617477	0.696069
744.946647	0.697381
745.275768	0.702496
745.604842	0.702194
745.933869	0.711702
746.262847	0.712731
746.591778	0.706514
746.920662	0.712865
747.249498	0.718851
747.578286	0.710890
747.907027	0.705471
748.235720	0.707047
748.564365	0.702070
748.892963	0.700859
749.221514	0.704104
749.550017	0.709874
749.878473	0.709810
750.206881	0.716032
750.535242	0.717895
750.863555	0.716587
751.191821	0.717633
751.520039	0.721443
751.848210	0.726599
752.176334	0.718440
752.504411	0.717024
752.832440	0.725381
753.160421	0.729482
753.488356	0.727865
753.816243	0.724964
754.144082	0.732755
754.471875	0.737501
754.799620	0.733898
755.127318	0.734755
755.454969	0.733872
755.782572	0.733336
756.110129	0.738439
756.437638	0.740369
756.765100	0.737269
757.092515	0.735058
757.419882	0.734272
757.747203	0.740489
758.074477	0.738168
758.401703	0.736233
758.728882	0.730817
759.056014	0.729502
759.383099	0.729619
759.710138	0.730777
760.037129	0.726676
760.364073	0.720656
760.690970	0.723361
761.017820	0.728775
761.344623	0.724606
761.671379	0.715287
761.998088	0.703692
762.324751	0.680793
762.651366	0.639548
762.977935	0.573142
763.304456	0.521541
763.630931	0.512245
763.957359	0.550249
764.283740	0.595501
764.610074	0.622839
764.936362	0.653071
765.262602	0.679591
765.588796	0.700317
765.914943	0.718790
766.241044	0.735841
766.567097	0.742726
766.893104	0.752063
767.219064	0.759406
767.544978	0.765852
767.870845	0.778860
768.196665	0.782997
768.522438	0.780834
768.848165	0.782932
769.173846	0.790080
769.499479	0.795416
769.825066	0.799083
770.150607	0.805030
770.476101	0.798646
770.801548	0.799890
771.126949	0.811526
771.452303	0.815757
771.777611	0.814140
772.102872	0.813239
772.428087	0.819968
772.753256	0.822689
773.078378	0.823639
773.403453	0.833607
773.728482	0.838196
774.053465	0.830676
774.378401	0.835224
774.703291	0.842471
775.028135	0.842318
775.352932	0.843076
775.677683	0.846933
776.002388	0.847075
776.327046	0.846091
776.651658	0.849127
776.976224	0.852849
777.300743	0.853076
777.625216	0.856116
777.949643	0.857564
778.274024	0.856864
778.598359	0.859340
778.922647	0.858624
779.246889	0.858558
779.571086	0.862423
779.895236	0.864878
780.219339	0.861832
780.543397	0.858176
780.867409	0.857862
781.191374	0.859595
781.515294	0.860383
781.839167	0.860214
782.162995	0.863642
782.486776	0.860363
782.810511	0.861760
783.134201	0.864598
783.457844	0.863024
783.781441	0.864860
784.104993	0.871114
784.428498	0.870844
784.751958	0.867157
785.075372	0.869373
785.398739	0.873454
785.722061	0.869457
786.045337	0.865291
786.368568	0.869178
786.691752	0.872231
787.014891	0.857752
787.337983	0.849464
787.661030	0.842424
787.984031	0.825088
788.306987	0.811346
788.629897	0.814541
788.952760	0.817669
789.275579	0.822759
789.598351	0.836721
789.921078	0.849866
790.243759	0.852940
790.566395	0.857862
790.888984	0.864526
791.211529	0.869405
791.534027	0.872689
791.856480	0.874608
792.178888	0.879849
792.501249	0.882869
792.823566	0.883725
793.145836	0.884323
793.468062	0.885932
793.790241	0.885808
794.112375	0.883979
794.434464	0.879447
794.756507	0.878527
795.078505	0.878785
795.400457	0.872468
795.722364	0.861282
796.044226	0.853845
796.366042	0.852756
796.687812	0.856453
797.009538	0.852141
797.331218	0.855548
797.652852	0.860515
797.974442	0.865175
798.295986	0.864518
798.617484	0.867489
798.938938	0.871522
799.260346	0.876886
799.581709	0.879176
799.903026	0.880285
800.224299	0.881765
800.545526	0.885310
800.866708	0.888530
801.187845	0.893328
801.508936	0.893089
801.829983	0.890899
802.150984	0.893490
802.471940	0.898288
802.792851	0.897879
803.113717	0.898184
803.434538	0.895633
803.755314	0.899261
804.076045	0.899876
804.396731	0.900959
804.717372	0.901317
805.037967	0.903002
805.358518	0.899683
805.679024	0.897196
805.999485	0.897838
806.319901	0.897279
806.640272	0.899554
806.960598	0.897683
807.280879	0.895058
807.601115	0.892605
807.921306	0.896882
808.241453	0.896654
808.561554	0.895394
808.881611	0.895016
809.201623	0.897003
809.521590	0.896424
809.841513	0.898507
810.161390	0.896917
810.481223	0.897875
810.801011	0.901692
811.120755	0.904113
811.440453	0.901946
811.760107	0.901768
812.079716	0.900558
812.399281	0.904442
812.718801	0.906789
813.038276	0.907985
813.357707	0.907238
813.677093	0.903325
813.996434	0.908480
814.315731	0.908892
814.634983	0.910042
814.954191	0.908250
815.273354	0.905355
815.592473	0.902064
815.911547	0.902823
816.230577	0.899673
816.549562	0.896588
816.868502	0.897605
817.187399	0.894077
817.506250	0.887736
817.825058	0.890935
818.143821	0.887501
818.462539	0.882961
818.781213	0.873760
819.099843	0.863524
819.418429	0.848255
819.736970	0.830501
820.055466	0.811355
820.373919	0.786628
820.692327	0.753050
821.010691	0.719268
821.329011	0.643516
821.647286	0.528466
821.965517	0.415390
822.283704	0.373199
822.601847	0.374899
822.919945	0.410662
823.237999	0.443323
823.556010	0.489214
823.873976	0.545554
824.191897	0.595409
824.509775	0.636713
824.827609	0.682626
825.145398	0.704468
825.463144	0.707916
825.780845	0.689645
826.098502	0.671555
826.416116	0.626665
826.733685	0.583009
827.051210	0.574863
827.368692	0.589832
827.686129	0.626011
828.003522	0.678916
828.320872	0.726195
828.638177	0.769370
828.955439	0.801863
829.272656	0.824626
829.589830	0.840854
829.906960	0.855945
830.224046	0.868724
830.541088	0.877808
830.858086	0.882586
831.175041	0.888576
831.491952	0.888243
831.808819	0.884804
832.125642	0.878253
832.442421	0.862467
832.759157	0.842487
833.075849	0.796657
833.392497	0.732494
833.709101	0.692371
834.025662	0.702397
834.342179	0.733276
834.658653	0.772892
834.975083	0.808062
835.291469	0.833361
835.607811	0.856427
835.924110	0.871838
836.240366	0.888135
836.556578	0.902457
836.872746	0.909719
837.188871	0.915308
837.504952	0.921739
837.820990	0.924581
838.136984	0.928559
838.452935	0.930904
838.768842	0.931639
839.084706	0.925098
839.400526	0.900676
839.716303	0.860946
840.032037	0.838126
840.347727	0.841965
840.663373	0.859857
840.978977	0.880777
841.294537	0.903052
841.610054	0.919558
841.925527	0.926431
842.240957	0.934732
842.556344	0.940233
842.871687	0.946823
843.186987	0.951030
843.502244	0.950094
843.817458	0.952805
844.132629	0.955500
844.447756	0.961523
844.762840	0.960739
845.077881	0.960377
845.392879	0.959570
845.707833	0.964013
846.022745	0.963403
846.337613	0.965531
846.652438	0.966155
846.967221	0.965279
847.281960	0.966324
847.596656	0.969055
847.911309	0.966343
848.225919	0.967441
848.540485	0.968526
848.855009	0.970536
849.169490	0.969383
849.483928	0.970133
849.798323	0.969636
850.112675	0.970113
850.426984	0.970694
850.741251	0.970455
851.055474	0.970642
851.369654	0.969208
851.683792	0.970270
851.997887	0.969670
852.311938	0.971413
852.625947	0.970298
852.939914	0.968146
853.253837	0.969877
853.567718	0.970512
853.881555	0.971497
854.195350	0.966727
854.509103	0.971089
854.822812	0.969612
855.136479	0.971070
855.450103	0.970277
855.763685	0.969179
856.077224	0.968585
856.390720	0.971721
856.704173	0.971932
857.017584	0.968529
857.330953	0.967359
857.644278	0.968268
857.957561	0.970029
858.270802	0.968732
858.584000	0.968711
858.897155	0.966748
859.210268	0.967884
859.523339	0.969057
859.836367	0.971189
860.149352	0.970545
860.462295	0.968932
860.775195	0.970554
861.088054	0.969341
861.400869	0.970185
861.713642	0.971686
862.026373	0.970422
862.339062	0.971631
862.651708	0.966824
862.964312	0.968573
863.276873	0.970054
863.589392	0.969006
863.901869	0.967280
864.214303	0.965832
864.526696	0.965478
864.839045	0.964267
865.151353	0.961615
865.463619	0.963084
865.775842	0.963060
866.088023	0.961745
866.400162	0.962396
866.712258	0.963611
867.024313	0.962337
867.336325	0.963924
867.648296	0.964598
867.960224	0.962979
868.272110	0.963030
868.583954	0.964703
868.895755	0.964913
869.207515	0.962621
869.519233	0.960611
869.830909	0.961579
870.142542	0.963312
870.454134	0.963250
870.765684	0.961580
871.077191	0.959354
871.388657	0.959295
871.700081	0.958708
872.011463	0.958545
872.322803	0.958813
872.634101	0.957074
872.945357	0.955463
873.256571	0.954318
873.567744	0.953762
873.878874	0.953837
874.189963	0.953159
874.501010	0.952181
874.812015	0.950297
875.122979	0.951948
875.433900	0.954377
875.744780	0.954367
876.055618	0.953139
876.366415	0.950904
876.677169	0.951275
876.987882	0.952623
877.298554	0.951478
877.609183	0.948881
877.919771	0.945464
878.230317	0.943800
878.540822	0.942445
878.851285	0.936458
879.161707	0.929040
879.472087	0.917037
879.782425	0.900927
880.092722	0.867481
880.402977	0.816702
880.713191	0.756501
881.023363	0.698588
881.333494	0.666071
881.643583	0.636766
881.953631	0.637607
882.263637	0.665316
882.573602	0.704848
882.883526	0.729059
883.193408	0.752978
883.503248	0.775287
883.813048	0.801934
884.122806	0.830993
884.432522	0.853881
884.742197	0.872957
885.051831	0.883601
885.361424	0.892961
885.670975	0.905780
885.980485	0.914945
886.289954	0.921305
886.599382	0.926337
886.908768	0.929344
887.218113	0.936393
887.527417	0.939068
887.836680	0.943332
888.145901	0.945557
888.455082	0.947294
888.764221	0.950916
889.073319	0.953316
889.382376	0.953824
889.691392	0.954748
890.000366	0.953763
890.309300	0.954279
890.618193	0.953612
890.927044	0.951907
891.235855	0.952682
891.544625	0.952156
891.853353	0.952751
892.162041	0.950807
892.470687	0.943938
892.779293	0.939509
893.087858	0.934706
893.396381	0.928018
893.704864	0.916281
894.013306	0.891660
894.321707	0.865561
894.630068	0.851589
894.938387	0.846569
895.246665	0.847816
895.554903	0.860168
895.863100	0.872406
896.171256	0.889554
896.479371	0.908914
896.787446	0.921859
897.095480	0.927521
897.403473	0.930639
897.711425	0.933510
898.019336	0.942337
898.327207	0.943840
898.635038	0.946501
898.942827	0.946251
899.250576	0.949528
899.558284	0.953568
899.865952	0.955418
900.173579	0.956619
900.481165	0.956223
900.788711	0.959868
901.096216	0.962136
901.403681	0.962028
901.711105	0.963985
902.018489	0.963928
902.325832	0.963079
902.633135	0.961681
902.940397	0.956893
903.247619	0.945695
903.554800	0.920068
903.861941	0.881681
904.169041	0.847048
904.476101	0.829918
904.783121	0.830749
905.090100	0.846921
905.397039	0.867536
905.703938	0.889431
906.010796	0.907223
906.317614	0.924408
906.624391	0.936595
906.931129	0.945515
907.237826	0.952772
907.544483	0.960521
907.851099	0.963972
908.157675	0.968233
908.464211	0.970507
908.770707	0.973434
909.077163	0.974948
909.383578	0.976160
909.689954	0.975997
909.996289	0.976328
910.302584	0.978437
910.608839	0.980921
910.915054	0.979020
911.221229	0.979810
911.527363	0.977301
911.833458	0.979000
912.139513	0.977753
912.445527	0.975860
912.751502	0.974816
913.057436	0.973747
913.363331	0.971216
913.669186	0.966827
913.975000	0.962351
914.280775	0.956182
914.586510	0.950529
914.892205	0.937411
915.197859	0.916925
915.503475	0.890279
915.809050	0.870909
916.114585	0.865573
916.420081	0.863624
916.725536	0.860017
917.030952	0.868669
917.336328	0.880853
917.641665	0.895275
917.946961	0.910361
918.252218	0.922024
918.557435	0.929172
918.862612	0.938501
919.167750	0.943566
919.472848	0.948618
919.777906	0.954344
920.082925	0.959110
920.387904	0.963533
920.692843	0.964711
920.997743	0.963980
921.302603	0.968825
921.607423	0.970860
921.912204	0.973190
922.216946	0.972815
922.521647	0.974602
922.826310	0.976157
923.130932	0.977850
923.435516	0.978741
923.740059	0.981150
924.044564	0.979168
924.349028	0.980688
924.653454	0.983209
924.957840	0.985252
925.262186	0.983735
925.566493	0.984104
925.870761	0.985649
926.174989	0.986904
926.479178	0.989199
926.783328	0.988611
927.087438	0.989278
927.391509	0.988292
927.695541	0.990602
927.999533	0.990458
928.303486	0.990617
928.607400	0.992150
928.911275	0.989815
929.215110	0.990957
929.518906	0.991110
929.822663	0.991405
930.126381	0.990579
930.430060	0.991274
930.733699	0.991499
931.037299	0.989536
931.340861	0.991152
931.644383	0.989719
931.947866	0.989902
932.251309	0.991557
932.554714	0.991082
932.858080	0.991500
933.161407	0.990083
933.464694	0.990769
933.767943	0.989710
934.071153	0.991277
934.374323	0.992055
934.677455	0.992047
934.980548	0.991340
935.283602	0.991307
935.586617	0.991347
935.889593	0.991271
936.192530	0.990884
936.495428	0.991380
936.798287	0.990929
937.101108	0.991277
937.403890	0.989617
937.706632	0.989502
938.009336	0.988118
938.312002	0.987511
938.614628	0.985054
938.917216	0.984152
939.219765	0.981788
939.522275	0.983948
939.824747	0.984409
940.127179	0.983759
940.429573	0.985298
940.731929	0.985592
941.034246	0.984762
941.336524	0.985131
941.638763	0.986742
941.940964	0.986794
942.243126	0.987720
942.545250	0.987148
942.847335	0.988840
943.149381	0.987113
943.451389	0.987468
943.753359	0.989576
944.055290	0.990510
944.357182	0.990590
944.659036	0.988894
944.960851	0.989462
945.262628	0.990404
945.564367	0.990787
945.866067	0.990549
946.167729	0.990837
946.469352	0.990719
946.770937	0.990142
947.072484	0.992328
947.373992	0.990458
947.675462	0.990466
947.976893	0.990422
948.278286	0.990396
948.579641	0.992316
948.880958	0.991130
949.182236	0.991122
949.483476	0.992660
949.784678	0.991314
950.085841	0.991767
950.386967	0.990445
950.688054	0.991779
950.989103	0.990848
951.290114	0.989842
951.591087	0.989676
951.892021	0.990136
952.192917	0.989011
952.493776	0.989218
952.794596	0.988498
953.095378	0.987514
953.396122	0.988275
953.696828	0.986811
953.997496	0.989844
954.298126	0.991590
954.598718	0.991289
954.899272	0.990547
955.199788	0.990615
955.500266	0.992320
955.800706	0.992476
956.101108	0.993665
956.401472	0.994226
956.701798	0.994715
957.002087	0.992942
957.302337	0.993951
957.602550	0.995873
957.902724	0.994981
958.202861	0.996314
958.502960	0.993996
958.803022	0.994821
959.103045	0.996123
959.403031	0.996439
959.702979	0.994717
960.002889	0.995964
960.302762	0.994820
960.602596	0.996070
960.902393	0.995095
961.202153	0.997476
961.501875	0.997231
961.801559	0.995616
962.101205	0.996045
962.400814	0.996809
962.700385	0.997028
962.999918	0.996119
963.299414	0.996525
963.598873	0.996399
963.898293	0.995597
964.197677	0.996747
964.497022	0.995470
964.796331	0.997514
965.095601	0.996748
965.394835	0.996120
965.694030	0.996166
965.993189	0.997624
966.292309	0.995899
966.591393	0.996765
966.890439	0.996822
967.189447	0.996145
967.488419	0.996804
967.787353	0.997334
968.086249	0.996810
968.385108	0.997256
968.683930	0.997797
968.982714	0.998105
969.281462	0.997610
969.580172	0.997186
969.878844	0.996438
970.177480	0.996895
970.476078	0.997224
970.774639	0.996480
971.073162	0.997759
971.371649	0.996862
971.670098	0.996448
971.968510	0.996973
972.266885	0.995801
972.565223	0.996507
972.863524	0.996047
973.161788	0.996217
973.460014	0.997543
973.758204	0.996215
974.056356	0.997039
974.354471	0.994392
974.652550	0.996365
974.950591	0.995957
975.248595	0.996731
975.546563	0.996542
975.844493	0.997365
976.142386	0.995781
976.440243	0.997047
976.738062	0.997652
977.035845	0.998135
977.333590	0.996183
977.631299	0.997162
977.928971	0.997473
978.226606	0.996669
978.524204	0.996187
978.821765	0.997887
979.119290	0.996623
979.416777	0.995675
979.714228	0.997596
980.011642	0.996308
980.309020	0.997589
980.606360	0.997165
980.903664	0.998916
981.200931	0.996899
981.498162	0.996150
981.795356	0.994155
982.092513	0.994487
982.389633	0.994284
982.686717	0.992016
982.983764	0.991602
983.280775	0.991111
983.577749	0.990432
983.874686	0.991267
984.171587	0.991952
984.468451	0.994831
984.765279	0.994532
985.062070	0.993844
985.358824	0.995987
985.655543	0.995067
985.952224	0.995563
986.248869	0.996957
986.545478	0.997140
986.842050	0.998583
987.138586	0.995327
987.435086	0.997148
987.731549	0.998427
988.027975	0.997662
988.324366	0.997747
988.620719	0.997589
988.917037	0.996330
989.213318	0.997969
989.509563	0.997804
989.805772	0.999006
990.101944	0.997603
990.398080	0.997184
990.694180	0.998112
990.990244	0.997926
991.286271	0.997853
991.582262	0.998512
991.878217	0.997077
992.174136	0.998205
992.470019	0.997863
992.765865	0.998974
993.061676	0.998630
993.357450	0.998701
993.653188	0.997936
993.948890	0.997851
994.244556	0.997630
994.540186	0.996971
994.835780	0.995967
995.131337	0.998228
995.426859	0.996175
995.722345	0.997433
996.017795	0.997464
996.313208	0.996388
996.608586	0.996390
996.903928	0.996659
997.199234	0.996522
997.494504	0.995593
997.789738	0.996934
998.084936	0.995943
998.380099	0.998044
998.675225	0.996352
998.970316	0.998193
999.265371	0.998617
999.560390	0.998739
999.855373	0.998866
1000.150320	0.998998
1000.445232	0.997777
1000.740108	0.997985
1001.034948	0.997542
1001.329752	0.998610
1001.624521	0.998644
1001.919254	0.997987
1002.213951	0.996853
1002.508613	0.996807
1002.803239	0.999434
1003.097829	0.998735
1003.392384	0.999409
1003.686903	0.997930
1003.981386	0.999442
1004.275834	0.998062
1004.570246	0.999161
1004.864623	0.997992
1005.158964	0.999896
1005.453270	0.998548
1005.747540	0.997706
1006.041775	0.997981
1006.335974	0.999622
1006.630138	0.998611
1006.924266	0.998718
1007.218359	1.000887
1007.512416	0.999645
1007.806438	0.998963
1008.100425	0.999629
1008.394376	0.998447
1008.688292	0.997924
1008.982172	1.000331
1009.276017	0.998906
1009.569827	0.998644
1009.863602	0.999005
1010.157341	0.998904
1010.451045	0.998471
1010.744714	0.997907
1011.038347	0.998788
1011.331945	0.999280
1011.625508	0.997412
1011.919036	0.999028
1012.212528	0.998305
1012.505986	0.997602
1012.799408	0.998989
1013.092795	0.998711
1013.386147	0.999137
1013.679464	0.998183
1013.972745	0.998130
1014.265992	0.995858
1014.559204	0.998674
1014.852380	0.999717
1015.145521	0.999172
1015.438628	0.999237
1015.731699	0.999218
1016.024736	0.999144
1016.317737	0.998776
1016.610703	0.998467
1016.903635	0.998781
1017.196531	0.999188
1017.489393	1.000007
1017.782219	0.999316
1018.075011	0.999195
1018.367768	0.998519
1018.660490	1.000839
1018.953177	1.000839
1019.245829	1.000839
