Dividing Wavelength (nm)	Counts (n)	Blue Motor Position (mm): 0.000000	Red Motor Position (mm): 31.900000	
326.493990	1.001028
326.888308	1.001028
327.282561	1.001028
327.676750	0.999826
328.070874	0.998654
328.464933	0.999604
328.858929	0.998704
329.252859	0.998599
329.646726	0.999366
330.040528	0.999258
330.434265	0.999009
330.827938	1.001006
331.221547	1.000688
331.615091	1.000380
332.008571	0.999930
332.401986	1.000284
332.795338	0.999873
333.188625	0.998447
333.581847	1.000959
333.975006	0.999670
334.368100	0.999803
334.761129	0.999732
335.154095	0.999432
335.546996	0.998638
335.939833	0.995105
336.332606	0.995364
336.725315	0.996079
337.117960	0.996879
337.510540	0.996501
337.903056	0.996528
338.295508	0.994944
338.687896	0.996307
339.080220	0.995849
339.472480	0.996276
339.864676	0.995924
340.256807	0.994737
340.648875	0.997109
341.040879	0.996065
341.432818	0.995088
341.824694	0.995613
342.216506	0.995853
342.608253	0.995317
342.999937	0.995792
343.391557	0.995569
343.783113	0.995503
344.174605	0.996247
344.566033	0.996931
344.957397	0.995066
345.348697	0.995343
345.739934	0.995368
346.131106	0.995764
346.522215	0.994690
346.913260	0.996011
347.304241	0.995046
347.695159	0.995308
348.086012	0.993789
348.476802	0.993862
348.867528	0.995772
349.258191	0.995277
349.648789	0.996613
350.039324	0.995510
350.429796	0.997118
350.820203	0.995871
351.210548	0.995270
351.600828	0.995149
351.991045	0.996544
352.381198	0.995850
352.771288	0.995312
353.161314	0.994984
353.551276	0.997501
353.941175	0.996694
354.331010	0.996201
354.720782	0.996863
355.110490	0.994659
355.500135	0.996692
355.889717	0.995459
356.279235	0.996443
356.668689	0.995504
357.058080	0.995237
357.447408	0.996090
357.836672	0.996274
358.225873	0.997472
358.615010	0.996200
359.004084	0.997090
359.393095	0.995414
359.782043	0.996341
360.170927	0.997283
360.559748	0.996688
360.948505	0.995144
361.337199	0.995827
361.725830	0.995166
362.114398	0.995558
362.502903	0.996236
362.891344	0.997088
363.279722	0.996486
363.668037	0.996519
364.056289	0.995847
364.444478	0.996357
364.832603	0.996383
365.220665	0.995067
365.608665	0.996380
365.996601	0.996089
366.384474	0.996311
366.772284	0.995935
367.160031	0.995662
367.547715	0.995019
367.935336	0.996889
368.322893	0.994895
368.710388	0.994904
369.097820	0.995857
369.485189	0.995740
369.872495	0.994458
370.259738	0.993958
370.646918	0.995939
371.034035	0.996266
371.421090	0.996200
371.808081	0.995507
372.195010	0.996591
372.581875	0.996005
372.968678	0.996180
373.355418	0.996845
373.742096	0.994965
374.128710	0.997091
374.515262	0.996281
374.901751	0.996657
375.288177	0.996234
375.674540	0.996643
376.060841	0.996154
376.447079	0.996209
376.833254	0.996139
377.219367	0.997666
377.605417	0.996919
377.991404	0.998220
378.377329	0.996248
378.763191	0.996700
379.148991	0.998576
379.534727	0.996534
379.920402	0.997207
380.306013	0.997467
380.691563	0.996812
381.077049	0.996625
381.462474	0.997967
381.847835	0.998075
382.233134	0.997084
382.618371	0.997578
383.003545	0.998400
383.388657	0.996981
383.773706	0.998519
384.158693	0.997254
384.543618	0.998384
384.928480	0.998320
385.313280	0.997955
385.698017	0.999361
386.082692	0.998391
386.467305	0.997817
386.851856	0.997672
387.236344	0.997800
387.620770	0.997702
388.005133	0.999161
388.389435	0.998822
388.773674	0.998114
389.157851	0.998901
389.541965	0.998070
389.926018	0.997960
390.310008	0.999093
390.693936	0.998852
391.077802	0.998459
391.461606	0.998566
391.845348	0.999240
392.229027	0.999012
392.612645	0.998521
392.996200	0.999491
393.379694	0.998442
393.763125	0.999809
394.146494	0.998974
394.529801	0.998284
394.913047	0.999172
395.296230	0.999071
395.679351	0.998976
396.062410	0.998678
396.445408	0.998455
396.828343	0.998541
397.211217	0.999197
397.594028	0.998909
397.976778	0.999314
398.359466	0.998753
398.742092	0.998752
399.124656	0.998204
399.507158	0.998590
399.889598	0.999579
400.271977	0.999712
400.654294	0.999565
401.036549	0.999811
401.418742	0.999645
401.800874	0.998550
402.182944	0.998534
402.564952	0.998745
402.946898	0.999728
403.328783	0.999708
403.710606	1.000012
404.092367	0.999772
404.474067	0.999045
404.855705	0.998781
405.237282	0.999162
405.618797	0.999092
406.000250	0.998724
406.381642	0.998823
406.762972	0.999115
407.144240	0.999562
407.525447	0.999715
407.906593	0.999448
408.287677	0.999503
408.668700	0.999195
409.049661	0.998184
409.430560	1.000086
409.811399	0.998749
410.192176	0.998817
410.572891	0.999359
410.953545	0.999023
411.334138	0.998599
411.714669	0.999377
412.095139	0.998803
412.475547	1.000278
412.855894	0.999448
413.236180	0.999545
413.616405	0.999355
413.996568	1.000508
414.376670	0.999587
414.756711	0.998937
415.136691	0.999537
415.516609	0.999259
415.896466	0.999327
416.276262	0.998823
416.655997	0.999898
417.035670	0.999081
417.415283	0.999727
417.794834	1.000160
418.174324	1.000194
418.553753	0.999677
418.933121	0.999017
419.312428	0.999100
419.691674	0.999104
420.070859	0.999221
420.449983	1.000042
420.829045	0.999416
421.208047	1.000224
421.586988	1.000513
421.965867	0.999819
422.344686	1.000825
422.723444	1.000265
423.102141	0.999988
423.480777	0.999885
423.859352	0.999659
424.237866	0.999226
424.616319	1.000136
424.994712	1.000402
425.373044	1.000597
425.751314	1.000203
426.129524	0.999503
426.507673	1.000760
426.885762	1.000502
427.263789	1.000078
427.641756	1.000284
428.019662	1.000594
428.397508	0.999548
428.775292	0.998990
429.153016	0.999332
429.530679	0.999814
429.908282	1.000691
430.285824	0.999258
430.663305	0.998944
431.040726	0.999599
431.418086	1.000978
431.795385	1.001247
432.172624	0.998958
432.549802	1.000288
432.926920	1.000964
433.303977	0.999401
433.680974	1.000658
434.057910	0.999706
434.434786	1.000187
434.811601	0.999742
435.188355	0.999239
435.565050	0.999960
435.941683	0.999663
436.318257	1.000403
436.694770	0.998554
437.071222	1.000697
437.447614	0.999517
437.823946	0.999491
438.200218	1.000104
438.576429	1.000175
438.952580	1.001041
439.328670	0.999752
439.704700	0.999875
440.080670	1.000447
440.456580	0.999679
440.832429	0.999746
441.208218	0.999665
441.583947	1.000403
441.959616	1.000861
442.335224	1.000166
442.710773	1.000928
443.086261	0.999726
443.461689	1.000118
443.837057	0.999810
444.212365	1.000712
444.587612	1.000574
444.962800	1.000575
445.337927	1.000290
445.712995	1.000727
446.088002	1.001238
446.462949	1.000429
446.837837	0.999872
447.212664	1.000403
447.587431	1.000460
447.962139	1.000482
448.336786	1.000565
448.711374	1.000933
449.085901	0.999743
449.460369	1.000463
449.834776	1.000011
450.209124	1.001328
450.583412	1.000924
450.957640	1.000648
451.331808	0.999507
451.705917	1.000822
452.079965	0.999743
452.453954	1.001117
452.827883	1.000404
453.201752	1.000733
453.575562	1.001201
453.949311	1.000614
454.323001	1.000568
454.696632	1.000199
455.070202	1.000097
455.443713	0.999584
455.817164	1.000755
456.190556	1.000382
456.563888	0.999919
456.937160	0.999828
457.310373	0.999947
457.683526	0.999934
458.056619	1.000133
458.429653	1.000038
458.802628	0.999498
459.175542	0.999823
459.548398	1.000654
459.921194	0.999916
460.293930	0.999749
460.666607	0.999534
461.039224	0.999278
461.411782	1.000224
461.784280	1.000171
462.156719	1.001298
462.529099	1.001109
462.901419	1.000449
463.273680	0.999763
463.645882	1.000200
464.018024	0.999588
464.390106	1.000368
464.762130	1.001350
465.134094	0.999540
465.505999	1.000399
465.877845	0.999840
466.249631	1.001067
466.621358	1.000220
466.993026	1.001037
467.364634	1.000187
467.736184	1.000663
468.107674	0.999747
468.479105	0.999668
468.850477	1.000673
469.221790	1.000389
469.593043	1.000578
469.964238	1.000779
470.335373	0.999673
470.706449	1.000159
471.077467	1.001021
471.448425	1.000351
471.819324	1.000224
472.190164	0.999625
472.560945	0.999746
472.931667	0.999384
473.302330	0.999479
473.672934	0.999997
474.043479	0.999216
474.413965	0.999389
474.784393	0.999360
475.154761	0.998489
475.525070	0.997895
475.895321	0.998945
476.265513	0.997859
476.635645	0.997716
477.005719	0.997600
477.375734	0.997171
477.745691	0.997248
478.115588	0.996605
478.485427	0.996283
478.855207	0.995295
479.224928	0.994437
479.594591	0.994310
479.964194	0.993487
480.333739	0.993871
480.703226	0.992885
481.072653	0.993098
481.442022	0.991387
481.811333	0.989967
482.180584	0.989941
482.549777	0.989185
482.918912	0.988619
483.287988	0.987000
483.657005	0.985848
484.025964	0.985989
484.394864	0.985050
484.763706	0.983861
485.132489	0.982735
485.501213	0.981031
485.869879	0.980272
486.238487	0.979075
486.607036	0.977160
486.975527	0.975447
487.343959	0.974237
487.712333	0.972835
488.080648	0.971715
488.448905	0.969726
488.817104	0.967573
489.185244	0.965530
489.553326	0.963774
489.921350	0.960352
490.289315	0.953950
490.657222	0.952991
491.025070	0.949202
491.392861	0.948410
491.760593	0.947548
492.128267	0.946304
492.495883	0.944426
492.863440	0.942480
493.230939	0.939803
493.598380	0.936772
493.965763	0.933357
494.333088	0.932116
494.700354	0.928099
495.067563	0.925101
495.434713	0.921940
495.801805	0.918815
496.168839	0.915214
496.535815	0.910657
496.902733	0.907625
497.269593	0.904245
497.636395	0.900550
498.003139	0.896127
498.369825	0.893175
498.736453	0.887729
499.103023	0.883536
499.469535	0.878375
499.835989	0.875233
500.202385	0.870467
500.568723	0.866058
500.935003	0.861626
501.301226	0.855465
501.667390	0.851026
502.033497	0.845252
502.399546	0.842604
502.765537	0.836321
503.131470	0.830965
503.497345	0.824781
503.863163	0.823076
504.228923	0.814600
504.594625	0.809283
504.960269	0.805842
505.325856	0.798399
505.691385	0.793684
506.056856	0.787065
506.422270	0.781100
506.787625	0.777307
507.152924	0.769263
507.518164	0.764637
507.883347	0.758452
508.248472	0.753673
508.613540	0.745906
508.978550	0.740278
509.343503	0.734139
509.708398	0.727729
510.073236	0.720230
510.438016	0.714347
510.802738	0.708146
511.167403	0.701650
511.532010	0.695039
511.896561	0.688385
512.261053	0.682029
512.625488	0.674767
512.989866	0.668284
513.354186	0.662492
513.718449	0.656915
514.082655	0.649111
514.446803	0.643716
514.810894	0.636423
515.174927	0.630230
515.538904	0.624490
515.902822	0.615994
516.266684	0.611674
516.630488	0.605799
516.994235	0.599176
517.357925	0.591029
517.721558	0.584628
518.085133	0.577262
518.448651	0.572544
518.812112	0.567020
519.175516	0.559768
519.538863	0.552712
519.902152	0.548161
520.265385	0.538533
520.628560	0.534946
520.991678	0.528278
521.354739	0.522245
521.717743	0.516801
522.080690	0.511539
522.443580	0.502932
522.806413	0.497876
523.169189	0.492392
523.531908	0.485327
523.894569	0.482720
524.257174	0.476910
524.619722	0.469220
524.982213	0.465640
525.344647	0.459114
525.707025	0.454502
526.069345	0.447644
526.431608	0.443040
526.793815	0.436816
527.155964	0.434902
527.518057	0.429280
527.880093	0.425219
528.242072	0.419228
528.603995	0.415239
528.965860	0.412239
529.327669	0.406614
529.689421	0.403216
530.051117	0.399105
530.412755	0.392002
530.774337	0.390359
531.135862	0.385746
531.497331	0.381507
531.858743	0.379197
532.220098	0.372632
532.581396	0.370846
532.942638	0.367510
533.303824	0.364570
533.664953	0.360311
534.026025	0.358200
534.387040	0.352581
534.747999	0.349344
535.108902	0.345008
535.469748	0.345952
535.830537	0.340479
536.191270	0.337908
536.551947	0.333814
536.912567	0.331173
537.273131	0.329938
537.633638	0.326944
537.994089	0.324187
538.354483	0.322436
538.714821	0.317189
539.075103	0.314657
539.435328	0.312410
539.795497	0.313302
540.155609	0.307595
540.515665	0.303432
540.875665	0.306536
541.235609	0.302497
541.595496	0.300455
541.955328	0.294921
542.315102	0.295718
542.674821	0.294335
543.034483	0.292165
543.394090	0.290179
543.753640	0.290143
544.113134	0.283108
544.472571	0.284864
544.831953	0.280058
545.191278	0.282435
545.550548	0.280424
545.909761	0.275622
546.268918	0.274746
546.628019	0.271996
546.987064	0.272919
547.346053	0.273819
547.704986	0.270085
548.063863	0.269144
548.422684	0.268327
548.781449	0.268810
549.140158	0.265692
549.498811	0.267046
549.857408	0.269353
550.215949	0.263244
550.574434	0.265362
550.932864	0.262130
551.291237	0.260156
551.649555	0.260442
552.007817	0.259605
552.366022	0.259588
552.724173	0.259195
553.082267	0.258913
553.440305	0.254968
553.798288	0.258848
554.156215	0.254661
554.514086	0.254760
554.871902	0.257224
555.229661	0.255846
555.587365	0.255930
555.945014	0.258154
556.302606	0.254567
556.660143	0.256658
557.017625	0.252801
557.375050	0.254623
557.732421	0.251141
558.089735	0.252948
558.446994	0.253009
558.804197	0.251531
559.161345	0.251102
559.518437	0.254333
559.875474	0.251759
560.232455	0.250993
560.589381	0.252083
560.946251	0.251585
561.303065	0.248964
561.659825	0.250307
562.016528	0.251634
562.373177	0.254229
562.729770	0.251454
563.086307	0.253344
563.442789	0.250989
563.799216	0.253451
564.155587	0.252373
564.511904	0.252901
564.868164	0.253087
565.224370	0.252830
565.580520	0.254229
565.936615	0.254181
566.292654	0.256977
566.648638	0.254111
567.004567	0.254611
567.360441	0.255097
567.716260	0.256998
568.072023	0.254993
568.427732	0.255473
568.783385	0.257927
569.138982	0.255833
569.494525	0.255449
569.850013	0.258146
570.205445	0.256435
570.560823	0.259065
570.916145	0.260785
571.271412	0.259094
571.626625	0.260412
571.981782	0.260893
572.336884	0.261590
572.691931	0.261304
573.046923	0.262136
573.401860	0.263417
573.756743	0.265269
574.111570	0.264117
574.466342	0.264802
574.821059	0.263662
575.175722	0.266162
575.530330	0.266167
575.884882	0.266366
576.239380	0.268250
576.593823	0.268809
576.948211	0.268153
577.302544	0.271393
577.656823	0.270693
578.011047	0.271084
578.365216	0.271335
578.719330	0.273448
579.073389	0.273172
579.427394	0.274768
579.781344	0.275333
580.135239	0.277132
580.489080	0.276636
580.842866	0.279334
581.196597	0.279100
581.550273	0.277924
581.903895	0.278663
582.257463	0.277095
582.610975	0.280294
582.964434	0.279926
583.317837	0.282202
583.671186	0.282602
584.024481	0.282621
584.377721	0.284937
584.730906	0.285606
585.084037	0.284952
585.437113	0.286562
585.790135	0.285849
586.143103	0.288745
586.496016	0.289798
586.848874	0.287536
587.201679	0.288657
587.554428	0.291687
587.907124	0.290216
588.259765	0.290768
588.612352	0.291611
588.964884	0.295086
589.317362	0.294768
589.669786	0.294550
590.022155	0.293393
590.374470	0.292422
590.726731	0.294439
591.078937	0.299254
591.431090	0.295700
591.783188	0.299913
592.135232	0.300313
592.487222	0.300252
592.839157	0.298464
593.191038	0.300668
593.542866	0.302789
593.894639	0.306209
594.246358	0.303912
594.598022	0.303454
594.949633	0.307165
595.301190	0.307840
595.652692	0.307062
596.004141	0.303184
596.355535	0.311205
596.706876	0.311849
597.058162	0.314177
597.409395	0.311397
597.760573	0.309380
598.111698	0.312251
598.462768	0.312372
598.813785	0.314165
599.164748	0.315386
599.515657	0.315563
599.866511	0.319080
600.217312	0.314088
600.568060	0.319898
600.918753	0.316322
601.269392	0.316776
601.619978	0.320194
601.970510	0.317453
602.320988	0.318058
602.671412	0.315326
603.021783	0.318233
603.372100	0.319631
603.722363	0.318849
604.072572	0.320011
604.422728	0.319746
604.772830	0.321825
605.122878	0.321682
605.472872	0.321825
605.822813	0.320237
606.172701	0.323149
606.522534	0.320455
606.872314	0.320461
607.222041	0.321241
607.571714	0.319474
607.921333	0.320995
608.270899	0.320689
608.620411	0.317380
608.969870	0.321161
609.319276	0.321030
609.668627	0.321594
610.017926	0.319778
610.367171	0.318587
610.716362	0.319055
611.065500	0.319266
611.414585	0.318019
611.763616	0.318609
612.112594	0.318905
612.461518	0.318454
612.810389	0.316248
613.159207	0.318627
613.507971	0.320204
613.856682	0.315692
614.205340	0.317615
614.553945	0.314538
614.902496	0.317926
615.250994	0.316015
615.599439	0.317087
615.947830	0.316551
616.296169	0.317439
616.644454	0.316681
616.992686	0.316951
617.340864	0.314904
617.688990	0.318697
618.037063	0.315187
618.385082	0.316726
618.733048	0.313479
619.080961	0.316033
619.428821	0.315323
619.776628	0.315231
620.124382	0.316974
620.472083	0.317187
620.819731	0.316840
621.167326	0.320631
621.514868	0.320275
621.862357	0.324539
622.209793	0.324307
622.557176	0.326289
622.904506	0.327646
623.251783	0.329735
623.599007	0.331688
623.946179	0.331833
624.293297	0.333440
624.640363	0.337574
624.987376	0.337698
625.334336	0.340682
625.681243	0.343033
626.028097	0.343125
626.374899	0.344364
626.721647	0.344626
627.068343	0.347840
627.414987	0.349009
627.761577	0.351152
628.108115	0.349396
628.454600	0.354013
628.801032	0.351756
629.147412	0.353870
629.493739	0.354487
629.840014	0.357175
630.186236	0.355011
630.532405	0.360212
630.878521	0.357810
631.224585	0.359918
631.570597	0.363296
631.916556	0.362073
632.262462	0.362166
632.608316	0.364049
632.954117	0.364748
633.299866	0.365613
633.645562	0.366084
633.991206	0.370405
634.336797	0.373349
634.682336	0.375986
635.027823	0.377376
635.373257	0.378286
635.718639	0.381356
636.063968	0.380988
636.409245	0.386470
636.754470	0.386790
637.099642	0.389397
637.444762	0.392720
637.789829	0.391737
638.134845	0.395179
638.479808	0.396221
638.824719	0.395806
639.169577	0.399577
639.514383	0.398196
639.859137	0.402702
640.203839	0.403088
640.548489	0.403389
640.893086	0.404508
641.237632	0.406247
641.582125	0.404702
641.926566	0.406521
642.270955	0.406193
642.615292	0.406980
642.959576	0.406033
643.303809	0.406703
643.647990	0.405682
643.992118	0.406444
644.336195	0.410386
644.680219	0.408530
645.024192	0.409315
645.368112	0.402984
645.711981	0.401915
646.055797	0.396994
646.399562	0.399373
646.743274	0.391796
647.086935	0.389110
647.430544	0.389219
647.774101	0.387832
648.117606	0.387698
648.461059	0.388349
648.804460	0.390371
649.147810	0.395684
649.491108	0.397430
649.834354	0.399364
650.177548	0.404653
650.520690	0.409892
650.863781	0.411487
651.206820	0.410553
651.549807	0.414620
651.892742	0.419007
652.235626	0.418452
652.578458	0.419418
652.921238	0.425185
653.263967	0.423273
653.606644	0.427826
653.949269	0.426850
654.291843	0.430615
654.634365	0.427883
654.976836	0.430846
655.319255	0.430923
655.661622	0.433001
656.003938	0.432747
656.346203	0.435457
656.688416	0.433408
657.030577	0.436693
657.372687	0.438482
657.714746	0.439387
658.056753	0.436523
658.398708	0.439808
658.740612	0.441154
659.082465	0.437593
659.424266	0.438007
659.766016	0.437570
660.107715	0.440264
660.449362	0.439046
660.790958	0.439678
661.132503	0.440125
661.473996	0.438126
661.815438	0.439059
662.156829	0.439241
662.498168	0.439330
662.839456	0.441103
663.180693	0.438839
663.521879	0.438637
663.863013	0.440008
664.204097	0.438475
664.545129	0.435202
664.886110	0.435721
665.227040	0.432857
665.567918	0.435220
665.908746	0.433629
666.249522	0.432908
666.590248	0.433946
666.930922	0.432597
667.271545	0.431313
667.612118	0.431284
667.952639	0.433241
668.293109	0.431658
668.633528	0.434975
668.973896	0.433914
669.314213	0.434801
669.654480	0.436644
669.994695	0.437150
670.334859	0.437864
670.674973	0.437763
671.015035	0.438346
671.355047	0.437778
671.695008	0.439346
672.034918	0.440603
672.374777	0.440494
672.714585	0.441559
673.054342	0.441305
673.394049	0.441547
673.733705	0.438586
674.073310	0.440369
674.412864	0.443351
674.752368	0.443967
675.091820	0.443788
675.431223	0.448305
675.770574	0.448074
676.109875	0.451825
676.449125	0.451037
676.788324	0.453309
677.127473	0.458642
677.466571	0.458266
677.805619	0.460040
678.144616	0.461238
678.483562	0.463128
678.822458	0.464898
679.161303	0.466850
679.500098	0.466849
679.838842	0.468385
680.177535	0.468277
680.516179	0.466553
680.854771	0.465357
681.193314	0.459198
681.531805	0.450597
681.870247	0.439362
682.208638	0.431600
682.546978	0.431244
682.885268	0.432264
683.223508	0.438494
683.561697	0.441778
683.899836	0.444598
684.237925	0.447964
684.575963	0.450792
684.913951	0.453478
685.251889	0.449789
685.589776	0.451773
685.927614	0.453945
686.265401	0.448379
686.603137	0.449536
686.940824	0.443813
687.278460	0.442277
687.616046	0.441346
687.953582	0.436790
688.291068	0.437787
688.628504	0.433610
688.965889	0.435806
689.303224	0.439646
689.640510	0.443628
689.977745	0.449207
690.314930	0.457063
690.652065	0.461983
690.989150	0.469537
691.326185	0.475866
691.663170	0.480558
692.000105	0.487094
692.336990	0.494533
692.673825	0.496523
693.010610	0.503552
693.347345	0.509145
693.684030	0.510708
694.020665	0.515917
694.357251	0.524183
694.693786	0.524263
695.030272	0.528235
695.366707	0.531249
695.703093	0.535044
696.039429	0.532767
696.375716	0.533896
696.711952	0.537537
697.048139	0.539105
697.384276	0.540757
697.720363	0.539363
698.056400	0.538536
698.392388	0.544027
698.728326	0.547287
699.064214	0.549803
699.400053	0.550307
699.735842	0.553186
700.071581	0.556604
700.407270	0.559742
700.742910	0.561786
701.078501	0.568582
701.414042	0.568953
701.749533	0.571957
702.084974	0.580935
702.420366	0.573200
702.755709	0.580509
703.091002	0.588300
703.426246	0.581535
703.761440	0.587445
704.096584	0.592513
704.431679	0.589126
704.766725	0.591783
705.101721	0.593302
705.436668	0.589620
705.771565	0.596522
706.106413	0.593099
706.441212	0.588510
706.775961	0.587188
707.110661	0.590037
707.445311	0.585912
707.779913	0.584093
708.114465	0.582212
708.448967	0.578702
708.783421	0.570826
709.117825	0.566025
709.452180	0.565192
709.786485	0.558796
710.120742	0.550107
710.454949	0.551782
710.789107	0.543351
711.123216	0.534696
711.457275	0.536076
711.791286	0.527518
712.125247	0.526079
712.459159	0.536851
712.793023	0.529743
713.126837	0.533999
713.460602	0.534257
713.794318	0.543349
714.127985	0.541998
714.461602	0.552697
714.795171	0.555528
715.128691	0.563119
715.462162	0.570528
715.795584	0.575854
716.128957	0.578597
716.462281	0.586089
716.795556	0.588890
717.128782	0.594762
717.461960	0.603586
717.795088	0.602345
718.128167	0.608051
718.461198	0.616937
718.794180	0.617243
719.127113	0.619777
719.459997	0.624057
719.792833	0.630035
720.125619	0.630791
720.458357	0.636816
720.791046	0.636399
721.123686	0.640142
721.456278	0.647268
721.788821	0.644674
722.121315	0.648683
722.453761	0.652909
722.786158	0.650433
723.118506	0.647110
723.450805	0.654982
723.783056	0.651159
724.115259	0.648025
724.447412	0.647623
724.779518	0.649367
725.111574	0.648081
725.443582	0.643829
725.775542	0.645386
726.107453	0.638051
726.439315	0.637482
726.771129	0.636540
727.102895	0.629269
727.434612	0.623038
727.766281	0.620491
728.097901	0.620224
728.429473	0.619653
728.760996	0.618013
729.092471	0.617773
729.423897	0.621891
729.755276	0.621518
730.086606	0.620907
730.417887	0.616028
730.749120	0.607179
731.080305	0.597180
731.411442	0.594022
731.742530	0.598952
732.073570	0.597317
732.404562	0.590078
732.735506	0.591724
733.066401	0.595545
733.397249	0.605473
733.728048	0.616936
734.058798	0.629603
734.389501	0.639080
734.720156	0.649442
735.050762	0.656703
735.381320	0.657728
735.711831	0.667194
736.042293	0.672016
736.372707	0.667961
736.703073	0.672438
737.033391	0.674540
737.363661	0.671816
737.693883	0.667158
738.024056	0.666352
738.354182	0.667063
738.684260	0.655854
739.014290	0.651859
739.344272	0.652821
739.674207	0.646849
740.004093	0.645476
740.333931	0.647024
740.663722	0.646191
740.993464	0.646768
741.323159	0.650161
741.652806	0.655234
741.982405	0.660218
742.311956	0.664564
742.641460	0.666998
742.970915	0.670066
743.300323	0.677449
743.629683	0.684303
743.958996	0.686666
744.288260	0.690106
744.617477	0.696526
744.946647	0.698331
745.275768	0.703608
745.604842	0.703813
745.933869	0.713769
746.262847	0.713022
746.591778	0.707737
746.920662	0.713756
747.249498	0.719851
747.578286	0.710867
747.907027	0.707294
748.235720	0.707911
748.564365	0.703123
748.892963	0.702781
749.221514	0.706048
749.550017	0.710545
749.878473	0.710630
750.206881	0.717126
750.535242	0.718212
750.863555	0.717863
751.191821	0.718902
751.520039	0.722406
751.848210	0.727094
752.176334	0.718851
752.504411	0.718584
752.832440	0.725882
753.160421	0.730683
753.488356	0.729275
753.816243	0.726717
754.144082	0.734754
754.471875	0.738844
754.799620	0.733962
755.127318	0.734528
755.454969	0.734986
755.782572	0.734639
756.110129	0.739573
756.437638	0.741721
756.765100	0.737697
757.092515	0.735800
757.419882	0.735093
757.747203	0.741168
758.074477	0.739717
758.401703	0.737357
758.728882	0.732411
759.056014	0.731731
759.383099	0.730002
759.710138	0.731204
760.037129	0.728203
760.364073	0.721520
760.690970	0.724086
761.017820	0.730747
761.344623	0.724922
761.671379	0.716350
761.998088	0.705265
762.324751	0.682211
762.651366	0.641449
762.977935	0.574980
763.304456	0.522872
763.630931	0.514238
763.957359	0.552643
764.283740	0.597111
764.610074	0.624238
764.936362	0.654443
765.262602	0.681249
765.588796	0.702366
765.914943	0.719441
766.241044	0.737686
766.567097	0.743164
766.893104	0.753413
767.219064	0.760175
767.544978	0.766499
767.870845	0.780513
768.196665	0.783934
768.522438	0.781337
768.848165	0.784062
769.173846	0.792277
769.499479	0.796804
769.825066	0.799645
770.150607	0.805490
770.476101	0.800456
770.801548	0.801382
771.126949	0.812250
771.452303	0.816841
771.777611	0.814819
772.102872	0.813551
772.428087	0.819936
772.753256	0.823029
773.078378	0.824372
773.403453	0.833839
773.728482	0.838478
774.053465	0.831037
774.378401	0.835293
774.703291	0.843854
775.028135	0.842242
775.352932	0.844720
775.677683	0.847994
776.002388	0.847564
776.327046	0.847622
776.651658	0.850349
776.976224	0.852820
777.300743	0.854530
777.625216	0.856051
777.949643	0.858215
778.274024	0.858518
778.598359	0.860275
778.922647	0.858059
779.246889	0.859181
779.571086	0.863795
779.895236	0.865497
780.219339	0.862419
780.543397	0.860401
780.867409	0.858093
781.191374	0.860358
781.515294	0.861266
781.839167	0.860400
782.162995	0.863296
782.486776	0.862050
782.810511	0.861687
783.134201	0.865981
783.457844	0.864147
783.781441	0.866608
784.104993	0.872540
784.428498	0.872134
784.751958	0.867816
785.075372	0.871017
785.398739	0.874222
785.722061	0.870911
786.045337	0.865808
786.368568	0.871737
786.691752	0.873921
787.014891	0.859116
787.337983	0.850543
787.661030	0.844130
787.984031	0.825764
788.306987	0.813310
788.629897	0.814957
788.952760	0.819091
789.275579	0.823603
789.598351	0.838120
789.921078	0.852222
790.243759	0.853497
790.566395	0.858987
790.888984	0.866620
791.211529	0.870524
791.534027	0.873560
791.856480	0.875794
792.178888	0.880125
792.501249	0.883202
792.823566	0.884399
793.145836	0.884123
793.468062	0.885850
793.790241	0.886809
794.112375	0.883923
794.434464	0.880491
794.756507	0.879684
795.078505	0.879627
795.400457	0.873817
795.722364	0.862377
796.044226	0.854721
796.366042	0.855208
796.687812	0.856853
797.009538	0.853670
797.331218	0.855890
797.652852	0.860550
797.974442	0.866559
798.295986	0.866069
798.617484	0.868377
798.938938	0.872858
799.260346	0.878216
799.581709	0.879633
799.903026	0.881876
800.224299	0.881893
800.545526	0.886369
800.866708	0.890035
801.187845	0.893640
801.508936	0.892830
801.829983	0.891899
802.150984	0.894141
802.471940	0.898924
802.792851	0.897895
803.113717	0.899865
803.434538	0.897678
803.755314	0.899608
804.076045	0.902114
804.396731	0.901858
804.717372	0.901493
805.037967	0.903888
805.358518	0.900905
805.679024	0.898775
805.999485	0.898238
806.319901	0.898978
806.640272	0.900660
806.960598	0.897713
807.280879	0.895343
807.601115	0.894129
807.921306	0.897674
808.241453	0.897652
808.561554	0.895584
808.881611	0.896007
809.201623	0.897487
809.521590	0.897233
809.841513	0.898510
810.161390	0.896994
810.481223	0.899271
810.801011	0.903056
811.120755	0.904110
811.440453	0.903789
811.760107	0.901892
812.079716	0.902166
812.399281	0.905370
812.718801	0.908121
813.038276	0.908911
813.357707	0.908269
813.677093	0.905994
813.996434	0.908077
814.315731	0.910865
814.634983	0.910109
814.954191	0.908891
815.273354	0.905698
815.592473	0.903316
815.911547	0.902665
816.230577	0.901095
816.549562	0.897748
816.868502	0.899117
817.187399	0.894528
817.506250	0.889366
817.825058	0.892283
818.143821	0.888687
818.462539	0.884159
818.781213	0.874502
819.099843	0.864103
819.418429	0.849387
819.736970	0.832604
820.055466	0.813279
820.373919	0.787431
820.692327	0.755021
821.010691	0.721813
821.329011	0.645399
821.647286	0.531895
821.965517	0.419598
822.283704	0.377809
822.601847	0.379231
822.919945	0.414904
823.237999	0.447677
823.556010	0.493603
823.873976	0.548518
824.191897	0.598732
824.509775	0.640164
824.827609	0.685017
825.145398	0.707239
825.463144	0.710242
825.780845	0.692526
826.098502	0.674777
826.416116	0.630186
826.733685	0.586147
827.051210	0.578145
827.368692	0.592660
827.686129	0.629553
828.003522	0.680596
828.320872	0.728863
828.638177	0.771276
828.955439	0.804327
829.272656	0.824077
829.589830	0.841150
829.906960	0.857604
830.224046	0.869943
830.541088	0.879869
830.858086	0.883045
831.175041	0.889512
831.491952	0.889302
831.808819	0.884988
832.125642	0.878952
832.442421	0.865114
832.759157	0.844107
833.075849	0.797996
833.392497	0.735126
833.709101	0.694613
834.025662	0.703765
834.342179	0.735915
834.658653	0.774027
834.975083	0.809465
835.291469	0.835465
835.607811	0.856354
835.924110	0.873013
836.240366	0.889152
836.556578	0.904093
836.872746	0.910836
837.188871	0.915861
837.504952	0.922138
837.820990	0.924512
838.136984	0.929135
838.452935	0.932056
838.768842	0.933975
839.084706	0.926301
839.400526	0.900690
839.716303	0.861290
840.032037	0.840367
840.347727	0.844301
840.663373	0.860806
840.978977	0.881425
841.294537	0.904342
841.610054	0.919057
841.925527	0.928203
842.240957	0.934162
842.556344	0.940514
842.871687	0.946654
843.186987	0.950830
843.502244	0.952475
843.817458	0.953024
844.132629	0.956863
844.447756	0.961405
844.762840	0.961926
845.077881	0.960123
845.392879	0.960880
845.707833	0.964261
846.022745	0.965296
846.337613	0.964937
846.652438	0.967298
846.967221	0.965595
847.281960	0.965259
847.596656	0.968567
847.911309	0.967183
848.225919	0.968660
848.540485	0.968784
848.855009	0.969639
849.169490	0.969218
849.483928	0.969791
849.798323	0.970116
850.112675	0.969638
850.426984	0.970345
850.741251	0.971014
851.055474	0.971478
851.369654	0.969611
851.683792	0.969499
851.997887	0.970245
852.311938	0.970896
852.625947	0.970727
852.939914	0.969067
853.253837	0.970190
853.567718	0.971631
853.881555	0.971657
854.195350	0.969079
854.509103	0.969746
854.822812	0.970822
855.136479	0.970662
855.450103	0.970780
855.763685	0.968984
856.077224	0.969816
856.390720	0.970945
856.704173	0.970748
857.017584	0.969907
857.330953	0.968539
857.644278	0.968167
857.957561	0.970206
858.270802	0.969889
858.584000	0.968875
858.897155	0.967348
859.210268	0.969756
859.523339	0.969239
859.836367	0.971160
860.149352	0.971499
860.462295	0.968959
860.775195	0.970279
861.088054	0.969738
861.400869	0.970069
861.713642	0.970407
862.026373	0.971574
862.339062	0.971951
862.651708	0.968936
862.964312	0.969114
863.276873	0.970195
863.589392	0.970225
863.901869	0.967572
864.214303	0.964994
864.526696	0.965802
864.839045	0.963685
865.151353	0.963429
865.463619	0.963535
865.775842	0.964011
866.088023	0.963428
866.400162	0.963303
866.712258	0.964077
867.024313	0.963448
867.336325	0.965673
867.648296	0.963824
867.960224	0.962913
868.272110	0.963582
868.583954	0.965237
868.895755	0.964009
869.207515	0.962708
869.519233	0.960328
869.830909	0.962209
870.142542	0.964611
870.454134	0.963052
870.765684	0.962114
871.077191	0.959287
871.388657	0.959755
871.700081	0.959634
872.011463	0.959464
872.322803	0.959694
872.634101	0.957575
872.945357	0.956651
873.256571	0.954574
873.567744	0.954176
873.878874	0.955552
874.189963	0.953174
874.501010	0.952597
874.812015	0.951678
875.122979	0.952698
875.433900	0.956370
875.744780	0.954914
876.055618	0.952646
876.366415	0.952053
876.677169	0.951272
876.987882	0.952405
877.298554	0.952633
877.609183	0.949451
877.919771	0.946626
878.230317	0.944879
878.540822	0.942377
878.851285	0.938804
879.161707	0.928728
879.472087	0.918358
879.782425	0.902078
880.092722	0.869334
880.402977	0.819204
880.713191	0.759934
881.023363	0.703080
881.333494	0.670540
881.643583	0.642329
881.953631	0.642010
882.263637	0.671139
882.573602	0.710379
882.883526	0.734585
883.193408	0.756696
883.503248	0.778756
883.813048	0.805322
884.122806	0.833763
884.432522	0.856223
884.742197	0.874715
885.051831	0.886207
885.361424	0.895541
885.670975	0.908270
885.980485	0.916391
886.289954	0.922237
886.599382	0.928356
886.908768	0.931332
887.218113	0.936151
887.527417	0.941130
887.836680	0.944283
888.145901	0.945088
888.455082	0.947273
888.764221	0.953056
889.073319	0.953936
889.382376	0.954652
889.691392	0.954961
890.000366	0.953443
890.309300	0.956559
890.618193	0.955282
890.927044	0.953374
891.235855	0.952390
891.544625	0.954020
891.853353	0.953445
892.162041	0.951349
892.470687	0.944938
892.779293	0.941034
893.087858	0.936681
893.396381	0.929724
893.704864	0.915475
894.013306	0.893496
894.321707	0.868003
894.630068	0.853724
894.938387	0.848520
895.246665	0.850547
895.554903	0.862381
895.863100	0.874684
896.171256	0.891244
896.479371	0.911088
896.787446	0.922680
897.095480	0.928204
897.403473	0.931777
897.711425	0.935489
898.019336	0.942794
898.327207	0.944686
898.635038	0.947262
898.942827	0.948838
899.250576	0.950877
899.558284	0.953127
899.865952	0.955198
900.173579	0.957119
900.481165	0.957942
900.788711	0.961395
901.096216	0.964010
901.403681	0.963482
901.711105	0.964234
902.018489	0.965796
902.325832	0.963529
902.633135	0.964164
902.940397	0.957488
903.247619	0.945531
903.554800	0.921969
903.861941	0.884230
904.169041	0.850144
904.476101	0.834207
904.783121	0.834629
905.090100	0.850660
905.397039	0.869556
905.703938	0.891974
906.010796	0.909718
906.317614	0.927402
906.624391	0.937502
906.931129	0.946502
907.237826	0.954134
907.544483	0.961239
907.851099	0.964594
908.157675	0.969101
908.464211	0.970757
908.770707	0.974388
909.077163	0.974812
909.383578	0.975684
909.689954	0.976303
909.996289	0.976719
910.302584	0.979259
910.608839	0.980349
910.915054	0.979699
911.221229	0.978851
911.527363	0.978668
911.833458	0.978367
912.139513	0.979355
912.445527	0.976765
912.751502	0.975257
913.057436	0.973970
913.363331	0.971046
913.669186	0.968130
913.975000	0.962786
914.280775	0.957325
914.586510	0.951972
914.892205	0.939697
915.197859	0.919079
915.503475	0.892531
915.809050	0.873613
916.114585	0.868825
916.420081	0.867358
916.725536	0.863058
917.030952	0.871051
917.336328	0.882362
917.641665	0.897331
917.946961	0.912702
918.252218	0.922989
918.557435	0.932089
918.862612	0.940866
919.167750	0.944992
919.472848	0.949818
919.777906	0.955815
920.082925	0.961318
920.387904	0.963299
920.692843	0.965235
920.997743	0.965404
921.302603	0.969400
921.607423	0.970773
921.912204	0.972915
922.216946	0.973079
922.521647	0.974974
922.826310	0.974804
923.130932	0.978003
923.435516	0.978485
923.740059	0.980566
924.044564	0.978800
924.349028	0.981928
924.653454	0.984036
924.957840	0.986074
925.262186	0.984842
925.566493	0.984964
925.870761	0.985096
926.174989	0.987091
926.479178	0.989464
926.783328	0.988322
927.087438	0.989599
927.391509	0.988203
927.695541	0.990210
927.999533	0.990900
928.303486	0.989606
928.607400	0.991919
928.911275	0.990429
929.215110	0.990769
929.518906	0.991476
929.822663	0.990850
930.126381	0.991554
930.430060	0.990040
930.733699	0.990901
931.037299	0.990330
931.340861	0.991194
931.644383	0.988847
931.947866	0.989690
932.251309	0.991173
932.554714	0.990784
932.858080	0.991478
933.161407	0.989764
933.464694	0.991856
933.767943	0.989853
934.071153	0.991481
934.374323	0.991446
934.677455	0.991778
934.980548	0.992316
935.283602	0.991257
935.586617	0.992773
935.889593	0.991985
936.192530	0.991194
936.495428	0.991409
936.798287	0.991925
937.101108	0.990955
937.403890	0.989078
937.706632	0.989335
938.009336	0.987186
938.312002	0.986002
938.614628	0.985612
938.917216	0.984194
939.219765	0.983027
939.522275	0.984667
939.824747	0.983851
940.127179	0.984323
940.429573	0.986432
940.731929	0.985538
941.034246	0.985291
941.336524	0.986481
941.638763	0.988353
941.940964	0.986886
942.243126	0.989041
942.545250	0.988480
942.847335	0.988402
943.149381	0.989561
943.451389	0.989172
943.753359	0.990198
944.055290	0.991726
944.357182	0.990981
944.659036	0.989911
944.960851	0.990731
945.262628	0.990128
945.564367	0.990024
945.866067	0.990148
946.167729	0.991404
946.469352	0.989874
946.770937	0.990191
947.072484	0.991212
947.373992	0.989587
947.675462	0.991196
947.976893	0.990562
948.278286	0.990856
948.579641	0.992310
948.880958	0.990854
949.182236	0.990706
949.483476	0.992494
949.784678	0.990639
950.085841	0.991364
950.386967	0.991569
950.688054	0.991968
950.989103	0.991887
951.290114	0.991081
951.591087	0.990263
951.892021	0.990187
952.192917	0.989631
952.493776	0.988524
952.794596	0.989581
953.095378	0.987603
953.396122	0.988218
953.696828	0.987840
953.997496	0.990110
954.298126	0.990791
954.598718	0.990200
954.899272	0.991797
955.199788	0.991675
955.500266	0.992789
955.800706	0.993356
956.101108	0.993643
956.401472	0.994105
956.701798	0.994416
957.002087	0.994017
957.302337	0.994066
957.602550	0.994613
957.902724	0.996268
958.202861	0.995613
958.502960	0.996267
958.803022	0.993716
959.103045	0.996654
959.403031	0.996229
959.702979	0.995514
960.002889	0.995960
960.302762	0.995389
960.602596	0.995431
960.902393	0.995619
961.202153	0.996740
961.501875	0.997119
961.801559	0.995593
962.101205	0.994905
962.400814	0.996471
962.700385	0.997006
962.999918	0.996906
963.299414	0.997626
963.598873	0.995870
963.898293	0.995837
964.197677	0.995765
964.497022	0.996319
964.796331	0.996863
965.095601	0.996352
965.394835	0.996110
965.694030	0.996360
965.993189	0.997531
966.292309	0.997306
966.591393	0.997429
966.890439	0.996837
967.189447	0.995872
967.488419	0.998067
967.787353	0.996515
968.086249	0.996576
968.385108	0.997416
968.683930	0.997402
968.982714	0.997122
969.281462	0.997129
969.580172	0.996362
969.878844	0.997184
970.177480	0.997522
970.476078	0.997290
970.774639	0.996876
971.073162	0.998637
971.371649	0.996602
971.670098	0.996238
971.968510	0.997132
972.266885	0.995858
972.565223	0.996397
972.863524	0.996288
973.161788	0.996319
973.460014	0.997472
973.758204	0.994877
974.056356	0.996312
974.354471	0.995122
974.652550	0.996810
974.950591	0.995910
975.248595	0.995618
975.546563	0.996132
975.844493	0.997351
976.142386	0.996486
976.440243	0.996797
976.738062	0.998145
977.035845	0.997969
977.333590	0.996705
977.631299	0.997871
977.928971	0.997132
978.226606	0.996005
978.524204	0.995699
978.821765	0.997948
979.119290	0.996311
979.416777	0.995846
979.714228	0.997358
980.011642	0.996953
980.309020	0.996791
980.606360	0.996036
980.903664	0.998368
981.200931	0.996972
981.498162	0.993806
981.795356	0.994882
982.092513	0.994195
982.389633	0.995199
982.686717	0.991820
982.983764	0.992032
983.280775	0.990836
983.577749	0.991245
983.874686	0.991702
984.171587	0.992553
984.468451	0.994193
984.765279	0.994315
985.062070	0.994111
985.358824	0.994937
985.655543	0.995529
985.952224	0.995107
986.248869	0.996031
986.545478	0.997029
986.842050	0.997904
987.138586	0.995579
987.435086	0.997313
987.731549	0.998725
988.027975	0.997097
988.324366	0.997813
988.620719	0.998036
988.917037	0.996413
989.213318	0.997321
989.509563	0.997664
989.805772	0.999268
990.101944	0.998376
990.398080	0.996892
990.694180	0.997696
990.990244	0.997867
991.286271	0.997719
991.582262	0.998448
991.878217	0.998217
992.174136	0.998220
992.470019	0.999702
992.765865	0.997916
993.061676	0.998075
993.357450	0.998315
993.653188	0.996585
993.948890	0.997200
994.244556	0.997442
994.540186	0.998103
994.835780	0.994994
995.131337	0.997065
995.426859	0.997177
995.722345	0.998290
996.017795	0.996317
996.313208	0.996256
996.608586	0.997169
996.903928	0.997182
997.199234	0.996638
997.494504	0.996448
997.789738	0.996527
998.084936	0.997146
998.380099	0.997540
998.675225	0.997558
998.970316	0.998413
999.265371	0.998405
999.560390	0.997636
999.855373	0.999725
1000.150320	0.998403
1000.445232	0.999057
1000.740108	0.997931
1001.034948	0.998343
1001.329752	0.998039
1001.624521	0.998622
1001.919254	0.998765
1002.213951	0.999377
1002.508613	0.996094
1002.803239	0.999172
1003.097829	0.998721
1003.392384	0.999762
1003.686903	0.998466
1003.981386	0.998571
1004.275834	0.998947
1004.570246	0.998877
1004.864623	0.999626
1005.158964	0.999579
1005.453270	0.998903
1005.747540	0.997893
1006.041775	0.997997
1006.335974	1.000118
1006.630138	0.999980
1006.924266	0.999465
1007.218359	1.000573
1007.512416	0.999844
1007.806438	0.999276
1008.100425	0.998920
1008.394376	0.999334
1008.688292	0.999043
1008.982172	0.999730
1009.276017	0.999244
1009.569827	0.997311
1009.863602	0.999233
1010.157341	0.999543
1010.451045	0.999304
1010.744714	0.999100
1011.038347	0.999438
1011.331945	0.999053
1011.625508	0.997617
1011.919036	0.998805
1012.212528	0.997895
1012.505986	0.997333
1012.799408	0.998558
1013.092795	0.999556
1013.386147	0.998344
1013.679464	0.998728
1013.972745	0.997621
1014.265992	0.996471
1014.559204	0.997669
1014.852380	0.998022
1015.145521	0.997747
1015.438628	0.998439
1015.731699	0.998306
1016.024736	0.998907
1016.317737	1.000167
1016.610703	0.999528
1016.903635	0.999439
1017.196531	0.998035
1017.489393	0.998720
1017.782219	0.998866
1018.075011	0.998212
1018.367768	0.999732
1018.660490	1.000090
1018.953177	1.000090
1019.245829	1.000090
