Dividing Wavelength (nm)	Counts (n)	Blue Motor Position (mm): 0.000000	Red Motor Position (mm): 28.700000	
326.493990	1.001681
326.888308	1.001681
327.282561	1.001681
327.676750	0.998878
328.070874	0.998678
328.464933	1.000179
328.858929	0.998980
329.252859	0.999628
329.646726	0.999987
330.040528	0.999075
330.434265	0.999993
330.827938	1.001458
331.221547	1.001679
331.615091	0.999769
332.008571	1.000231
332.401986	1.000311
332.795338	0.999313
333.188625	0.999031
333.581847	1.000035
333.975006	0.998635
334.368100	0.999434
334.761129	1.000034
335.154095	1.000272
335.546996	0.998365
335.939833	0.994352
336.332606	0.994712
336.725315	0.995660
337.117960	0.996467
337.510540	0.994273
337.903056	0.995407
338.295508	0.995613
338.687896	0.995397
339.080220	0.995500
339.472480	0.996026
339.864676	0.994044
340.256807	0.995935
340.648875	0.996138
341.040879	0.996086
341.432818	0.995007
341.824694	0.994850
342.216506	0.996321
342.608253	0.995130
342.999937	0.994804
343.391557	0.995545
343.783113	0.995454
344.174605	0.994771
344.566033	0.996454
344.957397	0.995218
345.348697	0.994562
345.739934	0.994582
346.131106	0.994316
346.522215	0.993459
346.913260	0.994207
347.304241	0.994927
347.695159	0.995652
348.086012	0.994015
348.476802	0.994872
348.867528	0.995867
349.258191	0.994133
349.648789	0.996523
350.039324	0.995308
350.429796	0.996028
350.820203	0.995976
351.210548	0.995318
351.600828	0.995749
351.991045	0.994499
352.381198	0.993505
352.771288	0.994966
353.161314	0.994577
353.551276	0.996656
353.941175	0.994522
354.331010	0.995501
354.720782	0.996074
355.110490	0.995132
355.500135	0.995884
355.889717	0.995151
356.279235	0.996031
356.668689	0.994423
357.058080	0.993938
357.447408	0.997492
357.836672	0.995378
358.225873	0.996666
358.615010	0.995542
359.004084	0.996097
359.393095	0.995612
359.782043	0.995146
360.170927	0.994898
360.559748	0.996157
360.948505	0.994285
361.337199	0.995485
361.725830	0.995025
362.114398	0.995335
362.502903	0.996052
362.891344	0.996687
363.279722	0.993948
363.668037	0.996064
364.056289	0.994889
364.444478	0.995170
364.832603	0.996499
365.220665	0.994805
365.608665	0.995101
365.996601	0.995023
366.384474	0.995159
366.772284	0.994766
367.160031	0.993944
367.547715	0.993985
367.935336	0.995122
368.322893	0.995927
368.710388	0.994424
369.097820	0.994832
369.485189	0.994640
369.872495	0.994806
370.259738	0.993552
370.646918	0.996454
371.034035	0.995310
371.421090	0.995236
371.808081	0.995004
372.195010	0.995731
372.581875	0.995903
372.968678	0.995606
373.355418	0.996071
373.742096	0.995075
374.128710	0.996275
374.515262	0.995708
374.901751	0.995972
375.288177	0.995888
375.674540	0.996478
376.060841	0.995535
376.447079	0.997489
376.833254	0.995703
377.219367	0.997135
377.605417	0.996165
377.991404	0.995827
378.377329	0.996206
378.763191	0.996103
379.148991	0.996876
379.534727	0.997209
379.920402	0.996575
380.306013	0.996226
380.691563	0.997926
381.077049	0.996572
381.462474	0.997012
381.847835	0.996516
382.233134	0.996328
382.618371	0.996969
383.003545	0.995669
383.388657	0.996515
383.773706	0.996644
384.158693	0.996499
384.543618	0.996665
384.928480	0.997514
385.313280	0.996864
385.698017	0.997588
386.082692	0.997060
386.467305	0.998289
386.851856	0.996885
387.236344	0.997251
387.620770	0.996049
388.005133	0.998043
388.389435	0.997834
388.773674	0.996782
389.157851	0.997421
389.541965	0.997931
389.926018	0.997031
390.310008	0.998073
390.693936	0.997549
391.077802	0.997379
391.461606	0.996198
391.845348	0.998463
392.229027	0.998745
392.612645	0.997913
392.996200	0.998549
393.379694	0.997705
393.763125	0.998066
394.146494	0.997865
394.529801	0.997273
394.913047	0.997737
395.296230	0.997832
395.679351	0.996953
396.062410	0.997493
396.445408	0.998136
396.828343	0.997942
397.211217	0.998208
397.594028	0.998572
397.976778	0.997833
398.359466	0.998557
398.742092	0.997779
399.124656	0.997473
399.507158	0.997824
399.889598	0.998702
400.271977	0.997978
400.654294	0.998362
401.036549	0.998767
401.418742	0.998016
401.800874	0.996624
402.182944	0.998136
402.564952	0.996902
402.946898	0.998354
403.328783	0.998298
403.710606	0.997400
404.092367	0.997948
404.474067	0.998449
404.855705	0.998801
405.237282	0.998194
405.618797	0.998207
406.000250	0.997639
406.381642	0.998055
406.762972	0.998515
407.144240	0.998720
407.525447	0.998541
407.906593	0.998623
408.287677	0.999004
408.668700	0.998950
409.049661	0.997158
409.430560	0.998491
409.811399	0.997793
410.192176	0.997908
410.572891	0.998278
410.953545	0.997176
411.334138	0.996447
411.714669	0.998334
412.095139	0.998095
412.475547	0.998695
412.855894	0.998102
413.236180	0.998101
413.616405	0.998065
413.996568	0.998937
414.376670	0.997814
414.756711	0.998238
415.136691	0.997384
415.516609	0.998128
415.896466	0.997340
416.276262	0.996687
416.655997	0.998925
417.035670	0.997814
417.415283	0.998330
417.794834	0.998761
418.174324	0.998857
418.553753	0.998858
418.933121	0.997992
419.312428	0.998165
419.691674	0.998231
420.070859	0.998995
420.449983	0.998928
420.829045	0.999090
421.208047	0.999340
421.586988	0.998571
421.965867	0.998806
422.344686	0.999430
422.723444	0.998402
423.102141	0.997955
423.480777	0.998650
423.859352	0.998382
424.237866	0.997928
424.616319	0.998220
424.994712	0.998978
425.373044	0.998213
425.751314	0.998417
426.129524	0.997944
426.507673	0.998983
426.885762	0.999362
427.263789	0.998207
427.641756	0.998524
428.019662	0.998822
428.397508	0.997578
428.775292	0.997932
429.153016	0.998056
429.530679	0.998628
429.908282	0.999125
430.285824	0.998293
430.663305	0.998047
431.040726	0.997887
431.418086	0.999737
431.795385	0.999150
432.172624	0.998210
432.549802	0.998827
432.926920	0.998936
433.303977	0.997582
433.680974	0.998295
434.057910	0.998138
434.434786	0.998797
434.811601	0.998763
435.188355	0.997906
435.565050	0.998587
435.941683	0.997611
436.318257	0.999452
436.694770	0.998157
437.071222	0.998627
437.447614	0.998087
437.823946	0.998420
438.200218	0.998808
438.576429	0.998468
438.952580	0.998798
439.328670	0.998211
439.704700	0.998817
440.080670	0.998645
440.456580	0.998782
440.832429	0.997522
441.208218	0.998575
441.583947	0.998409
441.959616	0.998038
442.335224	0.997864
442.710773	0.999082
443.086261	0.997610
443.461689	0.998256
443.837057	0.998488
444.212365	0.998046
444.587612	0.997778
444.962800	0.997404
445.337927	0.997937
445.712995	0.998068
446.088002	0.998699
446.462949	0.997803
446.837837	0.998703
447.212664	0.998628
447.587431	0.998211
447.962139	0.998254
448.336786	0.998308
448.711374	0.998310
449.085901	0.996869
449.460369	0.998503
449.834776	0.997228
450.209124	0.997756
450.583412	0.997046
450.957640	0.997120
451.331808	0.997118
451.705917	0.997019
452.079965	0.996287
452.453954	0.996674
452.827883	0.996213
453.201752	0.996375
453.575562	0.996385
453.949311	0.995138
454.323001	0.995235
454.696632	0.994537
455.070202	0.994165
455.443713	0.993875
455.817164	0.993958
456.190556	0.992588
456.563888	0.991408
456.937160	0.991370
457.310373	0.990415
457.683526	0.990136
458.056619	0.989374
458.429653	0.988899
458.802628	0.986576
459.175542	0.986297
459.548398	0.984925
459.921194	0.983690
460.293930	0.982321
460.666607	0.979055
461.039224	0.976175
461.411782	0.976385
461.784280	0.974352
462.156719	0.974515
462.529099	0.972651
462.901419	0.971251
463.273680	0.970098
463.645882	0.968064
464.018024	0.966381
464.390106	0.964421
464.762130	0.961942
465.134094	0.956630
465.505999	0.949979
465.877845	0.944833
466.249631	0.941940
466.621358	0.941178
466.993026	0.939644
467.364634	0.937773
467.736184	0.935882
468.107674	0.932450
468.479105	0.927775
468.850477	0.926601
469.221790	0.923896
469.593043	0.921439
469.964238	0.917620
470.335373	0.913136
470.706449	0.908820
471.077467	0.904580
471.448425	0.892851
471.819324	0.883793
472.190164	0.880302
472.560945	0.881852
472.931667	0.878670
473.302330	0.874481
473.672934	0.870829
474.043479	0.863171
474.413965	0.858318
474.784393	0.852349
475.154761	0.845929
475.525070	0.838849
475.895321	0.834985
476.265513	0.827064
476.635645	0.820624
477.005719	0.813047
477.375734	0.805517
477.745691	0.797421
478.115588	0.789393
478.485427	0.780809
478.855207	0.769396
479.224928	0.755493
479.594591	0.744930
479.964194	0.739170
480.333739	0.734282
480.703226	0.725264
481.072653	0.717957
481.442022	0.706709
481.811333	0.698293
482.180584	0.693038
482.549777	0.685417
482.918912	0.679313
483.287988	0.671272
483.657005	0.663083
484.025964	0.657899
484.394864	0.648581
484.763706	0.640563
485.132489	0.635784
485.501213	0.627585
485.869879	0.619435
486.238487	0.612022
486.607036	0.604234
486.975527	0.596907
487.343959	0.587793
487.712333	0.579028
488.080648	0.572831
488.448905	0.563785
488.817104	0.557145
489.185244	0.546200
489.553326	0.536330
489.921350	0.523357
490.289315	0.504365
490.657222	0.495089
491.025070	0.487933
491.392861	0.482485
491.760593	0.478716
492.128267	0.473908
492.495883	0.470322
492.863440	0.467088
493.230939	0.464404
493.598380	0.457982
493.965763	0.452049
494.333088	0.448504
494.700354	0.442084
495.067563	0.436015
495.434713	0.431451
495.801805	0.424117
496.168839	0.419383
496.535815	0.414046
496.902733	0.408776
497.269593	0.403585
497.636395	0.396928
498.003139	0.391172
498.369825	0.388896
498.736453	0.380228
499.103023	0.376783
499.469535	0.370772
499.835989	0.366082
500.202385	0.362059
500.568723	0.360086
500.935003	0.352341
501.301226	0.350507
501.667390	0.341794
502.033497	0.335830
502.399546	0.334649
502.765537	0.331741
503.131470	0.326412
503.497345	0.319344
503.863163	0.323853
504.228923	0.313161
504.594625	0.309090
504.960269	0.310743
505.325856	0.302941
505.691385	0.304008
506.056856	0.298235
506.422270	0.294286
506.787625	0.294431
507.152924	0.288996
507.518164	0.286837
507.883347	0.286002
508.248472	0.285295
508.613540	0.278431
508.978550	0.278351
509.343503	0.276883
509.708398	0.272358
510.073236	0.268097
510.438016	0.266110
510.802738	0.265319
511.167403	0.262668
511.532010	0.263105
511.896561	0.257201
512.261053	0.254430
512.625488	0.255292
512.989866	0.254218
513.354186	0.253477
513.718449	0.253903
514.082655	0.248947
514.446803	0.250389
514.810894	0.247133
515.174927	0.248771
515.538904	0.247294
515.902822	0.243590
516.266684	0.245073
516.630488	0.245344
516.994235	0.243490
517.357925	0.241760
517.721558	0.239434
518.085133	0.238349
518.448651	0.238123
518.812112	0.239547
519.175516	0.238793
519.538863	0.236349
519.902152	0.237293
520.265385	0.233699
520.628560	0.235250
520.991678	0.235426
521.354739	0.233945
521.717743	0.235051
522.080690	0.235270
522.443580	0.232188
522.806413	0.232712
523.169189	0.231981
523.531908	0.230581
523.894569	0.233859
524.257174	0.233785
524.619722	0.231027
524.982213	0.232266
525.344647	0.230825
525.707025	0.231452
526.069345	0.229739
526.431608	0.231203
526.793815	0.229016
527.155964	0.232997
527.518057	0.231739
527.880093	0.232780
528.242072	0.231142
528.603995	0.233040
528.965860	0.234519
529.327669	0.233159
529.689421	0.234075
530.051117	0.234870
530.412755	0.232534
530.774337	0.234812
531.135862	0.234881
531.497331	0.234330
531.858743	0.237223
532.220098	0.234017
532.581396	0.236271
532.942638	0.236640
533.303824	0.237508
533.664953	0.237182
534.026025	0.238953
534.387040	0.236943
534.747999	0.236455
535.108902	0.235554
535.469748	0.240395
535.830537	0.238355
536.191270	0.238613
536.551947	0.238050
536.912567	0.238123
537.273131	0.239902
537.633638	0.240055
537.994089	0.240490
538.354483	0.241220
538.714821	0.238489
539.075103	0.238088
539.435328	0.238832
539.795497	0.242464
540.155609	0.239122
540.515665	0.237275
540.875665	0.242939
541.235609	0.241389
541.595496	0.241246
541.955328	0.238104
542.315102	0.240550
542.674821	0.241749
543.034483	0.241686
543.394090	0.241588
543.753640	0.243180
544.113134	0.238434
544.472571	0.241476
544.831953	0.238518
545.191278	0.242758
545.550548	0.241983
545.909761	0.238910
546.268918	0.239635
546.628019	0.237873
546.987064	0.240507
547.346053	0.242481
547.704986	0.240225
548.063863	0.240585
548.422684	0.240651
548.781449	0.242599
549.140158	0.240011
549.498811	0.243014
549.857408	0.245811
550.215949	0.240647
550.574434	0.243807
550.932864	0.241951
551.291237	0.240177
551.649555	0.241975
552.007817	0.241582
552.366022	0.242392
552.724173	0.242722
553.082267	0.242992
553.440305	0.239714
553.798288	0.244083
554.156215	0.240635
554.514086	0.241457
554.871902	0.244896
555.229661	0.243901
555.587365	0.244426
555.945014	0.247132
556.302606	0.243937
556.660143	0.246208
557.017625	0.242784
557.375050	0.244933
557.732421	0.242184
558.089735	0.244139
558.446994	0.244287
558.804197	0.243091
559.161345	0.243521
559.518437	0.246957
559.875474	0.244437
560.232455	0.244125
560.589381	0.245089
560.946251	0.245181
561.303065	0.242637
561.659825	0.244276
562.016528	0.245480
562.373177	0.248682
562.729770	0.245769
563.086307	0.248110
563.442789	0.245555
563.799216	0.248791
564.155587	0.247259
564.511904	0.248372
564.868164	0.248591
565.224370	0.248162
565.580520	0.249988
565.936615	0.250194
566.292654	0.253054
566.648638	0.250137
567.004567	0.250760
567.360441	0.251449
567.716260	0.253438
568.072023	0.251039
568.427732	0.251992
568.783385	0.254265
569.138982	0.252658
569.494525	0.252002
569.850013	0.255227
570.205445	0.253388
570.560823	0.256034
570.916145	0.257832
571.271412	0.256056
571.626625	0.257646
571.981782	0.258071
572.336884	0.259142
572.691931	0.258463
573.046923	0.259732
573.401860	0.261316
573.756743	0.262943
574.111570	0.261569
574.466342	0.262215
574.821059	0.261543
575.175722	0.264252
575.530330	0.264069
575.884882	0.264037
576.239380	0.266186
576.593823	0.266577
576.948211	0.265808
577.302544	0.269332
577.656823	0.268855
578.011047	0.269147
578.365216	0.269750
578.719330	0.271525
579.073389	0.271858
579.427394	0.272873
579.781344	0.273569
580.135239	0.275159
580.489080	0.274618
580.842866	0.277757
581.196597	0.277576
581.550273	0.276454
581.903895	0.277369
582.257463	0.275686
582.610975	0.279094
582.964434	0.277919
583.317837	0.280692
583.671186	0.281104
584.024481	0.281466
584.377721	0.283571
584.730906	0.284340
585.084037	0.283631
585.437113	0.285104
585.790135	0.284708
586.143103	0.287436
586.496016	0.288717
586.848874	0.286281
587.201679	0.287016
587.554428	0.290324
587.907124	0.289124
588.259765	0.289461
588.612352	0.290208
588.964884	0.294139
589.317362	0.293515
589.669786	0.293313
590.022155	0.292161
590.374470	0.291432
590.726731	0.293411
591.078937	0.298351
591.431090	0.294323
591.783188	0.298713
592.135232	0.299125
592.487222	0.299137
592.839157	0.297269
593.191038	0.299567
593.542866	0.301283
593.894639	0.305216
594.246358	0.302817
594.598022	0.302311
594.949633	0.306097
595.301190	0.306886
595.652692	0.306289
596.004141	0.302204
596.355535	0.309972
596.706876	0.310707
597.058162	0.313379
597.409395	0.310159
597.760573	0.308230
598.111698	0.311461
598.462768	0.311921
598.813785	0.313515
599.164748	0.314621
599.515657	0.314746
599.866511	0.317934
600.217312	0.313124
600.568060	0.318758
600.918753	0.314785
601.269392	0.315764
601.619978	0.319092
601.970510	0.316797
602.320988	0.317168
602.671412	0.314824
603.021783	0.317365
603.372100	0.318670
603.722363	0.318180
604.072572	0.319298
604.422728	0.318940
604.772830	0.321028
605.122878	0.320389
605.472872	0.321005
605.822813	0.319401
606.172701	0.321904
606.522534	0.319385
606.872314	0.319730
607.222041	0.320746
607.571714	0.318655
607.921333	0.320073
608.270899	0.319694
608.620411	0.316844
608.969870	0.320152
609.319276	0.320691
609.668627	0.320372
610.017926	0.319155
610.367171	0.317118
610.716362	0.318279
611.065500	0.318191
611.414585	0.317471
611.763616	0.317930
612.112594	0.317924
612.461518	0.317679
612.810389	0.315302
613.159207	0.317687
613.507971	0.319514
613.856682	0.315181
614.205340	0.316698
614.553945	0.313566
614.902496	0.317429
615.250994	0.315325
615.599439	0.316503
615.947830	0.315835
616.296169	0.316763
616.644454	0.315799
616.992686	0.316246
617.340864	0.313865
617.688990	0.317608
618.037063	0.314182
618.385082	0.316029
618.733048	0.312921
619.080961	0.315540
619.428821	0.314599
619.776628	0.314138
620.124382	0.316360
620.472083	0.316331
620.819731	0.315926
621.167326	0.319650
621.514868	0.319629
621.862357	0.323987
622.209793	0.323177
622.557176	0.325715
622.904506	0.326654
623.251783	0.329061
623.599007	0.330930
623.946179	0.331072
624.293297	0.332460
624.640363	0.336654
624.987376	0.337115
625.334336	0.339622
625.681243	0.341828
626.028097	0.342393
626.374899	0.343723
626.721647	0.344117
627.068343	0.347117
627.414987	0.347990
627.761577	0.350443
628.108115	0.348444
628.454600	0.353361
628.801032	0.350892
629.147412	0.353095
629.493739	0.353385
629.840014	0.356646
630.186236	0.354041
630.532405	0.359578
630.878521	0.357241
631.224585	0.359134
631.570597	0.363276
631.916556	0.361177
632.262462	0.361659
632.608316	0.363366
632.954117	0.364393
633.299866	0.365538
633.645562	0.365454
633.991206	0.369592
634.336797	0.372816
634.682336	0.374880
635.027823	0.376606
635.373257	0.377066
635.718639	0.380820
636.063968	0.379534
636.409245	0.385695
636.754470	0.385853
637.099642	0.388435
637.444762	0.391665
637.789829	0.390803
638.134845	0.394282
638.479808	0.395410
638.824719	0.395188
639.169577	0.399312
639.514383	0.398028
639.859137	0.402246
640.203839	0.402740
640.548489	0.402764
640.893086	0.403959
641.237632	0.405630
641.582125	0.404170
641.926566	0.405879
642.270955	0.405570
642.615292	0.406174
642.959576	0.405252
643.303809	0.405881
643.647990	0.405467
643.992118	0.406668
644.336195	0.409296
644.680219	0.407515
645.024192	0.408523
645.368112	0.402603
645.711981	0.401254
646.055797	0.396790
646.399562	0.398765
646.743274	0.390625
647.086935	0.388362
647.430544	0.388395
647.774101	0.387202
648.117606	0.387029
648.461059	0.387193
648.804460	0.390197
649.147810	0.395416
649.491108	0.397461
649.834354	0.398758
650.177548	0.403397
650.520690	0.409578
650.863781	0.410774
651.206820	0.409536
651.549807	0.414488
651.892742	0.418319
652.235626	0.417906
652.578458	0.418663
652.921238	0.425051
653.263967	0.422455
653.606644	0.426636
653.949269	0.426205
654.291843	0.430437
654.634365	0.426932
654.976836	0.430092
655.319255	0.430313
655.661622	0.432017
656.003938	0.431653
656.346203	0.435403
656.688416	0.432883
657.030577	0.436108
657.372687	0.437745
657.714746	0.438711
658.056753	0.435911
658.398708	0.439626
658.740612	0.440845
659.082465	0.436935
659.424266	0.437743
659.766016	0.437010
660.107715	0.439372
660.449362	0.438548
660.790958	0.439197
661.132503	0.439527
661.473996	0.437398
661.815438	0.438311
662.156829	0.438441
662.498168	0.439161
662.839456	0.440349
663.180693	0.438408
663.521879	0.438648
663.863013	0.438727
664.204097	0.438049
664.545129	0.434717
664.886110	0.434951
665.227040	0.432498
665.567918	0.435037
665.908746	0.433341
666.249522	0.432635
666.590248	0.433704
666.930922	0.432040
667.271545	0.430498
667.612118	0.430622
667.952639	0.432224
668.293109	0.431273
668.633528	0.434073
668.973896	0.433411
669.314213	0.433981
669.654480	0.435629
669.994695	0.436292
670.334859	0.436865
670.674973	0.437102
671.015035	0.437771
671.355047	0.437196
671.695008	0.438437
672.034918	0.440627
672.374777	0.439671
672.714585	0.440731
673.054342	0.440577
673.394049	0.440552
673.733705	0.438192
674.073310	0.439358
674.412864	0.442707
674.752368	0.443194
675.091820	0.443197
675.431223	0.447916
675.770574	0.446962
676.109875	0.450596
676.449125	0.450389
676.788324	0.452635
677.127473	0.458527
677.466571	0.457791
677.805619	0.459302
678.144616	0.460758
678.483562	0.462119
678.822458	0.464619
679.161303	0.466329
679.500098	0.466008
679.838842	0.468182
680.177535	0.467545
680.516179	0.466142
680.854771	0.465315
681.193314	0.458406
681.531805	0.450100
681.870247	0.438505
682.208638	0.431064
682.546978	0.429761
682.885268	0.431786
683.223508	0.438141
683.561697	0.441629
683.899836	0.444058
684.237925	0.447909
684.575963	0.450245
684.913951	0.453337
685.251889	0.448645
685.589776	0.450938
685.927614	0.453297
686.265401	0.447371
686.603137	0.448596
686.940824	0.443142
687.278460	0.441660
687.616046	0.441243
687.953582	0.435860
688.291068	0.437213
688.628504	0.432771
688.965889	0.434887
689.303224	0.439164
689.640510	0.442803
689.977745	0.448625
690.314930	0.456882
690.652065	0.461135
690.989150	0.468834
691.326185	0.475407
691.663170	0.480106
692.000105	0.486803
692.336990	0.493828
692.673825	0.496784
693.010610	0.503373
693.347345	0.508550
693.684030	0.510013
694.020665	0.515077
694.357251	0.523750
694.693786	0.523165
695.030272	0.527495
695.366707	0.531083
695.703093	0.534442
696.039429	0.532266
696.375716	0.533709
696.711952	0.536925
697.048139	0.538443
697.384276	0.540312
697.720363	0.539210
698.056400	0.538568
698.392388	0.542846
698.728326	0.546246
699.064214	0.548578
699.400053	0.549929
699.735842	0.553775
700.071581	0.556501
700.407270	0.559085
700.742910	0.561682
701.078501	0.567598
701.414042	0.568630
701.749533	0.571284
702.084974	0.580458
702.420366	0.572323
702.755709	0.580661
703.091002	0.587693
703.426246	0.580710
703.761440	0.587487
704.096584	0.592563
704.431679	0.589540
704.766725	0.590708
705.101721	0.592889
705.436668	0.589345
705.771565	0.596472
706.106413	0.592508
706.441212	0.587723
706.775961	0.586263
707.110661	0.589981
707.445311	0.585611
707.779913	0.583074
708.114465	0.581926
708.448967	0.577486
708.783421	0.570367
709.117825	0.565680
709.452180	0.564669
709.786485	0.558603
710.120742	0.548809
710.454949	0.551334
710.789107	0.542827
711.123216	0.533844
711.457275	0.535427
711.791286	0.526633
712.125247	0.525360
712.459159	0.536113
712.793023	0.528717
713.126837	0.533512
713.460602	0.533840
713.794318	0.542641
714.127985	0.540974
714.461602	0.551574
714.795171	0.554587
715.128691	0.562291
715.462162	0.569867
715.795584	0.575463
716.128957	0.578852
716.462281	0.585186
716.795556	0.588307
717.128782	0.593890
717.461960	0.603470
717.795088	0.601251
718.128167	0.608326
718.461198	0.616051
718.794180	0.617365
719.127113	0.619918
719.459997	0.622544
719.792833	0.629770
720.125619	0.630999
720.458357	0.636360
720.791046	0.636213
721.123686	0.639882
721.456278	0.647133
721.788821	0.643617
722.121315	0.648262
722.453761	0.652455
722.786158	0.650311
723.118506	0.646341
723.450805	0.654344
723.783056	0.650994
724.115259	0.647839
724.447412	0.647123
724.779518	0.648959
725.111574	0.647117
725.443582	0.643390
725.775542	0.644673
726.107453	0.637031
726.439315	0.637406
726.771129	0.635074
727.102895	0.629106
727.434612	0.621974
727.766281	0.620295
728.097901	0.619253
728.429473	0.619123
728.760996	0.617370
729.092471	0.618060
729.423897	0.621457
729.755276	0.620222
730.086606	0.620541
730.417887	0.614938
730.749120	0.606054
731.080305	0.596059
731.411442	0.593107
731.742530	0.597884
732.073570	0.597648
732.404562	0.589207
732.735506	0.590580
733.066401	0.595576
733.397249	0.605336
733.728048	0.615338
734.058798	0.628145
734.389501	0.638810
734.720156	0.648799
735.050762	0.656200
735.381320	0.657726
735.711831	0.667117
736.042293	0.671265
736.372707	0.667419
736.703073	0.671643
737.033391	0.674455
737.363661	0.671478
737.693883	0.666264
738.024056	0.665283
738.354182	0.666131
738.684260	0.654965
739.014290	0.650883
739.344272	0.651405
739.674207	0.646040
740.004093	0.644974
740.333931	0.645131
740.663722	0.645440
740.993464	0.645824
741.323159	0.648939
741.652806	0.654532
741.982405	0.659482
742.311956	0.664590
742.641460	0.666788
742.970915	0.670126
743.300323	0.677473
743.629683	0.684600
743.958996	0.685826
744.288260	0.690118
744.617477	0.696490
744.946647	0.697880
745.275768	0.702675
745.604842	0.702575
745.933869	0.712346
746.262847	0.712513
746.591778	0.706558
746.920662	0.712770
747.249498	0.718410
747.578286	0.709940
747.907027	0.706619
748.235720	0.707165
748.564365	0.702129
748.892963	0.701752
749.221514	0.705643
749.550017	0.710097
749.878473	0.710032
750.206881	0.716504
750.535242	0.717951
750.863555	0.715716
751.191821	0.718394
751.520039	0.721156
751.848210	0.727000
752.176334	0.718726
752.504411	0.718337
752.832440	0.726133
753.160421	0.729521
753.488356	0.728744
753.816243	0.725778
754.144082	0.733636
754.471875	0.737263
754.799620	0.733388
755.127318	0.733780
755.454969	0.734218
755.782572	0.733965
756.110129	0.739103
756.437638	0.741374
756.765100	0.737865
757.092515	0.735483
757.419882	0.734805
757.747203	0.740652
758.074477	0.738938
758.401703	0.736609
758.728882	0.731550
759.056014	0.730737
759.383099	0.729738
759.710138	0.730645
760.037129	0.727879
760.364073	0.721497
760.690970	0.723263
761.017820	0.729227
761.344623	0.725122
761.671379	0.715613
761.998088	0.703808
762.324751	0.681311
762.651366	0.640290
762.977935	0.573958
763.304456	0.522690
763.630931	0.512901
763.957359	0.551808
764.283740	0.596379
764.610074	0.622969
764.936362	0.653278
765.262602	0.680040
765.588796	0.701080
765.914943	0.719367
766.241044	0.736962
766.567097	0.743189
766.893104	0.752659
767.219064	0.759250
767.544978	0.765371
767.870845	0.779478
768.196665	0.782988
768.522438	0.781628
768.848165	0.782485
769.173846	0.791053
769.499479	0.796097
769.825066	0.800023
770.150607	0.805240
770.476101	0.799110
770.801548	0.800611
771.126949	0.811190
771.452303	0.816168
771.777611	0.815148
772.102872	0.814376
772.428087	0.819702
772.753256	0.822604
773.078378	0.824715
773.403453	0.832605
773.728482	0.837265
774.053465	0.830901
774.378401	0.834507
774.703291	0.842576
775.028135	0.843321
775.352932	0.844950
775.677683	0.847427
776.002388	0.848382
776.327046	0.846986
776.651658	0.850736
776.976224	0.854403
777.300743	0.853916
777.625216	0.856266
777.949643	0.858164
778.274024	0.858872
778.598359	0.859935
778.922647	0.858799
779.246889	0.858413
779.571086	0.863292
779.895236	0.864473
780.219339	0.862403
780.543397	0.858864
780.867409	0.856754
781.191374	0.859867
781.515294	0.861765
781.839167	0.860164
782.162995	0.863124
782.486776	0.860182
782.810511	0.861797
783.134201	0.864602
783.457844	0.863087
783.781441	0.865182
784.104993	0.871312
784.428498	0.871378
784.751958	0.866669
785.075372	0.869328
785.398739	0.873309
785.722061	0.869676
786.045337	0.865121
786.368568	0.869859
786.691752	0.873515
787.014891	0.857915
787.337983	0.849899
787.661030	0.842248
787.984031	0.825111
788.306987	0.812083
788.629897	0.814438
788.952760	0.818794
789.275579	0.822050
789.598351	0.837966
789.921078	0.851560
790.243759	0.853703
790.566395	0.857804
790.888984	0.865830
791.211529	0.869829
791.534027	0.871746
791.856480	0.875023
792.178888	0.880631
792.501249	0.882548
792.823566	0.884287
793.145836	0.883933
793.468062	0.886117
793.790241	0.885830
794.112375	0.884699
794.434464	0.879875
794.756507	0.879711
795.078505	0.878218
795.400457	0.873233
795.722364	0.861451
796.044226	0.855078
796.366042	0.853369
796.687812	0.857533
797.009538	0.853026
797.331218	0.855679
797.652852	0.861064
797.974442	0.866718
798.295986	0.864173
798.617484	0.868413
798.938938	0.872142
799.260346	0.878172
799.581709	0.878641
799.903026	0.881120
800.224299	0.881033
800.545526	0.885595
800.866708	0.888820
801.187845	0.894053
801.508936	0.892523
801.829983	0.891163
802.150984	0.893416
802.471940	0.899169
802.792851	0.898850
803.113717	0.899314
803.434538	0.897953
803.755314	0.899618
804.076045	0.901443
804.396731	0.901171
804.717372	0.901217
805.037967	0.902551
805.358518	0.901026
805.679024	0.897522
805.999485	0.897450
806.319901	0.897993
806.640272	0.899184
806.960598	0.897474
807.280879	0.894701
807.601115	0.892737
807.921306	0.896511
808.241453	0.896379
808.561554	0.894327
808.881611	0.894305
809.201623	0.896806
809.521590	0.897758
809.841513	0.898741
810.161390	0.897391
810.481223	0.898319
810.801011	0.901666
811.120755	0.904016
811.440453	0.902955
811.760107	0.901739
812.079716	0.901195
812.399281	0.904072
812.718801	0.906690
813.038276	0.908413
813.357707	0.907111
813.677093	0.905107
813.996434	0.907413
814.315731	0.909901
814.634983	0.910804
814.954191	0.909367
815.273354	0.906603
815.592473	0.903064
815.911547	0.901935
816.230577	0.899684
816.549562	0.897216
816.868502	0.897995
817.187399	0.894175
817.506250	0.889105
817.825058	0.891288
818.143821	0.888723
818.462539	0.882695
818.781213	0.874460
819.099843	0.863704
819.418429	0.847627
819.736970	0.831104
820.055466	0.812376
820.373919	0.786258
820.692327	0.754998
821.010691	0.719685
821.329011	0.643920
821.647286	0.529987
821.965517	0.417460
822.283704	0.374862
822.601847	0.376372
822.919945	0.412435
823.237999	0.444943
823.556010	0.491450
823.873976	0.546581
824.191897	0.596648
824.509775	0.638808
824.827609	0.682918
825.145398	0.706208
825.463144	0.708043
825.780845	0.691578
826.098502	0.672957
826.416116	0.627744
826.733685	0.583876
827.051210	0.576330
827.368692	0.590814
827.686129	0.627430
828.003522	0.680071
828.320872	0.726509
828.638177	0.769368
828.955439	0.802419
829.272656	0.823617
829.589830	0.840854
829.906960	0.856999
830.224046	0.868739
830.541088	0.879382
830.858086	0.882837
831.175041	0.889379
831.491952	0.888828
831.808819	0.885547
832.125642	0.878070
832.442421	0.863875
832.759157	0.842651
833.075849	0.796899
833.392497	0.733360
833.709101	0.693766
834.025662	0.702880
834.342179	0.734691
834.658653	0.773197
834.975083	0.808796
835.291469	0.834150
835.607811	0.855186
835.924110	0.871977
836.240366	0.889250
836.556578	0.903180
836.872746	0.910788
837.188871	0.916074
837.504952	0.921253
837.820990	0.924432
838.136984	0.928412
838.452935	0.930904
838.768842	0.932743
839.084706	0.926463
839.400526	0.900941
839.716303	0.862225
840.032037	0.838975
840.347727	0.842750
840.663373	0.859655
840.978977	0.880573
841.294537	0.903826
841.610054	0.919872
841.925527	0.927279
842.240957	0.933365
842.556344	0.940734
842.871687	0.946681
843.186987	0.951806
843.502244	0.950411
843.817458	0.952561
844.132629	0.957009
844.447756	0.961329
844.762840	0.961017
845.077881	0.960882
845.392879	0.960565
845.707833	0.963566
846.022745	0.964629
846.337613	0.965367
846.652438	0.967301
846.967221	0.964761
847.281960	0.966712
847.596656	0.968742
847.911309	0.965500
848.225919	0.968619
848.540485	0.968442
848.855009	0.969642
849.169490	0.968716
849.483928	0.968989
849.798323	0.968642
850.112675	0.970536
850.426984	0.970472
850.741251	0.969015
851.055474	0.970536
851.369654	0.967282
851.683792	0.970421
851.997887	0.970721
852.311938	0.971321
852.625947	0.969756
852.939914	0.967991
853.253837	0.969531
853.567718	0.970161
853.881555	0.971575
854.195350	0.969094
854.509103	0.970069
854.822812	0.971789
855.136479	0.970349
855.450103	0.970493
855.763685	0.968888
856.077224	0.968655
856.390720	0.971463
856.704173	0.970861
857.017584	0.969132
857.330953	0.967255
857.644278	0.967387
857.957561	0.970476
858.270802	0.968008
858.584000	0.967931
858.897155	0.967090
859.210268	0.968025
859.523339	0.968329
859.836367	0.970276
860.149352	0.971998
860.462295	0.969549
860.775195	0.969839
861.088054	0.970649
861.400869	0.970350
861.713642	0.971268
862.026373	0.970516
862.339062	0.971920
862.651708	0.968306
862.964312	0.969127
863.276873	0.969252
863.589392	0.968097
863.901869	0.967156
864.214303	0.966202
864.526696	0.964782
864.839045	0.963915
865.151353	0.962531
865.463619	0.963102
865.775842	0.963366
866.088023	0.964052
866.400162	0.963074
866.712258	0.963600
867.024313	0.963159
867.336325	0.964683
867.648296	0.964179
867.960224	0.963022
868.272110	0.962951
868.583954	0.963967
868.895755	0.965827
869.207515	0.962198
869.519233	0.960622
869.830909	0.961414
870.142542	0.963618
870.454134	0.963750
870.765684	0.962254
871.077191	0.958630
871.388657	0.960198
871.700081	0.959233
872.011463	0.959749
872.322803	0.958468
872.634101	0.957793
872.945357	0.956515
873.256571	0.954290
873.567744	0.953857
873.878874	0.955365
874.189963	0.953605
874.501010	0.952518
874.812015	0.950905
875.122979	0.951777
875.433900	0.955333
875.744780	0.955111
876.055618	0.952125
876.366415	0.951703
876.677169	0.950729
876.987882	0.952218
877.298554	0.952434
877.609183	0.949033
877.919771	0.946914
878.230317	0.942579
878.540822	0.942154
878.851285	0.936538
879.161707	0.929908
879.472087	0.917348
879.782425	0.901552
880.092722	0.868959
880.402977	0.816978
880.713191	0.757701
881.023363	0.700773
881.333494	0.666598
881.643583	0.639017
881.953631	0.638754
882.263637	0.666856
882.573602	0.706853
882.883526	0.731494
883.193408	0.754566
883.503248	0.775948
883.813048	0.802126
884.122806	0.832189
884.432522	0.854810
884.742197	0.874439
885.051831	0.884784
885.361424	0.894879
885.670975	0.905895
885.980485	0.914693
886.289954	0.920736
886.599382	0.927097
886.908768	0.930510
887.218113	0.936020
887.527417	0.940240
887.836680	0.943185
888.145901	0.945597
888.455082	0.947408
888.764221	0.952774
889.073319	0.953733
889.382376	0.954345
889.691392	0.953719
890.000366	0.954187
890.309300	0.953581
890.618193	0.954921
890.927044	0.953131
891.235855	0.953115
891.544625	0.951880
891.853353	0.952891
892.162041	0.951031
892.470687	0.944763
892.779293	0.940476
893.087858	0.935882
893.396381	0.928482
893.704864	0.915340
894.013306	0.892040
894.321707	0.865954
894.630068	0.852088
894.938387	0.848599
895.246665	0.848806
895.554903	0.860375
895.863100	0.873392
896.171256	0.890422
896.479371	0.909577
896.787446	0.921976
897.095480	0.926892
897.403473	0.930412
897.711425	0.933774
898.019336	0.942880
898.327207	0.944327
898.635038	0.946592
898.942827	0.946694
899.250576	0.950430
899.558284	0.953196
899.865952	0.955614
900.173579	0.957329
900.481165	0.957569
900.788711	0.961144
901.096216	0.962166
901.403681	0.963043
901.711105	0.965127
902.018489	0.964923
902.325832	0.963454
902.633135	0.963468
902.940397	0.956700
903.247619	0.944592
903.554800	0.920365
903.861941	0.882591
904.169041	0.848137
904.476101	0.831854
904.783121	0.832043
905.090100	0.848194
905.397039	0.868426
905.703938	0.889424
906.010796	0.908781
906.317614	0.925030
906.624391	0.937154
906.931129	0.945752
907.237826	0.953425
907.544483	0.960639
907.851099	0.963588
908.157675	0.969608
908.464211	0.970537
908.770707	0.972974
909.077163	0.975897
909.383578	0.975292
909.689954	0.976861
909.996289	0.975507
910.302584	0.979304
910.608839	0.979743
910.915054	0.978252
911.221229	0.979324
911.527363	0.977023
911.833458	0.977628
912.139513	0.978154
912.445527	0.976202
912.751502	0.974503
913.057436	0.972776
913.363331	0.971417
913.669186	0.967777
913.975000	0.962896
914.280775	0.958046
914.586510	0.949963
914.892205	0.938423
915.197859	0.916747
915.503475	0.890301
915.809050	0.871922
916.114585	0.866408
916.420081	0.865737
916.725536	0.861457
917.030952	0.868057
917.336328	0.880430
917.641665	0.896394
917.946961	0.911382
918.252218	0.922432
918.557435	0.931469
918.862612	0.939435
919.167750	0.944220
919.472848	0.948749
919.777906	0.954689
920.082925	0.959540
920.387904	0.964105
920.692843	0.965237
920.997743	0.964831
921.302603	0.968178
921.607423	0.969751
921.912204	0.972504
922.216946	0.972916
922.521647	0.974832
922.826310	0.976072
923.130932	0.977264
923.435516	0.979221
923.740059	0.979946
924.044564	0.979189
924.349028	0.981964
924.653454	0.983605
924.957840	0.985070
925.262186	0.983926
925.566493	0.984950
925.870761	0.986284
926.174989	0.985981
926.479178	0.989579
926.783328	0.988646
927.087438	0.989116
927.391509	0.988636
927.695541	0.990682
927.999533	0.990437
928.303486	0.990463
928.607400	0.991824
928.911275	0.989685
929.215110	0.990348
929.518906	0.991882
929.822663	0.990367
930.126381	0.992075
930.430060	0.991315
930.733699	0.990496
931.037299	0.990441
931.340861	0.990888
931.644383	0.990566
931.947866	0.989634
932.251309	0.990909
932.554714	0.989908
932.858080	0.990301
933.161407	0.989855
933.464694	0.991391
933.767943	0.990010
934.071153	0.990687
934.374323	0.992350
934.677455	0.991883
934.980548	0.991281
935.283602	0.991334
935.586617	0.990301
935.889593	0.990946
936.192530	0.991341
936.495428	0.991974
936.798287	0.991384
937.101108	0.991759
937.403890	0.988867
937.706632	0.988621
938.009336	0.987076
938.312002	0.986893
938.614628	0.984839
938.917216	0.983753
939.219765	0.983302
939.522275	0.983397
939.824747	0.984062
940.127179	0.984060
940.429573	0.984982
940.731929	0.984755
941.034246	0.985539
941.336524	0.986577
941.638763	0.987320
941.940964	0.986633
942.243126	0.987516
942.545250	0.987633
942.847335	0.988905
943.149381	0.988291
943.451389	0.988086
943.753359	0.989066
944.055290	0.991783
944.357182	0.989855
944.659036	0.989197
944.960851	0.990564
945.262628	0.990666
945.564367	0.991080
945.866067	0.990064
946.167729	0.989905
946.469352	0.989732
946.770937	0.990037
947.072484	0.990745
947.373992	0.991156
947.675462	0.991800
947.976893	0.989736
948.278286	0.989860
948.579641	0.991661
948.880958	0.991120
949.182236	0.991330
949.483476	0.991255
949.784678	0.990393
950.085841	0.991849
950.386967	0.991922
950.688054	0.990554
950.989103	0.990995
951.290114	0.991076
951.591087	0.990252
951.892021	0.989984
952.192917	0.989048
952.493776	0.989481
952.794596	0.988086
953.095378	0.989080
953.396122	0.987402
953.696828	0.987625
953.997496	0.990329
954.298126	0.991439
954.598718	0.991069
954.899272	0.991642
955.199788	0.990771
955.500266	0.991647
955.800706	0.993541
956.101108	0.993761
956.401472	0.992673
956.701798	0.994734
957.002087	0.992686
957.302337	0.993637
957.602550	0.994966
957.902724	0.994945
958.202861	0.995274
958.502960	0.995351
958.803022	0.993934
959.103045	0.996089
959.403031	0.997158
959.702979	0.996097
960.002889	0.995624
960.302762	0.994725
960.602596	0.995183
960.902393	0.995628
961.202153	0.996719
961.501875	0.998120
961.801559	0.996281
962.101205	0.996361
962.400814	0.995658
962.700385	0.995662
962.999918	0.996190
963.299414	0.996195
963.598873	0.995236
963.898293	0.995365
964.197677	0.995587
964.497022	0.997107
964.796331	0.996910
965.095601	0.996524
965.394835	0.996298
965.694030	0.996658
965.993189	0.998171
966.292309	0.997295
966.591393	0.998000
966.890439	0.997257
967.189447	0.996680
967.488419	0.998298
967.787353	0.996430
968.086249	0.996702
968.385108	0.996827
968.683930	0.997055
968.982714	0.997326
969.281462	0.998041
969.580172	0.996152
969.878844	0.996627
970.177480	0.997345
970.476078	0.997986
970.774639	0.997203
971.073162	0.997291
971.371649	0.996476
971.670098	0.995668
971.968510	0.998013
972.266885	0.996155
972.565223	0.997059
972.863524	0.995343
973.161788	0.996576
973.460014	0.998143
973.758204	0.996214
974.056356	0.997035
974.354471	0.994831
974.652550	0.996743
974.950591	0.995803
975.248595	0.996055
975.546563	0.996933
975.844493	0.998493
976.142386	0.996386
976.440243	0.998257
976.738062	0.996488
977.035845	0.996943
977.333590	0.997159
977.631299	0.997884
977.928971	0.997159
978.226606	0.997269
978.524204	0.995673
978.821765	0.998483
979.119290	0.996846
979.416777	0.996711
979.714228	0.996990
980.011642	0.995777
980.309020	0.997720
980.606360	0.996458
980.903664	0.998004
981.200931	0.995803
981.498162	0.994791
981.795356	0.994218
982.092513	0.993069
982.389633	0.994871
982.686717	0.990279
982.983764	0.992430
983.280775	0.990957
983.577749	0.991439
983.874686	0.991884
984.171587	0.991794
984.468451	0.993840
984.765279	0.994307
985.062070	0.994102
985.358824	0.995408
985.655543	0.995580
985.952224	0.995519
986.248869	0.996990
986.545478	0.996937
986.842050	0.998220
987.138586	0.995965
987.435086	0.998704
987.731549	0.998091
988.027975	0.997943
988.324366	0.997020
988.620719	0.996999
988.917037	0.996764
989.213318	0.998540
989.509563	0.998304
989.805772	0.998120
990.101944	0.997993
990.398080	0.996410
990.694180	0.998142
990.990244	0.996658
991.286271	0.998485
991.582262	0.997562
991.878217	0.998079
992.174136	0.997794
992.470019	0.999470
992.765865	0.997581
993.061676	0.998372
993.357450	0.997289
993.653188	0.997068
993.948890	0.997023
994.244556	0.998079
994.540186	0.997073
994.835780	0.996794
995.131337	0.996741
995.426859	0.997214
995.722345	0.997123
996.017795	0.996479
996.313208	0.996051
996.608586	0.995582
996.903928	0.997600
997.199234	0.996134
997.494504	0.996051
997.789738	0.997242
998.084936	0.996231
998.380099	0.997608
998.675225	0.997177
998.970316	0.997853
999.265371	0.998491
999.560390	0.997695
999.855373	0.997940
1000.150320	0.998150
1000.445232	0.999405
1000.740108	0.997364
1001.034948	0.998419
1001.329752	0.998707
1001.624521	0.998846
1001.919254	0.997573
1002.213951	0.998306
1002.508613	0.998350
1002.803239	0.998427
1003.097829	0.998945
1003.392384	0.998321
1003.686903	0.998415
1003.981386	0.998202
1004.275834	0.998521
1004.570246	0.997221
1004.864623	0.999731
1005.158964	1.000160
1005.453270	0.998344
1005.747540	0.998110
1006.041775	0.997842
1006.335974	0.999450
1006.630138	0.998784
1006.924266	0.999358
1007.218359	0.999131
1007.512416	0.999857
1007.806438	0.998608
1008.100425	0.998637
1008.394376	0.998606
1008.688292	0.998715
1008.982172	1.000674
1009.276017	1.000066
1009.569827	0.998118
1009.863602	0.998162
1010.157341	0.999256
1010.451045	0.997946
1010.744714	0.999345
1011.038347	0.999618
1011.331945	0.999863
1011.625508	0.996999
1011.919036	0.997925
1012.212528	0.998349
1012.505986	0.997749
1012.799408	0.998302
1013.092795	0.998229
1013.386147	0.999502
1013.679464	0.999203
1013.972745	0.999101
1014.265992	0.997664
1014.559204	0.998009
1014.852380	0.999000
1015.145521	0.999643
1015.438628	0.998335
1015.731699	0.997803
1016.024736	0.998610
1016.317737	0.998593
1016.610703	0.999426
1016.903635	0.999021
1017.196531	0.999216
1017.489393	0.999250
1017.782219	0.999873
1018.075011	0.998865
1018.367768	0.998721
1018.660490	0.999304
1018.953177	0.999304
1019.245829	0.999304
