Dividing Wavelength (nm)	Counts (n)	Blue Motor Position (mm): 0.000000	Red Motor Position (mm): 23.200000	
326.493990	1.000895
326.888308	1.000895
327.282561	1.000895
327.676750	0.999476
328.070874	0.999467
328.464933	1.000632
328.858929	0.999971
329.252859	1.000487
329.646726	1.000094
330.040528	1.000015
330.434265	1.000163
330.827938	1.000786
331.221547	1.001132
331.615091	1.000846
332.008571	1.000183
332.401986	1.000071
332.795338	1.000202
333.188625	0.998734
333.581847	1.000547
333.975006	0.999230
334.368100	1.000143
334.761129	1.000646
335.154095	1.000957
335.546996	0.999111
335.939833	0.993085
336.332606	0.994627
336.725315	0.995295
337.117960	0.994780
337.510540	0.993800
337.903056	0.996114
338.295508	0.993094
338.687896	0.994493
339.080220	0.995070
339.472480	0.994417
339.864676	0.993851
340.256807	0.995605
340.648875	0.995674
341.040879	0.995320
341.432818	0.995751
341.824694	0.994158
342.216506	0.995451
342.608253	0.994519
342.999937	0.993936
343.391557	0.995066
343.783113	0.994534
344.174605	0.994562
344.566033	0.995745
344.957397	0.994059
345.348697	0.994522
345.739934	0.995089
346.131106	0.993825
346.522215	0.995079
346.913260	0.995232
347.304241	0.994082
347.695159	0.994605
348.086012	0.993404
348.476802	0.994433
348.867528	0.995035
349.258191	0.993709
349.648789	0.995688
350.039324	0.994189
350.429796	0.995217
350.820203	0.994279
351.210548	0.995387
351.600828	0.994418
351.991045	0.993220
352.381198	0.993531
352.771288	0.995713
353.161314	0.993444
353.551276	0.995509
353.941175	0.994909
354.331010	0.994108
354.720782	0.995286
355.110490	0.994359
355.500135	0.996593
355.889717	0.993997
356.279235	0.993912
356.668689	0.992933
357.058080	0.994128
357.447408	0.995095
357.836672	0.995183
358.225873	0.994959
358.615010	0.994703
359.004084	0.996204
359.393095	0.995868
359.782043	0.994843
360.170927	0.995399
360.559748	0.995179
360.948505	0.994157
361.337199	0.994130
361.725830	0.995238
362.114398	0.994847
362.502903	0.996285
362.891344	0.995349
363.279722	0.993404
363.668037	0.995372
364.056289	0.993953
364.444478	0.995458
364.832603	0.994844
365.220665	0.995110
365.608665	0.994611
365.996601	0.994969
366.384474	0.994620
366.772284	0.995828
367.160031	0.994207
367.547715	0.993172
367.935336	0.994339
368.322893	0.994740
368.710388	0.993944
369.097820	0.994731
369.485189	0.994372
369.872495	0.994110
370.259738	0.993283
370.646918	0.995228
371.034035	0.995281
371.421090	0.994317
371.808081	0.995048
372.195010	0.995818
372.581875	0.994399
372.968678	0.994775
373.355418	0.994331
373.742096	0.995002
374.128710	0.995831
374.515262	0.994582
374.901751	0.994480
375.288177	0.995286
375.674540	0.995269
376.060841	0.994871
376.447079	0.995496
376.833254	0.995329
377.219367	0.995231
377.605417	0.995484
377.991404	0.996216
378.377329	0.994336
378.763191	0.996217
379.148991	0.997043
379.534727	0.996780
379.920402	0.996006
380.306013	0.997050
380.691563	0.995525
381.077049	0.995981
381.462474	0.996309
381.847835	0.995173
382.233134	0.995763
382.618371	0.996176
383.003545	0.995730
383.388657	0.996211
383.773706	0.996236
384.158693	0.996032
384.543618	0.995717
384.928480	0.997696
385.313280	0.997248
385.698017	0.996799
386.082692	0.996384
386.467305	0.995998
386.851856	0.996048
387.236344	0.996543
387.620770	0.995842
388.005133	0.996240
388.389435	0.996108
388.773674	0.995516
389.157851	0.996911
389.541965	0.996849
389.926018	0.995508
390.310008	0.997244
390.693936	0.995507
391.077802	0.996303
391.461606	0.996519
391.845348	0.996659
392.229027	0.997064
392.612645	0.996729
392.996200	0.997410
393.379694	0.996673
393.763125	0.997753
394.146494	0.996847
394.529801	0.996720
394.913047	0.996490
395.296230	0.996758
395.679351	0.995924
396.062410	0.995812
396.445408	0.996575
396.828343	0.996967
397.211217	0.996676
397.594028	0.997293
397.976778	0.996588
398.359466	0.996181
398.742092	0.995781
399.124656	0.996119
399.507158	0.996237
399.889598	0.997426
400.271977	0.996103
400.654294	0.996161
401.036549	0.997349
401.418742	0.997997
401.800874	0.995186
402.182944	0.996174
402.564952	0.996220
402.946898	0.997603
403.328783	0.996911
403.710606	0.996391
404.092367	0.996825
404.474067	0.996443
404.855705	0.996332
405.237282	0.996666
405.618797	0.996528
406.000250	0.996029
406.381642	0.996516
406.762972	0.995982
407.144240	0.998036
407.525447	0.996549
407.906593	0.996107
408.287677	0.997023
408.668700	0.996892
409.049661	0.995469
409.430560	0.996608
409.811399	0.995706
410.192176	0.995746
410.572891	0.996560
410.953545	0.995950
411.334138	0.994587
411.714669	0.996450
412.095139	0.996219
412.475547	0.996121
412.855894	0.996871
413.236180	0.997648
413.616405	0.996711
413.996568	0.996663
414.376670	0.996044
414.756711	0.995998
415.136691	0.995886
415.516609	0.996163
415.896466	0.996047
416.276262	0.995078
416.655997	0.996506
417.035670	0.995704
417.415283	0.995860
417.794834	0.996119
418.174324	0.996414
418.553753	0.996566
418.933121	0.995429
419.312428	0.995894
419.691674	0.995238
420.070859	0.996158
420.449983	0.995573
420.829045	0.995941
421.208047	0.995981
421.586988	0.996376
421.965867	0.994740
422.344686	0.995260
422.723444	0.995331
423.102141	0.994953
423.480777	0.994011
423.859352	0.994667
424.237866	0.993071
424.616319	0.993106
424.994712	0.992152
425.373044	0.991846
425.751314	0.990434
426.129524	0.989231
426.507673	0.988049
426.885762	0.987657
427.263789	0.985412
427.641756	0.984874
428.019662	0.983451
428.397508	0.980782
428.775292	0.979586
429.153016	0.978107
429.530679	0.976495
429.908282	0.974291
430.285824	0.971373
430.663305	0.967528
431.040726	0.967097
431.418086	0.966041
431.795385	0.961257
432.172624	0.958021
432.549802	0.954634
432.926920	0.952327
433.303977	0.948086
433.680974	0.944214
434.057910	0.939970
434.434786	0.936276
434.811601	0.931643
435.188355	0.925484
435.565050	0.922805
435.941683	0.918504
436.318257	0.911373
436.694770	0.905512
437.071222	0.900780
437.447614	0.896967
437.823946	0.891873
438.200218	0.884210
438.576429	0.880203
438.952580	0.872236
439.328670	0.864973
439.704700	0.860485
440.080670	0.854599
440.456580	0.841767
440.832429	0.836156
441.208218	0.833069
441.583947	0.822551
441.959616	0.815276
442.335224	0.809104
442.710773	0.799480
443.086261	0.789526
443.461689	0.788198
443.837057	0.775260
444.212365	0.763910
444.587612	0.758702
444.962800	0.745929
445.337927	0.738529
445.712995	0.741728
446.088002	0.716934
446.462949	0.712991
446.837837	0.705962
447.212664	0.694341
447.587431	0.679503
447.962139	0.655292
448.336786	0.624522
448.711374	0.623282
449.085901	0.638502
449.460369	0.631644
449.834776	0.624695
450.209124	0.603789
450.583412	0.589931
450.957640	0.579182
451.331808	0.576663
451.705917	0.584166
452.079965	0.579307
452.453954	0.563202
452.827883	0.561168
453.201752	0.549317
453.575562	0.551263
453.949311	0.535024
454.323001	0.533754
454.696632	0.523850
455.070202	0.511177
455.443713	0.499197
455.817164	0.489188
456.190556	0.478373
456.563888	0.470026
456.937160	0.462759
457.310373	0.470734
457.683526	0.463146
458.056619	0.462506
458.429653	0.458046
458.802628	0.456272
459.175542	0.446866
459.548398	0.426354
459.921194	0.416141
460.293930	0.413316
460.666607	0.388905
461.039224	0.375652
461.411782	0.367794
461.784280	0.362060
462.156719	0.361382
462.529099	0.361054
462.901419	0.372032
463.273680	0.372594
463.645882	0.369806
464.018024	0.371813
464.390106	0.362174
464.762130	0.345662
465.134094	0.328164
465.505999	0.298202
465.877845	0.268497
466.249631	0.253441
466.621358	0.257140
466.993026	0.267708
467.364634	0.271586
467.736184	0.278513
468.107674	0.285490
468.479105	0.283041
468.850477	0.288619
469.221790	0.294265
469.593043	0.303086
469.964238	0.306844
470.335373	0.305613
470.706449	0.302823
471.077467	0.302750
471.448425	0.264899
471.819324	0.240353
472.190164	0.239008
472.560945	0.266847
472.931667	0.288446
473.302330	0.292003
473.672934	0.303716
474.043479	0.291772
474.413965	0.293173
474.784393	0.296617
475.154761	0.291401
475.525070	0.287931
475.895321	0.293950
476.265513	0.287602
476.635645	0.282793
477.005719	0.282655
477.375734	0.279327
477.745691	0.272822
478.115588	0.268947
478.485427	0.261969
478.855207	0.249080
479.224928	0.231623
479.594591	0.219790
479.964194	0.222957
480.333739	0.224149
480.703226	0.225465
481.072653	0.223889
481.442022	0.219495
481.811333	0.215931
482.180584	0.219594
482.549777	0.224447
482.918912	0.227898
483.287988	0.227290
483.657005	0.226973
484.025964	0.233231
484.394864	0.231060
484.763706	0.231636
485.132489	0.236263
485.501213	0.236969
485.869879	0.235370
486.238487	0.238413
486.607036	0.236339
486.975527	0.240991
487.343959	0.236508
487.712333	0.235714
488.080648	0.237191
488.448905	0.236465
488.817104	0.237463
489.185244	0.232059
489.553326	0.229014
489.921350	0.219074
490.289315	0.201488
490.657222	0.196534
491.025070	0.197710
491.392861	0.199491
491.760593	0.205243
492.128267	0.210901
492.495883	0.216617
492.863440	0.222575
493.230939	0.228759
493.598380	0.230235
493.965763	0.232386
494.333088	0.234734
494.700354	0.235935
495.067563	0.234785
495.434713	0.238117
495.801805	0.235907
496.168839	0.237682
496.535815	0.238922
496.902733	0.238889
497.269593	0.240532
497.636395	0.238331
498.003139	0.238417
498.369825	0.241577
498.736453	0.237872
499.103023	0.239160
499.469535	0.238747
499.835989	0.238927
500.202385	0.239886
500.568723	0.243090
500.935003	0.238482
501.301226	0.242094
501.667390	0.236581
502.033497	0.234844
502.399546	0.237545
502.765537	0.239349
503.131470	0.238002
503.497345	0.233892
503.863163	0.242877
504.228923	0.235788
504.594625	0.234688
504.960269	0.239959
505.325856	0.235225
505.691385	0.239727
506.056856	0.236212
506.422270	0.235820
506.787625	0.238253
507.152924	0.235670
507.518164	0.235899
507.883347	0.237842
508.248472	0.239253
508.613540	0.234270
508.978550	0.236899
509.343503	0.237393
509.708398	0.235164
510.073236	0.232802
510.438016	0.232797
510.802738	0.233535
511.167403	0.232612
511.532010	0.234428
511.896561	0.229929
512.261053	0.228922
512.625488	0.231193
512.989866	0.231210
513.354186	0.231662
513.718449	0.233472
514.082655	0.229712
514.446803	0.231880
514.810894	0.229771
515.174927	0.232317
515.538904	0.231877
515.902822	0.228736
516.266684	0.231054
516.630488	0.232118
516.994235	0.230755
517.357925	0.229781
517.721558	0.227909
518.085133	0.227710
518.448651	0.227766
518.812112	0.229616
519.175516	0.229533
519.538863	0.227178
519.902152	0.228918
520.265385	0.225558
520.628560	0.227174
520.991678	0.227906
521.354739	0.226669
521.717743	0.227765
522.080690	0.228263
522.443580	0.225557
522.806413	0.226453
523.169189	0.225928
523.531908	0.224823
523.894569	0.228479
524.257174	0.228465
524.619722	0.226028
524.982213	0.227243
525.344647	0.226073
525.707025	0.226689
526.069345	0.225207
526.431608	0.226715
526.793815	0.224386
527.155964	0.228955
527.518057	0.227822
527.880093	0.228737
528.242072	0.227424
528.603995	0.229358
528.965860	0.230963
529.327669	0.229776
529.689421	0.230882
530.051117	0.231750
530.412755	0.229257
530.774337	0.231772
531.135862	0.231799
531.497331	0.231105
531.858743	0.234214
532.220098	0.230756
532.581396	0.233387
532.942638	0.234014
533.303824	0.234864
533.664953	0.234528
534.026025	0.236432
534.387040	0.234485
534.747999	0.234156
535.108902	0.233275
535.469748	0.238116
535.830537	0.235846
536.191270	0.236267
536.551947	0.235802
536.912567	0.235891
537.273131	0.237659
537.633638	0.238050
537.994089	0.238389
538.354483	0.239337
538.714821	0.236253
539.075103	0.236268
539.435328	0.237036
539.795497	0.240627
540.155609	0.237167
540.515665	0.235432
540.875665	0.241023
541.235609	0.239525
541.595496	0.239840
541.955328	0.236059
542.315102	0.238907
542.674821	0.239998
543.034483	0.239874
543.394090	0.239507
543.753640	0.241380
544.113134	0.236291
544.472571	0.239678
544.831953	0.236421
545.191278	0.240660
545.550548	0.240407
545.909761	0.236892
546.268918	0.237903
546.628019	0.235968
546.987064	0.238550
547.346053	0.240729
547.704986	0.238383
548.063863	0.238634
548.422684	0.239413
548.781449	0.240946
549.140158	0.238318
549.498811	0.241241
549.857408	0.244342
550.215949	0.239340
550.574434	0.242299
550.932864	0.240335
551.291237	0.238976
551.649555	0.240170
552.007817	0.240099
552.366022	0.240710
552.724173	0.241276
553.082267	0.241278
553.440305	0.238557
553.798288	0.242685
554.156215	0.239565
554.514086	0.240085
554.871902	0.243129
555.229661	0.242325
555.587365	0.242791
555.945014	0.245229
556.302606	0.242552
556.660143	0.244995
557.017625	0.241423
557.375050	0.243633
557.732421	0.240738
558.089735	0.242477
558.446994	0.242886
558.804197	0.241978
559.161345	0.241927
559.518437	0.245429
559.875474	0.243076
560.232455	0.242448
560.589381	0.243593
560.946251	0.243681
561.303065	0.241109
561.659825	0.242817
562.016528	0.244494
562.373177	0.246950
562.729770	0.244225
563.086307	0.246648
563.442789	0.244391
563.799216	0.247161
564.155587	0.245910
564.511904	0.247119
564.868164	0.247086
565.224370	0.247063
565.580520	0.248803
565.936615	0.248500
566.292654	0.251636
566.648638	0.248703
567.004567	0.249362
567.360441	0.250027
567.716260	0.252260
568.072023	0.249874
568.427732	0.250728
568.783385	0.253371
569.138982	0.251169
569.494525	0.250717
569.850013	0.253723
570.205445	0.252006
570.560823	0.254609
570.916145	0.256541
571.271412	0.254754
571.626625	0.256198
571.981782	0.256669
572.336884	0.257525
572.691931	0.257196
573.046923	0.258687
573.401860	0.260077
573.756743	0.261528
574.111570	0.260592
574.466342	0.260578
574.821059	0.259941
575.175722	0.262968
575.530330	0.262920
575.884882	0.263105
576.239380	0.265080
576.593823	0.265403
576.948211	0.264591
577.302544	0.268031
577.656823	0.267963
578.011047	0.267674
578.365216	0.268493
578.719330	0.270582
579.073389	0.270143
579.427394	0.271665
579.781344	0.272419
580.135239	0.273695
580.489080	0.273711
580.842866	0.276354
581.196597	0.276163
581.550273	0.274698
581.903895	0.275715
582.257463	0.274150
582.610975	0.277696
582.964434	0.276791
583.317837	0.279083
583.671186	0.279689
584.024481	0.279786
584.377721	0.282081
584.730906	0.282911
585.084037	0.282073
585.437113	0.283515
585.790135	0.283355
586.143103	0.286307
586.496016	0.287430
586.848874	0.284907
587.201679	0.285562
587.554428	0.288742
587.907124	0.287568
588.259765	0.288048
588.612352	0.288945
588.964884	0.292491
589.317362	0.292351
589.669786	0.292177
590.022155	0.290830
590.374470	0.290145
590.726731	0.291842
591.078937	0.296712
591.431090	0.293010
591.783188	0.297518
592.135232	0.297853
592.487222	0.297826
592.839157	0.295985
593.191038	0.298074
593.542866	0.299959
593.894639	0.303483
594.246358	0.301449
594.598022	0.301219
594.949633	0.305213
595.301190	0.305636
595.652692	0.304858
596.004141	0.300958
596.355535	0.308680
596.706876	0.309492
597.058162	0.312030
597.409395	0.309168
597.760573	0.306944
598.111698	0.309802
598.462768	0.310554
598.813785	0.311713
599.164748	0.313258
599.515657	0.313089
599.866511	0.316799
600.217312	0.311589
600.568060	0.317467
600.918753	0.313785
601.269392	0.314664
601.619978	0.317884
601.970510	0.315667
602.320988	0.315747
602.671412	0.313171
603.021783	0.315985
603.372100	0.317199
603.722363	0.316886
604.072572	0.317490
604.422728	0.317210
604.772830	0.319698
605.122878	0.319104
605.472872	0.319677
605.822813	0.318067
606.172701	0.320754
606.522534	0.318228
606.872314	0.317926
607.222041	0.319107
607.571714	0.317215
607.921333	0.318327
608.270899	0.318397
608.620411	0.315042
608.969870	0.318991
609.319276	0.318917
609.668627	0.319090
610.017926	0.317058
610.367171	0.316136
610.716362	0.316391
611.065500	0.316942
611.414585	0.315356
611.763616	0.316037
612.112594	0.316711
612.461518	0.316034
612.810389	0.314141
613.159207	0.316266
613.507971	0.317771
613.856682	0.313570
614.205340	0.315282
614.553945	0.311905
614.902496	0.315878
615.250994	0.313787
615.599439	0.314936
615.947830	0.314235
616.296169	0.315120
616.644454	0.314549
616.992686	0.314418
617.340864	0.312549
617.688990	0.316145
618.037063	0.312163
618.385082	0.314684
618.733048	0.311318
619.080961	0.313905
619.428821	0.313245
619.776628	0.312701
620.124382	0.314872
620.472083	0.315046
620.819731	0.314475
621.167326	0.318180
621.514868	0.317792
621.862357	0.322303
622.209793	0.322094
622.557176	0.324112
622.904506	0.325418
623.251783	0.327509
623.599007	0.329458
623.946179	0.329428
624.293297	0.331293
624.640363	0.334977
624.987376	0.335505
625.334336	0.337892
625.681243	0.340242
626.028097	0.340922
626.374899	0.342323
626.721647	0.342466
627.068343	0.345565
627.414987	0.346593
627.761577	0.348941
628.108115	0.347024
628.454600	0.351958
628.801032	0.349398
629.147412	0.351530
629.493739	0.351951
629.840014	0.355050
630.186236	0.352391
630.532405	0.358054
630.878521	0.355486
631.224585	0.357797
631.570597	0.361110
631.916556	0.359462
632.262462	0.359651
632.608316	0.361352
632.954117	0.362650
633.299866	0.363375
633.645562	0.364024
633.991206	0.368116
634.336797	0.371561
634.682336	0.373280
635.027823	0.375559
635.373257	0.376012
635.718639	0.379047
636.063968	0.378446
636.409245	0.384721
636.754470	0.384793
637.099642	0.386984
637.444762	0.390616
637.789829	0.389504
638.134845	0.392746
638.479808	0.393786
638.824719	0.393549
639.169577	0.397533
639.514383	0.396454
639.859137	0.400725
640.203839	0.400177
640.548489	0.401309
640.893086	0.402520
641.237632	0.404274
641.582125	0.402491
641.926566	0.404153
642.270955	0.405065
642.615292	0.404637
642.959576	0.403977
643.303809	0.404490
643.647990	0.403346
643.992118	0.404319
644.336195	0.407897
644.680219	0.405992
645.024192	0.407002
645.368112	0.400755
645.711981	0.398962
646.055797	0.394762
646.399562	0.396939
646.743274	0.389023
647.086935	0.386831
647.430544	0.386879
647.774101	0.385724
648.117606	0.385508
648.461059	0.385971
648.804460	0.388042
649.147810	0.393761
649.491108	0.395530
649.834354	0.396659
650.177548	0.401863
650.520690	0.407240
650.863781	0.409050
651.206820	0.408070
651.549807	0.412480
651.892742	0.416716
652.235626	0.415654
652.578458	0.417093
652.921238	0.423150
653.263967	0.420512
653.606644	0.425259
653.949269	0.424663
654.291843	0.428547
654.634365	0.425061
654.976836	0.428314
655.319255	0.428900
655.661622	0.430074
656.003938	0.430341
656.346203	0.433306
656.688416	0.430636
657.030577	0.434215
657.372687	0.436735
657.714746	0.436954
658.056753	0.434329
658.398708	0.438114
658.740612	0.438794
659.082465	0.435431
659.424266	0.435741
659.766016	0.434879
660.107715	0.437919
660.449362	0.436578
660.790958	0.437348
661.132503	0.438195
661.473996	0.435979
661.815438	0.436139
662.156829	0.436935
662.498168	0.437711
662.839456	0.439015
663.180693	0.436750
663.521879	0.436490
663.863013	0.437747
664.204097	0.436468
664.545129	0.432897
664.886110	0.433410
665.227040	0.430564
665.567918	0.433116
665.908746	0.431100
666.249522	0.430718
666.590248	0.431994
666.930922	0.430045
667.271545	0.428924
667.612118	0.429176
667.952639	0.430445
668.293109	0.429323
668.633528	0.432536
668.973896	0.431973
669.314213	0.432707
669.654480	0.433921
669.994695	0.434348
670.334859	0.435736
670.674973	0.435511
671.015035	0.435481
671.355047	0.435558
671.695008	0.436811
672.034918	0.438195
672.374777	0.437769
672.714585	0.438976
673.054342	0.438934
673.394049	0.438537
673.733705	0.436489
674.073310	0.438142
674.412864	0.441029
674.752368	0.441087
675.091820	0.441566
675.431223	0.445793
675.770574	0.445582
676.109875	0.448969
676.449125	0.449070
676.788324	0.451245
677.127473	0.456550
677.466571	0.456232
677.805619	0.457762
678.144616	0.458807
678.483562	0.460353
678.822458	0.463573
679.161303	0.464578
679.500098	0.464604
679.838842	0.466329
680.177535	0.465891
680.516179	0.464110
680.854771	0.463096
681.193314	0.457227
681.531805	0.448154
681.870247	0.436947
682.208638	0.428970
682.546978	0.428021
682.885268	0.429165
683.223508	0.436030
683.561697	0.439866
683.899836	0.442048
684.237925	0.445739
684.575963	0.448521
684.913951	0.451382
685.251889	0.447490
685.589776	0.449517
685.927614	0.451473
686.265401	0.446050
686.603137	0.447313
686.940824	0.441394
687.278460	0.439776
687.616046	0.438631
687.953582	0.433622
688.291068	0.435466
688.628504	0.431129
688.965889	0.433465
689.303224	0.437178
689.640510	0.441198
689.977745	0.446942
690.314930	0.454726
690.652065	0.459685
690.989150	0.466268
691.326185	0.473161
691.663170	0.477905
692.000105	0.484712
692.336990	0.492256
692.673825	0.494909
693.010610	0.501867
693.347345	0.506904
693.684030	0.508568
694.020665	0.513283
694.357251	0.521605
694.693786	0.521130
695.030272	0.525654
695.366707	0.529145
695.703093	0.532601
696.039429	0.530314
696.375716	0.532386
696.711952	0.534410
697.048139	0.537087
697.384276	0.539001
697.720363	0.536484
698.056400	0.535814
698.392388	0.541844
698.728326	0.545173
699.064214	0.546800
699.400053	0.547880
699.735842	0.552008
700.071581	0.554689
700.407270	0.557078
700.742910	0.560542
701.078501	0.566702
701.414042	0.566535
701.749533	0.569832
702.084974	0.578759
702.420366	0.570744
702.755709	0.578493
703.091002	0.585942
703.426246	0.579977
703.761440	0.586116
704.096584	0.590769
704.431679	0.587648
704.766725	0.589919
705.101721	0.590905
705.436668	0.587279
705.771565	0.593882
706.106413	0.591139
706.441212	0.586577
706.775961	0.584564
707.110661	0.587341
707.445311	0.583969
707.779913	0.581693
708.114465	0.579957
708.448967	0.576948
708.783421	0.568351
709.117825	0.563324
709.452180	0.563691
709.786485	0.557366
710.120742	0.547229
710.454949	0.549074
710.789107	0.540753
711.123216	0.532125
711.457275	0.534191
711.791286	0.524990
712.125247	0.523755
712.459159	0.534681
712.793023	0.527077
713.126837	0.531188
713.460602	0.531394
713.794318	0.541323
714.127985	0.539763
714.461602	0.549681
714.795171	0.553250
715.128691	0.561024
715.462162	0.568114
715.795584	0.574017
716.128957	0.576824
716.462281	0.583263
716.795556	0.587084
717.128782	0.591726
717.461960	0.601441
717.795088	0.600090
718.128167	0.605861
718.461198	0.614813
718.794180	0.615300
719.127113	0.618264
719.459997	0.621948
719.792833	0.628016
720.125619	0.629310
720.458357	0.634901
720.791046	0.635098
721.123686	0.638057
721.456278	0.645697
721.788821	0.642486
722.121315	0.646470
722.453761	0.650973
722.786158	0.648298
723.118506	0.644857
723.450805	0.653099
723.783056	0.648928
724.115259	0.646332
724.447412	0.645875
724.779518	0.647136
725.111574	0.645852
725.443582	0.641435
725.775542	0.643579
726.107453	0.636064
726.439315	0.635847
726.771129	0.633941
727.102895	0.627806
727.434612	0.620635
727.766281	0.618050
728.097901	0.617487
728.429473	0.617531
728.760996	0.615624
729.092471	0.616176
729.423897	0.619331
729.755276	0.618680
730.086606	0.619248
730.417887	0.613767
730.749120	0.604323
731.080305	0.596041
731.411442	0.590941
731.742530	0.596837
732.073570	0.595079
732.404562	0.587262
732.735506	0.588860
733.066401	0.593737
733.397249	0.602922
733.728048	0.614493
734.058798	0.626896
734.389501	0.636512
734.720156	0.646853
735.050762	0.655199
735.381320	0.655546
735.711831	0.665759
736.042293	0.670576
736.372707	0.665989
736.703073	0.670837
737.033391	0.673249
737.363661	0.669328
737.693883	0.665149
738.024056	0.663208
738.354182	0.664754
738.684260	0.653175
739.014290	0.649575
739.344272	0.650777
739.674207	0.643947
740.004093	0.643132
740.333931	0.643488
740.663722	0.643834
740.993464	0.644432
741.323159	0.648593
741.652806	0.653415
741.982405	0.657558
742.311956	0.662619
742.641460	0.663894
742.970915	0.667139
743.300323	0.676099
743.629683	0.682452
743.958996	0.684467
744.288260	0.688317
744.617477	0.695368
744.946647	0.695992
745.275768	0.701655
745.604842	0.700769
745.933869	0.710488
746.262847	0.710885
746.591778	0.706144
746.920662	0.711487
747.249498	0.717386
747.578286	0.708625
747.907027	0.705060
748.235720	0.706128
748.564365	0.700337
748.892963	0.700366
749.221514	0.703126
749.550017	0.709158
749.878473	0.708225
750.206881	0.714899
750.535242	0.716075
750.863555	0.715372
751.191821	0.717559
751.520039	0.720279
751.848210	0.724968
752.176334	0.717404
752.504411	0.717445
752.832440	0.724451
753.160421	0.728587
753.488356	0.726802
753.816243	0.724310
754.144082	0.732150
754.471875	0.736245
754.799620	0.732345
755.127318	0.733375
755.454969	0.733093
755.782572	0.732108
756.110129	0.737169
756.437638	0.740071
756.765100	0.736577
757.092515	0.734973
757.419882	0.733612
757.747203	0.739401
758.074477	0.738334
758.401703	0.735130
758.728882	0.730127
759.056014	0.729014
759.383099	0.727886
759.710138	0.729060
760.037129	0.725872
760.364073	0.719399
760.690970	0.722389
761.017820	0.727608
761.344623	0.723716
761.671379	0.714327
761.998088	0.702742
762.324751	0.680537
762.651366	0.638094
762.977935	0.572117
763.304456	0.519745
763.630931	0.510372
763.957359	0.549676
764.283740	0.593984
764.610074	0.620400
764.936362	0.651297
765.262602	0.678900
765.588796	0.699582
765.914943	0.717608
766.241044	0.735751
766.567097	0.742604
766.893104	0.752087
767.219064	0.757422
767.544978	0.764354
767.870845	0.776534
768.196665	0.782461
768.522438	0.780411
768.848165	0.780986
769.173846	0.790223
769.499479	0.795248
769.825066	0.797603
770.150607	0.803452
770.476101	0.798239
770.801548	0.798867
771.126949	0.810503
771.452303	0.814804
771.777611	0.813439
772.102872	0.812840
772.428087	0.818245
772.753256	0.821604
773.078378	0.823163
773.403453	0.832703
773.728482	0.836997
774.053465	0.830658
774.378401	0.833798
774.703291	0.841177
775.028135	0.842442
775.352932	0.843154
775.677683	0.846593
776.002388	0.846406
776.327046	0.845873
776.651658	0.849265
776.976224	0.853118
777.300743	0.852885
777.625216	0.854598
777.949643	0.857368
778.274024	0.856298
778.598359	0.859232
778.922647	0.856889
779.246889	0.857847
779.571086	0.862143
779.895236	0.863853
780.219339	0.860740
780.543397	0.858129
780.867409	0.857292
781.191374	0.859314
781.515294	0.860500
781.839167	0.859232
782.162995	0.861526
782.486776	0.859326
782.810511	0.859616
783.134201	0.864611
783.457844	0.861898
783.781441	0.864933
784.104993	0.870097
784.428498	0.871448
784.751958	0.866671
785.075372	0.869146
785.398739	0.873165
785.722061	0.868731
786.045337	0.863947
786.368568	0.869472
786.691752	0.871572
787.014891	0.857745
787.337983	0.847871
787.661030	0.842543
787.984031	0.823932
788.306987	0.811316
788.629897	0.812831
788.952760	0.817167
789.275579	0.822103
789.598351	0.836764
789.921078	0.849547
790.243759	0.852595
790.566395	0.856864
790.888984	0.864626
791.211529	0.869210
791.534027	0.872359
791.856480	0.874247
792.178888	0.879106
792.501249	0.881512
792.823566	0.883198
793.145836	0.882469
793.468062	0.885574
793.790241	0.885003
794.112375	0.883598
794.434464	0.879199
794.756507	0.878004
795.078505	0.877289
795.400457	0.871746
795.722364	0.860497
796.044226	0.853505
796.366042	0.852360
796.687812	0.855480
797.009538	0.852383
797.331218	0.854426
797.652852	0.860680
797.974442	0.864976
798.295986	0.863887
798.617484	0.867024
798.938938	0.870935
799.260346	0.876570
799.581709	0.877939
799.903026	0.880297
800.224299	0.880546
800.545526	0.885266
800.866708	0.889199
801.187845	0.891964
801.508936	0.892061
801.829983	0.890169
802.150984	0.892531
802.471940	0.898695
802.792851	0.897468
803.113717	0.898617
803.434538	0.895709
803.755314	0.898903
804.076045	0.899028
804.396731	0.900427
804.717372	0.900102
805.037967	0.901831
805.358518	0.900752
805.679024	0.897130
805.999485	0.896148
806.319901	0.898134
806.640272	0.898386
806.960598	0.896578
807.280879	0.892963
807.601115	0.892171
807.921306	0.895994
808.241453	0.896490
808.561554	0.893698
808.881611	0.894249
809.201623	0.896761
809.521590	0.895446
809.841513	0.897621
810.161390	0.896421
810.481223	0.898477
810.801011	0.900599
811.120755	0.903426
811.440453	0.902248
811.760107	0.901626
812.079716	0.900655
812.399281	0.903482
812.718801	0.907036
813.038276	0.907466
813.357707	0.907234
813.677093	0.904602
813.996434	0.907612
814.315731	0.908784
814.634983	0.909772
814.954191	0.908437
815.273354	0.904668
815.592473	0.901114
815.911547	0.901673
816.230577	0.898613
816.549562	0.896176
816.868502	0.897313
817.187399	0.894548
817.506250	0.888995
817.825058	0.890224
818.143821	0.886926
818.462539	0.880935
818.781213	0.873591
819.099843	0.862670
819.418429	0.847659
819.736970	0.829248
820.055466	0.810969
820.373919	0.785384
820.692327	0.752463
821.010691	0.718212
821.329011	0.640466
821.647286	0.526297
821.965517	0.412209
822.283704	0.369827
822.601847	0.371388
822.919945	0.406686
823.237999	0.440195
823.556010	0.486957
823.873976	0.542688
824.191897	0.593426
824.509775	0.635020
824.827609	0.679773
825.145398	0.702770
825.463144	0.705800
825.780845	0.689182
826.098502	0.669815
826.416116	0.624927
826.733685	0.580972
827.051210	0.572154
827.368692	0.587247
827.686129	0.624426
828.003522	0.677289
828.320872	0.724445
828.638177	0.767461
828.955439	0.800638
829.272656	0.821986
829.589830	0.839727
829.906960	0.855162
830.224046	0.867067
830.541088	0.877927
830.858086	0.881995
831.175041	0.888523
831.491952	0.886207
831.808819	0.884363
832.125642	0.876165
832.442421	0.863109
832.759157	0.840382
833.075849	0.794569
833.392497	0.730967
833.709101	0.690600
834.025662	0.700218
834.342179	0.731927
834.658653	0.770506
834.975083	0.806814
835.291469	0.832614
835.607811	0.855324
835.924110	0.871569
836.240366	0.887683
836.556578	0.902326
836.872746	0.907865
837.188871	0.915406
837.504952	0.919895
837.820990	0.924100
838.136984	0.926804
838.452935	0.930950
838.768842	0.932548
839.084706	0.925838
839.400526	0.900199
839.716303	0.859844
840.032037	0.837360
840.347727	0.840767
840.663373	0.858545
840.978977	0.879943
841.294537	0.903266
841.610054	0.919638
841.925527	0.925938
842.240957	0.933339
842.556344	0.941019
842.871687	0.947116
843.186987	0.949019
843.502244	0.949372
843.817458	0.952231
844.132629	0.955248
844.447756	0.961566
844.762840	0.960779
845.077881	0.960393
845.392879	0.959856
845.707833	0.962496
846.022745	0.964568
846.337613	0.965271
846.652438	0.966358
846.967221	0.965015
847.281960	0.965701
847.596656	0.967530
847.911309	0.966377
848.225919	0.968710
848.540485	0.968432
848.855009	0.968962
849.169490	0.969535
849.483928	0.969876
849.798323	0.970009
850.112675	0.970823
850.426984	0.970065
850.741251	0.970434
851.055474	0.971049
851.369654	0.967470
851.683792	0.968775
851.997887	0.970724
852.311938	0.970218
852.625947	0.969374
852.939914	0.969178
853.253837	0.969526
853.567718	0.970557
853.881555	0.971222
854.195350	0.968094
854.509103	0.969742
854.822812	0.969832
855.136479	0.970216
855.450103	0.969538
855.763685	0.968928
856.077224	0.969983
856.390720	0.970588
856.704173	0.970498
857.017584	0.969473
857.330953	0.967602
857.644278	0.967982
857.957561	0.969189
858.270802	0.969173
858.584000	0.968889
858.897155	0.967549
859.210268	0.967160
859.523339	0.968789
859.836367	0.970310
860.149352	0.971436
860.462295	0.968299
860.775195	0.970018
861.088054	0.969185
861.400869	0.970355
861.713642	0.970613
862.026373	0.970758
862.339062	0.971524
862.651708	0.968282
862.964312	0.968408
863.276873	0.969418
863.589392	0.969914
863.901869	0.966609
864.214303	0.965290
864.526696	0.964373
864.839045	0.964478
865.151353	0.960808
865.463619	0.963335
865.775842	0.964040
866.088023	0.962103
866.400162	0.962579
866.712258	0.963666
867.024313	0.962845
867.336325	0.963595
867.648296	0.963617
867.960224	0.963280
868.272110	0.961372
868.583954	0.963906
868.895755	0.963449
869.207515	0.962096
869.519233	0.959618
869.830909	0.959779
870.142542	0.962884
870.454134	0.962431
870.765684	0.960886
871.077191	0.958329
871.388657	0.959743
871.700081	0.957863
872.011463	0.959150
872.322803	0.958639
872.634101	0.956498
872.945357	0.955509
873.256571	0.953627
873.567744	0.953264
873.878874	0.953510
874.189963	0.952473
874.501010	0.951414
874.812015	0.949053
875.122979	0.951092
875.433900	0.953574
875.744780	0.953906
876.055618	0.951177
876.366415	0.950792
876.677169	0.950364
876.987882	0.952105
877.298554	0.950770
877.609183	0.948222
877.919771	0.946146
878.230317	0.943831
878.540822	0.941531
878.851285	0.936713
879.161707	0.928207
879.472087	0.915932
879.782425	0.899178
880.092722	0.865149
880.402977	0.814523
880.713191	0.754579
881.023363	0.695515
881.333494	0.661966
881.643583	0.633768
881.953631	0.634164
882.263637	0.662967
882.573602	0.701494
882.883526	0.727503
883.193408	0.750418
883.503248	0.773428
883.813048	0.800167
884.122806	0.829094
884.432522	0.852227
884.742197	0.871953
885.051831	0.881821
885.361424	0.892761
885.670975	0.904458
885.980485	0.913804
886.289954	0.920436
886.599382	0.925668
886.908768	0.928703
887.218113	0.934974
887.527417	0.939097
887.836680	0.943108
888.145901	0.944209
888.455082	0.946442
888.764221	0.951740
889.073319	0.953266
889.382376	0.954279
889.691392	0.953840
890.000366	0.953602
890.309300	0.953670
890.618193	0.953754
890.927044	0.951709
891.235855	0.952555
891.544625	0.952783
891.853353	0.953143
892.162041	0.950305
892.470687	0.943037
892.779293	0.938633
893.087858	0.935090
893.396381	0.927173
893.704864	0.913957
894.013306	0.890788
894.321707	0.864782
894.630068	0.849794
894.938387	0.845382
895.246665	0.846947
895.554903	0.857547
895.863100	0.871843
896.171256	0.887787
896.479371	0.907879
896.787446	0.920528
897.095480	0.926228
897.403473	0.929076
897.711425	0.932923
898.019336	0.940978
898.327207	0.943883
898.635038	0.946183
898.942827	0.946251
899.250576	0.949067
899.558284	0.953075
899.865952	0.954798
900.173579	0.956314
900.481165	0.956930
900.788711	0.960515
901.096216	0.961712
901.403681	0.963026
901.711105	0.963056
902.018489	0.964349
902.325832	0.962514
902.633135	0.962764
902.940397	0.955959
903.247619	0.944159
903.554800	0.919697
903.861941	0.880296
904.169041	0.844324
904.476101	0.827927
904.783121	0.828663
905.090100	0.844540
905.397039	0.866180
905.703938	0.887198
906.010796	0.907039
906.317614	0.923550
906.624391	0.936743
906.931129	0.945228
907.237826	0.952628
907.544483	0.959405
907.851099	0.963033
908.157675	0.967813
908.464211	0.971280
908.770707	0.973411
909.077163	0.974279
909.383578	0.975215
909.689954	0.975045
909.996289	0.975213
910.302584	0.978184
910.608839	0.979893
910.915054	0.978387
911.221229	0.978045
911.527363	0.978302
911.833458	0.977419
912.139513	0.977912
912.445527	0.975120
912.751502	0.973915
913.057436	0.972922
913.363331	0.971277
913.669186	0.966357
913.975000	0.961898
914.280775	0.956710
914.586510	0.949500
914.892205	0.935752
915.197859	0.916030
915.503475	0.888142
915.809050	0.869436
916.114585	0.863073
916.420081	0.862254
916.725536	0.857847
917.030952	0.865801
917.336328	0.878613
917.641665	0.892873
917.946961	0.909430
918.252218	0.920004
918.557435	0.928104
918.862612	0.937755
919.167750	0.943632
919.472848	0.948396
919.777906	0.952897
920.082925	0.958535
920.387904	0.962588
920.692843	0.963187
920.997743	0.964172
921.302603	0.968474
921.607423	0.970287
921.912204	0.972108
922.216946	0.972301
922.521647	0.973760
922.826310	0.976069
923.130932	0.977000
923.435516	0.978045
923.740059	0.979485
924.044564	0.978784
924.349028	0.980288
924.653454	0.981939
924.957840	0.984455
925.262186	0.983842
925.566493	0.984471
925.870761	0.985759
926.174989	0.987027
926.479178	0.988240
926.783328	0.988363
927.087438	0.988718
927.391509	0.989140
927.695541	0.990768
927.999533	0.989567
928.303486	0.988970
928.607400	0.991515
928.911275	0.990871
929.215110	0.989975
929.518906	0.990830
929.822663	0.990227
930.126381	0.991925
930.430060	0.990199
930.733699	0.991152
931.037299	0.989716
931.340861	0.990563
931.644383	0.990426
931.947866	0.990078
932.251309	0.990958
932.554714	0.991043
932.858080	0.990147
933.161407	0.991152
933.464694	0.991576
933.767943	0.989566
934.071153	0.991813
934.374323	0.992526
934.677455	0.992616
934.980548	0.993199
935.283602	0.990744
935.586617	0.991349
935.889593	0.990538
936.192530	0.991055
936.495428	0.991149
936.798287	0.990315
937.101108	0.991870
937.403890	0.990229
937.706632	0.988362
938.009336	0.987109
938.312002	0.987054
938.614628	0.985079
938.917216	0.984507
939.219765	0.981880
939.522275	0.983332
939.824747	0.983106
940.127179	0.982703
940.429573	0.984999
940.731929	0.984432
941.034246	0.986036
941.336524	0.985512
941.638763	0.986695
941.940964	0.986740
942.243126	0.986357
942.545250	0.987279
942.847335	0.988871
943.149381	0.989335
943.451389	0.988177
943.753359	0.988083
944.055290	0.991137
944.357182	0.989268
944.659036	0.989130
944.960851	0.989559
945.262628	0.991131
945.564367	0.990621
945.866067	0.990514
946.167729	0.991829
946.469352	0.990296
946.770937	0.989653
947.072484	0.991511
947.373992	0.990588
947.675462	0.991777
947.976893	0.990418
948.278286	0.990149
948.579641	0.992059
948.880958	0.991328
949.182236	0.991190
949.483476	0.991253
949.784678	0.990394
950.085841	0.991940
950.386967	0.991632
950.688054	0.991191
950.989103	0.991974
951.290114	0.990518
951.591087	0.989525
951.892021	0.990012
952.192917	0.989653
952.493776	0.987935
952.794596	0.988390
953.095378	0.987598
953.396122	0.988444
953.696828	0.986965
953.997496	0.989467
954.298126	0.990645
954.598718	0.991363
954.899272	0.991583
955.199788	0.991181
955.500266	0.992281
955.800706	0.992453
956.101108	0.993284
956.401472	0.992921
956.701798	0.994560
957.002087	0.993240
957.302337	0.993602
957.602550	0.994328
957.902724	0.995009
958.202861	0.995082
958.502960	0.995267
958.803022	0.993553
959.103045	0.995718
959.403031	0.996823
959.702979	0.994469
960.002889	0.996581
960.302762	0.994639
960.602596	0.996421
960.902393	0.994641
961.202153	0.997638
961.501875	0.996185
961.801559	0.996395
962.101205	0.995127
962.400814	0.996833
962.700385	0.996386
962.999918	0.995996
963.299414	0.997291
963.598873	0.995888
963.898293	0.997330
964.197677	0.996037
964.497022	0.996421
964.796331	0.996630
965.095601	0.996809
965.394835	0.996670
965.694030	0.996997
965.993189	0.996854
966.292309	0.996745
966.591393	0.997649
966.890439	0.998677
967.189447	0.997444
967.488419	0.998155
967.787353	0.995712
968.086249	0.996096
968.385108	0.996401
968.683930	0.997280
968.982714	0.996915
969.281462	0.996431
969.580172	0.997591
969.878844	0.996785
970.177480	0.997240
970.476078	0.997217
970.774639	0.995655
971.073162	0.997373
971.371649	0.996816
971.670098	0.997744
971.968510	0.996574
972.266885	0.996036
972.565223	0.996853
972.863524	0.995147
973.161788	0.997796
973.460014	0.998020
973.758204	0.995866
974.056356	0.996198
974.354471	0.994672
974.652550	0.996654
974.950591	0.996810
975.248595	0.995712
975.546563	0.997769
975.844493	0.997555
976.142386	0.997591
976.440243	0.997754
976.738062	0.997129
977.035845	0.998031
977.333590	0.997222
977.631299	0.997301
977.928971	0.997528
978.226606	0.996420
978.524204	0.995747
978.821765	0.999029
979.119290	0.995929
979.416777	0.996234
979.714228	0.996910
980.011642	0.996549
980.309020	0.996833
980.606360	0.997592
980.903664	0.998170
981.200931	0.996989
981.498162	0.994847
981.795356	0.994583
982.092513	0.994059
982.389633	0.994326
982.686717	0.991781
982.983764	0.991901
983.280775	0.991595
983.577749	0.990389
983.874686	0.992645
984.171587	0.992538
984.468451	0.993600
984.765279	0.994876
985.062070	0.995266
985.358824	0.996122
985.655543	0.994906
985.952224	0.995762
986.248869	0.996797
986.545478	0.996451
986.842050	0.998457
987.138586	0.995732
987.435086	0.997597
987.731549	0.998414
988.027975	0.997546
988.324366	0.997932
988.620719	0.997249
988.917037	0.996163
989.213318	0.998980
989.509563	0.998535
989.805772	0.998566
990.101944	0.999612
990.398080	0.997512
990.694180	0.997122
990.990244	0.997435
991.286271	0.998400
991.582262	0.997581
991.878217	0.998516
992.174136	0.998824
992.470019	0.999343
992.765865	0.998220
993.061676	0.998422
993.357450	0.996971
993.653188	0.996459
993.948890	0.997753
994.244556	0.998416
994.540186	0.997273
994.835780	0.996590
995.131337	0.998468
995.426859	0.998051
995.722345	0.997806
996.017795	0.997513
996.313208	0.995662
996.608586	0.995728
996.903928	0.996821
997.199234	0.996560
997.494504	0.996493
997.789738	0.997005
998.084936	0.996958
998.380099	0.998587
998.675225	0.998287
998.970316	0.997750
999.265371	0.998559
999.560390	0.997031
999.855373	0.998135
1000.150320	0.998425
1000.445232	0.998518
1000.740108	0.997626
1001.034948	0.998735
1001.329752	0.998927
1001.624521	0.999110
1001.919254	0.997989
1002.213951	0.998162
1002.508613	0.998079
1002.803239	0.999276
1003.097829	0.999589
1003.392384	0.999289
1003.686903	0.997304
1003.981386	0.998339
1004.275834	0.998941
1004.570246	0.997033
1004.864623	0.999613
1005.158964	0.998983
1005.453270	0.999172
1005.747540	0.997404
1006.041775	0.999260
1006.335974	0.999940
1006.630138	0.999235
1006.924266	0.999370
1007.218359	1.001180
1007.512416	0.999073
1007.806438	0.999791
1008.100425	0.999955
1008.394376	0.999673
1008.688292	0.998902
1008.982172	1.000926
1009.276017	0.999870
1009.569827	0.998005
1009.863602	0.998501
1010.157341	0.999364
1010.451045	0.999604
1010.744714	0.999094
1011.038347	1.000519
1011.331945	0.997957
1011.625508	0.996819
1011.919036	1.000267
1012.212528	0.999255
1012.505986	0.998822
1012.799408	0.999556
1013.092795	1.000238
1013.386147	0.998729
1013.679464	0.998736
1013.972745	0.997610
1014.265992	0.998077
1014.559204	0.997860
1014.852380	0.999521
1015.145521	0.998872
1015.438628	0.998909
1015.731699	0.999569
1016.024736	0.998405
1016.317737	0.999221
1016.610703	0.998738
1016.903635	0.998623
1017.196531	0.998601
1017.489393	0.999528
1017.782219	0.998826
1018.075011	0.999225
1018.367768	0.998854
1018.660490	0.999796
1018.953177	0.999796
1019.245829	0.999796
