Dividing Wavelength (nm)	Counts (n)	Blue Motor Position (mm): 0.000000	Red Motor Position (mm): 13.500000	
326.493990	1.000558
326.888308	1.000558
327.282561	1.000558
327.676750	1.000144
328.070874	0.999103
328.464933	0.999441
328.858929	0.999204
329.252859	1.000438
329.646726	0.999860
330.040528	0.999822
330.434265	0.999834
330.827938	1.000779
331.221547	1.001122
331.615091	1.000091
332.008571	1.000427
332.401986	0.998930
332.795338	0.999795
333.188625	0.998678
333.581847	0.999225
333.975006	0.999553
334.368100	0.999747
334.761129	1.000273
335.154095	1.000375
335.546996	0.999146
335.939833	0.993225
336.332606	0.992781
336.725315	0.994178
337.117960	0.993620
337.510540	0.993039
337.903056	0.994074
338.295508	0.993477
338.687896	0.993461
339.080220	0.994565
339.472480	0.994266
339.864676	0.994015
340.256807	0.994184
340.648875	0.994412
341.040879	0.994259
341.432818	0.994768
341.824694	0.993105
342.216506	0.994508
342.608253	0.993806
342.999937	0.993205
343.391557	0.993699
343.783113	0.994163
344.174605	0.994118
344.566033	0.994113
344.957397	0.994542
345.348697	0.993707
345.739934	0.993512
346.131106	0.992919
346.522215	0.992843
346.913260	0.992948
347.304241	0.994301
347.695159	0.992951
348.086012	0.992059
348.476802	0.993203
348.867528	0.995013
349.258191	0.992149
349.648789	0.993719
350.039324	0.992943
350.429796	0.995136
350.820203	0.994455
351.210548	0.993649
351.600828	0.993350
351.991045	0.994050
352.381198	0.994404
352.771288	0.993892
353.161314	0.992742
353.551276	0.994540
353.941175	0.994281
354.331010	0.993756
354.720782	0.993423
355.110490	0.993311
355.500135	0.994124
355.889717	0.992977
356.279235	0.993357
356.668689	0.992431
357.058080	0.993606
357.447408	0.994487
357.836672	0.994543
358.225873	0.993916
358.615010	0.993847
359.004084	0.994747
359.393095	0.994622
359.782043	0.993966
360.170927	0.994671
360.559748	0.993781
360.948505	0.992743
361.337199	0.992345
361.725830	0.993996
362.114398	0.994378
362.502903	0.995544
362.891344	0.995015
363.279722	0.993945
363.668037	0.993661
364.056289	0.993509
364.444478	0.994417
364.832603	0.993752
365.220665	0.993181
365.608665	0.993273
365.996601	0.992830
366.384474	0.992775
366.772284	0.994075
367.160031	0.992065
367.547715	0.991704
367.935336	0.993814
368.322893	0.993340
368.710388	0.991781
369.097820	0.993456
369.485189	0.992917
369.872495	0.991959
370.259738	0.990671
370.646918	0.994954
371.034035	0.993434
371.421090	0.993504
371.808081	0.991828
372.195010	0.992134
372.581875	0.993271
372.968678	0.993342
373.355418	0.993340
373.742096	0.992900
374.128710	0.994514
374.515262	0.992102
374.901751	0.993694
375.288177	0.993541
375.674540	0.993415
376.060841	0.993336
376.447079	0.992165
376.833254	0.992626
377.219367	0.992498
377.605417	0.992567
377.991404	0.993520
378.377329	0.992445
378.763191	0.991737
379.148991	0.993455
379.534727	0.993446
379.920402	0.992792
380.306013	0.992682
380.691563	0.993721
381.077049	0.991956
381.462474	0.992036
381.847835	0.992483
382.233134	0.992990
382.618371	0.993077
383.003545	0.992304
383.388657	0.992880
383.773706	0.993577
384.158693	0.993847
384.543618	0.992815
384.928480	0.993098
385.313280	0.992790
385.698017	0.994026
386.082692	0.993637
386.467305	0.993181
386.851856	0.992311
387.236344	0.991909
387.620770	0.991659
388.005133	0.992197
388.389435	0.993072
388.773674	0.990655
389.157851	0.990437
389.541965	0.989089
389.926018	0.987719
390.310008	0.987348
390.693936	0.984239
391.077802	0.982640
391.461606	0.979024
391.845348	0.977173
392.229027	0.975066
392.612645	0.970684
392.996200	0.967004
393.379694	0.961100
393.763125	0.957005
394.146494	0.953055
394.529801	0.946334
394.913047	0.940015
395.296230	0.935803
395.679351	0.928938
396.062410	0.922065
396.445408	0.916958
396.828343	0.909555
397.211217	0.900635
397.594028	0.897532
397.976778	0.887067
398.359466	0.879475
398.742092	0.869545
399.124656	0.865157
399.507158	0.854119
399.889598	0.845998
400.271977	0.834276
400.654294	0.828646
401.036549	0.818479
401.418742	0.812119
401.800874	0.795916
402.182944	0.786757
402.564952	0.772685
402.946898	0.766497
403.328783	0.757354
403.710606	0.754229
404.092367	0.731534
404.474067	0.726582
404.855705	0.717428
405.237282	0.716578
405.618797	0.698616
406.000250	0.687892
406.381642	0.673630
406.762972	0.668988
407.144240	0.661329
407.525447	0.654120
407.906593	0.641238
408.287677	0.630951
408.668700	0.631429
409.049661	0.619553
409.430560	0.609825
409.811399	0.611871
410.192176	0.590588
410.572891	0.591557
410.953545	0.576258
411.334138	0.583445
411.714669	0.573025
412.095139	0.579210
412.475547	0.561394
412.855894	0.559965
413.236180	0.555123
413.616405	0.557235
413.996568	0.545685
414.376670	0.548316
414.756711	0.550937
415.136691	0.544957
415.516609	0.535003
415.896466	0.529195
416.276262	0.523962
416.655997	0.524407
417.035670	0.504572
417.415283	0.495699
417.794834	0.498803
418.174324	0.502997
418.553753	0.511610
418.933121	0.492964
419.312428	0.485593
419.691674	0.490375
420.070859	0.478929
420.449983	0.486157
420.829045	0.475903
421.208047	0.484304
421.586988	0.477591
421.965867	0.475960
422.344686	0.464607
422.723444	0.476738
423.102141	0.492893
423.480777	0.466204
423.859352	0.486427
424.237866	0.463596
424.616319	0.464301
424.994712	0.454865
425.373044	0.465674
425.751314	0.453854
426.129524	0.469486
426.507673	0.453560
426.885762	0.447195
427.263789	0.452510
427.641756	0.462483
428.019662	0.452080
428.397508	0.450913
428.775292	0.455724
429.153016	0.447790
429.530679	0.453720
429.908282	0.447102
430.285824	0.457228
430.663305	0.435567
431.040726	0.456405
431.418086	0.456529
431.795385	0.448815
432.172624	0.446967
432.549802	0.447628
432.926920	0.446487
433.303977	0.446182
433.680974	0.443189
434.057910	0.441569
434.434786	0.441002
434.811601	0.443693
435.188355	0.425744
435.565050	0.435123
435.941683	0.436683
436.318257	0.421180
436.694770	0.421273
437.071222	0.419834
437.447614	0.424370
437.823946	0.430209
438.200218	0.419585
438.576429	0.429596
438.952580	0.422387
439.328670	0.419475
439.704700	0.426172
440.080670	0.427286
440.456580	0.408301
440.832429	0.416232
441.208218	0.426717
441.583947	0.416089
441.959616	0.416012
442.335224	0.420466
442.710773	0.412182
443.086261	0.409518
443.461689	0.423990
443.837057	0.413792
444.212365	0.403562
444.587612	0.410502
444.962800	0.400533
445.337927	0.402206
445.712995	0.428631
446.088002	0.390440
446.462949	0.400967
446.837837	0.405474
447.212664	0.394863
447.587431	0.386352
447.962139	0.356719
448.336786	0.316261
448.711374	0.326083
449.085901	0.369939
449.460369	0.374976
449.834776	0.378133
450.209124	0.357515
450.583412	0.350012
450.957640	0.343103
451.331808	0.354304
451.705917	0.377677
452.079965	0.382282
452.453954	0.370518
452.827883	0.377396
453.201752	0.372516
453.575562	0.383423
453.949311	0.372191
454.323001	0.378310
454.696632	0.374042
455.070202	0.366713
455.443713	0.358342
455.817164	0.353330
456.190556	0.349240
456.563888	0.345677
456.937160	0.343719
457.310373	0.360594
457.683526	0.359730
458.056619	0.365664
458.429653	0.365685
458.802628	0.369716
459.175542	0.363546
459.548398	0.346299
459.921194	0.338951
460.293930	0.338612
460.666607	0.316173
461.039224	0.304705
461.411782	0.300446
461.784280	0.299854
462.156719	0.303984
462.529099	0.308326
462.901419	0.324299
463.273680	0.328732
463.645882	0.328297
464.018024	0.334061
464.390106	0.327193
464.762130	0.312033
465.134094	0.294744
465.505999	0.264047
465.877845	0.234456
466.249631	0.221814
466.621358	0.229142
466.993026	0.243087
467.364634	0.249166
467.736184	0.257864
468.107674	0.266502
468.479105	0.265549
468.850477	0.272309
469.221790	0.279206
469.593043	0.289584
469.964238	0.294305
470.335373	0.293890
470.706449	0.291508
471.077467	0.292499
471.448425	0.254444
471.819324	0.230369
472.190164	0.229778
472.560945	0.258603
472.931667	0.280370
473.302330	0.284656
473.672934	0.296372
474.043479	0.284712
474.413965	0.286583
474.784393	0.290128
475.154761	0.285283
475.525070	0.281954
475.895321	0.287778
476.265513	0.281907
476.635645	0.277382
477.005719	0.277167
477.375734	0.273734
477.745691	0.267305
478.115588	0.263701
478.485427	0.257078
478.855207	0.244276
479.224928	0.226526
479.594591	0.214749
479.964194	0.218176
480.333739	0.219437
480.703226	0.220899
481.072653	0.219266
481.442022	0.215186
481.811333	0.211317
482.180584	0.215092
482.549777	0.220133
482.918912	0.223474
483.287988	0.223354
483.657005	0.223002
484.025964	0.229512
484.394864	0.226517
484.763706	0.227369
485.132489	0.232077
485.501213	0.232731
485.869879	0.231454
486.238487	0.234550
486.607036	0.232672
486.975527	0.237275
487.343959	0.232921
487.712333	0.231875
488.080648	0.233496
488.448905	0.232404
488.817104	0.233990
489.185244	0.228564
489.553326	0.225167
489.921350	0.215262
490.289315	0.197614
490.657222	0.192680
491.025070	0.193904
491.392861	0.195867
491.760593	0.201685
492.128267	0.207247
492.495883	0.212815
492.863440	0.219057
493.230939	0.225259
493.598380	0.226605
493.965763	0.228980
494.333088	0.231138
494.700354	0.232732
495.067563	0.231456
495.434713	0.234927
495.801805	0.232720
496.168839	0.234200
496.535815	0.235428
496.902733	0.235453
497.269593	0.237185
497.636395	0.234935
498.003139	0.235126
498.369825	0.238420
498.736453	0.234690
499.103023	0.236212
499.469535	0.235631
499.835989	0.235897
500.202385	0.237031
500.568723	0.240178
500.935003	0.235242
501.301226	0.239504
501.667390	0.233829
502.033497	0.231702
502.399546	0.234824
502.765537	0.236574
503.131470	0.235060
503.497345	0.231279
503.863163	0.240278
504.228923	0.233176
504.594625	0.231839
504.960269	0.237179
505.325856	0.232231
505.691385	0.236654
506.056856	0.233280
506.422270	0.232870
506.787625	0.235365
507.152924	0.232877
507.518164	0.233009
507.883347	0.234639
508.248472	0.236691
508.613540	0.231684
508.978550	0.234096
509.343503	0.234397
509.708398	0.232324
510.073236	0.229956
510.438016	0.229855
510.802738	0.230764
511.167403	0.229723
511.532010	0.231778
511.896561	0.227114
512.261053	0.225940
512.625488	0.228055
512.989866	0.228315
513.354186	0.228538
513.718449	0.230531
514.082655	0.226698
514.446803	0.229064
514.810894	0.226630
515.174927	0.229389
515.538904	0.228698
515.902822	0.225787
516.266684	0.228135
516.630488	0.229232
516.994235	0.228069
517.357925	0.226875
517.721558	0.225064
518.085133	0.224483
518.448651	0.224812
518.812112	0.226917
519.175516	0.226799
519.538863	0.224265
519.902152	0.225572
520.265385	0.222819
520.628560	0.224464
520.991678	0.224896
521.354739	0.223812
521.717743	0.225137
522.080690	0.225638
522.443580	0.222838
522.806413	0.223878
523.169189	0.223175
523.531908	0.221963
523.894569	0.225521
524.257174	0.225674
524.619722	0.223046
524.982213	0.224290
525.344647	0.223398
525.707025	0.224035
526.069345	0.222247
526.431608	0.223803
526.793815	0.221824
527.155964	0.225961
527.518057	0.224780
527.880093	0.225830
528.242072	0.224582
528.603995	0.226179
528.965860	0.228278
529.327669	0.227059
529.689421	0.227461
530.051117	0.228809
530.412755	0.226070
530.774337	0.228656
531.135862	0.228824
531.497331	0.228326
531.858743	0.231284
532.220098	0.228012
532.581396	0.230389
532.942638	0.231095
533.303824	0.231704
533.664953	0.231541
534.026025	0.233407
534.387040	0.231433
534.747999	0.231141
535.108902	0.230230
535.469748	0.235003
535.830537	0.232907
536.191270	0.233486
536.551947	0.232996
536.912567	0.232866
537.273131	0.234834
537.633638	0.234777
537.994089	0.235303
538.354483	0.236407
538.714821	0.233360
539.075103	0.233005
539.435328	0.233779
539.795497	0.237550
540.155609	0.234099
540.515665	0.232023
540.875665	0.238162
541.235609	0.236539
541.595496	0.236431
541.955328	0.233099
542.315102	0.235872
542.674821	0.236705
543.034483	0.236799
543.394090	0.236576
543.753640	0.238097
544.113134	0.233521
544.472571	0.236506
544.831953	0.233489
545.191278	0.237891
545.550548	0.237000
545.909761	0.233903
546.268918	0.234621
546.628019	0.232928
546.987064	0.235753
547.346053	0.237578
547.704986	0.235522
548.063863	0.235410
548.422684	0.235946
548.781449	0.237754
549.140158	0.235212
549.498811	0.238127
549.857408	0.241388
550.215949	0.236253
550.574434	0.239010
550.932864	0.237150
551.291237	0.235741
551.649555	0.237235
552.007817	0.236937
552.366022	0.237800
552.724173	0.238001
553.082267	0.238227
553.440305	0.234926
553.798288	0.239736
554.156215	0.236076
554.514086	0.236868
554.871902	0.239871
555.229661	0.239406
555.587365	0.239596
555.945014	0.242512
556.302606	0.239419
556.660143	0.241736
557.017625	0.238210
557.375050	0.240600
557.732421	0.237511
558.089735	0.239497
558.446994	0.239551
558.804197	0.238870
559.161345	0.238577
559.518437	0.242273
559.875474	0.240011
560.232455	0.239275
560.589381	0.240354
560.946251	0.240484
561.303065	0.238237
561.659825	0.239686
562.016528	0.241095
562.373177	0.243878
562.729770	0.241133
563.086307	0.243409
563.442789	0.241003
563.799216	0.243990
564.155587	0.242979
564.511904	0.243960
564.868164	0.244109
565.224370	0.243635
565.580520	0.246127
565.936615	0.245064
566.292654	0.248304
566.648638	0.245445
567.004567	0.246244
567.360441	0.247054
567.716260	0.249031
568.072023	0.246726
568.427732	0.247283
568.783385	0.249794
569.138982	0.247975
569.494525	0.247739
569.850013	0.250439
570.205445	0.249158
570.560823	0.251414
570.916145	0.253465
571.271412	0.251574
571.626625	0.253039
571.981782	0.253748
572.336884	0.254651
572.691931	0.254301
573.046923	0.255370
573.401860	0.256449
573.756743	0.258310
574.111570	0.257483
574.466342	0.257687
574.821059	0.256847
575.175722	0.259656
575.530330	0.259356
575.884882	0.259690
576.239380	0.261570
576.593823	0.262227
576.948211	0.261808
577.302544	0.264934
577.656823	0.264369
578.011047	0.264749
578.365216	0.265235
578.719330	0.267034
579.073389	0.266991
579.427394	0.268371
579.781344	0.269098
580.135239	0.270904
580.489080	0.270698
580.842866	0.273313
581.196597	0.273121
581.550273	0.272009
581.903895	0.272860
582.257463	0.270734
582.610975	0.274364
582.964434	0.273879
583.317837	0.276197
583.671186	0.276473
584.024481	0.276610
584.377721	0.279086
584.730906	0.279734
585.084037	0.279232
585.437113	0.280821
585.790135	0.280210
586.143103	0.283140
586.496016	0.284453
586.848874	0.281838
587.201679	0.282393
587.554428	0.285523
587.907124	0.284704
588.259765	0.285324
588.612352	0.285576
588.964884	0.289867
589.317362	0.289033
589.669786	0.288964
590.022155	0.287529
590.374470	0.286688
590.726731	0.289028
591.078937	0.293642
591.431090	0.290114
591.783188	0.294368
592.135232	0.294769
592.487222	0.294770
592.839157	0.292826
593.191038	0.295178
593.542866	0.296914
593.894639	0.300574
594.246358	0.298614
594.598022	0.298150
594.949633	0.302155
595.301190	0.302629
595.652692	0.301774
596.004141	0.297880
596.355535	0.305823
596.706876	0.306084
597.058162	0.308538
597.409395	0.306150
597.760573	0.303706
598.111698	0.306683
598.462768	0.307489
598.813785	0.308904
599.164748	0.309608
599.515657	0.310355
599.866511	0.313758
600.217312	0.308860
600.568060	0.314176
600.918753	0.310699
601.269392	0.311647
601.619978	0.315069
601.970510	0.312424
602.320988	0.312650
602.671412	0.310366
603.021783	0.312643
603.372100	0.313996
603.722363	0.313939
604.072572	0.314478
604.422728	0.314450
604.772830	0.316655
605.122878	0.316342
605.472872	0.316509
605.822813	0.314805
606.172701	0.317751
606.522534	0.314857
606.872314	0.314863
607.222041	0.315831
607.571714	0.314216
607.921333	0.315627
608.270899	0.315305
608.620411	0.312299
608.969870	0.315667
609.319276	0.315844
609.668627	0.316118
610.017926	0.314606
610.367171	0.313165
610.716362	0.313502
611.065500	0.314129
611.414585	0.312621
611.763616	0.313479
612.112594	0.313817
612.461518	0.313402
612.810389	0.311067
613.159207	0.313262
613.507971	0.315292
613.856682	0.310781
614.205340	0.312182
614.553945	0.309129
614.902496	0.313061
615.250994	0.311276
615.599439	0.311435
615.947830	0.311293
616.296169	0.312266
616.644454	0.311399
616.992686	0.311657
617.340864	0.309273
617.688990	0.312882
618.037063	0.309792
618.385082	0.311573
618.733048	0.308484
619.080961	0.310532
619.428821	0.310150
619.776628	0.309762
620.124382	0.311749
620.472083	0.312132
620.819731	0.311574
621.167326	0.315336
621.514868	0.315098
621.862357	0.319287
622.209793	0.318859
622.557176	0.321275
622.904506	0.322002
623.251783	0.324691
623.599007	0.326777
623.946179	0.326355
624.293297	0.328597
624.640363	0.331809
624.987376	0.332821
625.334336	0.335447
625.681243	0.337627
626.028097	0.337911
626.374899	0.339206
626.721647	0.339141
627.068343	0.342739
627.414987	0.343832
627.761577	0.346057
628.108115	0.344041
628.454600	0.349211
628.801032	0.346411
629.147412	0.349121
629.493739	0.349172
629.840014	0.352218
630.186236	0.349542
630.532405	0.355109
630.878521	0.352630
631.224585	0.354861
631.570597	0.357988
631.916556	0.356807
632.262462	0.357368
632.608316	0.359577
632.954117	0.359916
633.299866	0.360642
633.645562	0.361097
633.991206	0.365235
634.336797	0.368592
634.682336	0.370934
635.027823	0.372084
635.373257	0.373181
635.718639	0.376588
636.063968	0.375915
636.409245	0.381706
636.754470	0.381973
637.099642	0.384356
637.444762	0.387746
637.789829	0.386687
638.134845	0.390148
638.479808	0.391122
638.824719	0.391115
639.169577	0.395221
639.514383	0.393992
639.859137	0.398138
640.203839	0.397551
640.548489	0.398610
640.893086	0.399716
641.237632	0.401503
641.582125	0.399818
641.926566	0.401724
642.270955	0.401304
642.615292	0.402115
642.959576	0.401167
643.303809	0.401685
643.647990	0.401106
643.992118	0.401706
644.336195	0.405453
644.680219	0.403320
645.024192	0.404091
645.368112	0.397714
645.711981	0.396704
646.055797	0.392149
646.399562	0.394815
646.743274	0.386590
647.086935	0.383872
647.430544	0.384631
647.774101	0.383429
648.117606	0.382691
648.461059	0.383373
648.804460	0.385845
649.147810	0.390934
649.491108	0.392795
649.834354	0.393747
650.177548	0.399753
650.520690	0.404835
650.863781	0.406430
651.206820	0.405383
651.549807	0.410244
651.892742	0.414183
652.235626	0.413473
652.578458	0.414560
652.921238	0.420556
653.263967	0.418530
653.606644	0.422424
653.949269	0.421860
654.291843	0.426050
654.634365	0.422947
654.976836	0.426174
655.319255	0.426139
655.661622	0.427782
656.003938	0.427841
656.346203	0.430229
656.688416	0.429135
657.030577	0.432214
657.372687	0.433851
657.714746	0.434645
658.056753	0.431736
658.398708	0.435812
658.740612	0.436681
659.082465	0.432800
659.424266	0.433705
659.766016	0.432863
660.107715	0.435525
660.449362	0.434145
660.790958	0.435065
661.132503	0.435751
661.473996	0.433373
661.815438	0.433920
662.156829	0.434391
662.498168	0.434974
662.839456	0.436321
663.180693	0.433957
663.521879	0.434366
663.863013	0.434901
664.204097	0.433591
664.545129	0.430891
664.886110	0.430767
665.227040	0.427780
665.567918	0.430973
665.908746	0.428717
666.249522	0.428436
666.590248	0.429316
666.930922	0.427874
667.271545	0.426587
667.612118	0.426316
667.952639	0.427953
668.293109	0.426902
668.633528	0.430260
668.973896	0.429613
669.314213	0.430184
669.654480	0.431615
669.994695	0.432243
670.334859	0.432557
670.674973	0.432988
671.015035	0.432845
671.355047	0.433111
671.695008	0.434375
672.034918	0.436220
672.374777	0.435161
672.714585	0.436448
673.054342	0.436494
673.394049	0.436831
673.733705	0.434319
674.073310	0.435467
674.412864	0.438648
674.752368	0.439033
675.091820	0.439211
675.431223	0.443392
675.770574	0.443788
676.109875	0.446118
676.449125	0.446510
676.788324	0.448389
677.127473	0.454182
677.466571	0.453555
677.805619	0.455668
678.144616	0.456100
678.483562	0.458730
678.822458	0.460375
679.161303	0.462075
679.500098	0.462513
679.838842	0.464311
680.177535	0.463305
680.516179	0.461813
680.854771	0.461004
681.193314	0.454752
681.531805	0.445701
681.870247	0.434288
682.208638	0.426770
682.546978	0.426007
682.885268	0.427415
683.223508	0.433577
683.561697	0.437702
683.899836	0.439923
684.237925	0.443544
684.575963	0.446269
684.913951	0.449285
685.251889	0.444476
685.589776	0.446803
685.927614	0.449314
686.265401	0.443092
686.603137	0.445440
686.940824	0.439307
687.278460	0.437053
687.616046	0.436617
687.953582	0.431527
688.291068	0.432653
688.628504	0.428382
688.965889	0.430839
689.303224	0.435066
689.640510	0.439113
689.977745	0.444760
690.314930	0.452915
690.652065	0.456648
690.989150	0.464760
691.326185	0.470875
691.663170	0.475407
692.000105	0.483338
692.336990	0.489727
692.673825	0.492150
693.010610	0.499596
693.347345	0.504528
693.684030	0.506725
694.020665	0.510791
694.357251	0.519511
694.693786	0.519415
695.030272	0.523543
695.366707	0.527309
695.703093	0.529973
696.039429	0.528873
696.375716	0.530123
696.711952	0.532536
697.048139	0.534355
697.384276	0.536116
697.720363	0.534459
698.056400	0.534189
698.392388	0.539237
698.728326	0.542396
699.064214	0.545294
699.400053	0.545106
699.735842	0.549764
700.071581	0.552463
700.407270	0.555477
700.742910	0.557786
701.078501	0.564372
701.414042	0.564816
701.749533	0.568319
702.084974	0.576416
702.420366	0.568450
702.755709	0.576528
703.091002	0.584394
703.426246	0.577705
703.761440	0.583701
704.096584	0.588824
704.431679	0.585810
704.766725	0.587912
705.101721	0.589066
705.436668	0.585674
705.771565	0.592610
706.106413	0.589100
706.441212	0.584311
706.775961	0.583295
707.110661	0.586047
707.445311	0.582234
707.779913	0.580001
708.114465	0.577913
708.448967	0.574903
708.783421	0.566649
709.117825	0.560699
709.452180	0.561409
709.786485	0.554815
710.120742	0.545018
710.454949	0.546597
710.789107	0.539692
711.123216	0.530555
711.457275	0.532057
711.791286	0.522652
712.125247	0.521231
712.459159	0.532595
712.793023	0.525201
713.126837	0.529334
713.460602	0.529059
713.794318	0.538462
714.127985	0.537583
714.461602	0.547749
714.795171	0.550881
715.128691	0.558814
715.462162	0.566641
715.795584	0.571881
716.128957	0.574691
716.462281	0.582101
716.795556	0.585192
717.128782	0.589953
717.461960	0.599729
717.795088	0.597698
718.128167	0.604180
718.461198	0.613015
718.794180	0.613518
719.127113	0.616690
719.459997	0.619909
719.792833	0.625662
720.125619	0.627217
720.458357	0.633383
720.791046	0.632695
721.123686	0.636014
721.456278	0.643249
721.788821	0.640579
722.121315	0.644354
722.453761	0.648682
722.786158	0.646712
723.118506	0.643177
723.450805	0.651060
723.783056	0.647426
724.115259	0.644560
724.447412	0.643851
724.779518	0.645624
725.111574	0.644689
725.443582	0.639653
725.775542	0.641195
726.107453	0.634205
726.439315	0.633835
726.771129	0.631667
727.102895	0.625809
727.434612	0.618492
727.766281	0.616297
728.097901	0.615925
728.429473	0.616372
728.760996	0.613567
729.092471	0.614524
729.423897	0.617640
729.755276	0.617075
730.086606	0.616417
730.417887	0.611905
730.749120	0.601450
731.080305	0.593162
731.411442	0.588852
731.742530	0.594063
732.073570	0.592974
732.404562	0.585604
732.735506	0.587142
733.066401	0.590893
733.397249	0.600580
733.728048	0.612783
734.058798	0.625168
734.389501	0.635108
734.720156	0.645137
735.050762	0.652852
735.381320	0.654236
735.711831	0.662746
736.042293	0.668505
736.372707	0.663686
736.703073	0.669467
737.033391	0.671306
737.363661	0.667448
737.693883	0.662975
738.024056	0.661922
738.354182	0.661635
738.684260	0.651370
739.014290	0.647741
739.344272	0.648843
739.674207	0.641365
740.004093	0.641601
740.333931	0.642118
740.663722	0.641448
740.993464	0.641738
741.323159	0.645612
741.652806	0.651971
741.982405	0.655544
742.311956	0.660355
742.641460	0.662251
742.970915	0.667212
743.300323	0.673563
743.629683	0.680353
743.958996	0.682707
744.288260	0.686602
744.617477	0.692664
744.946647	0.694479
745.275768	0.699357
745.604842	0.699729
745.933869	0.709247
746.262847	0.710301
746.591778	0.703881
746.920662	0.709670
747.249498	0.716823
747.578286	0.706477
747.907027	0.703108
748.235720	0.704508
748.564365	0.698937
748.892963	0.699317
749.221514	0.701409
749.550017	0.706861
749.878473	0.706664
750.206881	0.713154
750.535242	0.714426
750.863555	0.714188
751.191821	0.714968
751.520039	0.718308
751.848210	0.724017
752.176334	0.716064
752.504411	0.714745
752.832440	0.722471
753.160421	0.727199
753.488356	0.724528
753.816243	0.722567
754.144082	0.731784
754.471875	0.735294
754.799620	0.730525
755.127318	0.731910
755.454969	0.731751
755.782572	0.730459
756.110129	0.735547
756.437638	0.737901
756.765100	0.734723
757.092515	0.732590
757.419882	0.731499
757.747203	0.736909
758.074477	0.736029
758.401703	0.733402
758.728882	0.729172
759.056014	0.727262
759.383099	0.726631
759.710138	0.727639
760.037129	0.723659
760.364073	0.717460
760.690970	0.720641
761.017820	0.726061
761.344623	0.721628
761.671379	0.711744
761.998088	0.701153
762.324751	0.678499
762.651366	0.636899
762.977935	0.568855
763.304456	0.516709
763.630931	0.507372
763.957359	0.546197
764.283740	0.591453
764.610074	0.618289
764.936362	0.649918
765.262602	0.675852
765.588796	0.697828
765.914943	0.714981
766.241044	0.734128
766.567097	0.740636
766.893104	0.750074
767.219064	0.756709
767.544978	0.761997
767.870845	0.776403
768.196665	0.780005
768.522438	0.778837
768.848165	0.779053
769.173846	0.788649
769.499479	0.792306
769.825066	0.795691
770.150607	0.801069
770.476101	0.796897
770.801548	0.798007
771.126949	0.810125
771.452303	0.813236
771.777611	0.811873
772.102872	0.811589
772.428087	0.816867
772.753256	0.820078
773.078378	0.822252
773.403453	0.831135
773.728482	0.835657
774.053465	0.828442
774.378401	0.832216
774.703291	0.841462
775.028135	0.840857
775.352932	0.841481
775.677683	0.845367
776.002388	0.845314
776.327046	0.844179
776.651658	0.848177
776.976224	0.851895
777.300743	0.851854
777.625216	0.854289
777.949643	0.855507
778.274024	0.855814
778.598359	0.856601
778.922647	0.856156
779.246889	0.857576
779.571086	0.860902
779.895236	0.864256
780.219339	0.860904
780.543397	0.856450
780.867409	0.855805
781.191374	0.858175
781.515294	0.858725
781.839167	0.858841
782.162995	0.862052
782.486776	0.858450
782.810511	0.858982
783.134201	0.862757
783.457844	0.860922
783.781441	0.863494
784.104993	0.870599
784.428498	0.869926
784.751958	0.864989
785.075372	0.867480
785.398739	0.872444
785.722061	0.867508
786.045337	0.863413
786.368568	0.868076
786.691752	0.870611
787.014891	0.856200
787.337983	0.847269
787.661030	0.840201
787.984031	0.822660
788.306987	0.809912
788.629897	0.812504
788.952760	0.815489
789.275579	0.819602
789.598351	0.834218
789.921078	0.847962
790.243759	0.850344
790.566395	0.855672
790.888984	0.863117
791.211529	0.867680
791.534027	0.870211
791.856480	0.872960
792.178888	0.878531
792.501249	0.880923
792.823566	0.881109
793.145836	0.882499
793.468062	0.883663
793.790241	0.885282
794.112375	0.883515
794.434464	0.877390
794.756507	0.877133
795.078505	0.876777
795.400457	0.870842
795.722364	0.859353
796.044226	0.852344
796.366042	0.852186
796.687812	0.854321
797.009538	0.850461
797.331218	0.853282
797.652852	0.857968
797.974442	0.864084
798.295986	0.862576
798.617484	0.865762
798.938938	0.870359
799.260346	0.875885
799.581709	0.877633
799.903026	0.878820
800.224299	0.879867
800.545526	0.884305
800.866708	0.887456
801.187845	0.891548
801.508936	0.891203
801.829983	0.888983
802.150984	0.892231
802.471940	0.896415
802.792851	0.896923
803.113717	0.896101
803.434538	0.894931
803.755314	0.897985
804.076045	0.899163
804.396731	0.899562
804.717372	0.899085
805.037967	0.901091
805.358518	0.898090
805.679024	0.895837
805.999485	0.895808
806.319901	0.895979
806.640272	0.897423
806.960598	0.894867
807.280879	0.893520
807.601115	0.890850
807.921306	0.895423
808.241453	0.894866
808.561554	0.892844
808.881611	0.892785
809.201623	0.895056
809.521590	0.895637
809.841513	0.894877
810.161390	0.896768
810.481223	0.896003
810.801011	0.900799
811.120755	0.901622
811.440453	0.901037
811.760107	0.899382
812.079716	0.899898
812.399281	0.903199
812.718801	0.905498
813.038276	0.906347
813.357707	0.905370
813.677093	0.903148
813.996434	0.905673
814.315731	0.907916
814.634983	0.908210
814.954191	0.906962
815.273354	0.903589
815.592473	0.900294
815.911547	0.900402
816.230577	0.897075
816.549562	0.894770
816.868502	0.895380
817.187399	0.893050
817.506250	0.885962
817.825058	0.888759
818.143821	0.884526
818.462539	0.880218
818.781213	0.871285
819.099843	0.860951
819.418429	0.845480
819.736970	0.827599
820.055466	0.808848
820.373919	0.782424
820.692327	0.748662
821.010691	0.713832
821.329011	0.636421
821.647286	0.520276
821.965517	0.405802
822.283704	0.362765
822.601847	0.363850
822.919945	0.399963
823.237999	0.433850
823.556010	0.480775
823.873976	0.536953
824.191897	0.587503
824.509775	0.631343
824.827609	0.676350
825.145398	0.699674
825.463144	0.701783
825.780845	0.685262
826.098502	0.666568
826.416116	0.620282
826.733685	0.575865
827.051210	0.566957
827.368692	0.582086
827.686129	0.619648
828.003522	0.673423
828.320872	0.720622
828.638177	0.764494
828.955439	0.796594
829.272656	0.819360
829.589830	0.837448
829.906960	0.852858
830.224046	0.864632
830.541088	0.875846
830.858086	0.879482
831.175041	0.886675
831.491952	0.885782
831.808819	0.882321
832.125642	0.875655
832.442421	0.860317
832.759157	0.838240
833.075849	0.791413
833.392497	0.727151
833.709101	0.687417
834.025662	0.695664
834.342179	0.728281
834.658653	0.768251
834.975083	0.804962
835.291469	0.830131
835.607811	0.853018
835.924110	0.869155
836.240366	0.886382
836.556578	0.899088
836.872746	0.906780
837.188871	0.914239
837.504952	0.918812
837.820990	0.922850
838.136984	0.925969
838.452935	0.929604
838.768842	0.931165
839.084706	0.923799
839.400526	0.899139
839.716303	0.857878
840.032037	0.835170
840.347727	0.838172
840.663373	0.856464
840.978977	0.877937
841.294537	0.900484
841.610054	0.917203
841.925527	0.925191
842.240957	0.932053
842.556344	0.939395
842.871687	0.945810
843.186987	0.949671
843.502244	0.949883
843.817458	0.951581
844.132629	0.955437
844.447756	0.960355
844.762840	0.960585
845.077881	0.959577
845.392879	0.959141
845.707833	0.961973
846.022745	0.964132
846.337613	0.964246
846.652438	0.965089
846.967221	0.964015
847.281960	0.964854
847.596656	0.967557
847.911309	0.965136
848.225919	0.967194
848.540485	0.968353
848.855009	0.968585
849.169490	0.968914
849.483928	0.969100
849.798323	0.968826
850.112675	0.969298
850.426984	0.969284
850.741251	0.969171
851.055474	0.969338
851.369654	0.967753
851.683792	0.969205
851.997887	0.968927
852.311938	0.970610
852.625947	0.969156
852.939914	0.968874
853.253837	0.968823
853.567718	0.969616
853.881555	0.970711
854.195350	0.966622
854.509103	0.969777
854.822812	0.968793
855.136479	0.969994
855.450103	0.969232
855.763685	0.968174
856.077224	0.966932
856.390720	0.970404
856.704173	0.969969
857.017584	0.969099
857.330953	0.967247
857.644278	0.967974
857.957561	0.968886
858.270802	0.967645
858.584000	0.968058
858.897155	0.965929
859.210268	0.966522
859.523339	0.967952
859.836367	0.968908
860.149352	0.970080
860.462295	0.968663
860.775195	0.969093
861.088054	0.968483
861.400869	0.969619
861.713642	0.969964
862.026373	0.969856
862.339062	0.970390
862.651708	0.967534
862.964312	0.967423
863.276873	0.969285
863.589392	0.968211
863.901869	0.965922
864.214303	0.964685
864.526696	0.964145
864.839045	0.962409
865.151353	0.961309
865.463619	0.962239
865.775842	0.961943
866.088023	0.961741
866.400162	0.961799
866.712258	0.961286
867.024313	0.962207
867.336325	0.964307
867.648296	0.961456
867.960224	0.961226
868.272110	0.960332
868.583954	0.963875
868.895755	0.964075
869.207515	0.962084
869.519233	0.958715
869.830909	0.960880
870.142542	0.961511
870.454134	0.962291
870.765684	0.960508
871.077191	0.957379
871.388657	0.958923
871.700081	0.957706
872.011463	0.957578
872.322803	0.956693
872.634101	0.955470
872.945357	0.954332
873.256571	0.952136
873.567744	0.953122
873.878874	0.953556
874.189963	0.950918
874.501010	0.950686
874.812015	0.949004
875.122979	0.949515
875.433900	0.952024
875.744780	0.954188
876.055618	0.950286
876.366415	0.949590
876.677169	0.949194
876.987882	0.949464
877.298554	0.950685
877.609183	0.946787
877.919771	0.944002
878.230317	0.941322
878.540822	0.939213
878.851285	0.934191
879.161707	0.926003
879.472087	0.914102
879.782425	0.896994
880.092722	0.862472
880.402977	0.809810
880.713191	0.748973
881.023363	0.688032
881.333494	0.653900
881.643583	0.626616
881.953631	0.626609
882.263637	0.655545
882.573602	0.694477
882.883526	0.720448
883.193408	0.743705
883.503248	0.767477
883.813048	0.795420
884.122806	0.825137
884.432522	0.848500
884.742197	0.868179
885.051831	0.878216
885.361424	0.888931
885.670975	0.902456
885.980485	0.911324
886.289954	0.917809
886.599382	0.923757
886.908768	0.926608
887.218113	0.934100
887.527417	0.937844
887.836680	0.941092
888.145901	0.943006
888.455082	0.945170
888.764221	0.949215
889.073319	0.952320
889.382376	0.952735
889.691392	0.951813
890.000366	0.951799
890.309300	0.954019
890.618193	0.952098
890.927044	0.951052
891.235855	0.950698
891.544625	0.950678
891.853353	0.951264
892.162041	0.948349
892.470687	0.942460
892.779293	0.938231
893.087858	0.931874
893.396381	0.925544
893.704864	0.910761
894.013306	0.887852
894.321707	0.860907
894.630068	0.844787
894.938387	0.840761
895.246665	0.841725
895.554903	0.855241
895.863100	0.867499
896.171256	0.886082
896.479371	0.905140
896.787446	0.918048
897.095480	0.923722
897.403473	0.926910
897.711425	0.930824
898.019336	0.939682
898.327207	0.942017
898.635038	0.944101
898.942827	0.944272
899.250576	0.947819
899.558284	0.951241
899.865952	0.953127
900.173579	0.954539
900.481165	0.953728
900.788711	0.960063
901.096216	0.960293
901.403681	0.961590
901.711105	0.962264
902.018489	0.962577
902.325832	0.962589
902.633135	0.961255
902.940397	0.954974
903.247619	0.942152
903.554800	0.915561
903.861941	0.876260
904.169041	0.840239
904.476101	0.822983
904.783121	0.823008
905.090100	0.840202
905.397039	0.862163
905.703938	0.884676
906.010796	0.903997
906.317614	0.920686
906.624391	0.933195
906.931129	0.942073
907.237826	0.951234
907.544483	0.957978
907.851099	0.962007
908.157675	0.966347
908.464211	0.968186
908.770707	0.972888
909.077163	0.973929
909.383578	0.973768
909.689954	0.974778
909.996289	0.974738
910.302584	0.977239
910.608839	0.979654
910.915054	0.978132
911.221229	0.977475
911.527363	0.976934
911.833458	0.976317
912.139513	0.977889
912.445527	0.974592
912.751502	0.973335
913.057436	0.971352
913.363331	0.970710
913.669186	0.965759
913.975000	0.960909
914.280775	0.954807
914.586510	0.947095
914.892205	0.932904
915.197859	0.913460
915.503475	0.884740
915.809050	0.864807
916.114585	0.858193
916.420081	0.856590
916.725536	0.851888
917.030952	0.861828
917.336328	0.874381
917.641665	0.888750
917.946961	0.905201
918.252218	0.917079
918.557435	0.925734
918.862612	0.935820
919.167750	0.940627
919.472848	0.945581
919.777906	0.950560
920.082925	0.956593
920.387904	0.960530
920.692843	0.963026
920.997743	0.962358
921.302603	0.965752
921.607423	0.968956
921.912204	0.971732
922.216946	0.970902
922.521647	0.972424
922.826310	0.973360
923.130932	0.976083
923.435516	0.977544
923.740059	0.978992
924.044564	0.978887
924.349028	0.979951
924.653454	0.982542
924.957840	0.985090
925.262186	0.983998
925.566493	0.982798
925.870761	0.983869
926.174989	0.986246
926.479178	0.988007
926.783328	0.988117
927.087438	0.987340
927.391509	0.988075
927.695541	0.989511
927.999533	0.989039
928.303486	0.989691
928.607400	0.991071
928.911275	0.989842
929.215110	0.990129
929.518906	0.991120
929.822663	0.988936
930.126381	0.990784
930.430060	0.989268
930.733699	0.989678
931.037299	0.989268
931.340861	0.990366
931.644383	0.990876
931.947866	0.989869
932.251309	0.990418
932.554714	0.989516
932.858080	0.989913
933.161407	0.989637
933.464694	0.990030
933.767943	0.990173
934.071153	0.990980
934.374323	0.992586
934.677455	0.991177
934.980548	0.990977
935.283602	0.990172
935.586617	0.990895
935.889593	0.990191
936.192530	0.989404
936.495428	0.991010
936.798287	0.990210
937.101108	0.989023
937.403890	0.988707
937.706632	0.989077
938.009336	0.986890
938.312002	0.985780
938.614628	0.984372
938.917216	0.984097
939.219765	0.980907
939.522275	0.981719
939.824747	0.982343
940.127179	0.981890
940.429573	0.984809
940.731929	0.983742
941.034246	0.984400
941.336524	0.984490
941.638763	0.986424
941.940964	0.985249
942.243126	0.985674
942.545250	0.986967
942.847335	0.988507
943.149381	0.987282
943.451389	0.987915
943.753359	0.988434
944.055290	0.990419
944.357182	0.988745
944.659036	0.988016
944.960851	0.988917
945.262628	0.989043
945.564367	0.990255
945.866067	0.988517
946.167729	0.990467
946.469352	0.989348
946.770937	0.988687
947.072484	0.991192
947.373992	0.988851
947.675462	0.990768
947.976893	0.989459
948.278286	0.989946
948.579641	0.991860
948.880958	0.989814
949.182236	0.990331
949.483476	0.991164
949.784678	0.989753
950.085841	0.990688
950.386967	0.990539
950.688054	0.988779
950.989103	0.990801
951.290114	0.988437
951.591087	0.990729
951.892021	0.989772
952.192917	0.988598
952.493776	0.987109
952.794596	0.988298
953.095378	0.986984
953.396122	0.987753
953.696828	0.986348
953.997496	0.989419
954.298126	0.990501
954.598718	0.990614
954.899272	0.991014
955.199788	0.990092
955.500266	0.991930
955.800706	0.992261
956.101108	0.993759
956.401472	0.992117
956.701798	0.993802
957.002087	0.992273
957.302337	0.993396
957.602550	0.994416
957.902724	0.994939
958.202861	0.995433
958.502960	0.995002
958.803022	0.993283
959.103045	0.996434
959.403031	0.996445
959.702979	0.995481
960.002889	0.996024
960.302762	0.994933
960.602596	0.995814
960.902393	0.995620
961.202153	0.996519
961.501875	0.996023
961.801559	0.995633
962.101205	0.995466
962.400814	0.995656
962.700385	0.995604
962.999918	0.996469
963.299414	0.996111
963.598873	0.995377
963.898293	0.995722
964.197677	0.995951
964.497022	0.996157
964.796331	0.996437
965.095601	0.996649
965.394835	0.996176
965.694030	0.995092
965.993189	0.997178
966.292309	0.996598
966.591393	0.997916
966.890439	0.997273
967.189447	0.996996
967.488419	0.997969
967.787353	0.996044
968.086249	0.996440
968.385108	0.997319
968.683930	0.996453
968.982714	0.997029
969.281462	0.997631
969.580172	0.996677
969.878844	0.996812
970.177480	0.996271
970.476078	0.996221
970.774639	0.996963
971.073162	0.997112
971.371649	0.996423
971.670098	0.996451
971.968510	0.997799
972.266885	0.995303
972.565223	0.995636
972.863524	0.995774
973.161788	0.997308
973.460014	0.997163
973.758204	0.995627
974.056356	0.996986
974.354471	0.994072
974.652550	0.996482
974.950591	0.996180
975.248595	0.995579
975.546563	0.997619
975.844493	0.997302
976.142386	0.996450
976.440243	0.996184
976.738062	0.997383
977.035845	0.996796
977.333590	0.996392
977.631299	0.998374
977.928971	0.995953
978.226606	0.997738
978.524204	0.995535
978.821765	0.997757
979.119290	0.995882
979.416777	0.997167
979.714228	0.997142
980.011642	0.996386
980.309020	0.996528
980.606360	0.996783
980.903664	0.998206
981.200931	0.995657
981.498162	0.994566
981.795356	0.994772
982.092513	0.993765
982.389633	0.994683
982.686717	0.992048
982.983764	0.992199
983.280775	0.989874
983.577749	0.990106
983.874686	0.991594
984.171587	0.992104
984.468451	0.993443
984.765279	0.995212
985.062070	0.993693
985.358824	0.995956
985.655543	0.994623
985.952224	0.995052
986.248869	0.996064
986.545478	0.996165
986.842050	0.998411
987.138586	0.996003
987.435086	0.997991
987.731549	0.997973
988.027975	0.998671
988.324366	0.996000
988.620719	0.998339
988.917037	0.995669
989.213318	0.996959
989.509563	0.998374
989.805772	0.998025
990.101944	0.998555
990.398080	0.997297
990.694180	0.997863
990.990244	0.996896
991.286271	0.997681
991.582262	0.997928
991.878217	0.997505
992.174136	0.998681
992.470019	0.998648
992.765865	0.997324
993.061676	0.998002
993.357450	0.997090
993.653188	0.997929
993.948890	0.996994
994.244556	0.997623
994.540186	0.996818
994.835780	0.995690
995.131337	0.996744
995.426859	0.996419
995.722345	0.997459
996.017795	0.995792
996.313208	0.996386
996.608586	0.995545
996.903928	0.996572
997.199234	0.995354
997.494504	0.995878
997.789738	0.995333
998.084936	0.996156
998.380099	0.997610
998.675225	0.997055
998.970316	0.997465
999.265371	0.997578
999.560390	0.997439
999.855373	0.998035
1000.150320	0.998339
1000.445232	0.997724
1000.740108	0.997950
1001.034948	0.997726
1001.329752	0.998676
1001.624521	0.999148
1001.919254	0.998303
1002.213951	0.998458
1002.508613	0.996874
1002.803239	0.999681
1003.097829	0.999463
1003.392384	0.999068
1003.686903	0.998983
1003.981386	0.997476
1004.275834	0.999752
1004.570246	0.996996
1004.864623	0.999962
1005.158964	0.998715
1005.453270	0.997274
1005.747540	0.996968
1006.041775	0.998781
1006.335974	0.998667
1006.630138	0.999091
1006.924266	0.999552
1007.218359	1.001264
1007.512416	0.999004
1007.806438	0.999642
1008.100425	0.999152
1008.394376	0.999113
1008.688292	0.999023
1008.982172	0.999363
1009.276017	1.000216
1009.569827	0.998400
1009.863602	0.998950
1010.157341	0.999171
1010.451045	0.999252
1010.744714	0.997560
1011.038347	0.999371
1011.331945	0.999276
1011.625508	0.999021
1011.919036	0.998376
1012.212528	0.999366
1012.505986	0.997786
1012.799408	0.998178
1013.092795	0.998975
1013.386147	0.999252
1013.679464	0.999086
1013.972745	0.998132
1014.265992	0.996776
1014.559204	0.999081
1014.852380	0.999038
1015.145521	0.998403
1015.438628	0.999001
1015.731699	0.998835
1016.024736	0.998337
1016.317737	0.998128
1016.610703	0.998567
1016.903635	0.999619
1017.196531	0.998379
1017.489393	0.999587
1017.782219	0.998526
1018.075011	0.998366
1018.367768	0.999769
1018.660490	0.999200
1018.953177	0.999200
1019.245829	0.999200
