Dividing Wavelength (nm)	Counts (n)	Blue Motor Position (mm): 0.000000	Red Motor Position (mm): 35.100000	
326.493990	1.000716
326.888308	1.000716
327.282561	1.000716
327.676750	0.999860
328.070874	0.999307
328.464933	1.000166
328.858929	0.998594
329.252859	0.999408
329.646726	0.998450
330.040528	1.000304
330.434265	0.998858
330.827938	1.000278
331.221547	0.999004
331.615091	1.000463
332.008571	0.999358
332.401986	1.000027
332.795338	1.001169
333.188625	0.998399
333.581847	1.000685
333.975006	0.999470
334.368100	1.000197
334.761129	1.000111
335.154095	1.001647
335.546996	0.998125
335.939833	0.995795
336.332606	0.996339
336.725315	0.997546
337.117960	0.998183
337.510540	0.997145
337.903056	0.996319
338.295508	0.995099
338.687896	0.997107
339.080220	0.996628
339.472480	0.996022
339.864676	0.995375
340.256807	0.996634
340.648875	0.997717
341.040879	0.996731
341.432818	0.996204
341.824694	0.996412
342.216506	0.996673
342.608253	0.997767
342.999937	0.995588
343.391557	0.996450
343.783113	0.996121
344.174605	0.996392
344.566033	0.996946
344.957397	0.994617
345.348697	0.996187
345.739934	0.995731
346.131106	0.996960
346.522215	0.996524
346.913260	0.996733
347.304241	0.996715
347.695159	0.996081
348.086012	0.995055
348.476802	0.996733
348.867528	0.996774
349.258191	0.995487
349.648789	0.997003
350.039324	0.996904
350.429796	0.998650
350.820203	0.996020
351.210548	0.996524
351.600828	0.996947
351.991045	0.995468
352.381198	0.995809
352.771288	0.995850
353.161314	0.996289
353.551276	0.996970
353.941175	0.997107
354.331010	0.995730
354.720782	0.995989
355.110490	0.996520
355.500135	0.996856
355.889717	0.997182
356.279235	0.997370
356.668689	0.995784
357.058080	0.996880
357.447408	0.997642
357.836672	0.997723
358.225873	0.997228
358.615010	0.996946
359.004084	0.997091
359.393095	0.997165
359.782043	0.996313
360.170927	0.997419
360.559748	0.997221
360.948505	0.994984
361.337199	0.996254
361.725830	0.997684
362.114398	0.996634
362.502903	0.997234
362.891344	0.998412
363.279722	0.995969
363.668037	0.996156
364.056289	0.997464
364.444478	0.996983
364.832603	0.997116
365.220665	0.996325
365.608665	0.996720
365.996601	0.996718
366.384474	0.996240
366.772284	0.996613
367.160031	0.994981
367.547715	0.996311
367.935336	0.995766
368.322893	0.996245
368.710388	0.995893
369.097820	0.996544
369.485189	0.996000
369.872495	0.995494
370.259738	0.994584
370.646918	0.996730
371.034035	0.997276
371.421090	0.995924
371.808081	0.996162
372.195010	0.997269
372.581875	0.996051
372.968678	0.996114
373.355418	0.996625
373.742096	0.996162
374.128710	0.997505
374.515262	0.996010
374.901751	0.995900
375.288177	0.996860
375.674540	0.996954
376.060841	0.996282
376.447079	0.997170
376.833254	0.996316
377.219367	0.997706
377.605417	0.997082
377.991404	0.997947
378.377329	0.996432
378.763191	0.997420
379.148991	0.996889
379.534727	0.996929
379.920402	0.997062
380.306013	0.996718
380.691563	0.997035
381.077049	0.996787
381.462474	0.997156
381.847835	0.998322
382.233134	0.997373
382.618371	0.997901
383.003545	0.997698
383.388657	0.997443
383.773706	0.998529
384.158693	0.997184
384.543618	0.997638
384.928480	0.997783
385.313280	0.997141
385.698017	0.999019
386.082692	0.997483
386.467305	0.997711
386.851856	0.998810
387.236344	0.997731
387.620770	0.997152
388.005133	0.998732
388.389435	0.998335
388.773674	0.997860
389.157851	0.997982
389.541965	0.999227
389.926018	0.998079
390.310008	0.999417
390.693936	0.997946
391.077802	0.998119
391.461606	0.997805
391.845348	0.997752
392.229027	0.998568
392.612645	0.998796
392.996200	0.998289
393.379694	0.998222
393.763125	0.999784
394.146494	0.999337
394.529801	0.998233
394.913047	0.999189
395.296230	0.998574
395.679351	0.998383
396.062410	0.998859
396.445408	0.998054
396.828343	0.998140
397.211217	0.998109
397.594028	0.998496
397.976778	0.997863
398.359466	0.997938
398.742092	0.998089
399.124656	0.997891
399.507158	0.997080
399.889598	0.999077
400.271977	0.999435
400.654294	0.999322
401.036549	0.998302
401.418742	0.999153
401.800874	0.998413
402.182944	0.999314
402.564952	0.997871
402.946898	0.999829
403.328783	0.998437
403.710606	0.998152
404.092367	0.998094
404.474067	0.998626
404.855705	0.998283
405.237282	0.999534
405.618797	0.997967
406.000250	0.998631
406.381642	0.999197
406.762972	0.997629
407.144240	0.999734
407.525447	0.998641
407.906593	0.998159
408.287677	0.998819
408.668700	0.998944
409.049661	0.997903
409.430560	0.999646
409.811399	0.998865
410.192176	0.998428
410.572891	0.999163
410.953545	0.998246
411.334138	0.998285
411.714669	0.999360
412.095139	0.997800
412.475547	0.999700
412.855894	0.999267
413.236180	0.999329
413.616405	0.998622
413.996568	0.999517
414.376670	0.998681
414.756711	0.998597
415.136691	0.998627
415.516609	0.998548
415.896466	0.998982
416.276262	0.997239
416.655997	0.999187
417.035670	0.998150
417.415283	0.998853
417.794834	0.998363
418.174324	0.998873
418.553753	0.999856
418.933121	0.999549
419.312428	0.998932
419.691674	0.998869
420.070859	0.999177
420.449983	0.998799
420.829045	0.998644
421.208047	0.999529
421.586988	0.999142
421.965867	0.999476
422.344686	0.998725
422.723444	0.999712
423.102141	0.998494
423.480777	0.999605
423.859352	0.998419
424.237866	0.999140
424.616319	0.999409
424.994712	0.999085
425.373044	0.998956
425.751314	0.999001
426.129524	0.999712
426.507673	0.999343
426.885762	1.000188
427.263789	0.999861
427.641756	0.999327
428.019662	0.999927
428.397508	0.998452
428.775292	0.998152
429.153016	0.999488
429.530679	0.998968
429.908282	0.999090
430.285824	0.998545
430.663305	0.999168
431.040726	0.998971
431.418086	1.000619
431.795385	1.000302
432.172624	0.998998
432.549802	0.999826
432.926920	0.999863
433.303977	0.998723
433.680974	0.999970
434.057910	0.999553
434.434786	0.999312
434.811601	0.998796
435.188355	0.999836
435.565050	0.998328
435.941683	0.999713
436.318257	1.000168
436.694770	0.998701
437.071222	0.999777
437.447614	0.999810
437.823946	0.999244
438.200218	0.999412
438.576429	0.998877
438.952580	0.999439
439.328670	0.999185
439.704700	0.999571
440.080670	0.999851
440.456580	0.999592
440.832429	0.999215
441.208218	0.999029
441.583947	0.999374
441.959616	0.999224
442.335224	0.999390
442.710773	1.000307
443.086261	0.998578
443.461689	0.998866
443.837057	0.998814
444.212365	0.999351
444.587612	0.999176
444.962800	0.999081
445.337927	0.999451
445.712995	0.999413
446.088002	0.999849
446.462949	1.000465
446.837837	0.999602
447.212664	0.999291
447.587431	0.999486
447.962139	0.999391
448.336786	1.000216
448.711374	0.999924
449.085901	0.999444
449.460369	0.999825
449.834776	0.999246
450.209124	0.999584
450.583412	0.999653
450.957640	0.999697
451.331808	0.999201
451.705917	1.000087
452.079965	0.999278
452.453954	0.999476
452.827883	0.999030
453.201752	1.000497
453.575562	0.999937
453.949311	1.000062
454.323001	0.998471
454.696632	0.999060
455.070202	0.999283
455.443713	0.998691
455.817164	0.999321
456.190556	0.999803
456.563888	0.998966
456.937160	1.000310
457.310373	0.999067
457.683526	0.998872
458.056619	0.999271
458.429653	0.999056
458.802628	0.998599
459.175542	0.998167
459.548398	0.998989
459.921194	0.999148
460.293930	0.999450
460.666607	0.999374
461.039224	0.998352
461.411782	1.000084
461.784280	0.998826
462.156719	1.000279
462.529099	0.999856
462.901419	0.999558
463.273680	0.999006
463.645882	0.999538
464.018024	0.998997
464.390106	0.998930
464.762130	1.000233
465.134094	0.998852
465.505999	1.000445
465.877845	0.999619
466.249631	1.000843
466.621358	1.000212
466.993026	0.999469
467.364634	0.999779
467.736184	1.000167
468.107674	0.999760
468.479105	0.999087
468.850477	1.000152
469.221790	1.000150
469.593043	1.000014
469.964238	1.000290
470.335373	0.999212
470.706449	0.999920
471.077467	1.000296
471.448425	1.000351
471.819324	1.000704
472.190164	0.999212
472.560945	1.000040
472.931667	0.999167
473.302330	0.999086
473.672934	0.999940
474.043479	0.999870
474.413965	0.999691
474.784393	0.999852
475.154761	0.999438
475.525070	0.999085
475.895321	1.000015
476.265513	0.999618
476.635645	0.999425
477.005719	1.000033
477.375734	0.999756
477.745691	0.999035
478.115588	0.999447
478.485427	0.999862
478.855207	0.999766
479.224928	1.000304
479.594591	1.000515
479.964194	1.000039
480.333739	0.999533
480.703226	0.999859
481.072653	1.000643
481.442022	1.000323
481.811333	0.999938
482.180584	1.000341
482.549777	0.999410
482.918912	0.999927
483.287988	0.999815
483.657005	0.999765
484.025964	1.000071
484.394864	1.000279
484.763706	0.999675
485.132489	0.999816
485.501213	0.999377
485.869879	0.999684
486.238487	0.999914
486.607036	0.999756
486.975527	0.999405
487.343959	0.999239
487.712333	0.999907
488.080648	0.999872
488.448905	0.999642
488.817104	0.999554
489.185244	1.000412
489.553326	0.999907
489.921350	1.000113
490.289315	0.999975
490.657222	0.999802
491.025070	0.999912
491.392861	1.000230
491.760593	0.999952
492.128267	0.999491
492.495883	0.999442
492.863440	0.999614
493.230939	0.999524
493.598380	0.999065
493.965763	0.999423
494.333088	0.999341
494.700354	0.998919
495.067563	0.999321
495.434713	0.998835
495.801805	0.999894
496.168839	0.999139
496.535815	0.998924
496.902733	0.998898
497.269593	0.999157
497.636395	0.998446
498.003139	0.999246
498.369825	0.999118
498.736453	0.998576
499.103023	0.998923
499.469535	0.998292
499.835989	0.998813
500.202385	0.999145
500.568723	0.998720
500.935003	0.998792
501.301226	0.998761
501.667390	0.998155
502.033497	0.998149
502.399546	0.999143
502.765537	0.997605
503.131470	0.997586
503.497345	0.997014
503.863163	0.998430
504.228923	0.997630
504.594625	0.996816
504.960269	0.997131
505.325856	0.996619
505.691385	0.996199
506.056856	0.996268
506.422270	0.995452
506.787625	0.995583
507.152924	0.995471
507.518164	0.994653
507.883347	0.994919
508.248472	0.993606
508.613540	0.993916
508.978550	0.993272
509.343503	0.992918
509.708398	0.993009
510.073236	0.991542
510.438016	0.991870
510.802738	0.990924
511.167403	0.990706
511.532010	0.989329
511.896561	0.988992
512.261053	0.989055
512.625488	0.987488
512.989866	0.986432
513.354186	0.986596
513.718449	0.985558
514.082655	0.985063
514.446803	0.983403
514.810894	0.982957
515.174927	0.982325
515.538904	0.981089
515.902822	0.981003
516.266684	0.979805
516.630488	0.978920
516.994235	0.977852
517.357925	0.976185
517.721558	0.974876
518.085133	0.973472
518.448651	0.973292
518.812112	0.971424
519.175516	0.969631
519.538863	0.968789
519.902152	0.966876
520.265385	0.964872
520.628560	0.963964
520.991678	0.962410
521.354739	0.961288
521.717743	0.959349
522.080690	0.958331
522.443580	0.955418
522.806413	0.953741
523.169189	0.951788
523.531908	0.949595
523.894569	0.948027
524.257174	0.946656
524.619722	0.944388
524.982213	0.942872
525.344647	0.939589
525.707025	0.937244
526.069345	0.934534
526.431608	0.932460
526.793815	0.930750
527.155964	0.927642
527.518057	0.926195
527.880093	0.923890
528.242072	0.920879
528.603995	0.917310
528.965860	0.916646
529.327669	0.912418
529.689421	0.909427
530.051117	0.908178
530.412755	0.903618
530.774337	0.901591
531.135862	0.896681
531.497331	0.894423
531.858743	0.891420
532.220098	0.888077
532.581396	0.884632
532.942638	0.882339
533.303824	0.878241
533.664953	0.874883
534.026025	0.871614
534.387040	0.867458
534.747999	0.864596
535.108902	0.860022
535.469748	0.856961
535.830537	0.852872
536.191270	0.849327
536.551947	0.845361
536.912567	0.841125
537.273131	0.838445
537.633638	0.833575
537.994089	0.829477
538.354483	0.826298
538.714821	0.821693
539.075103	0.817106
539.435328	0.812766
539.795497	0.811159
540.155609	0.805199
540.515665	0.800991
540.875665	0.797980
541.235609	0.793052
541.595496	0.788514
541.955328	0.782515
542.315102	0.779832
542.674821	0.775982
543.034483	0.771632
543.394090	0.767026
543.753640	0.763231
544.113134	0.756026
544.472571	0.753522
544.831953	0.747292
545.191278	0.744086
545.550548	0.740380
545.909761	0.733707
546.268918	0.728955
546.628019	0.724344
546.987064	0.719301
547.346053	0.717134
547.704986	0.710389
548.063863	0.706003
548.422684	0.701999
548.781449	0.697140
549.140158	0.691356
549.498811	0.687893
549.857408	0.684855
550.215949	0.677054
550.574434	0.674029
550.932864	0.667323
551.291237	0.663608
551.649555	0.657487
552.007817	0.653574
552.366022	0.649081
552.724173	0.645154
553.082267	0.640642
553.440305	0.632553
553.798288	0.632117
554.156215	0.624066
554.514086	0.620046
554.871902	0.617443
555.229661	0.612474
555.587365	0.608504
555.945014	0.606810
556.302606	0.598118
556.660143	0.596506
557.017625	0.588729
557.375050	0.585705
557.732421	0.579266
558.089735	0.575603
558.446994	0.571966
558.804197	0.566821
559.161345	0.562211
559.518437	0.561039
559.875474	0.553303
560.232455	0.548585
560.589381	0.545959
560.946251	0.539391
561.303065	0.535366
561.659825	0.531158
562.016528	0.528124
562.373177	0.526045
562.729770	0.518706
563.086307	0.516711
563.442789	0.511331
563.799216	0.507275
564.155587	0.503026
564.511904	0.498592
564.868164	0.495487
565.224370	0.491296
565.580520	0.487090
565.936615	0.484539
566.292654	0.481914
566.648638	0.476284
567.004567	0.472320
567.360441	0.469558
567.716260	0.466556
568.072023	0.461583
568.427732	0.457767
568.783385	0.457792
569.138982	0.450951
569.494525	0.447449
569.850013	0.446480
570.205445	0.441084
570.560823	0.440425
570.916145	0.437765
571.271412	0.433596
571.626625	0.431126
571.981782	0.428209
572.336884	0.425407
572.691931	0.422536
573.046923	0.419018
573.401860	0.417620
573.756743	0.415533
574.111570	0.411509
574.466342	0.409374
574.821059	0.405325
575.175722	0.404945
575.530330	0.401008
575.884882	0.399151
576.239380	0.397657
576.593823	0.395172
576.948211	0.391900
577.302544	0.392613
577.656823	0.388715
578.011047	0.386847
578.365216	0.384489
578.719330	0.383918
579.073389	0.380665
579.427394	0.379885
579.781344	0.378400
580.135239	0.376858
580.489080	0.374475
580.842866	0.374845
581.196597	0.372173
581.550273	0.369322
581.903895	0.367653
582.257463	0.364303
582.610975	0.365064
582.964434	0.362633
583.317837	0.362923
583.671186	0.361525
584.024481	0.359543
584.377721	0.360218
584.730906	0.358746
585.084037	0.355698
585.437113	0.356014
585.790135	0.353070
586.143103	0.354296
586.496016	0.354067
586.848874	0.349831
587.201679	0.349512
587.554428	0.350628
587.907124	0.347887
588.259765	0.346954
588.612352	0.346069
588.964884	0.348528
589.317362	0.346721
589.669786	0.345078
590.022155	0.342469
590.374470	0.340175
590.726731	0.341011
591.078937	0.344219
591.431090	0.338948
591.783188	0.342078
592.135232	0.341034
592.487222	0.340356
592.839157	0.337503
593.191038	0.338345
593.542866	0.339204
593.894639	0.341636
594.246358	0.338316
594.598022	0.337010
594.949633	0.339346
595.301190	0.339187
595.652692	0.337666
596.004141	0.332545
596.355535	0.339580
596.706876	0.338893
597.058162	0.340511
597.409395	0.337065
597.760573	0.334049
598.111698	0.335958
598.462768	0.335888
598.813785	0.336537
599.164748	0.337308
599.515657	0.336388
599.866511	0.339335
600.217312	0.334327
600.568060	0.338766
600.918753	0.334656
601.269392	0.335055
601.619978	0.337653
601.970510	0.334928
602.320988	0.334278
602.671412	0.331766
603.021783	0.333607
603.372100	0.334286
603.722363	0.333468
604.072572	0.334371
604.422728	0.333311
604.772830	0.334999
605.122878	0.333978
605.472872	0.334010
605.822813	0.332204
606.172701	0.334495
606.522534	0.331335
606.872314	0.331173
607.222041	0.331817
607.571714	0.329964
607.921333	0.330497
608.270899	0.330183
608.620411	0.326757
608.969870	0.330416
609.319276	0.330311
609.668627	0.330056
610.017926	0.328175
610.367171	0.326309
610.716362	0.326936
611.065500	0.326952
611.414585	0.325189
611.763616	0.325691
612.112594	0.326058
612.461518	0.325405
612.810389	0.322698
613.159207	0.324785
613.507971	0.326887
613.856682	0.322138
614.205340	0.323730
614.553945	0.320435
614.902496	0.324178
615.250994	0.321769
615.599439	0.322404
615.947830	0.321848
616.296169	0.322808
616.644454	0.321897
616.992686	0.321788
617.340864	0.319519
617.688990	0.323202
618.037063	0.319963
618.385082	0.321409
618.733048	0.318573
619.080961	0.320534
619.428821	0.319940
619.776628	0.319653
620.124382	0.321067
620.472083	0.321235
620.819731	0.320537
621.167326	0.324549
621.514868	0.324108
621.862357	0.328797
622.209793	0.327674
622.557176	0.330121
622.904506	0.331210
623.251783	0.333125
623.599007	0.335388
623.946179	0.334820
624.293297	0.336935
624.640363	0.340250
624.987376	0.341054
625.334336	0.343570
625.681243	0.345435
626.028097	0.345926
626.374899	0.347666
626.721647	0.347278
627.068343	0.350249
627.414987	0.351284
627.761577	0.353533
628.108115	0.351661
628.454600	0.356879
628.801032	0.353849
629.147412	0.355928
629.493739	0.356599
629.840014	0.359753
630.186236	0.357077
630.532405	0.362437
630.878521	0.359693
631.224585	0.362242
631.570597	0.365966
631.916556	0.364050
632.262462	0.364260
632.608316	0.366050
632.954117	0.366926
633.299866	0.368142
633.645562	0.368170
633.991206	0.372765
634.336797	0.375370
634.682336	0.377439
635.027823	0.379493
635.373257	0.379741
635.718639	0.382860
636.063968	0.382473
636.409245	0.388517
636.754470	0.388418
637.099642	0.390986
637.444762	0.394434
637.789829	0.393314
638.134845	0.396753
638.479808	0.397852
638.824719	0.397137
639.169577	0.401261
639.514383	0.400421
639.859137	0.404792
640.203839	0.404419
640.548489	0.404962
640.893086	0.406297
641.237632	0.407547
641.582125	0.406258
641.926566	0.407796
642.270955	0.407735
642.615292	0.408246
642.959576	0.407334
643.303809	0.407783
643.647990	0.407474
643.992118	0.407925
644.336195	0.411338
644.680219	0.409804
645.024192	0.410338
645.368112	0.403941
645.711981	0.402832
646.055797	0.398545
646.399562	0.400788
646.743274	0.392758
647.086935	0.390565
647.430544	0.390489
647.774101	0.388813
648.117606	0.389134
648.461059	0.389021
648.804460	0.391541
649.147810	0.396769
649.491108	0.398650
649.834354	0.400013
650.177548	0.405545
650.520690	0.410735
650.863781	0.411991
651.206820	0.411105
651.549807	0.415929
651.892742	0.419761
652.235626	0.419202
652.578458	0.420594
652.921238	0.425874
653.263967	0.424656
653.606644	0.428527
653.949269	0.427897
654.291843	0.431625
654.634365	0.428048
654.976836	0.432023
655.319255	0.432035
655.661622	0.433418
656.003938	0.433838
656.346203	0.436509
656.688416	0.433934
657.030577	0.437858
657.372687	0.438969
657.714746	0.439765
658.056753	0.437091
658.398708	0.441326
658.740612	0.442653
659.082465	0.438159
659.424266	0.439167
659.766016	0.438033
660.107715	0.440924
660.449362	0.439966
660.790958	0.440642
661.132503	0.440883
661.473996	0.439127
661.815438	0.440184
662.156829	0.440209
662.498168	0.440495
662.839456	0.441864
663.180693	0.439653
663.521879	0.439835
663.863013	0.440539
664.204097	0.439781
664.545129	0.436150
664.886110	0.436152
665.227040	0.433497
665.567918	0.436126
665.908746	0.434319
666.249522	0.433950
666.590248	0.435152
666.930922	0.433022
667.271545	0.432143
667.612118	0.432326
667.952639	0.434110
668.293109	0.432337
668.633528	0.435220
668.973896	0.435429
669.314213	0.435455
669.654480	0.437219
669.994695	0.437238
670.334859	0.438190
670.674973	0.439076
671.015035	0.438750
671.355047	0.438479
671.695008	0.439318
672.034918	0.441344
672.374777	0.441272
672.714585	0.441723
673.054342	0.442618
673.394049	0.442419
673.733705	0.439859
674.073310	0.441070
674.412864	0.443964
674.752368	0.444515
675.091820	0.444910
675.431223	0.449409
675.770574	0.448835
676.109875	0.452044
676.449125	0.451799
676.788324	0.454282
677.127473	0.459436
677.466571	0.459168
677.805619	0.460999
678.144616	0.461722
678.483562	0.463944
678.822458	0.466143
679.161303	0.466914
679.500098	0.467748
679.838842	0.469096
680.177535	0.468460
680.516179	0.467101
680.854771	0.466539
681.193314	0.460043
681.531805	0.451404
681.870247	0.439688
682.208638	0.432345
682.546978	0.431432
682.885268	0.432798
683.223508	0.438820
683.561697	0.443033
683.899836	0.445540
684.237925	0.449595
684.575963	0.451753
684.913951	0.454715
685.251889	0.450427
685.589776	0.452424
685.927614	0.454744
686.265401	0.448998
686.603137	0.450435
686.940824	0.444669
687.278460	0.442974
687.616046	0.442419
687.953582	0.437336
688.291068	0.438537
688.628504	0.434396
688.965889	0.436935
689.303224	0.440785
689.640510	0.444525
689.977745	0.450227
690.314930	0.458282
690.652065	0.462229
690.989150	0.470159
691.326185	0.476377
691.663170	0.481173
692.000105	0.488367
692.336990	0.495445
692.673825	0.497667
693.010610	0.504353
693.347345	0.510234
693.684030	0.511316
694.020665	0.516264
694.357251	0.525338
694.693786	0.524592
695.030272	0.529067
695.366707	0.532063
695.703093	0.535738
696.039429	0.533147
696.375716	0.534953
696.711952	0.538474
697.048139	0.539732
697.384276	0.541797
697.720363	0.540311
698.056400	0.539191
698.392388	0.544584
698.728326	0.547889
699.064214	0.550460
699.400053	0.550388
699.735842	0.554748
700.071581	0.557684
700.407270	0.559978
700.742910	0.563179
701.078501	0.569567
701.414042	0.569009
701.749533	0.572853
702.084974	0.581629
702.420366	0.573848
702.755709	0.581704
703.091002	0.589154
703.426246	0.582379
703.761440	0.588718
704.096584	0.593252
704.431679	0.590284
704.766725	0.592308
705.101721	0.593627
705.436668	0.589789
705.771565	0.596803
706.106413	0.593877
706.441212	0.589133
706.775961	0.587667
707.110661	0.591026
707.445311	0.587112
707.779913	0.584130
708.114465	0.583037
708.448967	0.579402
708.783421	0.571925
709.117825	0.566077
709.452180	0.566384
709.786485	0.560366
710.120742	0.550302
710.454949	0.552056
710.789107	0.543910
711.123216	0.535033
711.457275	0.537387
711.791286	0.527837
712.125247	0.527082
712.459159	0.537493
712.793023	0.530853
713.126837	0.534419
713.460602	0.534335
713.794318	0.544311
714.127985	0.542711
714.461602	0.552940
714.795171	0.556232
715.128691	0.564281
715.462162	0.571416
715.795584	0.576347
716.128957	0.579590
716.462281	0.585903
716.795556	0.590132
717.128782	0.595136
717.461960	0.603829
717.795088	0.602616
718.128167	0.608937
718.461198	0.617065
718.794180	0.618445
719.127113	0.621626
719.459997	0.624514
719.792833	0.630623
720.125619	0.632406
720.458357	0.638022
720.791046	0.636495
721.123686	0.641046
721.456278	0.647867
721.788821	0.645709
722.121315	0.648967
722.453761	0.653370
722.786158	0.650777
723.118506	0.648221
723.450805	0.655507
723.783056	0.651600
724.115259	0.648646
724.447412	0.648803
724.779518	0.650004
725.111574	0.648290
725.443582	0.644377
725.775542	0.646492
726.107453	0.638956
726.439315	0.638634
726.771129	0.637348
727.102895	0.630176
727.434612	0.623484
727.766281	0.622082
728.097901	0.620719
728.429473	0.620848
728.760996	0.618721
729.092471	0.618887
729.423897	0.622730
729.755276	0.622199
730.086606	0.621120
730.417887	0.616443
730.749120	0.607021
731.080305	0.598629
731.411442	0.594027
731.742530	0.599460
732.073570	0.598106
732.404562	0.590425
732.735506	0.592090
733.066401	0.597105
733.397249	0.606117
733.728048	0.617788
734.058798	0.630028
734.389501	0.639767
734.720156	0.650283
735.050762	0.657647
735.381320	0.658723
735.711831	0.667685
736.042293	0.672904
736.372707	0.668648
736.703073	0.673497
737.033391	0.675095
737.363661	0.672556
737.693883	0.667362
738.024056	0.666731
738.354182	0.667165
738.684260	0.656154
739.014290	0.652469
739.344272	0.653492
739.674207	0.646367
740.004093	0.646778
740.333931	0.647337
740.663722	0.647040
740.993464	0.647646
741.323159	0.651354
741.652806	0.655978
741.982405	0.660863
742.311956	0.665362
742.641460	0.667539
742.970915	0.671336
743.300323	0.678596
743.629683	0.685071
743.958996	0.687138
744.288260	0.691715
744.617477	0.697029
744.946647	0.698619
745.275768	0.704472
745.604842	0.703358
745.933869	0.713857
746.262847	0.714564
746.591778	0.708094
746.920662	0.713971
747.249498	0.720694
747.578286	0.711815
747.907027	0.708376
748.235720	0.709043
748.564365	0.703672
748.892963	0.702495
749.221514	0.706058
749.550017	0.711218
749.878473	0.711478
750.206881	0.717819
750.535242	0.719271
750.863555	0.718033
751.191821	0.719631
751.520039	0.723225
751.848210	0.727975
752.176334	0.720949
752.504411	0.719521
752.832440	0.727430
753.160421	0.730887
753.488356	0.729790
753.816243	0.726364
754.144082	0.735553
754.471875	0.738561
754.799620	0.734010
755.127318	0.735885
755.454969	0.735956
755.782572	0.733899
756.110129	0.739544
756.437638	0.742773
756.765100	0.739149
757.092515	0.736758
757.419882	0.735548
757.747203	0.741193
758.074477	0.740238
758.401703	0.737891
758.728882	0.732714
759.056014	0.731849
759.383099	0.730915
759.710138	0.732258
760.037129	0.729504
760.364073	0.722412
760.690970	0.725138
761.017820	0.730454
761.344623	0.726408
761.671379	0.717283
761.998088	0.705641
762.324751	0.683052
762.651366	0.641511
762.977935	0.576269
763.304456	0.523688
763.630931	0.514786
763.957359	0.553038
764.283740	0.597763
764.610074	0.624735
764.936362	0.655329
765.262602	0.680784
765.588796	0.702918
765.914943	0.721202
766.241044	0.738419
766.567097	0.744616
766.893104	0.754861
767.219064	0.760157
767.544978	0.766781
767.870845	0.780417
768.196665	0.785197
768.522438	0.781475
768.848165	0.783505
769.173846	0.793117
769.499479	0.797257
769.825066	0.800796
770.150607	0.806010
770.476101	0.800497
770.801548	0.801804
771.126949	0.813059
771.452303	0.816546
771.777611	0.816466
772.102872	0.814752
772.428087	0.820618
772.753256	0.823882
773.078378	0.825805
773.403453	0.834910
773.728482	0.839448
774.053465	0.832033
774.378401	0.835725
774.703291	0.844895
775.028135	0.843079
775.352932	0.845893
775.677683	0.848754
776.002388	0.849383
776.327046	0.848351
776.651658	0.851026
776.976224	0.855100
777.300743	0.855165
777.625216	0.856004
777.949643	0.858524
778.274024	0.858826
778.598359	0.861083
778.922647	0.859464
779.246889	0.859444
779.571086	0.863152
779.895236	0.866505
780.219339	0.863306
780.543397	0.860132
780.867409	0.859004
781.191374	0.860631
781.515294	0.861699
781.839167	0.861249
782.162995	0.865018
782.486776	0.863144
782.810511	0.862200
783.134201	0.865745
783.457844	0.864244
783.781441	0.866621
784.104993	0.872573
784.428498	0.872440
784.751958	0.867986
785.075372	0.871268
785.398739	0.875416
785.722061	0.870193
786.045337	0.866559
786.368568	0.872196
786.691752	0.874560
787.014891	0.859425
787.337983	0.850393
787.661030	0.843845
787.984031	0.825280
788.306987	0.813656
788.629897	0.815645
788.952760	0.819217
789.275579	0.824370
789.598351	0.839240
789.921078	0.852108
790.243759	0.854081
790.566395	0.858758
790.888984	0.866709
791.211529	0.870560
791.534027	0.874607
791.856480	0.875581
792.178888	0.882608
792.501249	0.883542
792.823566	0.885153
793.145836	0.884977
793.468062	0.886104
793.790241	0.886344
794.112375	0.885417
794.434464	0.879908
794.756507	0.878998
795.078505	0.879190
795.400457	0.874631
795.722364	0.862813
796.044226	0.855349
796.366042	0.855239
796.687812	0.857528
797.009538	0.853269
797.331218	0.856966
797.652852	0.862148
797.974442	0.865965
798.295986	0.866209
798.617484	0.868435
798.938938	0.874042
799.260346	0.878102
799.581709	0.880066
799.903026	0.882438
800.224299	0.883236
800.545526	0.886935
800.866708	0.890895
801.187845	0.894800
801.508936	0.894704
801.829983	0.892174
802.150984	0.893983
802.471940	0.899741
802.792851	0.899191
803.113717	0.899822
803.434538	0.897634
803.755314	0.900167
804.076045	0.901712
804.396731	0.901997
804.717372	0.901650
805.037967	0.904476
805.358518	0.901145
805.679024	0.898331
805.999485	0.899099
806.319901	0.898991
806.640272	0.899547
806.960598	0.899756
807.280879	0.894433
807.601115	0.893795
807.921306	0.897480
808.241453	0.898362
808.561554	0.895503
808.881611	0.896379
809.201623	0.898473
809.521590	0.898084
809.841513	0.899357
810.161390	0.898870
810.481223	0.899983
810.801011	0.903654
811.120755	0.904079
811.440453	0.904429
811.760107	0.902339
812.079716	0.902255
812.399281	0.905406
812.718801	0.908664
813.038276	0.909645
813.357707	0.909078
813.677093	0.905840
813.996434	0.908452
814.315731	0.909080
814.634983	0.910887
814.954191	0.909532
815.273354	0.907178
815.592473	0.903418
815.911547	0.903624
816.230577	0.900903
816.549562	0.898969
816.868502	0.898954
817.187399	0.895888
817.506250	0.889659
817.825058	0.893180
818.143821	0.888262
818.462539	0.883550
818.781213	0.875978
819.099843	0.865331
819.418429	0.849654
819.736970	0.832922
820.055466	0.814139
820.373919	0.789047
820.692327	0.756361
821.010691	0.722194
821.329011	0.646747
821.647286	0.533609
821.965517	0.421335
822.283704	0.379365
822.601847	0.380986
822.919945	0.416753
823.237999	0.449083
823.556010	0.494793
823.873976	0.550037
824.191897	0.599635
824.509775	0.640679
824.827609	0.685311
825.145398	0.708083
825.463144	0.710547
825.780845	0.694381
826.098502	0.675317
826.416116	0.630384
826.733685	0.587675
827.051210	0.579045
827.368692	0.593691
827.686129	0.630370
828.003522	0.682599
828.320872	0.728940
828.638177	0.772485
828.955439	0.803760
829.272656	0.825679
829.589830	0.842161
829.906960	0.858439
830.224046	0.870099
830.541088	0.879815
830.858086	0.884387
831.175041	0.890230
831.491952	0.889176
831.808819	0.885679
832.125642	0.879442
832.442421	0.865260
832.759157	0.844079
833.075849	0.798886
833.392497	0.736373
833.709101	0.695985
834.025662	0.705723
834.342179	0.736264
834.658653	0.775871
834.975083	0.810017
835.291469	0.836389
835.607811	0.858206
835.924110	0.872918
836.240366	0.891284
836.556578	0.904239
836.872746	0.911966
837.188871	0.916750
837.504952	0.922665
837.820990	0.925368
838.136984	0.928621
838.452935	0.931768
838.768842	0.933562
839.084706	0.927876
839.400526	0.901732
839.716303	0.862133
840.032037	0.841042
840.347727	0.843794
840.663373	0.861968
840.978977	0.882295
841.294537	0.904928
841.610054	0.921856
841.925527	0.927934
842.240957	0.934772
842.556344	0.941458
842.871687	0.947683
843.186987	0.951743
843.502244	0.951835
843.817458	0.953130
844.132629	0.956577
844.447756	0.961849
844.762840	0.962080
845.077881	0.960971
845.392879	0.960292
845.707833	0.964447
846.022745	0.965932
846.337613	0.965798
846.652438	0.967445
846.967221	0.965762
847.281960	0.966999
847.596656	0.968879
847.911309	0.966379
848.225919	0.969075
848.540485	0.970386
848.855009	0.969709
849.169490	0.969204
849.483928	0.970382
849.798323	0.970053
850.112675	0.972260
850.426984	0.969947
850.741251	0.970755
851.055474	0.970857
851.369654	0.969027
851.683792	0.970221
851.997887	0.970123
852.311938	0.971526
852.625947	0.970577
852.939914	0.969969
853.253837	0.971854
853.567718	0.972399
853.881555	0.972355
854.195350	0.970102
854.509103	0.970349
854.822812	0.970187
855.136479	0.971620
855.450103	0.970491
855.763685	0.969099
856.077224	0.969680
856.390720	0.971329
856.704173	0.971333
857.017584	0.970486
857.330953	0.968233
857.644278	0.969316
857.957561	0.970157
858.270802	0.970160
858.584000	0.969266
858.897155	0.968150
859.210268	0.968802
859.523339	0.969587
859.836367	0.971150
860.149352	0.972270
860.462295	0.970016
860.775195	0.970957
861.088054	0.969734
861.400869	0.970670
861.713642	0.971182
862.026373	0.972005
862.339062	0.972046
862.651708	0.969761
862.964312	0.968860
863.276873	0.971103
863.589392	0.970056
863.901869	0.967913
864.214303	0.966876
864.526696	0.965802
864.839045	0.965050
865.151353	0.963717
865.463619	0.963907
865.775842	0.963204
866.088023	0.964703
866.400162	0.964072
866.712258	0.963549
867.024313	0.964974
867.336325	0.966216
867.648296	0.965236
867.960224	0.962992
868.272110	0.963532
868.583954	0.965789
868.895755	0.964978
869.207515	0.962764
869.519233	0.961603
869.830909	0.962763
870.142542	0.964221
870.454134	0.963588
870.765684	0.962219
871.077191	0.958978
871.388657	0.961419
871.700081	0.960252
872.011463	0.959899
872.322803	0.959539
872.634101	0.958936
872.945357	0.956385
873.256571	0.954241
873.567744	0.954521
873.878874	0.955921
874.189963	0.953500
874.501010	0.953417
874.812015	0.951056
875.122979	0.952752
875.433900	0.955692
875.744780	0.956241
876.055618	0.953457
876.366415	0.951345
876.677169	0.951689
876.987882	0.952730
877.298554	0.952775
877.609183	0.950598
877.919771	0.947594
878.230317	0.945936
878.540822	0.942379
878.851285	0.937625
879.161707	0.929984
879.472087	0.918119
879.782425	0.903420
880.092722	0.870213
880.402977	0.819991
880.713191	0.761961
881.023363	0.705244
881.333494	0.672684
881.643583	0.644132
881.953631	0.644002
882.263637	0.672764
882.573602	0.712275
882.883526	0.736119
883.193408	0.757865
883.503248	0.779782
883.813048	0.806620
884.122806	0.834561
884.432522	0.857112
884.742197	0.876205
885.051831	0.885684
885.361424	0.896764
885.670975	0.908033
885.980485	0.917459
886.289954	0.922892
886.599382	0.928027
886.908768	0.932326
887.218113	0.937451
887.527417	0.942607
887.836680	0.944144
888.145901	0.947471
888.455082	0.948661
888.764221	0.953226
889.073319	0.954020
889.382376	0.955580
889.691392	0.954788
890.000366	0.954058
890.309300	0.955571
890.618193	0.954704
890.927044	0.953607
891.235855	0.953058
891.544625	0.952854
891.853353	0.954829
892.162041	0.951772
892.470687	0.945087
892.779293	0.940856
893.087858	0.937144
893.396381	0.929518
893.704864	0.917114
894.013306	0.895161
894.321707	0.868756
894.630068	0.854717
894.938387	0.851268
895.246665	0.851978
895.554903	0.863624
895.863100	0.876030
896.171256	0.893291
896.479371	0.911143
896.787446	0.923751
897.095480	0.929179
897.403473	0.932252
897.711425	0.936467
898.019336	0.943983
898.327207	0.946032
898.635038	0.948212
898.942827	0.947913
899.250576	0.951765
899.558284	0.954921
899.865952	0.956974
900.173579	0.957953
900.481165	0.958180
900.788711	0.962566
901.096216	0.963345
901.403681	0.964318
901.711105	0.964815
902.018489	0.966197
902.325832	0.964853
902.633135	0.963738
902.940397	0.957554
903.247619	0.946546
903.554800	0.921212
903.861941	0.884768
904.169041	0.851867
904.476101	0.836143
904.783121	0.835464
905.090100	0.851366
905.397039	0.872362
905.703938	0.892461
906.010796	0.912230
906.317614	0.926717
906.624391	0.937558
906.931129	0.947521
907.237826	0.955488
907.544483	0.961137
907.851099	0.965290
908.157675	0.969240
908.464211	0.971210
908.770707	0.975228
909.077163	0.974745
909.383578	0.976247
909.689954	0.976257
909.996289	0.977494
910.302584	0.979556
910.608839	0.981559
910.915054	0.980043
911.221229	0.980231
911.527363	0.978848
911.833458	0.978424
912.139513	0.978268
912.445527	0.976279
912.751502	0.976225
913.057436	0.974546
913.363331	0.971808
913.669186	0.969230
913.975000	0.964631
914.280775	0.958846
914.586510	0.952075
914.892205	0.939814
915.197859	0.920338
915.503475	0.892730
915.809050	0.875400
916.114585	0.871407
916.420081	0.868326
916.725536	0.864838
917.030952	0.872293
917.336328	0.884395
917.641665	0.897944
917.946961	0.914960
918.252218	0.924957
918.557435	0.932590
918.862612	0.940295
919.167750	0.945922
919.472848	0.949472
919.777906	0.955316
920.082925	0.960764
920.387904	0.963654
920.692843	0.965749
920.997743	0.966746
921.302603	0.969688
921.607423	0.970911
921.912204	0.973814
922.216946	0.973526
922.521647	0.975610
922.826310	0.975235
923.130932	0.977653
923.435516	0.979216
923.740059	0.981049
924.044564	0.980693
924.349028	0.982141
924.653454	0.984761
924.957840	0.985938
925.262186	0.985589
925.566493	0.984932
925.870761	0.985597
926.174989	0.986431
926.479178	0.988969
926.783328	0.989143
927.087438	0.989071
927.391509	0.988663
927.695541	0.990749
927.999533	0.989364
928.303486	0.990213
928.607400	0.992610
928.911275	0.990645
929.215110	0.990222
929.518906	0.991824
929.822663	0.991233
930.126381	0.990486
930.430060	0.991328
930.733699	0.991231
931.037299	0.990522
931.340861	0.990445
931.644383	0.990031
931.947866	0.990403
932.251309	0.991659
932.554714	0.991038
932.858080	0.991026
933.161407	0.991499
933.464694	0.991440
933.767943	0.990177
934.071153	0.992423
934.374323	0.991985
934.677455	0.992179
934.980548	0.991871
935.283602	0.991663
935.586617	0.992280
935.889593	0.991459
936.192530	0.991825
936.495428	0.992405
936.798287	0.992605
937.101108	0.991142
937.403890	0.989614
937.706632	0.989457
938.009336	0.988623
938.312002	0.986500
938.614628	0.985382
938.917216	0.984841
939.219765	0.982597
939.522275	0.985388
939.824747	0.985552
940.127179	0.984442
940.429573	0.986585
940.731929	0.985816
941.034246	0.984882
941.336524	0.987280
941.638763	0.988353
941.940964	0.985644
942.243126	0.988794
942.545250	0.989947
942.847335	0.988890
943.149381	0.989723
943.451389	0.989634
943.753359	0.988422
944.055290	0.992272
944.357182	0.991466
944.659036	0.990229
944.960851	0.990667
945.262628	0.990837
945.564367	0.991649
945.866067	0.990805
946.167729	0.991726
946.469352	0.991454
946.770937	0.990999
947.072484	0.991202
947.373992	0.991627
947.675462	0.990699
947.976893	0.989842
948.278286	0.991916
948.579641	0.992858
948.880958	0.991904
949.182236	0.992127
949.483476	0.991515
949.784678	0.991574
950.085841	0.991408
950.386967	0.991340
950.688054	0.992467
950.989103	0.992043
951.290114	0.990027
951.591087	0.990293
951.892021	0.991289
952.192917	0.989940
952.493776	0.988811
952.794596	0.989369
953.095378	0.989025
953.396122	0.989091
953.696828	0.988418
953.997496	0.990455
954.298126	0.991186
954.598718	0.990946
954.899272	0.991368
955.199788	0.991001
955.500266	0.992776
955.800706	0.993371
956.101108	0.993688
956.401472	0.993425
956.701798	0.994847
957.002087	0.994147
957.302337	0.993674
957.602550	0.995523
957.902724	0.994653
958.202861	0.994167
958.502960	0.994977
958.803022	0.995678
959.103045	0.995973
959.403031	0.996197
959.702979	0.996210
960.002889	0.995566
960.302762	0.994317
960.602596	0.995424
960.902393	0.995482
961.202153	0.997261
961.501875	0.997682
961.801559	0.995353
962.101205	0.995875
962.400814	0.996315
962.700385	0.996452
962.999918	0.997189
963.299414	0.996891
963.598873	0.996480
963.898293	0.996054
964.197677	0.996124
964.497022	0.996039
964.796331	0.998706
965.095601	0.996577
965.394835	0.996829
965.694030	0.995980
965.993189	0.997950
966.292309	0.996657
966.591393	0.997457
966.890439	0.997960
967.189447	0.996963
967.488419	0.998979
967.787353	0.996921
968.086249	0.996171
968.385108	0.997542
968.683930	0.997541
968.982714	0.996890
969.281462	0.997244
969.580172	0.996910
969.878844	0.997308
970.177480	0.996874
970.476078	0.997171
970.774639	0.996992
971.073162	0.996910
971.371649	0.996168
971.670098	0.996836
971.968510	0.996145
972.266885	0.994506
972.565223	0.997495
972.863524	0.996025
973.161788	0.996514
973.460014	0.996733
973.758204	0.996348
974.056356	0.995506
974.354471	0.995332
974.652550	0.996773
974.950591	0.995497
975.248595	0.996609
975.546563	0.997329
975.844493	0.998306
976.142386	0.996350
976.440243	0.997650
976.738062	0.997217
977.035845	0.997560
977.333590	0.996876
977.631299	0.998874
977.928971	0.997194
978.226606	0.997054
978.524204	0.995202
978.821765	0.997833
979.119290	0.996938
979.416777	0.996965
979.714228	0.997063
980.011642	0.996586
980.309020	0.996624
980.606360	0.996765
980.903664	0.999155
981.200931	0.996330
981.498162	0.994671
981.795356	0.995298
982.092513	0.994672
982.389633	0.995117
982.686717	0.992833
982.983764	0.992555
983.280775	0.990857
983.577749	0.991132
983.874686	0.993720
984.171587	0.991853
984.468451	0.994781
984.765279	0.995558
985.062070	0.994747
985.358824	0.995531
985.655543	0.995084
985.952224	0.996509
986.248869	0.996529
986.545478	0.996881
986.842050	0.999104
987.138586	0.995852
987.435086	0.998700
987.731549	0.999146
988.027975	0.997943
988.324366	0.997727
988.620719	0.997153
988.917037	0.996698
989.213318	0.997623
989.509563	0.997558
989.805772	0.997908
990.101944	0.999260
990.398080	0.998620
990.694180	0.998077
990.990244	0.996911
991.286271	0.998219
991.582262	0.998040
991.878217	0.998136
992.174136	0.999373
992.470019	0.999584
992.765865	0.998738
993.061676	0.997700
993.357450	0.998398
993.653188	0.997259
993.948890	0.997857
994.244556	0.997809
994.540186	0.997132
994.835780	0.996359
995.131337	0.998037
995.426859	0.996085
995.722345	0.998348
996.017795	0.996232
996.313208	0.995673
996.608586	0.994910
996.903928	0.996427
997.199234	0.997124
997.494504	0.996828
997.789738	0.996928
998.084936	0.996385
998.380099	0.998268
998.675225	0.996907
998.970316	0.997856
999.265371	0.998387
999.560390	0.998176
999.855373	0.998670
1000.150320	0.997377
1000.445232	0.998850
1000.740108	0.998481
1001.034948	0.998190
1001.329752	1.000000
1001.624521	0.998787
1001.919254	0.998035
1002.213951	0.998103
1002.508613	0.997634
1002.803239	0.998683
1003.097829	0.999239
1003.392384	0.998301
1003.686903	0.998810
1003.981386	0.998798
1004.275834	0.999073
1004.570246	0.998652
1004.864623	0.998490
1005.158964	0.999838
1005.453270	0.998258
1005.747540	0.997079
1006.041775	0.998276
1006.335974	0.999651
1006.630138	0.999529
1006.924266	0.998521
1007.218359	1.000256
1007.512416	0.999307
1007.806438	0.998962
1008.100425	0.998483
1008.394376	0.998887
1008.688292	0.998006
1008.982172	1.000878
1009.276017	0.999284
1009.569827	0.998875
1009.863602	0.998531
1010.157341	1.000019
1010.451045	0.998763
1010.744714	0.998826
1011.038347	0.999691
1011.331945	0.997886
1011.625508	0.997605
1011.919036	0.998879
1012.212528	0.998804
1012.505986	0.997855
1012.799408	0.998535
1013.092795	0.999241
1013.386147	0.998803
1013.679464	0.998883
1013.972745	0.997230
1014.265992	0.997987
1014.559204	0.998319
1014.852380	0.998506
1015.145521	0.998589
1015.438628	0.999394
1015.731699	0.998829
1016.024736	0.999360
1016.317737	0.998419
1016.610703	0.998640
1016.903635	0.998460
1017.196531	0.998276
1017.489393	0.998599
1017.782219	0.998321
1018.075011	0.998907
1018.367768	0.999139
1018.660490	1.000405
1018.953177	1.000405
1019.245829	1.000405
