Dividing Wavelength (nm)	Counts (n)	Blue Motor Position (mm): 0.000000	Red Motor Position (mm): 41.900000	
326.493990	1.000282
326.888308	1.000282
327.282561	1.000282
327.676750	1.000942
328.070874	0.999287
328.464933	1.000551
328.858929	0.999126
329.252859	0.999926
329.646726	1.000028
330.040528	0.999565
330.434265	0.999558
330.827938	1.001575
331.221547	0.999625
331.615091	0.999876
332.008571	1.000421
332.401986	0.999156
332.795338	1.000805
333.188625	0.998720
333.581847	1.000500
333.975006	0.999772
334.368100	0.998817
334.761129	1.000477
335.154095	0.999889
335.546996	0.999601
335.939833	0.998156
336.332606	0.998790
336.725315	0.997511
337.117960	0.998645
337.510540	0.998682
337.903056	0.998614
338.295508	0.997020
338.687896	0.998098
339.080220	0.997173
339.472480	0.998817
339.864676	0.997959
340.256807	0.998118
340.648875	0.999070
341.040879	0.999859
341.432818	0.997239
341.824694	0.997766
342.216506	0.998795
342.608253	0.998523
342.999937	0.997553
343.391557	0.997866
343.783113	0.998018
344.174605	0.998657
344.566033	0.997853
344.957397	0.996902
345.348697	0.997690
345.739934	0.997835
346.131106	0.997354
346.522215	0.997194
346.913260	0.998097
347.304241	0.997052
347.695159	0.998425
348.086012	0.998260
348.476802	0.998157
348.867528	0.998462
349.258191	0.996866
349.648789	0.998441
350.039324	0.997661
350.429796	0.998439
350.820203	0.997706
351.210548	0.998835
351.600828	0.997718
351.991045	0.999058
352.381198	0.997046
352.771288	0.999062
353.161314	0.997595
353.551276	0.998587
353.941175	0.998154
354.331010	0.997572
354.720782	0.997578
355.110490	0.997589
355.500135	0.997832
355.889717	0.997541
356.279235	0.998298
356.668689	0.998216
357.058080	0.997538
357.447408	0.999721
357.836672	0.998294
358.225873	0.998299
358.615010	0.998166
359.004084	0.998891
359.393095	0.999543
359.782043	0.997508
360.170927	0.999251
360.559748	0.998965
360.948505	0.997679
361.337199	0.998926
361.725830	0.998670
362.114398	0.998168
362.502903	0.999748
362.891344	0.999101
363.279722	0.998423
363.668037	0.997721
364.056289	0.997797
364.444478	0.999338
364.832603	0.998617
365.220665	0.997696
365.608665	0.998137
365.996601	0.997934
366.384474	0.997366
366.772284	0.999605
367.160031	0.996603
367.547715	0.997838
367.935336	0.999041
368.322893	0.998188
368.710388	0.996934
369.097820	0.998388
369.485189	0.998148
369.872495	0.998155
370.259738	0.995921
370.646918	0.998595
371.034035	0.999103
371.421090	0.998562
371.808081	0.997555
372.195010	0.998619
372.581875	0.998623
372.968678	0.998609
373.355418	0.998207
373.742096	0.997157
374.128710	0.998753
374.515262	0.997672
374.901751	0.998743
375.288177	0.998182
375.674540	0.999351
376.060841	0.998165
376.447079	0.998367
376.833254	0.997916
377.219367	0.998089
377.605417	0.997515
377.991404	0.998370
378.377329	0.997559
378.763191	0.997946
379.148991	0.999785
379.534727	0.999032
379.920402	0.998439
380.306013	0.999500
380.691563	0.999587
381.077049	0.998533
381.462474	0.998585
381.847835	0.999767
382.233134	0.998003
382.618371	0.998350
383.003545	0.997945
383.388657	0.997914
383.773706	0.998791
384.158693	0.998402
384.543618	0.998117
384.928480	0.999257
385.313280	0.998510
385.698017	0.999634
386.082692	0.999413
386.467305	0.999154
386.851856	0.998161
387.236344	0.998301
387.620770	0.997887
388.005133	0.999002
388.389435	0.999503
388.773674	0.998585
389.157851	0.999307
389.541965	0.999252
389.926018	0.998799
390.310008	0.999404
390.693936	0.998544
391.077802	0.999411
391.461606	0.998576
391.845348	0.997686
392.229027	0.999191
392.612645	0.998795
392.996200	0.999464
393.379694	0.998631
393.763125	0.999226
394.146494	0.999910
394.529801	0.998303
394.913047	0.999760
395.296230	0.999097
395.679351	0.998570
396.062410	0.998811
396.445408	0.999277
396.828343	0.999116
397.211217	0.998722
397.594028	0.999508
397.976778	0.998571
398.359466	0.998458
398.742092	0.999071
399.124656	0.998301
399.507158	0.998131
399.889598	0.998742
400.271977	0.999247
400.654294	0.999336
401.036549	0.999193
401.418742	0.999258
401.800874	0.998370
402.182944	0.998366
402.564952	0.997525
402.946898	1.000102
403.328783	0.998705
403.710606	0.998601
404.092367	0.998443
404.474067	1.000238
404.855705	0.999098
405.237282	0.999385
405.618797	0.999645
406.000250	0.997519
406.381642	0.999438
406.762972	0.998842
407.144240	0.999054
407.525447	0.998621
407.906593	0.999427
408.287677	0.998655
408.668700	0.999318
409.049661	0.999437
409.430560	0.998428
409.811399	0.998924
410.192176	0.999129
410.572891	0.998491
410.953545	0.998811
411.334138	0.997939
411.714669	0.998833
412.095139	0.998185
412.475547	0.999739
412.855894	0.998861
413.236180	0.998822
413.616405	0.999158
413.996568	0.999970
414.376670	0.998662
414.756711	0.998534
415.136691	0.997640
415.516609	0.998347
415.896466	0.998704
416.276262	0.998416
416.655997	0.999291
417.035670	0.998760
417.415283	0.999207
417.794834	0.998381
418.174324	0.998818
418.553753	0.999400
418.933121	0.998673
419.312428	0.998134
419.691674	0.998180
420.070859	0.999047
420.449983	0.998730
420.829045	0.999570
421.208047	0.998914
421.586988	1.000398
421.965867	0.999168
422.344686	0.999206
422.723444	0.998519
423.102141	0.999346
423.480777	0.998800
423.859352	0.999222
424.237866	0.998613
424.616319	0.999726
424.994712	0.999211
425.373044	0.998762
425.751314	0.999147
426.129524	0.998411
426.507673	0.998089
426.885762	1.000068
427.263789	0.998651
427.641756	0.999678
428.019662	0.998413
428.397508	0.998972
428.775292	0.998273
429.153016	0.999511
429.530679	0.999369
429.908282	0.999578
430.285824	0.998792
430.663305	0.998667
431.040726	0.998759
431.418086	0.999467
431.795385	0.999995
432.172624	0.998715
432.549802	0.999976
432.926920	0.999085
433.303977	0.998541
433.680974	0.999054
434.057910	0.998564
434.434786	0.999260
434.811601	0.998814
435.188355	0.998818
435.565050	0.998902
435.941683	0.999425
436.318257	0.999069
436.694770	0.998853
437.071222	0.998726
437.447614	0.998608
437.823946	0.998942
438.200218	0.999203
438.576429	0.998992
438.952580	1.000023
439.328670	0.999017
439.704700	0.999151
440.080670	0.999679
440.456580	0.998597
440.832429	0.998667
441.208218	0.999604
441.583947	0.999209
441.959616	0.999227
442.335224	0.998979
442.710773	0.999526
443.086261	0.999223
443.461689	0.998871
443.837057	0.998834
444.212365	0.998737
444.587612	0.998810
444.962800	0.998780
445.337927	0.999107
445.712995	0.999118
446.088002	0.999825
446.462949	0.999148
446.837837	1.000038
447.212664	0.998677
447.587431	0.999172
447.962139	0.998934
448.336786	0.998809
448.711374	0.999380
449.085901	0.998648
449.460369	0.999292
449.834776	0.998453
450.209124	0.999095
450.583412	0.999326
450.957640	0.999111
451.331808	0.998541
451.705917	0.999141
452.079965	0.998290
452.453954	0.999227
452.827883	0.998733
453.201752	0.998914
453.575562	1.000327
453.949311	0.999212
454.323001	0.999076
454.696632	0.999156
455.070202	0.998412
455.443713	0.998538
455.817164	0.999287
456.190556	0.998908
456.563888	0.998750
456.937160	0.999655
457.310373	0.999033
457.683526	0.999180
458.056619	0.998525
458.429653	0.999427
458.802628	0.999287
459.175542	0.998678
459.548398	0.998750
459.921194	0.998576
460.293930	0.998953
460.666607	0.998293
461.039224	0.998200
461.411782	0.998749
461.784280	0.998509
462.156719	0.999650
462.529099	0.998982
462.901419	0.999941
463.273680	0.999570
463.645882	0.999549
464.018024	0.998968
464.390106	0.999049
464.762130	0.999971
465.134094	0.999713
465.505999	0.999844
465.877845	0.999520
466.249631	0.999738
466.621358	0.999511
466.993026	0.999533
467.364634	0.998698
467.736184	0.999534
468.107674	0.998593
468.479105	0.998575
468.850477	0.999444
469.221790	0.999147
469.593043	0.999180
469.964238	0.999822
470.335373	0.999641
470.706449	0.999365
471.077467	0.999461
471.448425	0.999360
471.819324	1.000216
472.190164	0.998501
472.560945	0.999169
472.931667	0.999401
473.302330	0.998609
473.672934	0.999613
474.043479	0.998843
474.413965	0.998720
474.784393	0.999112
475.154761	0.999138
475.525070	0.999158
475.895321	0.998927
476.265513	0.999485
476.635645	0.999240
477.005719	0.998955
477.375734	0.998816
477.745691	0.998640
478.115588	0.999224
478.485427	0.999460
478.855207	0.999050
479.224928	0.999044
479.594591	0.998895
479.964194	0.999118
480.333739	0.999274
480.703226	0.999292
481.072653	0.999534
481.442022	0.999852
481.811333	0.998705
482.180584	0.999641
482.549777	0.999186
482.918912	0.998583
483.287988	0.999364
483.657005	0.998903
484.025964	0.999691
484.394864	0.999410
484.763706	0.999249
485.132489	0.998836
485.501213	0.999137
485.869879	0.999511
486.238487	0.999421
486.607036	0.999256
486.975527	0.998935
487.343959	0.999113
487.712333	0.998428
488.080648	0.999043
488.448905	0.999408
488.817104	0.999319
489.185244	0.999747
489.553326	0.999573
489.921350	0.998706
490.289315	0.998930
490.657222	0.999467
491.025070	0.999538
491.392861	0.999355
491.760593	0.999998
492.128267	0.998970
492.495883	0.998950
492.863440	0.999414
493.230939	0.999560
493.598380	0.999195
493.965763	0.999153
494.333088	0.999431
494.700354	0.998551
495.067563	0.999260
495.434713	0.998661
495.801805	0.999966
496.168839	0.999045
496.535815	0.998811
496.902733	0.998930
497.269593	0.998772
497.636395	0.998762
498.003139	0.998831
498.369825	0.999265
498.736453	0.999045
499.103023	0.998293
499.469535	0.998161
499.835989	0.998824
500.202385	0.998792
500.568723	0.999672
500.935003	0.999518
501.301226	0.999727
501.667390	0.998801
502.033497	0.999925
502.399546	0.999913
502.765537	0.998947
503.131470	0.998363
503.497345	0.998670
503.863163	0.999588
504.228923	0.999041
504.594625	0.999524
504.960269	0.999347
505.325856	0.999668
505.691385	0.998161
506.056856	0.999254
506.422270	0.999266
506.787625	0.999690
507.152924	0.998751
507.518164	0.998139
507.883347	0.999117
508.248472	0.998534
508.613540	0.999181
508.978550	0.999295
509.343503	0.998375
509.708398	0.999198
510.073236	0.998909
510.438016	0.999334
510.802738	0.998727
511.167403	0.999211
511.532010	0.998680
511.896561	0.998907
512.261053	1.000267
512.625488	0.998615
512.989866	0.999247
513.354186	0.998767
513.718449	0.998930
514.082655	0.999377
514.446803	0.998848
514.810894	0.999416
515.174927	0.998830
515.538904	0.998820
515.902822	0.998945
516.266684	0.999073
516.630488	0.999641
516.994235	0.998646
517.357925	0.998914
517.721558	0.998831
518.085133	0.998772
518.448651	0.999715
518.812112	0.999348
519.175516	0.998784
519.538863	0.998726
519.902152	0.998565
520.265385	0.998010
520.628560	0.998696
520.991678	0.999154
521.354739	0.999545
521.717743	0.998738
522.080690	0.998776
522.443580	0.998564
522.806413	0.998595
523.169189	0.998362
523.531908	0.997981
523.894569	0.998544
524.257174	0.998513
524.619722	0.998780
524.982213	0.998420
525.344647	0.998711
525.707025	0.998168
526.069345	0.998175
526.431608	0.998366
526.793815	0.998829
527.155964	0.998482
527.518057	0.998681
527.880093	0.999099
528.242072	0.997762
528.603995	0.998421
528.965860	0.998946
529.327669	0.997979
529.689421	0.998308
530.051117	0.998687
530.412755	0.998335
530.774337	0.998674
531.135862	0.997832
531.497331	0.998268
531.858743	0.997930
532.220098	0.998706
532.581396	0.998488
532.942638	0.998497
533.303824	0.997712
533.664953	0.998527
534.026025	0.997630
534.387040	0.998173
534.747999	0.999037
535.108902	0.997926
535.469748	0.997543
535.830537	0.998668
536.191270	0.997852
536.551947	0.998067
536.912567	0.998113
537.273131	0.997823
537.633638	0.997555
537.994089	0.997532
538.354483	0.998041
538.714821	0.997439
539.075103	0.997415
539.435328	0.997781
539.795497	0.997332
540.155609	0.997583
540.515665	0.997604
540.875665	0.997387
541.235609	0.997614
541.595496	0.997243
541.955328	0.997179
542.315102	0.998056
542.674821	0.997407
543.034483	0.997045
543.394090	0.996952
543.753640	0.998175
544.113134	0.997260
544.472571	0.997606
544.831953	0.998049
545.191278	0.997325
545.550548	0.998546
545.909761	0.997159
546.268918	0.997166
546.628019	0.997907
546.987064	0.997438
547.346053	0.997719
547.704986	0.997635
548.063863	0.997625
548.422684	0.997175
548.781449	0.997654
549.140158	0.997262
549.498811	0.997895
549.857408	0.997348
550.215949	0.997315
550.574434	0.997912
550.932864	0.996758
551.291237	0.997620
551.649555	0.997508
552.007817	0.997620
552.366022	0.997038
552.724173	0.997922
553.082267	0.998014
553.440305	0.997380
553.798288	0.997205
554.156215	0.997846
554.514086	0.998209
554.871902	0.997228
555.229661	0.997161
555.587365	0.997520
555.945014	0.997836
556.302606	0.996370
556.660143	0.997901
557.017625	0.997625
557.375050	0.997988
557.732421	0.997342
558.089735	0.997866
558.446994	0.998212
558.804197	0.997953
559.161345	0.998505
559.518437	0.998504
559.875474	0.997264
560.232455	0.997533
560.589381	0.998872
560.946251	0.997215
561.303065	0.997660
561.659825	0.998631
562.016528	0.997209
562.373177	0.997855
562.729770	0.997726
563.086307	0.997493
563.442789	0.997756
563.799216	0.997291
564.155587	0.996928
564.511904	0.996493
564.868164	0.996699
565.224370	0.997422
565.580520	0.998259
565.936615	0.997066
566.292654	0.997834
566.648638	0.997639
567.004567	0.996944
567.360441	0.997789
567.716260	0.998054
568.072023	0.997216
568.427732	0.997552
568.783385	0.997549
569.138982	0.997073
569.494525	0.997224
569.850013	0.997615
570.205445	0.997123
570.560823	0.997208
570.916145	0.997414
571.271412	0.997889
571.626625	0.997112
571.981782	0.996858
572.336884	0.997536
572.691931	0.997329
573.046923	0.997171
573.401860	0.997301
573.756743	0.997690
574.111570	0.997477
574.466342	0.997543
574.821059	0.997481
575.175722	0.997647
575.530330	0.997491
575.884882	0.997054
576.239380	0.997712
576.593823	0.997179
576.948211	0.996633
577.302544	0.997475
577.656823	0.997432
578.011047	0.997594
578.365216	0.996916
578.719330	0.997145
579.073389	0.997018
579.427394	0.996951
579.781344	0.997203
580.135239	0.997383
580.489080	0.996676
580.842866	0.997027
581.196597	0.996709
581.550273	0.996766
581.903895	0.997079
582.257463	0.996502
582.610975	0.997090
582.964434	0.996864
583.317837	0.997570
583.671186	0.996953
584.024481	0.995762
584.377721	0.996844
584.730906	0.996685
585.084037	0.996675
585.437113	0.996007
585.790135	0.996848
586.143103	0.995395
586.496016	0.997616
586.848874	0.996074
587.201679	0.995533
587.554428	0.995858
587.907124	0.996133
588.259765	0.996284
588.612352	0.996171
588.964884	0.996452
589.317362	0.996477
589.669786	0.995211
590.022155	0.996137
590.374470	0.996180
590.726731	0.996378
591.078937	0.995128
591.431090	0.994748
591.783188	0.994994
592.135232	0.995495
592.487222	0.995754
592.839157	0.995004
593.191038	0.995337
593.542866	0.994874
593.894639	0.995358
594.246358	0.994303
594.598022	0.994355
594.949633	0.995320
595.301190	0.993719
595.652692	0.994486
596.004141	0.995232
596.355535	0.994412
596.706876	0.993660
597.058162	0.993341
597.409395	0.993939
597.760573	0.993035
598.111698	0.993141
598.462768	0.992871
598.813785	0.992794
599.164748	0.992927
599.515657	0.992796
599.866511	0.992658
600.217312	0.991933
600.568060	0.992217
600.918753	0.991598
601.269392	0.991790
601.619978	0.991638
601.970510	0.991005
602.320988	0.990605
602.671412	0.990438
603.021783	0.990452
603.372100	0.991054
603.722363	0.990593
604.072572	0.989753
604.422728	0.989813
604.772830	0.989727
605.122878	0.989039
605.472872	0.989343
605.822813	0.987908
606.172701	0.988763
606.522534	0.988572
606.872314	0.987513
607.222041	0.987329
607.571714	0.987887
607.921333	0.986845
608.270899	0.986075
608.620411	0.987027
608.969870	0.986189
609.319276	0.985695
609.668627	0.985206
610.017926	0.984021
610.367171	0.983960
610.716362	0.983411
611.065500	0.982844
611.414585	0.981943
611.763616	0.981824
612.112594	0.981877
612.461518	0.980577
612.810389	0.980428
613.159207	0.979656
613.507971	0.979290
613.856682	0.979003
614.205340	0.978231
614.553945	0.976221
614.902496	0.976280
615.250994	0.976066
615.599439	0.975976
615.947830	0.974738
616.296169	0.972761
616.644454	0.973316
616.992686	0.972523
617.340864	0.970628
617.688990	0.970992
618.037063	0.969431
618.385082	0.969068
618.733048	0.967170
619.080961	0.966929
619.428821	0.966030
619.776628	0.964286
620.124382	0.963292
620.472083	0.961582
620.819731	0.962108
621.167326	0.961513
621.514868	0.960772
621.862357	0.959551
622.209793	0.960210
622.557176	0.957508
622.904506	0.957641
623.251783	0.956717
623.599007	0.956239
623.946179	0.955298
624.293297	0.954266
624.640363	0.953988
624.987376	0.951928
625.334336	0.953282
625.681243	0.951775
626.028097	0.951580
626.374899	0.951092
626.721647	0.949423
627.068343	0.948544
627.414987	0.947096
627.761577	0.946040
628.108115	0.944552
628.454600	0.944630
628.801032	0.941678
629.147412	0.941617
629.493739	0.939807
629.840014	0.938687
630.186236	0.937482
630.532405	0.936478
630.878521	0.934545
631.224585	0.933191
631.570597	0.933076
631.916556	0.931056
632.262462	0.930179
632.608316	0.928534
632.954117	0.927427
633.299866	0.926167
633.645562	0.925482
633.991206	0.924513
634.336797	0.924213
634.682336	0.923115
635.027823	0.922283
635.373257	0.921459
635.718639	0.920241
636.063968	0.918283
636.409245	0.918323
636.754470	0.917402
637.099642	0.916681
637.444762	0.916131
637.789829	0.913761
638.134845	0.912720
638.479808	0.911304
638.824719	0.909889
639.169577	0.909576
639.514383	0.908103
639.859137	0.907311
640.203839	0.906338
640.548489	0.904125
640.893086	0.903465
641.237632	0.902623
641.582125	0.900324
641.926566	0.899412
642.270955	0.898754
642.615292	0.897519
642.959576	0.895154
643.303809	0.893662
643.647990	0.891908
643.992118	0.890617
644.336195	0.890974
644.680219	0.887608
645.024192	0.887688
645.368112	0.882915
645.711981	0.882253
646.055797	0.879441
646.399562	0.877292
646.743274	0.872390
647.086935	0.870893
647.430544	0.868966
647.774101	0.866777
648.117606	0.866115
648.461059	0.864239
648.804460	0.862990
649.147810	0.863446
649.491108	0.862599
649.834354	0.860785
650.177548	0.861270
650.520690	0.860911
650.863781	0.858974
651.206820	0.857582
651.549807	0.857081
651.892742	0.855828
652.235626	0.854857
652.578458	0.853654
652.921238	0.853480
653.263967	0.851666
653.606644	0.851769
653.949269	0.848802
654.291843	0.848819
654.634365	0.845279
654.976836	0.844334
655.319255	0.843974
655.661622	0.842421
656.003938	0.839446
656.346203	0.840378
656.688416	0.837105
657.030577	0.837595
657.372687	0.835246
657.714746	0.834481
658.056753	0.832194
658.398708	0.831461
658.740612	0.832420
659.082465	0.826798
659.424266	0.826521
659.766016	0.824622
660.107715	0.822968
660.449362	0.821140
660.790958	0.819719
661.132503	0.817587
661.473996	0.815655
661.815438	0.814894
662.156829	0.813663
662.498168	0.812439
662.839456	0.811480
663.180693	0.809102
663.521879	0.807162
663.863013	0.806593
664.204097	0.803480
664.545129	0.800236
664.886110	0.798552
665.227040	0.795715
665.567918	0.796285
665.908746	0.793098
666.249522	0.791446
666.590248	0.790495
666.930922	0.788814
667.271545	0.785982
667.612118	0.784844
667.952639	0.783784
668.293109	0.780719
668.633528	0.781437
668.973896	0.779516
669.314213	0.777878
669.654480	0.776330
669.994695	0.775765
670.334859	0.773990
670.674973	0.771137
671.015035	0.770758
671.355047	0.768224
671.695008	0.767070
672.034918	0.767007
672.374777	0.764005
672.714585	0.763869
673.054342	0.762678
673.394049	0.759843
673.733705	0.757212
674.073310	0.755544
674.412864	0.756915
674.752368	0.754266
675.091820	0.753319
675.431223	0.754356
675.770574	0.752086
676.109875	0.752067
676.449125	0.749686
676.788324	0.748895
677.127473	0.751158
677.466571	0.749188
677.805619	0.747570
678.144616	0.746485
678.483562	0.745699
678.822458	0.745594
679.161303	0.744406
679.500098	0.742909
679.838842	0.742934
680.177535	0.741400
680.516179	0.739296
680.854771	0.737099
681.193314	0.732918
681.531805	0.727745
681.870247	0.719226
682.208638	0.713958
682.546978	0.712127
682.885268	0.711155
683.223508	0.713730
683.561697	0.713885
683.899836	0.714018
684.237925	0.714605
684.575963	0.714331
684.913951	0.715342
685.251889	0.710535
685.589776	0.711614
685.927614	0.712084
686.265401	0.706648
686.603137	0.707151
686.940824	0.701838
687.278460	0.700498
687.616046	0.699213
687.953582	0.695467
688.291068	0.695520
688.628504	0.691203
688.965889	0.691779
689.303224	0.693259
689.640510	0.693230
689.977745	0.694894
690.314930	0.698529
690.652065	0.699373
690.989150	0.702461
691.326185	0.703308
691.663170	0.703560
692.000105	0.706048
692.336990	0.709500
692.673825	0.707597
693.010610	0.711915
693.347345	0.714467
693.684030	0.711729
694.020665	0.713559
694.357251	0.718290
694.693786	0.717123
695.030272	0.719233
695.366707	0.718488
695.703093	0.720061
696.039429	0.716741
696.375716	0.716728
696.711952	0.718265
697.048139	0.718561
697.384276	0.718948
697.720363	0.716833
698.056400	0.714312
698.392388	0.717581
698.728326	0.719612
699.064214	0.719635
699.400053	0.719111
699.735842	0.718868
700.071581	0.719769
700.407270	0.721206
700.742910	0.720617
701.078501	0.723850
701.414042	0.722447
701.749533	0.723516
702.084974	0.728440
702.420366	0.720986
702.755709	0.726398
703.091002	0.730368
703.426246	0.723502
703.761440	0.727501
704.096584	0.731564
704.431679	0.726583
704.766725	0.726126
705.101721	0.726496
705.436668	0.722809
705.771565	0.727749
706.106413	0.724814
706.441212	0.719587
706.775961	0.717495
707.110661	0.720048
707.445311	0.716930
707.779913	0.713019
708.114465	0.711072
708.448967	0.709745
708.783421	0.702803
709.117825	0.699188
709.452180	0.698974
709.786485	0.694393
710.120742	0.687067
710.454949	0.689177
710.789107	0.682596
711.123216	0.676143
711.457275	0.677744
711.791286	0.670768
712.125247	0.669142
712.459159	0.677625
712.793023	0.672829
713.126837	0.671369
713.460602	0.670877
713.794318	0.677872
714.127985	0.673977
714.461602	0.678965
714.795171	0.680772
715.128691	0.684118
715.462162	0.688094
715.795584	0.690204
716.128957	0.691456
716.462281	0.696314
716.795556	0.696805
717.128782	0.699249
717.461960	0.705120
717.795088	0.702594
718.128167	0.707298
718.461198	0.712875
718.794180	0.712217
719.127113	0.713626
719.459997	0.714430
719.792833	0.718967
720.125619	0.719865
720.458357	0.723311
720.791046	0.721709
721.123686	0.724685
721.456278	0.729216
721.788821	0.726368
722.121315	0.728700
722.453761	0.732650
722.786158	0.728781
723.118506	0.725582
723.450805	0.731927
723.783056	0.728743
724.115259	0.724971
724.447412	0.724464
724.779518	0.726623
725.111574	0.724156
725.443582	0.720664
725.775542	0.722095
726.107453	0.715724
726.439315	0.714762
726.771129	0.713708
727.102895	0.709974
727.434612	0.702638
727.766281	0.700851
728.097901	0.700517
728.429473	0.699973
728.760996	0.696945
729.092471	0.697345
729.423897	0.699294
729.755276	0.696339
730.086606	0.695874
730.417887	0.691861
730.749120	0.683942
731.080305	0.675297
731.411442	0.671140
731.742530	0.675903
732.073570	0.674139
732.404562	0.666230
732.735506	0.667647
733.066401	0.671585
733.397249	0.676981
733.728048	0.684380
734.058798	0.693398
734.389501	0.700849
734.720156	0.708041
735.050762	0.714583
735.381320	0.714838
735.711831	0.722314
736.042293	0.726197
736.372707	0.721498
736.703073	0.724792
737.033391	0.727483
737.363661	0.724783
737.693883	0.720000
738.024056	0.719295
738.354182	0.720264
738.684260	0.711121
739.014290	0.708295
739.344272	0.709147
739.674207	0.703354
740.004093	0.702992
740.333931	0.704331
740.663722	0.703128
740.993464	0.702874
741.323159	0.705459
741.652806	0.708344
741.982405	0.711417
742.311956	0.714458
742.641460	0.715743
742.970915	0.718607
743.300323	0.724311
743.629683	0.729498
743.958996	0.730573
744.288260	0.733412
744.617477	0.737677
744.946647	0.739072
745.275768	0.741915
745.604842	0.741931
745.933869	0.751482
746.262847	0.751085
746.591778	0.743817
746.920662	0.750123
747.249498	0.755665
747.578286	0.747261
747.907027	0.743420
748.235720	0.745488
748.564365	0.739715
748.892963	0.738998
749.221514	0.741395
749.550017	0.745968
749.878473	0.745107
750.206881	0.750733
750.535242	0.752000
750.863555	0.749806
751.191821	0.751926
751.520039	0.754325
751.848210	0.758927
752.176334	0.751852
752.504411	0.750558
752.832440	0.757873
753.160421	0.761767
753.488356	0.758883
753.816243	0.757190
754.144082	0.764923
754.471875	0.768448
754.799620	0.762420
755.127318	0.764087
755.454969	0.763486
755.782572	0.763053
756.110129	0.767563
756.437638	0.770054
756.765100	0.766280
757.092515	0.763168
757.419882	0.762642
757.747203	0.767911
758.074477	0.767615
758.401703	0.764757
758.728882	0.760322
759.056014	0.758777
759.383099	0.758326
759.710138	0.759594
760.037129	0.756092
760.364073	0.749925
760.690970	0.752474
761.017820	0.758754
761.344623	0.753211
761.671379	0.744456
761.998088	0.733191
762.324751	0.712901
762.651366	0.675799
762.977935	0.617033
763.304456	0.569581
763.630931	0.558876
763.957359	0.593905
764.283740	0.632618
764.610074	0.656572
764.936362	0.684047
765.262602	0.708882
765.588796	0.728564
765.914943	0.744542
766.241044	0.761303
766.567097	0.766258
766.893104	0.774388
767.219064	0.781080
767.544978	0.786876
767.870845	0.798977
768.196665	0.801942
768.522438	0.800029
768.848165	0.799622
769.173846	0.808358
769.499479	0.812339
769.825066	0.815400
770.150607	0.820009
770.476101	0.815506
770.801548	0.815959
771.126949	0.827096
771.452303	0.829576
771.777611	0.830123
772.102872	0.828966
772.428087	0.833812
772.753256	0.836425
773.078378	0.838763
773.403453	0.846548
773.728482	0.850591
774.053465	0.844355
774.378401	0.847654
774.703291	0.854991
775.028135	0.854771
775.352932	0.856740
775.677683	0.859146
776.002388	0.859075
776.327046	0.858390
776.651658	0.861526
776.976224	0.864982
777.300743	0.864834
777.625216	0.866918
777.949643	0.868969
778.274024	0.868878
778.598359	0.870498
778.922647	0.868421
779.246889	0.869869
779.571086	0.873431
779.895236	0.875111
780.219339	0.872430
780.543397	0.869932
780.867409	0.867614
781.191374	0.869851
781.515294	0.871564
781.839167	0.870086
782.162995	0.873213
782.486776	0.870123
782.810511	0.871526
783.134201	0.874534
783.457844	0.871974
783.781441	0.874865
784.104993	0.880621
784.428498	0.880626
784.751958	0.875897
785.075372	0.878104
785.398739	0.881867
785.722061	0.878155
786.045337	0.874317
786.368568	0.879684
786.691752	0.881860
787.014891	0.867115
787.337983	0.859834
787.661030	0.852801
787.984031	0.836839
788.306987	0.824223
788.629897	0.826497
788.952760	0.829534
789.275579	0.833259
789.598351	0.847062
789.921078	0.859719
790.243759	0.861285
790.566395	0.865251
790.888984	0.872877
791.211529	0.877082
791.534027	0.881104
791.856480	0.883259
792.178888	0.887929
792.501249	0.890344
792.823566	0.890850
793.145836	0.891317
793.468062	0.893113
793.790241	0.892121
794.112375	0.891152
794.434464	0.886911
794.756507	0.886482
795.078505	0.886038
795.400457	0.880784
795.722364	0.869598
796.044226	0.862799
796.366042	0.862591
796.687812	0.865026
797.009538	0.861200
797.331218	0.864190
797.652852	0.868551
797.974442	0.872845
798.295986	0.872584
798.617484	0.875310
798.938938	0.879754
799.260346	0.884368
799.581709	0.886153
799.903026	0.887324
800.224299	0.889046
800.545526	0.891368
800.866708	0.896052
801.187845	0.898768
801.508936	0.900110
801.829983	0.896628
802.150984	0.898951
802.471940	0.905136
802.792851	0.904921
803.113717	0.904463
803.434538	0.902564
803.755314	0.905175
804.076045	0.907172
804.396731	0.906185
804.717372	0.906833
805.037967	0.907772
805.358518	0.906014
805.679024	0.903727
805.999485	0.903955
806.319901	0.904249
806.640272	0.904467
806.960598	0.903321
807.280879	0.901027
807.601115	0.899016
807.921306	0.902593
808.241453	0.903023
808.561554	0.901584
808.881611	0.900736
809.201623	0.903039
809.521590	0.903509
809.841513	0.904044
810.161390	0.901921
810.481223	0.903902
810.801011	0.907310
811.120755	0.910032
811.440453	0.907923
811.760107	0.907211
812.079716	0.906053
812.399281	0.910068
812.718801	0.912532
813.038276	0.913642
813.357707	0.912463
813.677093	0.909003
813.996434	0.913933
814.315731	0.914386
814.634983	0.916487
814.954191	0.913719
815.273354	0.911619
815.592473	0.907235
815.911547	0.907488
816.230577	0.905292
816.549562	0.902090
816.868502	0.903366
817.187399	0.899470
817.506250	0.894543
817.825058	0.896779
818.143821	0.894086
818.462539	0.888413
818.781213	0.881455
819.099843	0.870848
819.418429	0.854915
819.736970	0.839369
820.055466	0.820794
820.373919	0.795946
820.692327	0.764482
821.010691	0.732350
821.329011	0.658839
821.647286	0.552423
821.965517	0.446064
822.283704	0.405514
822.601847	0.407151
822.919945	0.439757
823.237999	0.468835
823.556010	0.512496
823.873976	0.565978
824.191897	0.613159
824.509775	0.653481
824.827609	0.696568
825.145398	0.718215
825.463144	0.721095
825.780845	0.703643
826.098502	0.686969
826.416116	0.642160
826.733685	0.601009
827.051210	0.593626
827.368692	0.606970
827.686129	0.642433
828.003522	0.692275
828.320872	0.738058
828.638177	0.780006
828.955439	0.811743
829.272656	0.831576
829.589830	0.848796
829.906960	0.863762
830.224046	0.875234
830.541088	0.884106
830.858086	0.889452
831.175041	0.894604
831.491952	0.893226
831.808819	0.890691
832.125642	0.883688
832.442421	0.870155
832.759157	0.849361
833.075849	0.806731
833.392497	0.744485
833.709101	0.705017
834.025662	0.714785
834.342179	0.744485
834.658653	0.782700
834.975083	0.816261
835.291469	0.843189
835.607811	0.863368
835.924110	0.877160
836.240366	0.894667
836.556578	0.908397
836.872746	0.914276
837.188871	0.920482
837.504952	0.926099
837.820990	0.929456
838.136984	0.932124
838.452935	0.935933
838.768842	0.937265
839.084706	0.929661
839.400526	0.905839
839.716303	0.868394
840.032037	0.845930
840.347727	0.849987
840.663373	0.867120
840.978977	0.887227
841.294537	0.909632
841.610054	0.923505
841.925527	0.932760
842.240957	0.938023
842.556344	0.944818
842.871687	0.949472
843.186987	0.953576
843.502244	0.953957
843.817458	0.955754
844.132629	0.959872
844.447756	0.964434
844.762840	0.964669
845.077881	0.963597
845.392879	0.963473
845.707833	0.967165
846.022745	0.966894
846.337613	0.967600
846.652438	0.970357
846.967221	0.968471
847.281960	0.968382
847.596656	0.970132
847.911309	0.968393
848.225919	0.971505
848.540485	0.970779
848.855009	0.973526
849.169490	0.972286
849.483928	0.973907
849.798323	0.972614
850.112675	0.973061
850.426984	0.973905
850.741251	0.973317
851.055474	0.974347
851.369654	0.971233
851.683792	0.973140
851.997887	0.973953
852.311938	0.974446
852.625947	0.973098
852.939914	0.970810
853.253837	0.972804
853.567718	0.974664
853.881555	0.972947
854.195350	0.972133
854.509103	0.972391
854.822812	0.972376
855.136479	0.973554
855.450103	0.972307
855.763685	0.971531
856.077224	0.971640
856.390720	0.973854
856.704173	0.974437
857.017584	0.972209
857.330953	0.970544
857.644278	0.971294
857.957561	0.971975
858.270802	0.971935
858.584000	0.971739
858.897155	0.970103
859.210268	0.971589
859.523339	0.971132
859.836367	0.974764
860.149352	0.974336
860.462295	0.973091
860.775195	0.972761
861.088054	0.972739
861.400869	0.972839
861.713642	0.973231
862.026373	0.974633
862.339062	0.974107
862.651708	0.970807
862.964312	0.970673
863.276873	0.973399
863.589392	0.972666
863.901869	0.971140
864.214303	0.968091
864.526696	0.968795
864.839045	0.966322
865.151353	0.965323
865.463619	0.967038
865.775842	0.966432
866.088023	0.966285
866.400162	0.965678
866.712258	0.966414
867.024313	0.966428
867.336325	0.967287
867.648296	0.967939
867.960224	0.965238
868.272110	0.966064
868.583954	0.967332
868.895755	0.968957
869.207515	0.965373
869.519233	0.963878
869.830909	0.965665
870.142542	0.967153
870.454134	0.965834
870.765684	0.964347
871.077191	0.962415
871.388657	0.963220
871.700081	0.962758
872.011463	0.962999
872.322803	0.962137
872.634101	0.960780
872.945357	0.959501
873.256571	0.957723
873.567744	0.958233
873.878874	0.958468
874.189963	0.957557
874.501010	0.955473
874.812015	0.954973
875.122979	0.956141
875.433900	0.957389
875.744780	0.958885
876.055618	0.955833
876.366415	0.955182
876.677169	0.954550
876.987882	0.956255
877.298554	0.956150
877.609183	0.953635
877.919771	0.949994
878.230317	0.949315
878.540822	0.945286
878.851285	0.941060
879.161707	0.933851
879.472087	0.921571
879.782425	0.907453
880.092722	0.875370
880.402977	0.825606
880.713191	0.770029
881.023363	0.714717
881.333494	0.683905
881.643583	0.655989
881.953631	0.654589
882.263637	0.682780
882.573602	0.721182
882.883526	0.745457
883.193408	0.765928
883.503248	0.786947
883.813048	0.812239
884.122806	0.841218
884.432522	0.862857
884.742197	0.881785
885.051831	0.891108
885.361424	0.899900
885.670975	0.912006
885.980485	0.921261
886.289954	0.925881
886.599382	0.932071
886.908768	0.935815
887.218113	0.940306
887.527417	0.945302
887.836680	0.947910
888.145901	0.949125
888.455082	0.952068
888.764221	0.956275
889.073319	0.957921
889.382376	0.958171
889.691392	0.958494
890.000366	0.957678
890.309300	0.960288
890.618193	0.958554
890.927044	0.957252
891.235855	0.956566
891.544625	0.956009
891.853353	0.957569
892.162041	0.954992
892.470687	0.947838
892.779293	0.943632
893.087858	0.940987
893.396381	0.932794
893.704864	0.921264
894.013306	0.899188
894.321707	0.873582
894.630068	0.861474
894.938387	0.856779
895.246665	0.858101
895.554903	0.868569
895.863100	0.880252
896.171256	0.896763
896.479371	0.916260
896.787446	0.927679
897.095480	0.932896
897.403473	0.934950
897.711425	0.940099
898.019336	0.946795
898.327207	0.949630
898.635038	0.950804
898.942827	0.951875
899.250576	0.954942
899.558284	0.958369
899.865952	0.959598
900.173579	0.959889
900.481165	0.962070
900.788711	0.964979
901.096216	0.966542
901.403681	0.966080
901.711105	0.968475
902.018489	0.968252
902.325832	0.968632
902.633135	0.967308
902.940397	0.960162
903.247619	0.950114
903.554800	0.926466
903.861941	0.890274
904.169041	0.856877
904.476101	0.841560
904.783121	0.843254
905.090100	0.857232
905.397039	0.876934
905.703938	0.896857
906.010796	0.915606
906.317614	0.930555
906.624391	0.942422
906.931129	0.951398
907.237826	0.957596
907.544483	0.965113
907.851099	0.967397
908.157675	0.973010
908.464211	0.974108
908.770707	0.976793
909.077163	0.978846
909.383578	0.979862
909.689954	0.979333
909.996289	0.979289
910.302584	0.981713
910.608839	0.982609
910.915054	0.981677
911.221229	0.982372
911.527363	0.981707
911.833458	0.980502
912.139513	0.982168
912.445527	0.980234
912.751502	0.978820
913.057436	0.976871
913.363331	0.974487
913.669186	0.971006
913.975000	0.965662
914.280775	0.961859
914.586510	0.955657
914.892205	0.942636
915.197859	0.924031
915.503475	0.898865
915.809050	0.879881
916.114585	0.877090
916.420081	0.874272
916.725536	0.870843
917.030952	0.877899
917.336328	0.889471
917.641665	0.904063
917.946961	0.918361
918.252218	0.929421
918.557435	0.935965
918.862612	0.944208
919.167750	0.950412
919.472848	0.953433
919.777906	0.958393
920.082925	0.965548
920.387904	0.967820
920.692843	0.968667
920.997743	0.969238
921.302603	0.972918
921.607423	0.973502
921.912204	0.977076
922.216946	0.976728
922.521647	0.977453
922.826310	0.979301
923.130932	0.981976
923.435516	0.982944
923.740059	0.983424
924.044564	0.981616
924.349028	0.983801
924.653454	0.985521
924.957840	0.987574
925.262186	0.987872
925.566493	0.987840
925.870761	0.987942
926.174989	0.989674
926.479178	0.992372
926.783328	0.992005
927.087438	0.991518
927.391509	0.991121
927.695541	0.992390
927.999533	0.991868
928.303486	0.992618
928.607400	0.994420
928.911275	0.992614
929.215110	0.993429
929.518906	0.993521
929.822663	0.993106
930.126381	0.994499
930.430060	0.992638
930.733699	0.992604
931.037299	0.992813
931.340861	0.993273
931.644383	0.991614
931.947866	0.992006
932.251309	0.994277
932.554714	0.992635
932.858080	0.994051
933.161407	0.994348
933.464694	0.994488
933.767943	0.992408
934.071153	0.994452
934.374323	0.993138
934.677455	0.992827
934.980548	0.993689
935.283602	0.993681
935.586617	0.993625
935.889593	0.993847
936.192530	0.994304
936.495428	0.994387
936.798287	0.993747
937.101108	0.991965
937.403890	0.990803
937.706632	0.992432
938.009336	0.990414
938.312002	0.990059
938.614628	0.988483
938.917216	0.986813
939.219765	0.986119
939.522275	0.987037
939.824747	0.986939
940.127179	0.986816
940.429573	0.987388
940.731929	0.987172
941.034246	0.987126
941.336524	0.988970
941.638763	0.989751
941.940964	0.989707
942.243126	0.990659
942.545250	0.990155
942.847335	0.991690
943.149381	0.991434
943.451389	0.990656
943.753359	0.991263
944.055290	0.993209
944.357182	0.993715
944.659036	0.991027
944.960851	0.992300
945.262628	0.993287
945.564367	0.993542
945.866067	0.993108
946.167729	0.992854
946.469352	0.992953
946.770937	0.991595
947.072484	0.994146
947.373992	0.992744
947.675462	0.992902
947.976893	0.993610
948.278286	0.993251
948.579641	0.994419
948.880958	0.993437
949.182236	0.992757
949.483476	0.993801
949.784678	0.993523
950.085841	0.994405
950.386967	0.993085
950.688054	0.993414
950.989103	0.994181
951.290114	0.991828
951.591087	0.993244
951.892021	0.991834
952.192917	0.992500
952.493776	0.990368
952.794596	0.989942
953.095378	0.991272
953.396122	0.990730
953.696828	0.990235
953.997496	0.992407
954.298126	0.994067
954.598718	0.992715
954.899272	0.993561
955.199788	0.993618
955.500266	0.994959
955.800706	0.995270
956.101108	0.995854
956.401472	0.996320
956.701798	0.996012
957.002087	0.995097
957.302337	0.996203
957.602550	0.997126
957.902724	0.997935
958.202861	0.996797
958.502960	0.996885
958.803022	0.995657
959.103045	0.998255
959.403031	0.997576
959.702979	0.997475
960.002889	0.996839
960.302762	0.996983
960.602596	0.997198
960.902393	0.997323
961.202153	1.000044
961.501875	0.999790
961.801559	0.997427
962.101205	0.997858
962.400814	0.998422
962.700385	0.996660
962.999918	0.998864
963.299414	0.997902
963.598873	0.998807
963.898293	0.997574
964.197677	0.998315
964.497022	0.997374
964.796331	0.999423
965.095601	0.997684
965.394835	0.997792
965.694030	0.998770
965.993189	0.999114
966.292309	0.998297
966.591393	0.998375
966.890439	0.999298
967.189447	0.999152
967.488419	0.999192
967.787353	0.998042
968.086249	0.998080
968.385108	0.998958
968.683930	0.999022
968.982714	0.999428
969.281462	0.999020
969.580172	0.997151
969.878844	0.999154
970.177480	0.997643
970.476078	0.998560
970.774639	0.999650
971.073162	0.999314
971.371649	0.997905
971.670098	0.997311
971.968510	1.000160
972.266885	0.998063
972.565223	0.997780
972.863524	0.997526
973.161788	0.996720
973.460014	0.999195
973.758204	0.997301
974.056356	0.998474
974.354471	0.995867
974.652550	0.997660
974.950591	0.998881
975.248595	0.997844
975.546563	0.998319
975.844493	1.000244
976.142386	0.997123
976.440243	0.999093
976.738062	0.998439
977.035845	1.000011
977.333590	0.998633
977.631299	0.999430
977.928971	0.997700
978.226606	0.998797
978.524204	0.996550
978.821765	0.999354
979.119290	0.998781
979.416777	0.998903
979.714228	0.999724
980.011642	0.997489
980.309020	0.999726
980.606360	0.998372
980.903664	0.999944
981.200931	0.997594
981.498162	0.996137
981.795356	0.997119
982.092513	0.995677
982.389633	0.996691
982.686717	0.993869
982.983764	0.994699
983.280775	0.991894
983.577749	0.992033
983.874686	0.993569
984.171587	0.994370
984.468451	0.995994
984.765279	0.997148
985.062070	0.995375
985.358824	0.997321
985.655543	0.996451
985.952224	0.997824
986.248869	0.997936
986.545478	0.998292
986.842050	1.000226
987.138586	0.996906
987.435086	0.998979
987.731549	1.000111
988.027975	1.000084
988.324366	0.998137
988.620719	0.999430
988.917037	0.997276
989.213318	0.998723
989.509563	1.000318
989.805772	1.000253
990.101944	0.999539
990.398080	0.998513
990.694180	0.998604
990.990244	0.998324
991.286271	0.999201
991.582262	1.000328
991.878217	0.998626
992.174136	1.000354
992.470019	0.999651
992.765865	0.999069
993.061676	0.999141
993.357450	0.998757
993.653188	0.998001
993.948890	0.998121
994.244556	0.998403
994.540186	0.997850
994.835780	0.998779
995.131337	0.998143
995.426859	0.998246
995.722345	0.999693
996.017795	0.996924
996.313208	0.997681
996.608586	0.997512
996.903928	0.998060
997.199234	0.996160
997.494504	0.999128
997.789738	0.997087
998.084936	0.998285
998.380099	0.997977
998.675225	0.997963
998.970316	0.998113
999.265371	0.998866
999.560390	0.998524
999.855373	1.000627
1000.150320	0.999710
1000.445232	0.998625
1000.740108	0.999294
1001.034948	0.999259
1001.329752	0.999856
1001.624521	0.999649
1001.919254	1.000289
1002.213951	0.998582
1002.508613	0.998121
1002.803239	1.000954
1003.097829	0.999770
1003.392384	0.999895
1003.686903	0.998563
1003.981386	0.999057
1004.275834	1.000567
1004.570246	0.999330
1004.864623	0.999822
1005.158964	0.999939
1005.453270	0.999500
1005.747540	0.997953
1006.041775	0.999768
1006.335974	1.000875
1006.630138	0.999703
1006.924266	0.999187
1007.218359	1.000585
1007.512416	0.999459
1007.806438	1.000394
1008.100425	1.000153
1008.394376	1.000100
1008.688292	0.999964
1008.982172	1.001931
1009.276017	1.000449
1009.569827	1.000169
1009.863602	0.999589
1010.157341	1.000128
1010.451045	0.999831
1010.744714	0.999801
1011.038347	0.999562
1011.331945	0.999099
1011.625508	0.997436
1011.919036	0.999905
1012.212528	0.999476
1012.505986	0.997725
1012.799408	0.999370
1013.092795	0.999865
1013.386147	0.999506
1013.679464	1.000560
1013.972745	0.999856
1014.265992	1.000315
1014.559204	0.999282
1014.852380	0.999929
1015.145521	0.999887
1015.438628	1.000021
1015.731699	1.000544
1016.024736	0.998666
1016.317737	0.999586
1016.610703	0.998635
1016.903635	1.000440
1017.196531	0.999017
1017.489393	0.999801
1017.782219	0.999659
1018.075011	0.999222
1018.367768	1.000124
1018.660490	1.000000
1018.953177	1.000000
1019.245829	1.000000
