Dividing Wavelength (nm)	Counts (n)	Blue Motor Position (mm): 0.000000	Red Motor Position (mm): 33.400000	
326.493990	1.001634
326.888308	1.001634
327.282561	1.001634
327.676750	0.999658
328.070874	0.999567
328.464933	0.999786
328.858929	0.999267
329.252859	0.999172
329.646726	0.999389
330.040528	0.998937
330.434265	0.998700
330.827938	0.999214
331.221547	0.999716
331.615091	0.999272
332.008571	0.998384
332.401986	0.998889
332.795338	1.000062
333.188625	0.998509
333.581847	1.000156
333.975006	0.999342
334.368100	0.998856
334.761129	0.999323
335.154095	0.999717
335.546996	0.998799
335.939833	0.994845
336.332606	0.994992
336.725315	0.996779
337.117960	0.997910
337.510540	0.995554
337.903056	0.995943
338.295508	0.995662
338.687896	0.995507
339.080220	0.995168
339.472480	0.996542
339.864676	0.995220
340.256807	0.996021
340.648875	0.997302
341.040879	0.995234
341.432818	0.995193
341.824694	0.995813
342.216506	0.995945
342.608253	0.995427
342.999937	0.996391
343.391557	0.995891
343.783113	0.995225
344.174605	0.995938
344.566033	0.996340
344.957397	0.994911
345.348697	0.995020
345.739934	0.996093
346.131106	0.994732
346.522215	0.995236
346.913260	0.994604
347.304241	0.994815
347.695159	0.995344
348.086012	0.994570
348.476802	0.995317
348.867528	0.995847
349.258191	0.993896
349.648789	0.996933
350.039324	0.994934
350.429796	0.996177
350.820203	0.995968
351.210548	0.995270
351.600828	0.996224
351.991045	0.995832
352.381198	0.994485
352.771288	0.996043
353.161314	0.995870
353.551276	0.997184
353.941175	0.996191
354.331010	0.996342
354.720782	0.996003
355.110490	0.995869
355.500135	0.995957
355.889717	0.994321
356.279235	0.995406
356.668689	0.994346
357.058080	0.995404
357.447408	0.997301
357.836672	0.997609
358.225873	0.996341
358.615010	0.995313
359.004084	0.996565
359.393095	0.995680
359.782043	0.995850
360.170927	0.996293
360.559748	0.996115
360.948505	0.995125
361.337199	0.994881
361.725830	0.996230
362.114398	0.995295
362.502903	0.996622
362.891344	0.996895
363.279722	0.995649
363.668037	0.997285
364.056289	0.996318
364.444478	0.996833
364.832603	0.995235
365.220665	0.994789
365.608665	0.995202
365.996601	0.996211
366.384474	0.994533
366.772284	0.996057
367.160031	0.994736
367.547715	0.995241
367.935336	0.995105
368.322893	0.995985
368.710388	0.995538
369.097820	0.996453
369.485189	0.994957
369.872495	0.996288
370.259738	0.994744
370.646918	0.996270
371.034035	0.996368
371.421090	0.995341
371.808081	0.993831
372.195010	0.995677
372.581875	0.995543
372.968678	0.996516
373.355418	0.995759
373.742096	0.996219
374.128710	0.997823
374.515262	0.995231
374.901751	0.996570
375.288177	0.995388
375.674540	0.997419
376.060841	0.995402
376.447079	0.996621
376.833254	0.995848
377.219367	0.995686
377.605417	0.996129
377.991404	0.997497
378.377329	0.996468
378.763191	0.996082
379.148991	0.996797
379.534727	0.996332
379.920402	0.996457
380.306013	0.997249
380.691563	0.997695
381.077049	0.996835
381.462474	0.996589
381.847835	0.997060
382.233134	0.996148
382.618371	0.996289
383.003545	0.996778
383.388657	0.997596
383.773706	0.996909
384.158693	0.997187
384.543618	0.996561
384.928480	0.997366
385.313280	0.996719
385.698017	0.997629
386.082692	0.997588
386.467305	0.996888
386.851856	0.997299
387.236344	0.996979
387.620770	0.997127
388.005133	0.997398
388.389435	0.998246
388.773674	0.997494
389.157851	0.997435
389.541965	0.996288
389.926018	0.996796
390.310008	0.998334
390.693936	0.996774
391.077802	0.997501
391.461606	0.997171
391.845348	0.997708
392.229027	0.998769
392.612645	0.998081
392.996200	0.999382
393.379694	0.997859
393.763125	0.998109
394.146494	0.998444
394.529801	0.997028
394.913047	0.998236
395.296230	0.997329
395.679351	0.997778
396.062410	0.997776
396.445408	0.997305
396.828343	0.998096
397.211217	0.997478
397.594028	0.997913
397.976778	0.997453
398.359466	0.997738
398.742092	0.996866
399.124656	0.997340
399.507158	0.997792
399.889598	0.997676
400.271977	0.997998
400.654294	0.998157
401.036549	0.998215
401.418742	0.997670
401.800874	0.997831
402.182944	0.997500
402.564952	0.997435
402.946898	0.998752
403.328783	0.998139
403.710606	0.997744
404.092367	0.997580
404.474067	0.998210
404.855705	0.998024
405.237282	0.998123
405.618797	0.998209
406.000250	0.997588
406.381642	0.998862
406.762972	0.997692
407.144240	0.998574
407.525447	0.998341
407.906593	0.997837
408.287677	0.998001
408.668700	0.998717
409.049661	0.997305
409.430560	0.998280
409.811399	0.997467
410.192176	0.996957
410.572891	0.997497
410.953545	0.997434
411.334138	0.997268
411.714669	0.997533
412.095139	0.997883
412.475547	0.998895
412.855894	0.998239
413.236180	0.999110
413.616405	0.998279
413.996568	0.998294
414.376670	0.997513
414.756711	0.998090
415.136691	0.998405
415.516609	0.997451
415.896466	0.997569
416.276262	0.996886
416.655997	0.998226
417.035670	0.997715
417.415283	0.998462
417.794834	0.998564
418.174324	0.997853
418.553753	0.998734
418.933121	0.997843
419.312428	0.998229
419.691674	0.997919
420.070859	0.998399
420.449983	0.998427
420.829045	0.998348
421.208047	0.997875
421.586988	0.999232
421.965867	0.997664
422.344686	0.999051
422.723444	0.998657
423.102141	0.999156
423.480777	0.998243
423.859352	0.998675
424.237866	0.997926
424.616319	0.998223
424.994712	0.998114
425.373044	0.998504
425.751314	0.997895
426.129524	0.997893
426.507673	0.998313
426.885762	0.999330
427.263789	0.998877
427.641756	0.998301
428.019662	0.999201
428.397508	0.997828
428.775292	0.998190
429.153016	0.998050
429.530679	0.998960
429.908282	0.998456
430.285824	0.997500
430.663305	0.997919
431.040726	0.998259
431.418086	0.999472
431.795385	0.999245
432.172624	0.998219
432.549802	0.998448
432.926920	0.998323
433.303977	0.998274
433.680974	0.998547
434.057910	0.998016
434.434786	0.998572
434.811601	0.997802
435.188355	0.997983
435.565050	0.997317
435.941683	0.998320
436.318257	0.998921
436.694770	0.997755
437.071222	0.998931
437.447614	0.998678
437.823946	0.998436
438.200218	0.998506
438.576429	0.998353
438.952580	0.998970
439.328670	0.997688
439.704700	0.998424
440.080670	0.999013
440.456580	0.998494
440.832429	0.998481
441.208218	0.998547
441.583947	0.998689
441.959616	0.999324
442.335224	0.998339
442.710773	0.998730
443.086261	0.998920
443.461689	0.998653
443.837057	0.998549
444.212365	0.998363
444.587612	0.997732
444.962800	0.997955
445.337927	0.998458
445.712995	0.998472
446.088002	0.998420
446.462949	0.998816
446.837837	0.998601
447.212664	0.999335
447.587431	0.998739
447.962139	0.998648
448.336786	0.999402
448.711374	0.999699
449.085901	0.998483
449.460369	0.999275
449.834776	0.998625
450.209124	0.999124
450.583412	0.999111
450.957640	0.999173
451.331808	0.998347
451.705917	0.998060
452.079965	0.997984
452.453954	0.999164
452.827883	0.998194
453.201752	0.998281
453.575562	0.999626
453.949311	0.999093
454.323001	0.998152
454.696632	0.998229
455.070202	0.998611
455.443713	0.998069
455.817164	0.998768
456.190556	0.998745
456.563888	0.998450
456.937160	0.998661
457.310373	0.998669
457.683526	0.999094
458.056619	0.998344
458.429653	0.999063
458.802628	0.997420
459.175542	0.997478
459.548398	0.998439
459.921194	0.998834
460.293930	0.998819
460.666607	0.998136
461.039224	0.997838
461.411782	0.998181
461.784280	0.998044
462.156719	0.999569
462.529099	0.998266
462.901419	0.998838
463.273680	0.998842
463.645882	0.998539
464.018024	0.998440
464.390106	0.998613
464.762130	0.999641
465.134094	0.999180
465.505999	0.999399
465.877845	0.999208
466.249631	0.999343
466.621358	0.998633
466.993026	0.998773
467.364634	0.998982
467.736184	0.998814
468.107674	0.998672
468.479105	0.998262
468.850477	0.998914
469.221790	0.999072
469.593043	0.999053
469.964238	0.999308
470.335373	0.999189
470.706449	0.998358
471.077467	0.998988
471.448425	0.998912
471.819324	0.999645
472.190164	0.998551
472.560945	0.998695
472.931667	0.998710
473.302330	0.998011
473.672934	0.998917
474.043479	0.998879
474.413965	0.998194
474.784393	0.998718
475.154761	0.998809
475.525070	0.998438
475.895321	0.998653
476.265513	0.998559
476.635645	0.998471
477.005719	0.999048
477.375734	0.997948
477.745691	0.999100
478.115588	0.998405
478.485427	0.999032
478.855207	0.998392
479.224928	0.998867
479.594591	0.998819
479.964194	0.998728
480.333739	0.998566
480.703226	0.998472
481.072653	0.998605
481.442022	0.998905
481.811333	0.998055
482.180584	0.998513
482.549777	0.997638
482.918912	0.997572
483.287988	0.998752
483.657005	0.997482
484.025964	0.998395
484.394864	0.997729
484.763706	0.998245
485.132489	0.998125
485.501213	0.997915
485.869879	0.997468
486.238487	0.997677
486.607036	0.997412
486.975527	0.996733
487.343959	0.996620
487.712333	0.996417
488.080648	0.996347
488.448905	0.996282
488.817104	0.996546
489.185244	0.995765
489.553326	0.995783
489.921350	0.995198
490.289315	0.994760
490.657222	0.995070
491.025070	0.994093
491.392861	0.993437
491.760593	0.993460
492.128267	0.993043
492.495883	0.992175
492.863440	0.992257
493.230939	0.991650
493.598380	0.991044
493.965763	0.990465
494.333088	0.990627
494.700354	0.988791
495.067563	0.988635
495.434713	0.987604
495.801805	0.987193
496.168839	0.986130
496.535815	0.984648
496.902733	0.983878
497.269593	0.983420
497.636395	0.982658
498.003139	0.981312
498.369825	0.981256
498.736453	0.979155
499.103023	0.977968
499.469535	0.976788
499.835989	0.976280
500.202385	0.974969
500.568723	0.973136
500.935003	0.972455
501.301226	0.970327
501.667390	0.968748
502.033497	0.967556
502.399546	0.966437
502.765537	0.963554
503.131470	0.961799
503.497345	0.959952
503.863163	0.959874
504.228923	0.957058
504.594625	0.955049
504.960269	0.953742
505.325856	0.950612
505.691385	0.949080
506.056856	0.946695
506.422270	0.944245
506.787625	0.942267
507.152924	0.939632
507.518164	0.937006
507.883347	0.935018
508.248472	0.932130
508.613540	0.929264
508.978550	0.926704
509.343503	0.923100
509.708398	0.920422
510.073236	0.917526
510.438016	0.914843
510.802738	0.910967
511.167403	0.907830
511.532010	0.904349
511.896561	0.900920
512.261053	0.897344
512.625488	0.893732
512.989866	0.890197
513.354186	0.886232
513.718449	0.883130
514.082655	0.878805
514.446803	0.875160
514.810894	0.871033
515.174927	0.866223
515.538904	0.863118
515.902822	0.857618
516.266684	0.854622
516.630488	0.850221
516.994235	0.845772
517.357925	0.840042
517.721558	0.836445
518.085133	0.830744
518.448651	0.827392
518.812112	0.822688
519.175516	0.816959
519.538863	0.812270
519.902152	0.808289
520.265385	0.800602
520.628560	0.798013
520.991678	0.791533
521.354739	0.787378
521.717743	0.782164
522.080690	0.777593
522.443580	0.769886
522.806413	0.765597
523.169189	0.760408
523.531908	0.754281
523.894569	0.750360
524.257174	0.744872
524.619722	0.738573
524.982213	0.734589
525.344647	0.727882
525.707025	0.722916
526.069345	0.716539
526.431608	0.711007
526.793815	0.705252
527.155964	0.700441
527.518057	0.695578
527.880093	0.689807
528.242072	0.683969
528.603995	0.678514
528.965860	0.674080
529.327669	0.667364
529.689421	0.662551
530.051117	0.657793
530.412755	0.649457
530.774337	0.646312
531.135862	0.639500
531.497331	0.635006
531.858743	0.630110
532.220098	0.623172
532.581396	0.618807
532.942638	0.613741
533.303824	0.609187
533.664953	0.602535
534.026025	0.597827
534.387040	0.590963
534.747999	0.586250
535.108902	0.579727
535.469748	0.577604
535.830537	0.570259
536.191270	0.565200
536.551947	0.559325
536.912567	0.554436
537.273131	0.550788
537.633638	0.545014
537.994089	0.539594
538.354483	0.535702
538.714821	0.528895
539.075103	0.523754
539.435328	0.518544
539.795497	0.517242
540.155609	0.508564
540.515665	0.503536
540.875665	0.502394
541.235609	0.495651
541.595496	0.491562
541.955328	0.482873
542.315102	0.480989
542.674821	0.477059
543.034483	0.472173
543.394090	0.467584
543.753640	0.464237
544.113134	0.455718
544.472571	0.454469
544.831953	0.446932
545.191278	0.445609
545.550548	0.441637
545.909761	0.434069
546.268918	0.430581
546.628019	0.425304
546.987064	0.422964
547.346053	0.421498
547.704986	0.414537
548.063863	0.411174
548.422684	0.408039
548.781449	0.405312
549.140158	0.399365
549.498811	0.397861
549.857408	0.397275
550.215949	0.388696
550.574434	0.387881
550.932864	0.382090
551.291237	0.378366
551.649555	0.375465
552.007817	0.372336
552.366022	0.369778
552.724173	0.366958
553.082267	0.364045
553.440305	0.357503
553.798288	0.359313
554.156215	0.352816
554.514086	0.350737
554.871902	0.350439
555.229661	0.347074
555.587365	0.344941
555.945014	0.344777
556.302606	0.338665
556.660143	0.338849
557.017625	0.332229
557.375050	0.332291
557.732421	0.326856
558.089735	0.326471
558.446994	0.324132
558.804197	0.321047
559.161345	0.318641
559.518437	0.320057
559.875474	0.315013
560.232455	0.312665
560.589381	0.312106
560.946251	0.309168
561.303065	0.305957
561.659825	0.304905
562.016528	0.304166
562.373177	0.305282
562.729770	0.300797
563.086307	0.301351
563.442789	0.297492
563.799216	0.297753
564.155587	0.295546
564.511904	0.294948
564.868164	0.293682
565.224370	0.292009
565.580520	0.291827
565.936615	0.290754
566.292654	0.291585
566.648638	0.287948
567.004567	0.287238
567.360441	0.286667
567.716260	0.287543
568.072023	0.284348
568.427732	0.283833
568.783385	0.285314
569.138982	0.281918
569.494525	0.280681
569.850013	0.282884
570.205445	0.279932
570.560823	0.281506
570.916145	0.282552
571.271412	0.279660
571.626625	0.280297
571.981782	0.280231
572.336884	0.280284
572.691931	0.279394
573.046923	0.279590
573.401860	0.280216
573.756743	0.281429
574.111570	0.279181
574.466342	0.279405
574.821059	0.277622
575.175722	0.279906
575.530330	0.279036
575.884882	0.278750
576.239380	0.280269
576.593823	0.280064
576.948211	0.279205
577.302544	0.282118
577.656823	0.281127
578.011047	0.280886
578.365216	0.280942
578.719330	0.282742
579.073389	0.282115
579.427394	0.282816
579.781344	0.283453
580.135239	0.284453
580.489080	0.283831
580.842866	0.286778
581.196597	0.286220
581.550273	0.284664
581.903895	0.285557
582.257463	0.283172
582.610975	0.286246
582.964434	0.285753
583.317837	0.287863
583.671186	0.287694
584.024481	0.287827
584.377721	0.289885
584.730906	0.290318
585.084037	0.289420
585.437113	0.291121
585.790135	0.290325
586.143103	0.293348
586.496016	0.294490
586.848874	0.291672
587.201679	0.292000
587.554428	0.295284
587.907124	0.294123
588.259765	0.294375
588.612352	0.295140
588.964884	0.298555
589.317362	0.298086
589.669786	0.297801
590.022155	0.296389
590.374470	0.295455
590.726731	0.297611
591.078937	0.302014
591.431090	0.298383
591.783188	0.302452
592.135232	0.302825
592.487222	0.302785
592.839157	0.301084
593.191038	0.303339
593.542866	0.304799
593.894639	0.308533
594.246358	0.306418
594.598022	0.305458
594.949633	0.309100
595.301190	0.309802
595.652692	0.308880
596.004141	0.305298
596.355535	0.313213
596.706876	0.313747
597.058162	0.316030
597.409395	0.313004
597.760573	0.310490
598.111698	0.314258
598.462768	0.314357
598.813785	0.315798
599.164748	0.316763
599.515657	0.316621
599.866511	0.320645
600.217312	0.315660
600.568060	0.321069
600.918753	0.317433
601.269392	0.318270
601.619978	0.321573
601.970510	0.319017
602.320988	0.319529
602.671412	0.316629
603.021783	0.319340
603.372100	0.320786
603.722363	0.320417
604.072572	0.320960
604.422728	0.320853
604.772830	0.322653
605.122878	0.322621
605.472872	0.322960
605.822813	0.321311
606.172701	0.323730
606.522534	0.321509
606.872314	0.321147
607.222041	0.322208
607.571714	0.320549
607.921333	0.321466
608.270899	0.321226
608.620411	0.317754
608.969870	0.322011
609.319276	0.321854
609.668627	0.322064
610.017926	0.320635
610.367171	0.318781
610.716362	0.320192
611.065500	0.320174
611.414585	0.318568
611.763616	0.319214
612.112594	0.319547
612.461518	0.319208
612.810389	0.316813
613.159207	0.318832
613.507971	0.321191
613.856682	0.316673
614.205340	0.318165
614.553945	0.314956
614.902496	0.319018
615.250994	0.316864
615.599439	0.317653
615.947830	0.317135
616.296169	0.318076
616.644454	0.317494
616.992686	0.317691
617.340864	0.315533
617.688990	0.318964
618.037063	0.315662
618.385082	0.317297
618.733048	0.314498
619.080961	0.316632
619.428821	0.316068
619.776628	0.315913
620.124382	0.317456
620.472083	0.317807
620.819731	0.317179
621.167326	0.321019
621.514868	0.320842
621.862357	0.324839
622.209793	0.324308
622.557176	0.326798
622.904506	0.327944
623.251783	0.330487
623.599007	0.332703
623.946179	0.332182
624.293297	0.333925
624.640363	0.337841
624.987376	0.338187
625.334336	0.340575
625.681243	0.343166
626.028097	0.343246
626.374899	0.344442
626.721647	0.345174
627.068343	0.348038
627.414987	0.349223
627.761577	0.351245
628.108115	0.349605
628.454600	0.354923
628.801032	0.352122
629.147412	0.354374
629.493739	0.354176
629.840014	0.358269
630.186236	0.355074
630.532405	0.360423
630.878521	0.357851
631.224585	0.360384
631.570597	0.363876
631.916556	0.362133
632.262462	0.362613
632.608316	0.364408
632.954117	0.365065
633.299866	0.366182
633.645562	0.366691
633.991206	0.370874
634.336797	0.374034
634.682336	0.375939
635.027823	0.377588
635.373257	0.378235
635.718639	0.381798
636.063968	0.381191
636.409245	0.386385
636.754470	0.387249
637.099642	0.389968
637.444762	0.393356
637.789829	0.391944
638.134845	0.395112
638.479808	0.396383
638.824719	0.395952
639.169577	0.400522
639.514383	0.398802
639.859137	0.403591
640.203839	0.403082
640.548489	0.403768
640.893086	0.404806
641.237632	0.406565
641.582125	0.405117
641.926566	0.406532
642.270955	0.406774
642.615292	0.407302
642.959576	0.406312
643.303809	0.406831
643.647990	0.406371
643.992118	0.406571
644.336195	0.410654
644.680219	0.408806
645.024192	0.409432
645.368112	0.403033
645.711981	0.402174
646.055797	0.397250
646.399562	0.399451
646.743274	0.391732
647.086935	0.389525
647.430544	0.389363
647.774101	0.388514
648.117606	0.387529
648.461059	0.388666
648.804460	0.390877
649.147810	0.396278
649.491108	0.397557
649.834354	0.399305
650.177548	0.404565
650.520690	0.409794
650.863781	0.411621
651.206820	0.410518
651.549807	0.415384
651.892742	0.419081
652.235626	0.418551
652.578458	0.419535
652.921238	0.425792
653.263967	0.423147
653.606644	0.427497
653.949269	0.426902
654.291843	0.430852
654.634365	0.427573
654.976836	0.430616
655.319255	0.430799
655.661622	0.432637
656.003938	0.432465
656.346203	0.435819
656.688416	0.433077
657.030577	0.437042
657.372687	0.438905
657.714746	0.439779
658.056753	0.436561
658.398708	0.440716
658.740612	0.441843
659.082465	0.437737
659.424266	0.438713
659.766016	0.437983
660.107715	0.440429
660.449362	0.439491
660.790958	0.439727
661.132503	0.440390
661.473996	0.438177
661.815438	0.439206
662.156829	0.439262
662.498168	0.439518
662.839456	0.441281
663.180693	0.438883
663.521879	0.439466
663.863013	0.439894
664.204097	0.438328
664.545129	0.435554
664.886110	0.435614
665.227040	0.433201
665.567918	0.435515
665.908746	0.433709
666.249522	0.433574
666.590248	0.434825
666.930922	0.432530
667.271545	0.431363
667.612118	0.431371
667.952639	0.432926
668.293109	0.432229
668.633528	0.435068
668.973896	0.434256
669.314213	0.434879
669.654480	0.436567
669.994695	0.436835
670.334859	0.437602
670.674973	0.437755
671.015035	0.437833
671.355047	0.437956
671.695008	0.439630
672.034918	0.441250
672.374777	0.440749
672.714585	0.441448
673.054342	0.441706
673.394049	0.441719
673.733705	0.439177
674.073310	0.440183
674.412864	0.443041
674.752368	0.444233
675.091820	0.443873
675.431223	0.448470
675.770574	0.448334
676.109875	0.451422
676.449125	0.451326
676.788324	0.453827
677.127473	0.458992
677.466571	0.458810
677.805619	0.460430
678.144616	0.461386
678.483562	0.463170
678.822458	0.465441
679.161303	0.466958
679.500098	0.467075
679.838842	0.468943
680.177535	0.468354
680.516179	0.466943
680.854771	0.465720
681.193314	0.459558
681.531805	0.450837
681.870247	0.439247
682.208638	0.431579
682.546978	0.430941
682.885268	0.432675
683.223508	0.438655
683.561697	0.442369
683.899836	0.445136
684.237925	0.448663
684.575963	0.450648
684.913951	0.454076
685.251889	0.449825
685.589776	0.451747
685.927614	0.453929
686.265401	0.448678
686.603137	0.450041
686.940824	0.443710
687.278460	0.442292
687.616046	0.441471
687.953582	0.436611
688.291068	0.437494
688.628504	0.433693
688.965889	0.435685
689.303224	0.440210
689.640510	0.443690
689.977745	0.449400
690.314930	0.457324
690.652065	0.462075
690.989150	0.469247
691.326185	0.475914
691.663170	0.480724
692.000105	0.487793
692.336990	0.494934
692.673825	0.496795
693.010610	0.503564
693.347345	0.509318
693.684030	0.510829
694.020665	0.516095
694.357251	0.523952
694.693786	0.523958
695.030272	0.527715
695.366707	0.531461
695.703093	0.534864
696.039429	0.532928
696.375716	0.534922
696.711952	0.537501
697.048139	0.539937
697.384276	0.541354
697.720363	0.539791
698.056400	0.538732
698.392388	0.544087
698.728326	0.546815
699.064214	0.549718
699.400053	0.550681
699.735842	0.553980
700.071581	0.557091
700.407270	0.559634
700.742910	0.562471
701.078501	0.569011
701.414042	0.569553
701.749533	0.572051
702.084974	0.580867
702.420366	0.573342
702.755709	0.580964
703.091002	0.588762
703.426246	0.582389
703.761440	0.587953
704.096584	0.592513
704.431679	0.589896
704.766725	0.591726
705.101721	0.593726
705.436668	0.589380
705.771565	0.596636
706.106413	0.592959
706.441212	0.588640
706.775961	0.587036
707.110661	0.590339
707.445311	0.586133
707.779913	0.583450
708.114465	0.582122
708.448967	0.579116
708.783421	0.570352
709.117825	0.565186
709.452180	0.565762
709.786485	0.559770
710.120742	0.549075
710.454949	0.551608
710.789107	0.543659
711.123216	0.534658
711.457275	0.537050
711.791286	0.527375
712.125247	0.525995
712.459159	0.537340
712.793023	0.530309
713.126837	0.533538
713.460602	0.534555
713.794318	0.544118
714.127985	0.542051
714.461602	0.552671
714.795171	0.555095
715.128691	0.562830
715.462162	0.570801
715.795584	0.576185
716.128957	0.579009
716.462281	0.585412
716.795556	0.589422
717.128782	0.593657
717.461960	0.603798
717.795088	0.601876
718.128167	0.608272
718.461198	0.617288
718.794180	0.617936
719.127113	0.620202
719.459997	0.624321
719.792833	0.630652
720.125619	0.631232
720.458357	0.637913
720.791046	0.636341
721.123686	0.639922
721.456278	0.647178
721.788821	0.644696
722.121315	0.649005
722.453761	0.653461
722.786158	0.651072
723.118506	0.646370
723.450805	0.655271
723.783056	0.651089
724.115259	0.648339
724.447412	0.648135
724.779518	0.649146
725.111574	0.648220
725.443582	0.643439
725.775542	0.646287
726.107453	0.638532
726.439315	0.638022
726.771129	0.637021
727.102895	0.630093
727.434612	0.622647
727.766281	0.621117
728.097901	0.620257
728.429473	0.620195
728.760996	0.618332
729.092471	0.617821
729.423897	0.622301
729.755276	0.621554
730.086606	0.621076
730.417887	0.615886
730.749120	0.606325
731.080305	0.597526
731.411442	0.593791
731.742530	0.598783
732.073570	0.597833
732.404562	0.589709
732.735506	0.591098
733.066401	0.597012
733.397249	0.605092
733.728048	0.616324
734.058798	0.628964
734.389501	0.639531
734.720156	0.649559
735.050762	0.657462
735.381320	0.658930
735.711831	0.668157
736.042293	0.672267
736.372707	0.668611
736.703073	0.672555
737.033391	0.674689
737.363661	0.672292
737.693883	0.667206
738.024056	0.666344
738.354182	0.666669
738.684260	0.655975
739.014290	0.652146
739.344272	0.652946
739.674207	0.646905
740.004093	0.645514
740.333931	0.647405
740.663722	0.646140
740.993464	0.646951
741.323159	0.650746
741.652806	0.655136
741.982405	0.659864
742.311956	0.664811
742.641460	0.667326
742.970915	0.671198
743.300323	0.678334
743.629683	0.684631
743.958996	0.686806
744.288260	0.690619
744.617477	0.696008
744.946647	0.698084
745.275768	0.703303
745.604842	0.703225
745.933869	0.712872
746.262847	0.712917
746.591778	0.707707
746.920662	0.714132
747.249498	0.719640
747.578286	0.711005
747.907027	0.706491
748.235720	0.709174
748.564365	0.703290
748.892963	0.702636
749.221514	0.705232
749.550017	0.711813
749.878473	0.710509
750.206881	0.716625
750.535242	0.718496
750.863555	0.717594
751.191821	0.718918
751.520039	0.722028
751.848210	0.726863
752.176334	0.719248
752.504411	0.719049
752.832440	0.726877
753.160421	0.730909
753.488356	0.729016
753.816243	0.725944
754.144082	0.735110
754.471875	0.738883
754.799620	0.733817
755.127318	0.735045
755.454969	0.734579
755.782572	0.733925
756.110129	0.739848
756.437638	0.742164
756.765100	0.738519
757.092515	0.735492
757.419882	0.735187
757.747203	0.740548
758.074477	0.740227
758.401703	0.736821
758.728882	0.732189
759.056014	0.730860
759.383099	0.730615
759.710138	0.731090
760.037129	0.728355
760.364073	0.721646
760.690970	0.723749
761.017820	0.730027
761.344623	0.725943
761.671379	0.717002
761.998088	0.705304
762.324751	0.682335
762.651366	0.641764
762.977935	0.575027
763.304456	0.523678
763.630931	0.514064
763.957359	0.553118
764.283740	0.597091
764.610074	0.623996
764.936362	0.655121
765.262602	0.680441
765.588796	0.702385
765.914943	0.719903
766.241044	0.737998
766.567097	0.744704
766.893104	0.753942
767.219064	0.760759
767.544978	0.765954
767.870845	0.779772
768.196665	0.784328
768.522438	0.781345
768.848165	0.782972
769.173846	0.791641
769.499479	0.796602
769.825066	0.799306
770.150607	0.803946
770.476101	0.799457
770.801548	0.800860
771.126949	0.812526
771.452303	0.816138
771.777611	0.814564
772.102872	0.814962
772.428087	0.819184
772.753256	0.822450
773.078378	0.824745
773.403453	0.833772
773.728482	0.837965
774.053465	0.831665
774.378401	0.835295
774.703291	0.843533
775.028135	0.843232
775.352932	0.845912
775.677683	0.847598
776.002388	0.848034
776.327046	0.846724
776.651658	0.850902
776.976224	0.853934
777.300743	0.853772
777.625216	0.856381
777.949643	0.858204
778.274024	0.858807
778.598359	0.860592
778.922647	0.858761
779.246889	0.858967
779.571086	0.863140
779.895236	0.865450
780.219339	0.863224
780.543397	0.859503
780.867409	0.858527
781.191374	0.859679
781.515294	0.861659
781.839167	0.861040
782.162995	0.864161
782.486776	0.861731
782.810511	0.862393
783.134201	0.866160
783.457844	0.862888
783.781441	0.866524
784.104993	0.871629
784.428498	0.871601
784.751958	0.868337
785.075372	0.869926
785.398739	0.873859
785.722061	0.870613
786.045337	0.866219
786.368568	0.870244
786.691752	0.873303
787.014891	0.858943
787.337983	0.850846
787.661030	0.842255
787.984031	0.825329
788.306987	0.813172
788.629897	0.815292
788.952760	0.820338
789.275579	0.822498
789.598351	0.838453
789.921078	0.851179
790.243759	0.853699
790.566395	0.857544
790.888984	0.866033
791.211529	0.869799
791.534027	0.874070
791.856480	0.874935
792.178888	0.881323
792.501249	0.883351
792.823566	0.884216
793.145836	0.884184
793.468062	0.885867
793.790241	0.886267
794.112375	0.884285
794.434464	0.879751
794.756507	0.878907
795.078505	0.878955
795.400457	0.874286
795.722364	0.862253
796.044226	0.855825
796.366042	0.854111
796.687812	0.857744
797.009538	0.853328
797.331218	0.856636
797.652852	0.861507
797.974442	0.865436
798.295986	0.866016
798.617484	0.868203
798.938938	0.872637
799.260346	0.877154
799.581709	0.879757
799.903026	0.881206
800.224299	0.881988
800.545526	0.885458
800.866708	0.889650
801.187845	0.894750
801.508936	0.893204
801.829983	0.892137
802.150984	0.894169
802.471940	0.899229
802.792851	0.898844
803.113717	0.899027
803.434538	0.898082
803.755314	0.899332
804.076045	0.901661
804.396731	0.901255
804.717372	0.901238
805.037967	0.904037
805.358518	0.901034
805.679024	0.898550
805.999485	0.898018
806.319901	0.898109
806.640272	0.900043
806.960598	0.897795
807.280879	0.894290
807.601115	0.893293
807.921306	0.897926
808.241453	0.897770
808.561554	0.894882
808.881611	0.895629
809.201623	0.896586
809.521590	0.898781
809.841513	0.897930
810.161390	0.897902
810.481223	0.899087
810.801011	0.902047
811.120755	0.904339
811.440453	0.903986
811.760107	0.902151
812.079716	0.901944
812.399281	0.904792
812.718801	0.907397
813.038276	0.908690
813.357707	0.907404
813.677093	0.904220
813.996434	0.908687
814.315731	0.909857
814.634983	0.911366
814.954191	0.909469
815.273354	0.907018
815.592473	0.903672
815.911547	0.902670
816.230577	0.900226
816.549562	0.898233
816.868502	0.897769
817.187399	0.894880
817.506250	0.890202
817.825058	0.892084
818.143821	0.887454
818.462539	0.883184
818.781213	0.876195
819.099843	0.864817
819.418429	0.848829
819.736970	0.832412
820.055466	0.812851
820.373919	0.788643
820.692327	0.754913
821.010691	0.721907
821.329011	0.645177
821.647286	0.533021
821.965517	0.420637
822.283704	0.378387
822.601847	0.379947
822.919945	0.415593
823.237999	0.448777
823.556010	0.494207
823.873976	0.548984
824.191897	0.599027
824.509775	0.640841
824.827609	0.685183
825.145398	0.707659
825.463144	0.710193
825.780845	0.692663
826.098502	0.674599
826.416116	0.629603
826.733685	0.586727
827.051210	0.578533
827.368692	0.593428
827.686129	0.629440
828.003522	0.681786
828.320872	0.728124
828.638177	0.771527
828.955439	0.803406
829.272656	0.825571
829.589830	0.841482
829.906960	0.857457
830.224046	0.868854
830.541088	0.879446
830.858086	0.883210
831.175041	0.889620
831.491952	0.889708
831.808819	0.885794
832.125642	0.880093
832.442421	0.864807
832.759157	0.842739
833.075849	0.798854
833.392497	0.736309
833.709101	0.694949
834.025662	0.704560
834.342179	0.736814
834.658653	0.774520
834.975083	0.809657
835.291469	0.835756
835.607811	0.857005
835.924110	0.872390
836.240366	0.889244
836.556578	0.903614
836.872746	0.910129
837.188871	0.915914
837.504952	0.922190
837.820990	0.925594
838.136984	0.928064
838.452935	0.931256
838.768842	0.933824
839.084706	0.926251
839.400526	0.901354
839.716303	0.861699
840.032037	0.840168
840.347727	0.843413
840.663373	0.861232
840.978977	0.882214
841.294537	0.903933
841.610054	0.920452
841.925527	0.927855
842.240957	0.934613
842.556344	0.942125
842.871687	0.947434
843.186987	0.951575
843.502244	0.951447
843.817458	0.953032
844.132629	0.956132
844.447756	0.961825
844.762840	0.961915
845.077881	0.960321
845.392879	0.961238
845.707833	0.962585
846.022745	0.965225
846.337613	0.965353
846.652438	0.966125
846.967221	0.964095
847.281960	0.965544
847.596656	0.968470
847.911309	0.966614
848.225919	0.967394
848.540485	0.968730
848.855009	0.969740
849.169490	0.969590
849.483928	0.970097
849.798323	0.969863
850.112675	0.969943
850.426984	0.969374
850.741251	0.970972
851.055474	0.971056
851.369654	0.968479
851.683792	0.968701
851.997887	0.970825
852.311938	0.971798
852.625947	0.970710
852.939914	0.968315
853.253837	0.969393
853.567718	0.971145
853.881555	0.970817
854.195350	0.968020
854.509103	0.970942
854.822812	0.971934
855.136479	0.970285
855.450103	0.970119
855.763685	0.969008
856.077224	0.968497
856.390720	0.971814
856.704173	0.970728
857.017584	0.969107
857.330953	0.967136
857.644278	0.968888
857.957561	0.969693
858.270802	0.968732
858.584000	0.968186
858.897155	0.967733
859.210268	0.968291
859.523339	0.968001
859.836367	0.971197
860.149352	0.971394
860.462295	0.969548
860.775195	0.970402
861.088054	0.970328
861.400869	0.969785
861.713642	0.970705
862.026373	0.970866
862.339062	0.971523
862.651708	0.968148
862.964312	0.969232
863.276873	0.968244
863.589392	0.969244
863.901869	0.967410
864.214303	0.965612
864.526696	0.964841
864.839045	0.964814
865.151353	0.962736
865.463619	0.964065
865.775842	0.963125
866.088023	0.962601
866.400162	0.962564
866.712258	0.962812
867.024313	0.963400
867.336325	0.964330
867.648296	0.964033
867.960224	0.962810
868.272110	0.962687
868.583954	0.964779
868.895755	0.964202
869.207515	0.962206
869.519233	0.960657
869.830909	0.962082
870.142542	0.964178
870.454134	0.961918
870.765684	0.961891
871.077191	0.958779
871.388657	0.960462
871.700081	0.960540
872.011463	0.959901
872.322803	0.958786
872.634101	0.957746
872.945357	0.955965
873.256571	0.954321
873.567744	0.953877
873.878874	0.955591
874.189963	0.953750
874.501010	0.952693
874.812015	0.950432
875.122979	0.953108
875.433900	0.954578
875.744780	0.954948
876.055618	0.952124
876.366415	0.951196
876.677169	0.951970
876.987882	0.953305
877.298554	0.952944
877.609183	0.948953
877.919771	0.946711
878.230317	0.945050
878.540822	0.943196
878.851285	0.937711
879.161707	0.929247
879.472087	0.918205
879.782425	0.902592
880.092722	0.869353
880.402977	0.818839
880.713191	0.760601
881.023363	0.704460
881.333494	0.672230
881.643583	0.644313
881.953631	0.642671
882.263637	0.671514
882.573602	0.710326
882.883526	0.735264
883.193408	0.757495
883.503248	0.779259
883.813048	0.805371
884.122806	0.833392
884.432522	0.856982
884.742197	0.876318
885.051831	0.885741
885.361424	0.894759
885.670975	0.907238
885.980485	0.917255
886.289954	0.922850
886.599382	0.927521
886.908768	0.931319
887.218113	0.936539
887.527417	0.940783
887.836680	0.944708
888.145901	0.946112
888.455082	0.948017
888.764221	0.952668
889.073319	0.954891
889.382376	0.955034
889.691392	0.954672
890.000366	0.954571
890.309300	0.955207
890.618193	0.955262
890.927044	0.952915
891.235855	0.953831
891.544625	0.953004
891.853353	0.954458
892.162041	0.951563
892.470687	0.945118
892.779293	0.939522
893.087858	0.936724
893.396381	0.929468
893.704864	0.915813
894.013306	0.894430
894.321707	0.868050
894.630068	0.854338
894.938387	0.850274
895.246665	0.850845
895.554903	0.862663
895.863100	0.874499
896.171256	0.892470
896.479371	0.910634
896.787446	0.923755
897.095480	0.929194
897.403473	0.930961
897.711425	0.934483
898.019336	0.942442
898.327207	0.945277
898.635038	0.947533
898.942827	0.946506
899.250576	0.950232
899.558284	0.954318
899.865952	0.955199
900.173579	0.957043
900.481165	0.957304
900.788711	0.962288
901.096216	0.962400
901.403681	0.962913
901.711105	0.964246
902.018489	0.964709
902.325832	0.964565
902.633135	0.963230
902.940397	0.957647
903.247619	0.945872
903.554800	0.921465
903.861941	0.884228
904.169041	0.850978
904.476101	0.834954
904.783121	0.834952
905.090100	0.851519
905.397039	0.870992
905.703938	0.891226
906.010796	0.910084
906.317614	0.926047
906.624391	0.937051
906.931129	0.946635
907.237826	0.954003
907.544483	0.960649
907.851099	0.964580
908.157675	0.968501
908.464211	0.970995
908.770707	0.972604
909.077163	0.975237
909.383578	0.976320
909.689954	0.975102
909.996289	0.977563
910.302584	0.978017
910.608839	0.980448
910.915054	0.979874
911.221229	0.978860
911.527363	0.978342
911.833458	0.978855
912.139513	0.978480
912.445527	0.977100
912.751502	0.975409
913.057436	0.973513
913.363331	0.971727
913.669186	0.968299
913.975000	0.962199
914.280775	0.957892
914.586510	0.951759
914.892205	0.939298
915.197859	0.918949
915.503475	0.892886
915.809050	0.872991
916.114585	0.869070
916.420081	0.868479
916.725536	0.863894
917.030952	0.871394
917.336328	0.883751
917.641665	0.898064
917.946961	0.912978
918.252218	0.923016
918.557435	0.931852
918.862612	0.940517
919.167750	0.945515
919.472848	0.949375
919.777906	0.955853
920.082925	0.961015
920.387904	0.964177
920.692843	0.964942
920.997743	0.965053
921.302603	0.970068
921.607423	0.971113
921.912204	0.972343
922.216946	0.974184
922.521647	0.974478
922.826310	0.976914
923.130932	0.977719
923.435516	0.978795
923.740059	0.980609
924.044564	0.980403
924.349028	0.981523
924.653454	0.984661
924.957840	0.985366
925.262186	0.985280
925.566493	0.984424
925.870761	0.985866
926.174989	0.986546
926.479178	0.988122
926.783328	0.989593
927.087438	0.988824
927.391509	0.987475
927.695541	0.990147
927.999533	0.989259
928.303486	0.990359
928.607400	0.991294
928.911275	0.989675
929.215110	0.989805
929.518906	0.990708
929.822663	0.989902
930.126381	0.992086
930.430060	0.990192
930.733699	0.990755
931.037299	0.990833
931.340861	0.990452
931.644383	0.989168
931.947866	0.988950
932.251309	0.990066
932.554714	0.990618
932.858080	0.990705
933.161407	0.990755
933.464694	0.992114
933.767943	0.989478
934.071153	0.992065
934.374323	0.992743
934.677455	0.990322
934.980548	0.991412
935.283602	0.991095
935.586617	0.990764
935.889593	0.991250
936.192530	0.991314
936.495428	0.990174
936.798287	0.991375
937.101108	0.989561
937.403890	0.989952
937.706632	0.989879
938.009336	0.987329
938.312002	0.986688
938.614628	0.985345
938.917216	0.984336
939.219765	0.982487
939.522275	0.983467
939.824747	0.984270
940.127179	0.982875
940.429573	0.985055
940.731929	0.985635
941.034246	0.986222
941.336524	0.986801
941.638763	0.986485
941.940964	0.986740
942.243126	0.987939
942.545250	0.988070
942.847335	0.989097
943.149381	0.988519
943.451389	0.988203
943.753359	0.988703
944.055290	0.990827
944.357182	0.990165
944.659036	0.988545
944.960851	0.990314
945.262628	0.989281
945.564367	0.992085
945.866067	0.990387
946.167729	0.991224
946.469352	0.989242
946.770937	0.989500
947.072484	0.991433
947.373992	0.989582
947.675462	0.991086
947.976893	0.989723
948.278286	0.990689
948.579641	0.992433
948.880958	0.991110
949.182236	0.990484
949.483476	0.991935
949.784678	0.990520
950.085841	0.991431
950.386967	0.990961
950.688054	0.991238
950.989103	0.991922
951.290114	0.989170
951.591087	0.989430
951.892021	0.989845
952.192917	0.989667
952.493776	0.989348
952.794596	0.987835
953.095378	0.988462
953.396122	0.988397
953.696828	0.986445
953.997496	0.990106
954.298126	0.991191
954.598718	0.991089
954.899272	0.991564
955.199788	0.990614
955.500266	0.991881
955.800706	0.993693
956.101108	0.992949
956.401472	0.993492
956.701798	0.994034
957.002087	0.993684
957.302337	0.992436
957.602550	0.995432
957.902724	0.994959
958.202861	0.995012
958.502960	0.994775
958.803022	0.994558
959.103045	0.996177
959.403031	0.995465
959.702979	0.995234
960.002889	0.995639
960.302762	0.994342
960.602596	0.995410
960.902393	0.995039
961.202153	0.996340
961.501875	0.996236
961.801559	0.996379
962.101205	0.996241
962.400814	0.997534
962.700385	0.995871
962.999918	0.996759
963.299414	0.996718
963.598873	0.996133
963.898293	0.995266
964.197677	0.995460
964.497022	0.996057
964.796331	0.996940
965.095601	0.997246
965.394835	0.994622
965.694030	0.996323
965.993189	0.997192
966.292309	0.995030
966.591393	0.997535
966.890439	0.996857
967.189447	0.997030
967.488419	0.997114
967.787353	0.994925
968.086249	0.996625
968.385108	0.996593
968.683930	0.996809
968.982714	0.996638
969.281462	0.996749
969.580172	0.995884
969.878844	0.996807
970.177480	0.996825
970.476078	0.996716
970.774639	0.997334
971.073162	0.996898
971.371649	0.996299
971.670098	0.997326
971.968510	0.995913
972.266885	0.994992
972.565223	0.995842
972.863524	0.994957
973.161788	0.996018
973.460014	0.996366
973.758204	0.995718
974.056356	0.995805
974.354471	0.995130
974.652550	0.995294
974.950591	0.996473
975.248595	0.996312
975.546563	0.996302
975.844493	0.997092
976.142386	0.996862
976.440243	0.997421
976.738062	0.996844
977.035845	0.997796
977.333590	0.996636
977.631299	0.997287
977.928971	0.997432
978.226606	0.996049
978.524204	0.995524
978.821765	0.997890
979.119290	0.996286
979.416777	0.995996
979.714228	0.996785
980.011642	0.996111
980.309020	0.997820
980.606360	0.996025
980.903664	0.998893
981.200931	0.996359
981.498162	0.994480
981.795356	0.994702
982.092513	0.994504
982.389633	0.994467
982.686717	0.990615
982.983764	0.992000
983.280775	0.990280
983.577749	0.991191
983.874686	0.992665
984.171587	0.992161
984.468451	0.994372
984.765279	0.994133
985.062070	0.994199
985.358824	0.995554
985.655543	0.994041
985.952224	0.995504
986.248869	0.996289
986.545478	0.996642
986.842050	0.997624
987.138586	0.994820
987.435086	0.997444
987.731549	0.998763
988.027975	0.997830
988.324366	0.998100
988.620719	0.997781
988.917037	0.995183
989.213318	0.997331
989.509563	0.997852
989.805772	0.998187
990.101944	0.998937
990.398080	0.996526
990.694180	0.996337
990.990244	0.996784
991.286271	0.996718
991.582262	0.997951
991.878217	0.997138
992.174136	0.998950
992.470019	0.997602
992.765865	0.998388
993.061676	0.998638
993.357450	0.997409
993.653188	0.996487
993.948890	0.995844
994.244556	0.998649
994.540186	0.997109
994.835780	0.996563
995.131337	0.997452
995.426859	0.996190
995.722345	0.997404
996.017795	0.996129
996.313208	0.996086
996.608586	0.993814
996.903928	0.996974
997.199234	0.994885
997.494504	0.996571
997.789738	0.995015
998.084936	0.995981
998.380099	0.997715
998.675225	0.996095
998.970316	0.996570
999.265371	0.998050
999.560390	0.997429
999.855373	0.997950
1000.150320	0.996888
1000.445232	0.998493
1000.740108	0.996873
1001.034948	0.997657
1001.329752	0.998543
1001.624521	0.998223
1001.919254	0.998459
1002.213951	0.996239
1002.508613	0.998220
1002.803239	0.998241
1003.097829	0.998476
1003.392384	0.998998
1003.686903	0.999084
1003.981386	0.997935
1004.275834	0.998790
1004.570246	0.998600
1004.864623	0.998802
1005.158964	1.000244
1005.453270	0.998742
1005.747540	0.997694
1006.041775	0.997561
1006.335974	0.997696
1006.630138	0.998645
1006.924266	0.997616
1007.218359	0.999112
1007.512416	0.998913
1007.806438	0.999020
1008.100425	0.998478
1008.394376	0.997960
1008.688292	0.998092
1008.982172	0.999360
1009.276017	0.999126
1009.569827	0.998020
1009.863602	0.997791
1010.157341	0.998674
1010.451045	0.998791
1010.744714	0.999066
1011.038347	0.998577
1011.331945	0.998956
1011.625508	0.997369
1011.919036	0.998834
1012.212528	0.997759
1012.505986	0.997626
1012.799408	0.997669
1013.092795	0.998197
1013.386147	0.998037
1013.679464	0.998760
1013.972745	0.998033
1014.265992	0.997262
1014.559204	0.997700
1014.852380	0.998397
1015.145521	0.998862
1015.438628	0.998679
1015.731699	0.999026
1016.024736	0.998401
1016.317737	0.997960
1016.610703	0.998776
1016.903635	0.998724
1017.196531	0.997993
1017.489393	0.998987
1017.782219	0.998354
1018.075011	0.998502
1018.367768	0.997797
1018.660490	0.999886
1018.953177	0.999886
1019.245829	0.999886
