Dividing Wavelength (nm)	Counts (n)	Blue Motor Position (mm): 0.000000	Red Motor Position (mm): 31.000000	
326.493990	1.000880
326.888308	1.000880
327.282561	1.000880
327.676750	1.000366
328.070874	0.998981
328.464933	0.998992
328.858929	0.999393
329.252859	0.999187
329.646726	0.999516
330.040528	0.998882
330.434265	0.999397
330.827938	1.000515
331.221547	1.000452
331.615091	0.999646
332.008571	1.000560
332.401986	1.000027
332.795338	0.999773
333.188625	0.997645
333.581847	0.999479
333.975006	0.999489
334.368100	0.998912
334.761129	0.999847
335.154095	1.000779
335.546996	0.998158
335.939833	0.995356
336.332606	0.995356
336.725315	0.995730
337.117960	0.995842
337.510540	0.995774
337.903056	0.997209
338.295508	0.994863
338.687896	0.996621
339.080220	0.996474
339.472480	0.996216
339.864676	0.994948
340.256807	0.995276
340.648875	0.995645
341.040879	0.995210
341.432818	0.994339
341.824694	0.994270
342.216506	0.996564
342.608253	0.995517
342.999937	0.995493
343.391557	0.994798
343.783113	0.995410
344.174605	0.996809
344.566033	0.996810
344.957397	0.995083
345.348697	0.995775
345.739934	0.996102
346.131106	0.996300
346.522215	0.994580
346.913260	0.994896
347.304241	0.995680
347.695159	0.995943
348.086012	0.994889
348.476802	0.994652
348.867528	0.995567
349.258191	0.993914
349.648789	0.995908
350.039324	0.995528
350.429796	0.995855
350.820203	0.995702
351.210548	0.996720
351.600828	0.994526
351.991045	0.994632
352.381198	0.993711
352.771288	0.995600
353.161314	0.995755
353.551276	0.997348
353.941175	0.995522
354.331010	0.994837
354.720782	0.995621
355.110490	0.994794
355.500135	0.996598
355.889717	0.996343
356.279235	0.995482
356.668689	0.995258
357.058080	0.994317
357.447408	0.995877
357.836672	0.995320
358.225873	0.995731
358.615010	0.995934
359.004084	0.996727
359.393095	0.995593
359.782043	0.995384
360.170927	0.997392
360.559748	0.996145
360.948505	0.996676
361.337199	0.996596
361.725830	0.995247
362.114398	0.995791
362.502903	0.996799
362.891344	0.996920
363.279722	0.995265
363.668037	0.995436
364.056289	0.995103
364.444478	0.996596
364.832603	0.996604
365.220665	0.995308
365.608665	0.994986
365.996601	0.994879
366.384474	0.995734
366.772284	0.996425
367.160031	0.994945
367.547715	0.994517
367.935336	0.996133
368.322893	0.994981
368.710388	0.995693
369.097820	0.995044
369.485189	0.994093
369.872495	0.994694
370.259738	0.994928
370.646918	0.996781
371.034035	0.995862
371.421090	0.996282
371.808081	0.995109
372.195010	0.995862
372.581875	0.996739
372.968678	0.996206
373.355418	0.996035
373.742096	0.995532
374.128710	0.996220
374.515262	0.994794
374.901751	0.995984
375.288177	0.996327
375.674540	0.996454
376.060841	0.996109
376.447079	0.996364
376.833254	0.997014
377.219367	0.996569
377.605417	0.996318
377.991404	0.996695
378.377329	0.996288
378.763191	0.996505
379.148991	0.996924
379.534727	0.996288
379.920402	0.996086
380.306013	0.997113
380.691563	0.995504
381.077049	0.996176
381.462474	0.995682
381.847835	0.997154
382.233134	0.996270
382.618371	0.997579
383.003545	0.997273
383.388657	0.995910
383.773706	0.997510
384.158693	0.997535
384.543618	0.997169
384.928480	0.997209
385.313280	0.997423
385.698017	0.998155
386.082692	0.997423
386.467305	0.997154
386.851856	0.997851
387.236344	0.996898
387.620770	0.996075
388.005133	0.997507
388.389435	0.998254
388.773674	0.997219
389.157851	0.997135
389.541965	0.997046
389.926018	0.995866
390.310008	0.999037
390.693936	0.996120
391.077802	0.997269
391.461606	0.996625
391.845348	0.997727
392.229027	0.998497
392.612645	0.996968
392.996200	0.998648
393.379694	0.997400
393.763125	0.998884
394.146494	0.998791
394.529801	0.997281
394.913047	0.997225
395.296230	0.997214
395.679351	0.998092
396.062410	0.997367
396.445408	0.998065
396.828343	0.997347
397.211217	0.997704
397.594028	0.998651
397.976778	0.998200
398.359466	0.997947
398.742092	0.997686
399.124656	0.996787
399.507158	0.996605
399.889598	0.997987
400.271977	0.998098
400.654294	0.998662
401.036549	0.998161
401.418742	0.998596
401.800874	0.997398
402.182944	0.998344
402.564952	0.997023
402.946898	0.997743
403.328783	0.997940
403.710606	0.997479
404.092367	0.997164
404.474067	0.998180
404.855705	0.998447
405.237282	0.998883
405.618797	0.997747
406.000250	0.996984
406.381642	0.998110
406.762972	0.997937
407.144240	0.998113
407.525447	0.997431
407.906593	0.998877
408.287677	0.997734
408.668700	0.998055
409.049661	0.996714
409.430560	0.997981
409.811399	0.998014
410.192176	0.997245
410.572891	0.996311
410.953545	0.997437
411.334138	0.996682
411.714669	0.998100
412.095139	0.997178
412.475547	0.998375
412.855894	0.997568
413.236180	0.998218
413.616405	0.998357
413.996568	0.998545
414.376670	0.998163
414.756711	0.997550
415.136691	0.997417
415.516609	0.998426
415.896466	0.997968
416.276262	0.997709
416.655997	0.998449
417.035670	0.997141
417.415283	0.997549
417.794834	0.998418
418.174324	0.997275
418.553753	0.997695
418.933121	0.997340
419.312428	0.997819
419.691674	0.997588
420.070859	0.998231
420.449983	0.998060
420.829045	0.998341
421.208047	0.998750
421.586988	0.999505
421.965867	0.998267
422.344686	0.999152
422.723444	0.998630
423.102141	0.997445
423.480777	0.998355
423.859352	0.998717
424.237866	0.997695
424.616319	0.998050
424.994712	0.998185
425.373044	0.998556
425.751314	0.999262
426.129524	0.997620
426.507673	0.998016
426.885762	0.998268
427.263789	0.998190
427.641756	0.998297
428.019662	0.998403
428.397508	0.997124
428.775292	0.997219
429.153016	0.997894
429.530679	0.998247
429.908282	0.998592
430.285824	0.997636
430.663305	0.998178
431.040726	0.997722
431.418086	0.999041
431.795385	0.999151
432.172624	0.998322
432.549802	0.999001
432.926920	0.998380
433.303977	0.997653
433.680974	0.999284
434.057910	0.998912
434.434786	0.998637
434.811601	0.997603
435.188355	0.998077
435.565050	0.997639
435.941683	0.998090
436.318257	0.998536
436.694770	0.997645
437.071222	0.998575
437.447614	0.998333
437.823946	0.998874
438.200218	0.998875
438.576429	0.998392
438.952580	0.999019
439.328670	0.997601
439.704700	0.998359
440.080670	0.998623
440.456580	0.998084
440.832429	0.997525
441.208218	0.998376
441.583947	0.998232
441.959616	0.999077
442.335224	0.998628
442.710773	0.998762
443.086261	0.998354
443.461689	0.997806
443.837057	0.997647
444.212365	0.997616
444.587612	0.997803
444.962800	0.997583
445.337927	0.998017
445.712995	0.998099
446.088002	0.998676
446.462949	0.998294
446.837837	0.998196
447.212664	0.997865
447.587431	0.997894
447.962139	0.998900
448.336786	0.998037
448.711374	0.998584
449.085901	0.997783
449.460369	0.998994
449.834776	0.998128
450.209124	0.998636
450.583412	0.998851
450.957640	0.998546
451.331808	0.997909
451.705917	0.998432
452.079965	0.998163
452.453954	0.998020
452.827883	0.997762
453.201752	0.997871
453.575562	0.998655
453.949311	0.999072
454.323001	0.997746
454.696632	0.997480
455.070202	0.998779
455.443713	0.997077
455.817164	0.998017
456.190556	0.998196
456.563888	0.997763
456.937160	0.997701
457.310373	0.997933
457.683526	0.997784
458.056619	0.997447
458.429653	0.998177
458.802628	0.997211
459.175542	0.997239
459.548398	0.998178
459.921194	0.997815
460.293930	0.997826
460.666607	0.997858
461.039224	0.996735
461.411782	0.997437
461.784280	0.997530
462.156719	0.998471
462.529099	0.998472
462.901419	0.997937
463.273680	0.997775
463.645882	0.997638
464.018024	0.997601
464.390106	0.998136
464.762130	0.998484
465.134094	0.997425
465.505999	0.997876
465.877845	0.997108
466.249631	0.997713
466.621358	0.997394
466.993026	0.997159
467.364634	0.996716
467.736184	0.997401
468.107674	0.996529
468.479105	0.996330
468.850477	0.995936
469.221790	0.995925
469.593043	0.995989
469.964238	0.996283
470.335373	0.994330
470.706449	0.994867
471.077467	0.994836
471.448425	0.993690
471.819324	0.993995
472.190164	0.993076
472.560945	0.992684
472.931667	0.992484
473.302330	0.991367
473.672934	0.991068
474.043479	0.989916
474.413965	0.989245
474.784393	0.989072
475.154761	0.987280
475.525070	0.986111
475.895321	0.986489
476.265513	0.984615
476.635645	0.983840
477.005719	0.982721
477.375734	0.981566
477.745691	0.980747
478.115588	0.978877
478.485427	0.978362
478.855207	0.975077
479.224928	0.972546
479.594591	0.970844
479.964194	0.969939
480.333739	0.968796
480.703226	0.967182
481.072653	0.965806
481.442022	0.962079
481.811333	0.959571
482.180584	0.959177
482.549777	0.955707
482.918912	0.954085
483.287988	0.952219
483.657005	0.949152
484.025964	0.947629
484.394864	0.945070
484.763706	0.942399
485.132489	0.940311
485.501213	0.937343
485.869879	0.934139
486.238487	0.931308
486.607036	0.928721
486.975527	0.923916
487.343959	0.921526
487.712333	0.917589
488.080648	0.914380
488.448905	0.910372
488.817104	0.907060
489.185244	0.902822
489.553326	0.897523
489.921350	0.890862
490.289315	0.880626
490.657222	0.876010
491.025070	0.871844
491.392861	0.868103
491.760593	0.865829
492.128267	0.863377
492.495883	0.858770
492.863440	0.856066
493.230939	0.852040
493.598380	0.846992
493.965763	0.841473
494.333088	0.838102
494.700354	0.831449
495.067563	0.827200
495.434713	0.821404
495.801805	0.815315
496.168839	0.809839
496.535815	0.803125
496.902733	0.798681
497.269593	0.791987
497.636395	0.786802
498.003139	0.778881
498.369825	0.775339
498.736453	0.766434
499.103023	0.760951
499.469535	0.754617
499.835989	0.748609
500.202385	0.742315
500.568723	0.736916
500.935003	0.729901
501.301226	0.722057
501.667390	0.714635
502.033497	0.707037
502.399546	0.702288
502.765537	0.695218
503.131470	0.687703
503.497345	0.679042
503.863163	0.677570
504.228923	0.666574
504.594625	0.659934
504.960269	0.656151
505.325856	0.646767
505.691385	0.641807
506.056856	0.633783
506.422270	0.625880
506.787625	0.621678
507.152924	0.612564
507.518164	0.606519
507.883347	0.600910
508.248472	0.595138
508.613540	0.585517
508.978550	0.580437
509.343503	0.573710
509.708398	0.566093
510.073236	0.558285
510.438016	0.551972
510.802738	0.545579
511.167403	0.538944
511.532010	0.532784
511.896561	0.524983
512.261053	0.517649
512.625488	0.511909
512.989866	0.506032
513.354186	0.500182
513.718449	0.494549
514.082655	0.487099
514.446803	0.481822
514.810894	0.474932
515.174927	0.470218
515.538904	0.464897
515.902822	0.456277
516.266684	0.452741
516.630488	0.447909
516.994235	0.441938
517.357925	0.435156
517.721558	0.428466
518.085133	0.422427
518.448651	0.418264
518.812112	0.414577
519.175516	0.408346
519.538863	0.402127
519.902152	0.398922
520.265385	0.390351
520.628560	0.387924
520.991678	0.383262
521.354739	0.378523
521.717743	0.374967
522.080690	0.370980
522.443580	0.363481
522.806413	0.360336
523.169189	0.355860
523.531908	0.350459
523.894569	0.349964
524.257174	0.345475
524.619722	0.339695
524.982213	0.337684
525.344647	0.332543
525.707025	0.330151
526.069345	0.324590
526.431608	0.322342
526.793815	0.317874
527.155964	0.317948
527.518057	0.314379
527.880093	0.312170
528.242072	0.308005
528.603995	0.306477
528.965860	0.305410
529.327669	0.301247
529.689421	0.300203
530.051117	0.298226
530.412755	0.292823
530.774337	0.292950
531.135862	0.290347
531.497331	0.287965
531.858743	0.288220
532.220098	0.283300
532.581396	0.283577
532.942638	0.281870
533.303824	0.280941
533.664953	0.278488
534.026025	0.278465
534.387040	0.274747
534.747999	0.273219
535.108902	0.270682
535.469748	0.273809
535.830537	0.270171
536.191270	0.268945
536.551947	0.266972
536.912567	0.265854
537.273131	0.266433
537.633638	0.265347
537.994089	0.264593
538.354483	0.264123
538.714821	0.260494
539.075103	0.259013
539.435328	0.258555
539.795497	0.261452
540.155609	0.257256
540.515665	0.254442
540.875665	0.259090
541.235609	0.256984
541.595496	0.256036
541.955328	0.252108
542.315102	0.253909
542.674821	0.254573
543.034483	0.253685
543.394090	0.253063
543.753640	0.254292
544.113134	0.248891
544.472571	0.251801
544.831953	0.247854
545.191278	0.251872
545.550548	0.250546
545.909761	0.247139
546.268918	0.247626
546.628019	0.245251
546.987064	0.247816
547.346053	0.249295
547.704986	0.247030
548.063863	0.246948
548.422684	0.246504
548.781449	0.248295
549.140158	0.245708
549.498811	0.248404
549.857408	0.251553
550.215949	0.245966
550.574434	0.248699
550.932864	0.246557
551.291237	0.245119
551.649555	0.246432
552.007817	0.245788
552.366022	0.246682
552.724173	0.246756
553.082267	0.246991
553.440305	0.243687
553.798288	0.248003
554.156215	0.244129
554.514086	0.244869
554.871902	0.247782
555.229661	0.246972
555.587365	0.247713
555.945014	0.250155
556.302606	0.246755
556.660143	0.249243
557.017625	0.245575
557.375050	0.247935
557.732421	0.244580
558.089735	0.246373
558.446994	0.246694
558.804197	0.245819
559.161345	0.245654
559.518437	0.249225
559.875474	0.246745
560.232455	0.246026
560.589381	0.247023
560.946251	0.247139
561.303065	0.244697
561.659825	0.245907
562.016528	0.247643
562.373177	0.250371
562.729770	0.247521
563.086307	0.249616
563.442789	0.247531
563.799216	0.250159
564.155587	0.248790
564.511904	0.249822
564.868164	0.250123
565.224370	0.249693
565.580520	0.251596
565.936615	0.251158
566.292654	0.254160
566.648638	0.251270
567.004567	0.252227
567.360441	0.252711
567.716260	0.254759
568.072023	0.252719
568.427732	0.253028
568.783385	0.255754
569.138982	0.253778
569.494525	0.253098
569.850013	0.256384
570.205445	0.254601
570.560823	0.257181
570.916145	0.259133
571.271412	0.257280
571.626625	0.258773
571.981782	0.259077
572.336884	0.260045
572.691931	0.259770
573.046923	0.260993
573.401860	0.262467
573.756743	0.264228
574.111570	0.262752
574.466342	0.262873
574.821059	0.262553
575.175722	0.265042
575.530330	0.265187
575.884882	0.265097
576.239380	0.267453
576.593823	0.267448
576.948211	0.267286
577.302544	0.270372
577.656823	0.269772
578.011047	0.269763
578.365216	0.270605
578.719330	0.272879
579.073389	0.272622
579.427394	0.273655
579.781344	0.274520
580.135239	0.276168
580.489080	0.275698
580.842866	0.278588
581.196597	0.278240
581.550273	0.277301
581.903895	0.278053
582.257463	0.275995
582.610975	0.279420
582.964434	0.278644
583.317837	0.281515
583.671186	0.281567
584.024481	0.281478
584.377721	0.284322
584.730906	0.284877
585.084037	0.284074
585.437113	0.285683
585.790135	0.285039
586.143103	0.288393
586.496016	0.289670
586.848874	0.287316
587.201679	0.287426
587.554428	0.290656
587.907124	0.289476
588.259765	0.290062
588.612352	0.291077
588.964884	0.294479
589.317362	0.294070
589.669786	0.293892
590.022155	0.292722
590.374470	0.291901
590.726731	0.294163
591.078937	0.298849
591.431090	0.294920
591.783188	0.299629
592.135232	0.299757
592.487222	0.299928
592.839157	0.297949
593.191038	0.300198
593.542866	0.302052
593.894639	0.305940
594.246358	0.303255
594.598022	0.302951
594.949633	0.306916
595.301190	0.307304
595.652692	0.306537
596.004141	0.302903
596.355535	0.310352
596.706876	0.311320
597.058162	0.313516
597.409395	0.310646
597.760573	0.308762
598.111698	0.312100
598.462768	0.312497
598.813785	0.313581
599.164748	0.314895
599.515657	0.315171
599.866511	0.318620
600.217312	0.313721
600.568060	0.319352
600.918753	0.315840
601.269392	0.316330
601.619978	0.319695
601.970510	0.317423
602.320988	0.317351
602.671412	0.315328
603.021783	0.318062
603.372100	0.319196
603.722363	0.318696
604.072572	0.319574
604.422728	0.319483
604.772830	0.321929
605.122878	0.321178
605.472872	0.321604
605.822813	0.319734
606.172701	0.322704
606.522534	0.320359
606.872314	0.319729
607.222041	0.321199
607.571714	0.319245
607.921333	0.319959
608.270899	0.319945
608.620411	0.317056
608.969870	0.320985
609.319276	0.320598
609.668627	0.320704
610.017926	0.319205
610.367171	0.318069
610.716362	0.318496
611.065500	0.319090
611.414585	0.317876
611.763616	0.318356
612.112594	0.318700
612.461518	0.318243
612.810389	0.315842
613.159207	0.318348
613.507971	0.320050
613.856682	0.315895
614.205340	0.317106
614.553945	0.314048
614.902496	0.317811
615.250994	0.316252
615.599439	0.316613
615.947830	0.315838
616.296169	0.317105
616.644454	0.316339
616.992686	0.316936
617.340864	0.314487
617.688990	0.318095
618.037063	0.314643
618.385082	0.316809
618.733048	0.313566
619.080961	0.315785
619.428821	0.315540
619.776628	0.314797
620.124382	0.316743
620.472083	0.316915
620.819731	0.316262
621.167326	0.320168
621.514868	0.319929
621.862357	0.324250
622.209793	0.323842
622.557176	0.326161
622.904506	0.326882
623.251783	0.329702
623.599007	0.331664
623.946179	0.331186
624.293297	0.333137
624.640363	0.337104
624.987376	0.337516
625.334336	0.340279
625.681243	0.342512
626.028097	0.342885
626.374899	0.343863
626.721647	0.343948
627.068343	0.347723
627.414987	0.348986
627.761577	0.350896
628.108115	0.348558
628.454600	0.354338
628.801032	0.351449
629.147412	0.353601
629.493739	0.354105
629.840014	0.356902
630.186236	0.354693
630.532405	0.360012
630.878521	0.357648
631.224585	0.359816
631.570597	0.363340
631.916556	0.361870
632.262462	0.362054
632.608316	0.364254
632.954117	0.364811
633.299866	0.365754
633.645562	0.366034
633.991206	0.370407
634.336797	0.373118
634.682336	0.375103
635.027823	0.377020
635.373257	0.377789
635.718639	0.380703
636.063968	0.380777
636.409245	0.386288
636.754470	0.386474
637.099642	0.388979
637.444762	0.392215
637.789829	0.391343
638.134845	0.394951
638.479808	0.396038
638.824719	0.395284
639.169577	0.399886
639.514383	0.398678
639.859137	0.402615
640.203839	0.402625
640.548489	0.403411
640.893086	0.404510
641.237632	0.405935
641.582125	0.404312
641.926566	0.406055
642.270955	0.406563
642.615292	0.406231
642.959576	0.405913
643.303809	0.406355
643.647990	0.405693
643.992118	0.406290
644.336195	0.410012
644.680219	0.408092
645.024192	0.409183
645.368112	0.402530
645.711981	0.401674
646.055797	0.397097
646.399562	0.399607
646.743274	0.391576
647.086935	0.389257
647.430544	0.389058
647.774101	0.387681
648.117606	0.387416
648.461059	0.388323
648.804460	0.390255
649.147810	0.395850
649.491108	0.397307
649.834354	0.399235
650.177548	0.404362
650.520690	0.409463
650.863781	0.410945
651.206820	0.410131
651.549807	0.414846
651.892742	0.418162
652.235626	0.417855
652.578458	0.418812
652.921238	0.425220
653.263967	0.423073
653.606644	0.427095
653.949269	0.426413
654.291843	0.430453
654.634365	0.427392
654.976836	0.430539
655.319255	0.430387
655.661622	0.431949
656.003938	0.432597
656.346203	0.435300
656.688416	0.432745
657.030577	0.436398
657.372687	0.438312
657.714746	0.439261
658.056753	0.436751
658.398708	0.440471
658.740612	0.441361
659.082465	0.437346
659.424266	0.438141
659.766016	0.437099
660.107715	0.439600
660.449362	0.439107
660.790958	0.439504
661.132503	0.439878
661.473996	0.437881
661.815438	0.438747
662.156829	0.438563
662.498168	0.439569
662.839456	0.441018
663.180693	0.438924
663.521879	0.438517
663.863013	0.439426
664.204097	0.437872
664.545129	0.434869
664.886110	0.435458
665.227040	0.432545
665.567918	0.435087
665.908746	0.432902
666.249522	0.432885
666.590248	0.434231
666.930922	0.432261
667.271545	0.431045
667.612118	0.431297
667.952639	0.432750
668.293109	0.431637
668.633528	0.434712
668.973896	0.434316
669.314213	0.434427
669.654480	0.436238
669.994695	0.436406
670.334859	0.437369
670.674973	0.437822
671.015035	0.437365
671.355047	0.437893
671.695008	0.438629
672.034918	0.440479
672.374777	0.439972
672.714585	0.441316
673.054342	0.440618
673.394049	0.441310
673.733705	0.438927
674.073310	0.439851
674.412864	0.442991
674.752368	0.443461
675.091820	0.443782
675.431223	0.448109
675.770574	0.447789
676.109875	0.451390
676.449125	0.450751
676.788324	0.452873
677.127473	0.458729
677.466571	0.458625
677.805619	0.460093
678.144616	0.460956
678.483562	0.462731
678.822458	0.465254
679.161303	0.466620
679.500098	0.466615
679.838842	0.468247
680.177535	0.468075
680.516179	0.466236
680.854771	0.465585
681.193314	0.458741
681.531805	0.450229
681.870247	0.438782
682.208638	0.431627
682.546978	0.430536
682.885268	0.432069
683.223508	0.438122
683.561697	0.441839
683.899836	0.444754
684.237925	0.448375
684.575963	0.450738
684.913951	0.453800
685.251889	0.449235
685.589776	0.451298
685.927614	0.453557
686.265401	0.447908
686.603137	0.449512
686.940824	0.443457
687.278460	0.442054
687.616046	0.441013
687.953582	0.435608
688.291068	0.437399
688.628504	0.433118
688.965889	0.435253
689.303224	0.438907
689.640510	0.443241
689.977745	0.448728
690.314930	0.456815
690.652065	0.461017
690.989150	0.469071
691.326185	0.475640
691.663170	0.480047
692.000105	0.486844
692.336990	0.494196
692.673825	0.495995
693.010610	0.503520
693.347345	0.509106
693.684030	0.510184
694.020665	0.515282
694.357251	0.523903
694.693786	0.523734
695.030272	0.527537
695.366707	0.530917
695.703093	0.534609
696.039429	0.532042
696.375716	0.534122
696.711952	0.536869
697.048139	0.538885
697.384276	0.540993
697.720363	0.539375
698.056400	0.538423
698.392388	0.543447
698.728326	0.546728
699.064214	0.549659
699.400053	0.550582
699.735842	0.553186
700.071581	0.556455
700.407270	0.559109
700.742910	0.561803
701.078501	0.568962
701.414042	0.568647
701.749533	0.572167
702.084974	0.580441
702.420366	0.572837
702.755709	0.580521
703.091002	0.588075
703.426246	0.581699
703.761440	0.587006
704.096584	0.592628
704.431679	0.589400
704.766725	0.591248
705.101721	0.592558
705.436668	0.589297
705.771565	0.596379
706.106413	0.593129
706.441212	0.587985
706.775961	0.587325
707.110661	0.589725
707.445311	0.586684
707.779913	0.583708
708.114465	0.581544
708.448967	0.578605
708.783421	0.570682
709.117825	0.565305
709.452180	0.565722
709.786485	0.559055
710.120742	0.549495
710.454949	0.551429
710.789107	0.543236
711.123216	0.534603
711.457275	0.536318
711.791286	0.526379
712.125247	0.525445
712.459159	0.537012
712.793023	0.529603
713.126837	0.533481
713.460602	0.533750
713.794318	0.543410
714.127985	0.542219
714.461602	0.552616
714.795171	0.554743
715.128691	0.563390
715.462162	0.570182
715.795584	0.575631
716.128957	0.578464
716.462281	0.585688
716.795556	0.588781
717.128782	0.594207
717.461960	0.603448
717.795088	0.602098
718.128167	0.607766
718.461198	0.616936
718.794180	0.617248
719.127113	0.619580
719.459997	0.623417
719.792833	0.629571
720.125619	0.631225
720.458357	0.637222
720.791046	0.636525
721.123686	0.639217
721.456278	0.647165
721.788821	0.644185
722.121315	0.648564
722.453761	0.651686
722.786158	0.650050
723.118506	0.646348
723.450805	0.654565
723.783056	0.650216
724.115259	0.648570
724.447412	0.647770
724.779518	0.648518
725.111574	0.648302
725.443582	0.643415
725.775542	0.646066
726.107453	0.638016
726.439315	0.637703
726.771129	0.635868
727.102895	0.628631
727.434612	0.622538
727.766281	0.620323
728.097901	0.619988
728.429473	0.619960
728.760996	0.617952
729.092471	0.617900
729.423897	0.622234
729.755276	0.620542
730.086606	0.620607
730.417887	0.615391
730.749120	0.606422
731.080305	0.596686
731.411442	0.593327
731.742530	0.598240
732.073570	0.597674
732.404562	0.589713
732.735506	0.590905
733.066401	0.595980
733.397249	0.605192
733.728048	0.616615
734.058798	0.628815
734.389501	0.639439
734.720156	0.648738
735.050762	0.657274
735.381320	0.658212
735.711831	0.667467
736.042293	0.672443
736.372707	0.667457
736.703073	0.672995
737.033391	0.675000
737.363661	0.671327
737.693883	0.667191
738.024056	0.665354
738.354182	0.666355
738.684260	0.655570
739.014290	0.651553
739.344272	0.652758
739.674207	0.645729
740.004093	0.645104
740.333931	0.645756
740.663722	0.646014
740.993464	0.646176
741.323159	0.650291
741.652806	0.654745
741.982405	0.659630
742.311956	0.664017
742.641460	0.666254
742.970915	0.670224
743.300323	0.677668
743.629683	0.684274
743.958996	0.686538
744.288260	0.690149
744.617477	0.696610
744.946647	0.697759
745.275768	0.703117
745.604842	0.703461
745.933869	0.712787
746.262847	0.713509
746.591778	0.706596
746.920662	0.713361
747.249498	0.719256
747.578286	0.710946
747.907027	0.706611
748.235720	0.707975
748.564365	0.701881
748.892963	0.702699
749.221514	0.705287
749.550017	0.711394
749.878473	0.709931
750.206881	0.716345
750.535242	0.717601
750.863555	0.717642
751.191821	0.718451
751.520039	0.721854
751.848210	0.727202
752.176334	0.719915
752.504411	0.718386
752.832440	0.726464
753.160421	0.730697
753.488356	0.728482
753.816243	0.725960
754.144082	0.734785
754.471875	0.737947
754.799620	0.733347
755.127318	0.734347
755.454969	0.734164
755.782572	0.734471
756.110129	0.738589
756.437638	0.741624
756.765100	0.738333
757.092515	0.736738
757.419882	0.734675
757.747203	0.740989
758.074477	0.740152
758.401703	0.736978
758.728882	0.732205
759.056014	0.731173
759.383099	0.730106
759.710138	0.730434
760.037129	0.727167
760.364073	0.721762
760.690970	0.723602
761.017820	0.729540
761.344623	0.725085
761.671379	0.716262
761.998088	0.704757
762.324751	0.682917
762.651366	0.641665
762.977935	0.574713
763.304456	0.523073
763.630931	0.513497
763.957359	0.552138
764.283740	0.596295
764.610074	0.623541
764.936362	0.654116
765.262602	0.680473
765.588796	0.701509
765.914943	0.719165
766.241044	0.737525
766.567097	0.743751
766.893104	0.753498
767.219064	0.759943
767.544978	0.765515
767.870845	0.780075
768.196665	0.783367
768.522438	0.780718
768.848165	0.782728
769.173846	0.790922
769.499479	0.796148
769.825066	0.799157
770.150607	0.805032
770.476101	0.799383
770.801548	0.801395
771.126949	0.811871
771.452303	0.816351
771.777611	0.816358
772.102872	0.814680
772.428087	0.819774
772.753256	0.823646
773.078378	0.824895
773.403453	0.834303
773.728482	0.838128
774.053465	0.832036
774.378401	0.835112
774.703291	0.842743
775.028135	0.842904
775.352932	0.844318
775.677683	0.847369
776.002388	0.847533
776.327046	0.847953
776.651658	0.851067
776.976224	0.854154
777.300743	0.855222
777.625216	0.855790
777.949643	0.857616
778.274024	0.858428
778.598359	0.859001
778.922647	0.857921
779.246889	0.859093
779.571086	0.862800
779.895236	0.865554
780.219339	0.861947
780.543397	0.858760
780.867409	0.859046
781.191374	0.860447
781.515294	0.861751
781.839167	0.859772
782.162995	0.864946
782.486776	0.861118
782.810511	0.861244
783.134201	0.864917
783.457844	0.862746
783.781441	0.865762
784.104993	0.872360
784.428498	0.872403
784.751958	0.868004
785.075372	0.871298
785.398739	0.873169
785.722061	0.869964
786.045337	0.865845
786.368568	0.871035
786.691752	0.874033
787.014891	0.858854
787.337983	0.849735
787.661030	0.843800
787.984031	0.825854
788.306987	0.812533
788.629897	0.815229
788.952760	0.819012
789.275579	0.823365
789.598351	0.837084
789.921078	0.850956
790.243759	0.853664
790.566395	0.857859
790.888984	0.865677
791.211529	0.870119
791.534027	0.872667
791.856480	0.875698
792.178888	0.879813
792.501249	0.883208
792.823566	0.884701
793.145836	0.883856
793.468062	0.886535
793.790241	0.886071
794.112375	0.884062
794.434464	0.880331
794.756507	0.879660
795.078505	0.878206
795.400457	0.873799
795.722364	0.861554
796.044226	0.854280
796.366042	0.853613
796.687812	0.856724
797.009538	0.852945
797.331218	0.856511
797.652852	0.860906
797.974442	0.864815
798.295986	0.865688
798.617484	0.867656
798.938938	0.873158
799.260346	0.876531
799.581709	0.880199
799.903026	0.881018
800.224299	0.881459
800.545526	0.885890
800.866708	0.889989
801.187845	0.894181
801.508936	0.892780
801.829983	0.891059
802.150984	0.893938
802.471940	0.897787
802.792851	0.899153
803.113717	0.899027
803.434538	0.897908
803.755314	0.900298
804.076045	0.901294
804.396731	0.900568
804.717372	0.900848
805.037967	0.902252
805.358518	0.901412
805.679024	0.897774
805.999485	0.898086
806.319901	0.898308
806.640272	0.899667
806.960598	0.897776
807.280879	0.894163
807.601115	0.893266
807.921306	0.897553
808.241453	0.898172
808.561554	0.895878
808.881611	0.895863
809.201623	0.897602
809.521590	0.897885
809.841513	0.899410
810.161390	0.897154
810.481223	0.899747
810.801011	0.902438
811.120755	0.904118
811.440453	0.903476
811.760107	0.902302
812.079716	0.901267
812.399281	0.904923
812.718801	0.906878
813.038276	0.908319
813.357707	0.907756
813.677093	0.904838
813.996434	0.909396
814.315731	0.910090
814.634983	0.910463
814.954191	0.909155
815.273354	0.905392
815.592473	0.903141
815.911547	0.901889
816.230577	0.900087
816.549562	0.897912
816.868502	0.898936
817.187399	0.894703
817.506250	0.889207
817.825058	0.891884
818.143821	0.888093
818.462539	0.882949
818.781213	0.874974
819.099843	0.864240
819.418429	0.848635
819.736970	0.831546
820.055466	0.812782
820.373919	0.787628
820.692327	0.755079
821.010691	0.721157
821.329011	0.645185
821.647286	0.531343
821.965517	0.418877
822.283704	0.376910
822.601847	0.378584
822.919945	0.414495
823.237999	0.446875
823.556010	0.492905
823.873976	0.548116
824.191897	0.598020
824.509775	0.639532
824.827609	0.683942
825.145398	0.706082
825.463144	0.709227
825.780845	0.692367
826.098502	0.674550
826.416116	0.628728
826.733685	0.586017
827.051210	0.577843
827.368692	0.591337
827.686129	0.628342
828.003522	0.680813
828.320872	0.728247
828.638177	0.771284
828.955439	0.802939
829.272656	0.824187
829.589830	0.841259
829.906960	0.857582
830.224046	0.868949
830.541088	0.878976
830.858086	0.882870
831.175041	0.889454
831.491952	0.888833
831.808819	0.884930
832.125642	0.877839
832.442421	0.863947
832.759157	0.843620
833.075849	0.797404
833.392497	0.734779
833.709101	0.694886
834.025662	0.704000
834.342179	0.735140
834.658653	0.773716
834.975083	0.809422
835.291469	0.836198
835.607811	0.857777
835.924110	0.872235
836.240366	0.889616
836.556578	0.903928
836.872746	0.909995
837.188871	0.917024
837.504952	0.922272
837.820990	0.924225
838.136984	0.927822
838.452935	0.931492
838.768842	0.933185
839.084706	0.926440
839.400526	0.901551
839.716303	0.861127
840.032037	0.839957
840.347727	0.842963
840.663373	0.860905
840.978977	0.882062
841.294537	0.905039
841.610054	0.919244
841.925527	0.927127
842.240957	0.934082
842.556344	0.940801
842.871687	0.948316
843.186987	0.952488
843.502244	0.950459
843.817458	0.953612
844.132629	0.956683
844.447756	0.961548
844.762840	0.960758
845.077881	0.961690
845.392879	0.960258
845.707833	0.963318
846.022745	0.966382
846.337613	0.965012
846.652438	0.966616
846.967221	0.965318
847.281960	0.966401
847.596656	0.968247
847.911309	0.967120
848.225919	0.968342
848.540485	0.969258
848.855009	0.970202
849.169490	0.969428
849.483928	0.970498
849.798323	0.969235
850.112675	0.971457
850.426984	0.969891
850.741251	0.971423
851.055474	0.971017
851.369654	0.967873
851.683792	0.969484
851.997887	0.970558
852.311938	0.971908
852.625947	0.970807
852.939914	0.968699
853.253837	0.970570
853.567718	0.971827
853.881555	0.971135
854.195350	0.968562
854.509103	0.970368
854.822812	0.970405
855.136479	0.970383
855.450103	0.970732
855.763685	0.968339
856.077224	0.969587
856.390720	0.970757
856.704173	0.971786
857.017584	0.968708
857.330953	0.968084
857.644278	0.968729
857.957561	0.970505
858.270802	0.968472
858.584000	0.968666
858.897155	0.967627
859.210268	0.968548
859.523339	0.969247
859.836367	0.970830
860.149352	0.971314
860.462295	0.969326
860.775195	0.969681
861.088054	0.969484
861.400869	0.969905
861.713642	0.971535
862.026373	0.970825
862.339062	0.971714
862.651708	0.969673
862.964312	0.967937
863.276873	0.969489
863.589392	0.969570
863.901869	0.968447
864.214303	0.965642
864.526696	0.965514
864.839045	0.965295
865.151353	0.962216
865.463619	0.963746
865.775842	0.963442
866.088023	0.962939
866.400162	0.963164
866.712258	0.963603
867.024313	0.962963
867.336325	0.965460
867.648296	0.963678
867.960224	0.963250
868.272110	0.962843
868.583954	0.965483
868.895755	0.964834
869.207515	0.962762
869.519233	0.960577
869.830909	0.962217
870.142542	0.963341
870.454134	0.962608
870.765684	0.960763
871.077191	0.959403
871.388657	0.959982
871.700081	0.959041
872.011463	0.960004
872.322803	0.959553
872.634101	0.959508
872.945357	0.955743
873.256571	0.954971
873.567744	0.954633
873.878874	0.954793
874.189963	0.952810
874.501010	0.953215
874.812015	0.951308
875.122979	0.952889
875.433900	0.955426
875.744780	0.954463
876.055618	0.952306
876.366415	0.950921
876.677169	0.950724
876.987882	0.953119
877.298554	0.952419
877.609183	0.949954
877.919771	0.946705
878.230317	0.945133
878.540822	0.942118
878.851285	0.936811
879.161707	0.928992
879.472087	0.917985
879.782425	0.902015
880.092722	0.869096
880.402977	0.818038
880.713191	0.760287
881.023363	0.702613
881.333494	0.669759
881.643583	0.641655
881.953631	0.641466
882.263637	0.669769
882.573602	0.708983
882.883526	0.733235
883.193408	0.756388
883.503248	0.776862
883.813048	0.804136
884.122806	0.833571
884.432522	0.854965
884.742197	0.875338
885.051831	0.884524
885.361424	0.894762
885.670975	0.906347
885.980485	0.916668
886.289954	0.921752
886.599382	0.928261
886.908768	0.930081
887.218113	0.936920
887.527417	0.940846
887.836680	0.943901
888.145901	0.945079
888.455082	0.948302
888.764221	0.952028
889.073319	0.954221
889.382376	0.954870
889.691392	0.954434
890.000366	0.954547
890.309300	0.954808
890.618193	0.954796
890.927044	0.953093
891.235855	0.952812
891.544625	0.952576
891.853353	0.953982
892.162041	0.951348
892.470687	0.944708
892.779293	0.940320
893.087858	0.937115
893.396381	0.927616
893.704864	0.916501
894.013306	0.893110
894.321707	0.867459
894.630068	0.852808
894.938387	0.849426
895.246665	0.851339
895.554903	0.862520
895.863100	0.874317
896.171256	0.891206
896.479371	0.910679
896.787446	0.922656
897.095480	0.927646
897.403473	0.930943
897.711425	0.935407
898.019336	0.943184
898.327207	0.945431
898.635038	0.947664
898.942827	0.947460
899.250576	0.950565
899.558284	0.953984
899.865952	0.955923
900.173579	0.957255
900.481165	0.957058
900.788711	0.960622
901.096216	0.962768
901.403681	0.963574
901.711105	0.963720
902.018489	0.965477
902.325832	0.963855
902.633135	0.962938
902.940397	0.958130
903.247619	0.946467
903.554800	0.921462
903.861941	0.883847
904.169041	0.848472
904.476101	0.832952
904.783121	0.834206
905.090100	0.850116
905.397039	0.870784
905.703938	0.890363
906.010796	0.910383
906.317614	0.926114
906.624391	0.936904
906.931129	0.945829
907.237826	0.954190
907.544483	0.960448
907.851099	0.964001
908.157675	0.969442
908.464211	0.971383
908.770707	0.972938
909.077163	0.976439
909.383578	0.976084
909.689954	0.976075
909.996289	0.976081
910.302584	0.978432
910.608839	0.980473
910.915054	0.978149
911.221229	0.978580
911.527363	0.977715
911.833458	0.977479
912.139513	0.977753
912.445527	0.976375
912.751502	0.974850
913.057436	0.973421
913.363331	0.970326
913.669186	0.967142
913.975000	0.963255
914.280775	0.957782
914.586510	0.951054
914.892205	0.939073
915.197859	0.918032
915.503475	0.892130
915.809050	0.872888
916.114585	0.868534
916.420081	0.866831
916.725536	0.862419
917.030952	0.869821
917.336328	0.883025
917.641665	0.896486
917.946961	0.911984
918.252218	0.922607
918.557435	0.931297
918.862612	0.939716
919.167750	0.944774
919.472848	0.949496
919.777906	0.955307
920.082925	0.960741
920.387904	0.963642
920.692843	0.965326
920.997743	0.965756
921.302603	0.968703
921.607423	0.970195
921.912204	0.973168
922.216946	0.972469
922.521647	0.974147
922.826310	0.977066
923.130932	0.978050
923.435516	0.979803
923.740059	0.980531
924.044564	0.978781
924.349028	0.980987
924.653454	0.982583
924.957840	0.986599
925.262186	0.985104
925.566493	0.984095
925.870761	0.985050
926.174989	0.985802
926.479178	0.988177
926.783328	0.988481
927.087438	0.989280
927.391509	0.987888
927.695541	0.989938
927.999533	0.989651
928.303486	0.990494
928.607400	0.991555
928.911275	0.989390
929.215110	0.990960
929.518906	0.991173
929.822663	0.990371
930.126381	0.991153
930.430060	0.990283
930.733699	0.990166
931.037299	0.990208
931.340861	0.991229
931.644383	0.990167
931.947866	0.989444
932.251309	0.991527
932.554714	0.991059
932.858080	0.989856
933.161407	0.989989
933.464694	0.991178
933.767943	0.989634
934.071153	0.992414
934.374323	0.991320
934.677455	0.991617
934.980548	0.992606
935.283602	0.990615
935.586617	0.991734
935.889593	0.991083
936.192530	0.990816
936.495428	0.991945
936.798287	0.990815
937.101108	0.990677
937.403890	0.990015
937.706632	0.988673
938.009336	0.988321
938.312002	0.986100
938.614628	0.986064
938.917216	0.983636
939.219765	0.983633
939.522275	0.984018
939.824747	0.984618
940.127179	0.984753
940.429573	0.986135
940.731929	0.984544
941.034246	0.985780
941.336524	0.985556
941.638763	0.986731
941.940964	0.987060
942.243126	0.987304
942.545250	0.988093
942.847335	0.988736
943.149381	0.988178
943.451389	0.988646
943.753359	0.988484
944.055290	0.991234
944.357182	0.989531
944.659036	0.989045
944.960851	0.989127
945.262628	0.990087
945.564367	0.990711
945.866067	0.991452
946.167729	0.990189
946.469352	0.991655
946.770937	0.988507
947.072484	0.991555
947.373992	0.989894
947.675462	0.990782
947.976893	0.991392
948.278286	0.991510
948.579641	0.991942
948.880958	0.990660
949.182236	0.990713
949.483476	0.991567
949.784678	0.991364
950.085841	0.991865
950.386967	0.991396
950.688054	0.990370
950.989103	0.991980
951.290114	0.989938
951.591087	0.990229
951.892021	0.990707
952.192917	0.989823
952.493776	0.989411
952.794596	0.988943
953.095378	0.988131
953.396122	0.988501
953.696828	0.987577
953.997496	0.989843
954.298126	0.992094
954.598718	0.992110
954.899272	0.991384
955.199788	0.990877
955.500266	0.992741
955.800706	0.992512
956.101108	0.992895
956.401472	0.993403
956.701798	0.994261
957.002087	0.993709
957.302337	0.993608
957.602550	0.994549
957.902724	0.995673
958.202861	0.995148
958.502960	0.995772
958.803022	0.993762
959.103045	0.996195
959.403031	0.995445
959.702979	0.995295
960.002889	0.995208
960.302762	0.995195
960.602596	0.996494
960.902393	0.994428
961.202153	0.996166
961.501875	0.997530
961.801559	0.996390
962.101205	0.996090
962.400814	0.995940
962.700385	0.996012
962.999918	0.997105
963.299414	0.996731
963.598873	0.996276
963.898293	0.996029
964.197677	0.996658
964.497022	0.996886
964.796331	0.996822
965.095601	0.996483
965.394835	0.996143
965.694030	0.996851
965.993189	0.998099
966.292309	0.996305
966.591393	0.996932
966.890439	0.997227
967.189447	0.997693
967.488419	0.997606
967.787353	0.997205
968.086249	0.995487
968.385108	0.997310
968.683930	0.997293
968.982714	0.997172
969.281462	0.997743
969.580172	0.995883
969.878844	0.996719
970.177480	0.996561
970.476078	0.996882
970.774639	0.996740
971.073162	0.996980
971.371649	0.996787
971.670098	0.996209
971.968510	0.997524
972.266885	0.996987
972.565223	0.996706
972.863524	0.997533
973.161788	0.996794
973.460014	0.997699
973.758204	0.994983
974.056356	0.997665
974.354471	0.994135
974.652550	0.997108
974.950591	0.995995
975.248595	0.996557
975.546563	0.997258
975.844493	0.998062
976.142386	0.996770
976.440243	0.997342
976.738062	0.996889
977.035845	0.998153
977.333590	0.997183
977.631299	0.997494
977.928971	0.996293
978.226606	0.996737
978.524204	0.995335
978.821765	0.998467
979.119290	0.996453
979.416777	0.996349
979.714228	0.996498
980.011642	0.995917
980.309020	0.997602
980.606360	0.996826
980.903664	0.998470
981.200931	0.995951
981.498162	0.994361
981.795356	0.995544
982.092513	0.993760
982.389633	0.994867
982.686717	0.990399
982.983764	0.992530
983.280775	0.990429
983.577749	0.991468
983.874686	0.990919
984.171587	0.992384
984.468451	0.993606
984.765279	0.995524
985.062070	0.993804
985.358824	0.995345
985.655543	0.995017
985.952224	0.995689
986.248869	0.996005
986.545478	0.997715
986.842050	0.998317
987.138586	0.996332
987.435086	0.997108
987.731549	0.999103
988.027975	0.996567
988.324366	0.998000
988.620719	0.997498
988.917037	0.997147
989.213318	0.997336
989.509563	0.998334
989.805772	0.998468
990.101944	0.998598
990.398080	0.996713
990.694180	0.998049
990.990244	0.996446
991.286271	0.997252
991.582262	0.997068
991.878217	0.997497
992.174136	0.999625
992.470019	0.999609
992.765865	0.997907
993.061676	0.998262
993.357450	0.997430
993.653188	0.997519
993.948890	0.996229
994.244556	0.997407
994.540186	0.997403
994.835780	0.997732
995.131337	0.996218
995.426859	0.995448
995.722345	0.997470
996.017795	0.994433
996.313208	0.995629
996.608586	0.995975
996.903928	0.996612
997.199234	0.995511
997.494504	0.996773
997.789738	0.996651
998.084936	0.996355
998.380099	0.998024
998.675225	0.997992
998.970316	0.997698
999.265371	0.998287
999.560390	0.998171
999.855373	0.998514
1000.150320	0.997385
1000.445232	0.998443
1000.740108	0.997349
1001.034948	0.998212
1001.329752	0.999301
1001.624521	0.997996
1001.919254	0.998391
1002.213951	0.998048
1002.508613	0.997693
1002.803239	0.998590
1003.097829	0.998269
1003.392384	0.998394
1003.686903	0.998351
1003.981386	0.998010
1004.275834	0.999226
1004.570246	0.998325
1004.864623	0.999026
1005.158964	0.999117
1005.453270	0.998470
1005.747540	0.997796
1006.041775	0.998797
1006.335974	0.998726
1006.630138	0.998720
1006.924266	0.999485
1007.218359	1.000621
1007.512416	0.998493
1007.806438	1.000199
1008.100425	0.999155
1008.394376	0.999222
1008.688292	0.997996
1008.982172	0.999734
1009.276017	0.999054
1009.569827	0.998258
1009.863602	0.998540
1010.157341	0.998914
1010.451045	0.998339
1010.744714	0.998709
1011.038347	0.999156
1011.331945	0.998890
1011.625508	0.997638
1011.919036	0.998109
1012.212528	0.997892
1012.505986	0.998470
1012.799408	0.998044
1013.092795	0.999015
1013.386147	0.999128
1013.679464	0.997758
1013.972745	0.998092
1014.265992	0.998323
1014.559204	0.997759
1014.852380	0.999052
1015.145521	0.998083
1015.438628	0.998427
1015.731699	0.998616
1016.024736	0.999461
1016.317737	0.998013
1016.610703	0.997776
1016.903635	1.000042
1017.196531	0.998342
1017.489393	1.000108
1017.782219	0.998367
1018.075011	0.998197
1018.367768	0.997623
1018.660490	0.998739
1018.953177	0.998739
1019.245829	0.998739
