Dividing Wavelength (nm)	Counts (n)	Blue Motor Position (mm): 0.000000	Red Motor Position (mm): 14.300000	
326.493990	1.000467
326.888308	1.000467
327.282561	1.000467
327.676750	0.999741
328.070874	0.999056
328.464933	0.999948
328.858929	0.998344
329.252859	0.999138
329.646726	0.999802
330.040528	1.000199
330.434265	0.998657
330.827938	1.000235
331.221547	1.000371
331.615091	0.999951
332.008571	1.000560
332.401986	0.999339
332.795338	1.000044
333.188625	0.997993
333.581847	1.001454
333.975006	1.000590
334.368100	0.999197
334.761129	0.999188
335.154095	1.000379
335.546996	0.997942
335.939833	0.992692
336.332606	0.992752
336.725315	0.994768
337.117960	0.994468
337.510540	0.994433
337.903056	0.993644
338.295508	0.992668
338.687896	0.993991
339.080220	0.994032
339.472480	0.992860
339.864676	0.993520
340.256807	0.993511
340.648875	0.995073
341.040879	0.994169
341.432818	0.994268
341.824694	0.994395
342.216506	0.993865
342.608253	0.994152
342.999937	0.994400
343.391557	0.994571
343.783113	0.993714
344.174605	0.994178
344.566033	0.993698
344.957397	0.991999
345.348697	0.993396
345.739934	0.993779
346.131106	0.993158
346.522215	0.993865
346.913260	0.993912
347.304241	0.993024
347.695159	0.993575
348.086012	0.992631
348.476802	0.994477
348.867528	0.994201
349.258191	0.992618
349.648789	0.994086
350.039324	0.994006
350.429796	0.993587
350.820203	0.993287
351.210548	0.993207
351.600828	0.993583
351.991045	0.992726
352.381198	0.994063
352.771288	0.992880
353.161314	0.992282
353.551276	0.994711
353.941175	0.993475
354.331010	0.993477
354.720782	0.993561
355.110490	0.993149
355.500135	0.993192
355.889717	0.992880
356.279235	0.992256
356.668689	0.993065
357.058080	0.991904
357.447408	0.994185
357.836672	0.993108
358.225873	0.994233
358.615010	0.993594
359.004084	0.994852
359.393095	0.994058
359.782043	0.994428
360.170927	0.994179
360.559748	0.994385
360.948505	0.992871
361.337199	0.993720
361.725830	0.993687
362.114398	0.994462
362.502903	0.993954
362.891344	0.993891
363.279722	0.992668
363.668037	0.994139
364.056289	0.993807
364.444478	0.994729
364.832603	0.992485
365.220665	0.993494
365.608665	0.993452
365.996601	0.993364
366.384474	0.993450
366.772284	0.993801
367.160031	0.991938
367.547715	0.992340
367.935336	0.993707
368.322893	0.993770
368.710388	0.992868
369.097820	0.993227
369.485189	0.992280
369.872495	0.992704
370.259738	0.991360
370.646918	0.992974
371.034035	0.993743
371.421090	0.992324
371.808081	0.993054
372.195010	0.992929
372.581875	0.994594
372.968678	0.993727
373.355418	0.993428
373.742096	0.992996
374.128710	0.993910
374.515262	0.992225
374.901751	0.993577
375.288177	0.993105
375.674540	0.993740
376.060841	0.991578
376.447079	0.993868
376.833254	0.993283
377.219367	0.993969
377.605417	0.992949
377.991404	0.992791
378.377329	0.992050
378.763191	0.992787
379.148991	0.994256
379.534727	0.993008
379.920402	0.992444
380.306013	0.993775
380.691563	0.994089
381.077049	0.993812
381.462474	0.994468
381.847835	0.993607
382.233134	0.992910
382.618371	0.993128
383.003545	0.993669
383.388657	0.992931
383.773706	0.994131
384.158693	0.993546
384.543618	0.992887
384.928480	0.993763
385.313280	0.993203
385.698017	0.993898
386.082692	0.993700
386.467305	0.993007
386.851856	0.994040
387.236344	0.992715
387.620770	0.992887
388.005133	0.993083
388.389435	0.993292
388.773674	0.993152
389.157851	0.992792
389.541965	0.992436
389.926018	0.992104
390.310008	0.992963
390.693936	0.991729
391.077802	0.991025
391.461606	0.990382
391.845348	0.989489
392.229027	0.989382
392.612645	0.987010
392.996200	0.985631
393.379694	0.982430
393.763125	0.980615
394.146494	0.978085
394.529801	0.974385
394.913047	0.970899
395.296230	0.967188
395.679351	0.962864
396.062410	0.957660
396.445408	0.954044
396.828343	0.948706
397.211217	0.943147
397.594028	0.939210
397.976778	0.933278
398.359466	0.926697
398.742092	0.919503
399.124656	0.914466
399.507158	0.907628
399.889598	0.900558
400.271977	0.891696
400.654294	0.884994
401.036549	0.877152
401.418742	0.870126
401.800874	0.857411
402.182944	0.848422
402.564952	0.837068
402.946898	0.831031
403.328783	0.821532
403.710606	0.817977
404.092367	0.797633
404.474067	0.791968
404.855705	0.782213
405.237282	0.778458
405.618797	0.762935
406.000250	0.751068
406.381642	0.737713
406.762972	0.730825
407.144240	0.722496
407.525447	0.713992
407.906593	0.701420
408.287677	0.689865
408.668700	0.686800
409.049661	0.674287
409.430560	0.664273
409.811399	0.662682
410.192176	0.640548
410.572891	0.639468
410.953545	0.623519
411.334138	0.627146
411.714669	0.614957
412.095139	0.618697
412.475547	0.599715
412.855894	0.595762
413.236180	0.589099
413.616405	0.588678
413.996568	0.575832
414.376670	0.576265
414.756711	0.576575
415.136691	0.569617
415.516609	0.558224
415.896466	0.551311
416.276262	0.544190
416.655997	0.542414
417.035670	0.521980
417.415283	0.511612
417.794834	0.513856
418.174324	0.516117
418.553753	0.523161
418.933121	0.504130
419.312428	0.496035
419.691674	0.499655
420.070859	0.486763
420.449983	0.493056
420.829045	0.482005
421.208047	0.489010
421.586988	0.482054
421.965867	0.479702
422.344686	0.468218
422.723444	0.480337
423.102141	0.495503
423.480777	0.468820
423.859352	0.489097
424.237866	0.465656
424.616319	0.465604
424.994712	0.457077
425.373044	0.466435
425.751314	0.454694
426.129524	0.470521
426.507673	0.454722
426.885762	0.448062
427.263789	0.453461
427.641756	0.462951
428.019662	0.452800
428.397508	0.451729
428.775292	0.456251
429.153016	0.448595
429.530679	0.454297
429.908282	0.447559
430.285824	0.457601
430.663305	0.435902
431.040726	0.456692
431.418086	0.457354
431.795385	0.448241
432.172624	0.447039
432.549802	0.448052
432.926920	0.446953
433.303977	0.445384
433.680974	0.443595
434.057910	0.441805
434.434786	0.441703
434.811601	0.443610
435.188355	0.426398
435.565050	0.435019
435.941683	0.436873
436.318257	0.421380
436.694770	0.421653
437.071222	0.419801
437.447614	0.424564
437.823946	0.430916
438.200218	0.420171
438.576429	0.429939
438.952580	0.422660
439.328670	0.419643
439.704700	0.425981
440.080670	0.427498
440.456580	0.408589
440.832429	0.416477
441.208218	0.427065
441.583947	0.416610
441.959616	0.415781
442.335224	0.420883
442.710773	0.412193
443.086261	0.410276
443.461689	0.423921
443.837057	0.414087
444.212365	0.403498
444.587612	0.410706
444.962800	0.400603
445.337927	0.402074
445.712995	0.428107
446.088002	0.390984
446.462949	0.400756
446.837837	0.405516
447.212664	0.394945
447.587431	0.385945
447.962139	0.356765
448.336786	0.316015
448.711374	0.326394
449.085901	0.370374
449.460369	0.374891
449.834776	0.378296
450.209124	0.357639
450.583412	0.350068
450.957640	0.343377
451.331808	0.354311
451.705917	0.378125
452.079965	0.382016
452.453954	0.370420
452.827883	0.377256
453.201752	0.372101
453.575562	0.383827
453.949311	0.372131
454.323001	0.378096
454.696632	0.374134
455.070202	0.366931
455.443713	0.358330
455.817164	0.353761
456.190556	0.349327
456.563888	0.345941
456.937160	0.343711
457.310373	0.361123
457.683526	0.359647
458.056619	0.365082
458.429653	0.365958
458.802628	0.369352
459.175542	0.363746
459.548398	0.346456
459.921194	0.338785
460.293930	0.338879
460.666607	0.316964
461.039224	0.305136
461.411782	0.300488
461.784280	0.299958
462.156719	0.304107
462.529099	0.308597
462.901419	0.324324
463.273680	0.328928
463.645882	0.328236
464.018024	0.334303
464.390106	0.327327
464.762130	0.312068
465.134094	0.294955
465.505999	0.264135
465.877845	0.234660
466.249631	0.221789
466.621358	0.229139
466.993026	0.243371
467.364634	0.249176
467.736184	0.258038
468.107674	0.266660
468.479105	0.265661
468.850477	0.272661
469.221790	0.279479
469.593043	0.289660
469.964238	0.294430
470.335373	0.293503
470.706449	0.291951
471.077467	0.292855
471.448425	0.254722
471.819324	0.230684
472.190164	0.229882
472.560945	0.258774
472.931667	0.280789
473.302330	0.284942
473.672934	0.296342
474.043479	0.284758
474.413965	0.287010
474.784393	0.290065
475.154761	0.285294
475.525070	0.282165
475.895321	0.288347
476.265513	0.282136
476.635645	0.277627
477.005719	0.277582
477.375734	0.274498
477.745691	0.267612
478.115588	0.264039
478.485427	0.257431
478.855207	0.244486
479.224928	0.226973
479.594591	0.215060
479.964194	0.218313
480.333739	0.219517
480.703226	0.221419
481.072653	0.219458
481.442022	0.215233
481.811333	0.211664
482.180584	0.215298
482.549777	0.220377
482.918912	0.223866
483.287988	0.223483
483.657005	0.223033
484.025964	0.229368
484.394864	0.226897
484.763706	0.227436
485.132489	0.232366
485.501213	0.233360
485.869879	0.231599
486.238487	0.235040
486.607036	0.232520
486.975527	0.237284
487.343959	0.233175
487.712333	0.232291
488.080648	0.233566
488.448905	0.232878
488.817104	0.234017
489.185244	0.228408
489.553326	0.225463
489.921350	0.215206
490.289315	0.197969
490.657222	0.193050
491.025070	0.194278
491.392861	0.196249
491.760593	0.201963
492.128267	0.207553
492.495883	0.212882
492.863440	0.219387
493.230939	0.225468
493.598380	0.226731
493.965763	0.229111
494.333088	0.231430
494.700354	0.232921
495.067563	0.231800
495.434713	0.235033
495.801805	0.232811
496.168839	0.234499
496.535815	0.235860
496.902733	0.235739
497.269593	0.237427
497.636395	0.235234
498.003139	0.235572
498.369825	0.238435
498.736453	0.235131
499.103023	0.236379
499.469535	0.235851
499.835989	0.236056
500.202385	0.237042
500.568723	0.240263
500.935003	0.235521
501.301226	0.239576
501.667390	0.234142
502.033497	0.232105
502.399546	0.235208
502.765537	0.236971
503.131470	0.235504
503.497345	0.231452
503.863163	0.240158
504.228923	0.233119
504.594625	0.231669
504.960269	0.237494
505.325856	0.232732
505.691385	0.236748
506.056856	0.233897
506.422270	0.233104
506.787625	0.235446
507.152924	0.232831
507.518164	0.233508
507.883347	0.235278
508.248472	0.236875
508.613540	0.231828
508.978550	0.234584
509.343503	0.234831
509.708398	0.232368
510.073236	0.230167
510.438016	0.230129
510.802738	0.230738
511.167403	0.229785
511.532010	0.231937
511.896561	0.227356
512.261053	0.226336
512.625488	0.228159
512.989866	0.228548
513.354186	0.229031
513.718449	0.230687
514.082655	0.227234
514.446803	0.229211
514.810894	0.226860
515.174927	0.229741
515.538904	0.228917
515.902822	0.226177
516.266684	0.228307
516.630488	0.229393
516.994235	0.228369
517.357925	0.227141
517.721558	0.225293
518.085133	0.224983
518.448651	0.224969
518.812112	0.227008
519.175516	0.226639
519.538863	0.224356
519.902152	0.226064
520.265385	0.222951
520.628560	0.224518
520.991678	0.225258
521.354739	0.224055
521.717743	0.225368
522.080690	0.225621
522.443580	0.222894
522.806413	0.224183
523.169189	0.223477
523.531908	0.222142
523.894569	0.225659
524.257174	0.225657
524.619722	0.223247
524.982213	0.224479
525.344647	0.223537
525.707025	0.224444
526.069345	0.222440
526.431608	0.223908
526.793815	0.221862
527.155964	0.225827
527.518057	0.225242
527.880093	0.226080
528.242072	0.224811
528.603995	0.226681
528.965860	0.227877
529.327669	0.227034
529.689421	0.228116
530.051117	0.228921
530.412755	0.226711
530.774337	0.229075
531.135862	0.229291
531.497331	0.228547
531.858743	0.231212
532.220098	0.228378
532.581396	0.230707
532.942638	0.231100
533.303824	0.231964
533.664953	0.231955
534.026025	0.233566
534.387040	0.231686
534.747999	0.231475
535.108902	0.230405
535.469748	0.235266
535.830537	0.233054
536.191270	0.233685
536.551947	0.233145
536.912567	0.233192
537.273131	0.235139
537.633638	0.235055
537.994089	0.235662
538.354483	0.236334
538.714821	0.233667
539.075103	0.233406
539.435328	0.233984
539.795497	0.237714
540.155609	0.234387
540.515665	0.232389
540.875665	0.238197
541.235609	0.236611
541.595496	0.236701
541.955328	0.233166
542.315102	0.235747
542.674821	0.236901
543.034483	0.237147
543.394090	0.236769
543.753640	0.238962
544.113134	0.233549
544.472571	0.236794
544.831953	0.233672
545.191278	0.237978
545.550548	0.237515
545.909761	0.233986
546.268918	0.234703
546.628019	0.233297
546.987064	0.235863
547.346053	0.237666
547.704986	0.235419
548.063863	0.236070
548.422684	0.235946
548.781449	0.238022
549.140158	0.235502
549.498811	0.238360
549.857408	0.241571
550.215949	0.236375
550.574434	0.239221
550.932864	0.237199
551.291237	0.235875
551.649555	0.237137
552.007817	0.236928
552.366022	0.237864
552.724173	0.237823
553.082267	0.238528
553.440305	0.235451
553.798288	0.239620
554.156215	0.236284
554.514086	0.236970
554.871902	0.240063
555.229661	0.239296
555.587365	0.239852
555.945014	0.242496
556.302606	0.239279
556.660143	0.242151
557.017625	0.238366
557.375050	0.240667
557.732421	0.237637
558.089735	0.239603
558.446994	0.239884
558.804197	0.238858
559.161345	0.239146
559.518437	0.242455
559.875474	0.239828
560.232455	0.239445
560.589381	0.240759
560.946251	0.240788
561.303065	0.238381
561.659825	0.239672
562.016528	0.241299
562.373177	0.243826
562.729770	0.241486
563.086307	0.243349
563.442789	0.241553
563.799216	0.244297
564.155587	0.242968
564.511904	0.243911
564.868164	0.244070
565.224370	0.243823
565.580520	0.245650
565.936615	0.245630
566.292654	0.248601
566.648638	0.245443
567.004567	0.246534
567.360441	0.246775
567.716260	0.249032
568.072023	0.246569
568.427732	0.247529
568.783385	0.250123
569.138982	0.247960
569.494525	0.247657
569.850013	0.250395
570.205445	0.249064
570.560823	0.251624
570.916145	0.253543
571.271412	0.251706
571.626625	0.253096
571.981782	0.253547
572.336884	0.254453
572.691931	0.254564
573.046923	0.255379
573.401860	0.256772
573.756743	0.258380
574.111570	0.257224
574.466342	0.257923
574.821059	0.257070
575.175722	0.259701
575.530330	0.259437
575.884882	0.259620
576.239380	0.261824
576.593823	0.262554
576.948211	0.261973
577.302544	0.264891
577.656823	0.264659
578.011047	0.264441
578.365216	0.265394
578.719330	0.267359
579.073389	0.267171
579.427394	0.268659
579.781344	0.269134
580.135239	0.270803
580.489080	0.270529
580.842866	0.273242
581.196597	0.272847
581.550273	0.272072
581.903895	0.272609
582.257463	0.270863
582.610975	0.274627
582.964434	0.273917
583.317837	0.276341
583.671186	0.276430
584.024481	0.276820
584.377721	0.279311
584.730906	0.279884
585.084037	0.278936
585.437113	0.280723
585.790135	0.280359
586.143103	0.283200
586.496016	0.284504
586.848874	0.282443
587.201679	0.282461
587.554428	0.285899
587.907124	0.284335
588.259765	0.285393
588.612352	0.285893
588.964884	0.289539
589.317362	0.289073
589.669786	0.289035
590.022155	0.287564
590.374470	0.287012
590.726731	0.288964
591.078937	0.293790
591.431090	0.290235
591.783188	0.294446
592.135232	0.294790
592.487222	0.294722
592.839157	0.292852
593.191038	0.295553
593.542866	0.297108
593.894639	0.300817
594.246358	0.298665
594.598022	0.297876
594.949633	0.301763
595.301190	0.302410
595.652692	0.301629
596.004141	0.297692
596.355535	0.305469
596.706876	0.306429
597.058162	0.308661
597.409395	0.306001
597.760573	0.303884
598.111698	0.306896
598.462768	0.307282
598.813785	0.308599
599.164748	0.309992
599.515657	0.310537
599.866511	0.313969
600.217312	0.308908
600.568060	0.314220
600.918753	0.310616
601.269392	0.311482
601.619978	0.315319
601.970510	0.312550
602.320988	0.312793
602.671412	0.310442
603.021783	0.312690
603.372100	0.314545
603.722363	0.313959
604.072572	0.314792
604.422728	0.314536
604.772830	0.316699
605.122878	0.316099
605.472872	0.316888
605.822813	0.315227
606.172701	0.317809
606.522534	0.315233
606.872314	0.315331
607.222041	0.316585
607.571714	0.314144
607.921333	0.315639
608.270899	0.315439
608.620411	0.312344
608.969870	0.316006
609.319276	0.316231
609.668627	0.316049
610.017926	0.314580
610.367171	0.313046
610.716362	0.314310
611.065500	0.314471
611.414585	0.312716
611.763616	0.313365
612.112594	0.313748
612.461518	0.313365
612.810389	0.310906
613.159207	0.313276
613.507971	0.314976
613.856682	0.311032
614.205340	0.312283
614.553945	0.308889
614.902496	0.313213
615.250994	0.311050
615.599439	0.311784
615.947830	0.311291
616.296169	0.312366
616.644454	0.311483
616.992686	0.311475
617.340864	0.309806
617.688990	0.313392
618.037063	0.310238
618.385082	0.311411
618.733048	0.308494
619.080961	0.310786
619.428821	0.310334
619.776628	0.310222
620.124382	0.311675
620.472083	0.312204
620.819731	0.311908
621.167326	0.315584
621.514868	0.315315
621.862357	0.319905
622.209793	0.319194
622.557176	0.321228
622.904506	0.322343
623.251783	0.324663
623.599007	0.327172
623.946179	0.327095
624.293297	0.328549
624.640363	0.332223
624.987376	0.333043
625.334336	0.335323
625.681243	0.337880
626.028097	0.338061
626.374899	0.339548
626.721647	0.339705
627.068343	0.342838
627.414987	0.343901
627.761577	0.346043
628.108115	0.344279
628.454600	0.349582
628.801032	0.346655
629.147412	0.348948
629.493739	0.349454
629.840014	0.352359
630.186236	0.349640
630.532405	0.355311
630.878521	0.352796
631.224585	0.354809
631.570597	0.358605
631.916556	0.357037
632.262462	0.357237
632.608316	0.359281
632.954117	0.360151
633.299866	0.361280
633.645562	0.361203
633.991206	0.365194
634.336797	0.368276
634.682336	0.370723
635.027823	0.372429
635.373257	0.372658
635.718639	0.376288
636.063968	0.375739
636.409245	0.381746
636.754470	0.381753
637.099642	0.384362
637.444762	0.388035
637.789829	0.387120
638.134845	0.390290
638.479808	0.391460
638.824719	0.391216
639.169577	0.395136
639.514383	0.393495
639.859137	0.398121
640.203839	0.398233
640.548489	0.398820
640.893086	0.399749
641.237632	0.401447
641.582125	0.400228
641.926566	0.401857
642.270955	0.401576
642.615292	0.402244
642.959576	0.401051
643.303809	0.402042
643.647990	0.401602
643.992118	0.402197
644.336195	0.405512
644.680219	0.403299
645.024192	0.404922
645.368112	0.398236
645.711981	0.396897
646.055797	0.392277
646.399562	0.395021
646.743274	0.386864
647.086935	0.384724
647.430544	0.384300
647.774101	0.383353
648.117606	0.382910
648.461059	0.383375
648.804460	0.385404
649.147810	0.391169
649.491108	0.392659
649.834354	0.393938
650.177548	0.399765
650.520690	0.404838
650.863781	0.406212
651.206820	0.405529
651.549807	0.410107
651.892742	0.414391
652.235626	0.413464
652.578458	0.414198
652.921238	0.420567
653.263967	0.417931
653.606644	0.422477
653.949269	0.422007
654.291843	0.426265
654.634365	0.422991
654.976836	0.425985
655.319255	0.426358
655.661622	0.427675
656.003938	0.428133
656.346203	0.430965
656.688416	0.428480
657.030577	0.431484
657.372687	0.434058
657.714746	0.434195
658.056753	0.431906
658.398708	0.435693
658.740612	0.436698
659.082465	0.432746
659.424266	0.433657
659.766016	0.432622
660.107715	0.435679
660.449362	0.434201
660.790958	0.434788
661.132503	0.435670
661.473996	0.433076
661.815438	0.434476
662.156829	0.434667
662.498168	0.435218
662.839456	0.436927
663.180693	0.434489
663.521879	0.433805
663.863013	0.434957
664.204097	0.433875
664.545129	0.430673
664.886110	0.431154
665.227040	0.428052
665.567918	0.430876
665.908746	0.428381
666.249522	0.428066
666.590248	0.429520
666.930922	0.427715
667.271545	0.426879
667.612118	0.426881
667.952639	0.427986
668.293109	0.427006
668.633528	0.430219
668.973896	0.429732
669.314213	0.430030
669.654480	0.431703
669.994695	0.431614
670.334859	0.433104
670.674973	0.433047
671.015035	0.433766
671.355047	0.433355
671.695008	0.434255
672.034918	0.436517
672.374777	0.435533
672.714585	0.436428
673.054342	0.436442
673.394049	0.437016
673.733705	0.434409
674.073310	0.435451
674.412864	0.438187
674.752368	0.438845
675.091820	0.439151
675.431223	0.443377
675.770574	0.443266
676.109875	0.446286
676.449125	0.446634
676.788324	0.448468
677.127473	0.454117
677.466571	0.453699
677.805619	0.455439
678.144616	0.455932
678.483562	0.457828
678.822458	0.460713
679.161303	0.461555
679.500098	0.462102
679.838842	0.464003
680.177535	0.463869
680.516179	0.462269
680.854771	0.461137
681.193314	0.454757
681.531805	0.445730
681.870247	0.434668
682.208638	0.426537
682.546978	0.426073
682.885268	0.427448
683.223508	0.434077
683.561697	0.437761
683.899836	0.440064
684.237925	0.443880
684.575963	0.445856
684.913951	0.449284
685.251889	0.445262
685.589776	0.446937
685.927614	0.449453
686.265401	0.443608
686.603137	0.445256
686.940824	0.439635
687.278460	0.437486
687.616046	0.436664
687.953582	0.431110
688.291068	0.433458
688.628504	0.428190
688.965889	0.430869
689.303224	0.435090
689.640510	0.439132
689.977745	0.444756
690.314930	0.452586
690.652065	0.457082
690.989150	0.464323
691.326185	0.471144
691.663170	0.475400
692.000105	0.483055
692.336990	0.489779
692.673825	0.491924
693.010610	0.499318
693.347345	0.504352
693.684030	0.505899
694.020665	0.511045
694.357251	0.519316
694.693786	0.519682
695.030272	0.524224
695.366707	0.527234
695.703093	0.530393
696.039429	0.528145
696.375716	0.530027
696.711952	0.533169
697.048139	0.534943
697.384276	0.536573
697.720363	0.534721
698.056400	0.534521
698.392388	0.540166
698.728326	0.542935
699.064214	0.545833
699.400053	0.545663
699.735842	0.549946
700.071581	0.552566
700.407270	0.555049
700.742910	0.557559
701.078501	0.564793
701.414042	0.564921
701.749533	0.567795
702.084974	0.576931
702.420366	0.568430
702.755709	0.576849
703.091002	0.584554
703.426246	0.577828
703.761440	0.584270
704.096584	0.588507
704.431679	0.585629
704.766725	0.587212
705.101721	0.589222
705.436668	0.585598
705.771565	0.592581
706.106413	0.589122
706.441212	0.584844
706.775961	0.582882
707.110661	0.585663
707.445311	0.582445
707.779913	0.579590
708.114465	0.577946
708.448967	0.574858
708.783421	0.566245
709.117825	0.560991
709.452180	0.561687
709.786485	0.555132
710.120742	0.544479
710.454949	0.547594
710.789107	0.538639
711.123216	0.530522
711.457275	0.530689
711.791286	0.522549
712.125247	0.521583
712.459159	0.532244
712.793023	0.524546
713.126837	0.528970
713.460602	0.529917
713.794318	0.539025
714.127985	0.537236
714.461602	0.547507
714.795171	0.550524
715.128691	0.558955
715.462162	0.566422
715.795584	0.572332
716.128957	0.575254
716.462281	0.581400
716.795556	0.584556
717.128782	0.589963
717.461960	0.599654
717.795088	0.597293
718.128167	0.604148
718.461198	0.612397
718.794180	0.613455
719.127113	0.616742
719.459997	0.619886
719.792833	0.626138
720.125619	0.628391
720.458357	0.633834
720.791046	0.633257
721.123686	0.636480
721.456278	0.642697
721.788821	0.640346
722.121315	0.644731
722.453761	0.649218
722.786158	0.647053
723.118506	0.642523
723.450805	0.650882
723.783056	0.647005
724.115259	0.644608
724.447412	0.644316
724.779518	0.645365
725.111574	0.644938
725.443582	0.639738
725.775542	0.641783
726.107453	0.633887
726.439315	0.633977
726.771129	0.632207
727.102895	0.626080
727.434612	0.618117
727.766281	0.616283
728.097901	0.616510
728.429473	0.615579
728.760996	0.613687
729.092471	0.613512
729.423897	0.617803
729.755276	0.616619
730.086606	0.615802
730.417887	0.611602
730.749120	0.602443
731.080305	0.592818
731.411442	0.588926
731.742530	0.593771
732.073570	0.593514
732.404562	0.585722
732.735506	0.586799
733.066401	0.591135
733.397249	0.600833
733.728048	0.611794
734.058798	0.624854
734.389501	0.635295
734.720156	0.645200
735.050762	0.653228
735.381320	0.653943
735.711831	0.663927
736.042293	0.668450
736.372707	0.664558
736.703073	0.668853
737.033391	0.672453
737.363661	0.667497
737.693883	0.663851
738.024056	0.662343
738.354182	0.662816
738.684260	0.651421
739.014290	0.647632
739.344272	0.647904
739.674207	0.642064
740.004093	0.641745
740.333931	0.642123
740.663722	0.641387
740.993464	0.642086
741.323159	0.646413
741.652806	0.651011
741.982405	0.656563
742.311956	0.660893
742.641460	0.663521
742.970915	0.666030
743.300323	0.673863
743.629683	0.680762
743.958996	0.682178
744.288260	0.686881
744.617477	0.693021
744.946647	0.694493
745.275768	0.700094
745.604842	0.699585
745.933869	0.709557
746.262847	0.710613
746.591778	0.703391
746.920662	0.710411
747.249498	0.716459
747.578286	0.706988
747.907027	0.703532
748.235720	0.704707
748.564365	0.699170
748.892963	0.698735
749.221514	0.702068
749.550017	0.706633
749.878473	0.706939
750.206881	0.713551
750.535242	0.713820
750.863555	0.714707
751.191821	0.715069
751.520039	0.718889
751.848210	0.722986
752.176334	0.715618
752.504411	0.714660
752.832440	0.722966
753.160421	0.726671
753.488356	0.724833
753.816243	0.722891
754.144082	0.731141
754.471875	0.734808
754.799620	0.729670
755.127318	0.731825
755.454969	0.731119
755.782572	0.730559
756.110129	0.735145
756.437638	0.737401
756.765100	0.733806
757.092515	0.732780
757.419882	0.731543
757.747203	0.736338
758.074477	0.736536
758.401703	0.732848
758.728882	0.728570
759.056014	0.727813
759.383099	0.726582
759.710138	0.727552
760.037129	0.724415
760.364073	0.717729
760.690970	0.719470
761.017820	0.725937
761.344623	0.721427
761.671379	0.713033
761.998088	0.700592
762.324751	0.678192
762.651366	0.636415
762.977935	0.569400
763.304456	0.516912
763.630931	0.508108
763.957359	0.546265
764.283740	0.591099
764.610074	0.618140
764.936362	0.649603
765.262602	0.676688
765.588796	0.698194
765.914943	0.715590
766.241044	0.733530
766.567097	0.740256
766.893104	0.749357
767.219064	0.757250
767.544978	0.763481
767.870845	0.776961
768.196665	0.780266
768.522438	0.778432
768.848165	0.780586
769.173846	0.788565
769.499479	0.793790
769.825066	0.796283
770.150607	0.801764
770.476101	0.796827
770.801548	0.797608
771.126949	0.810822
771.452303	0.812190
771.777611	0.812489
772.102872	0.811058
772.428087	0.815630
772.753256	0.819136
773.078378	0.820881
773.403453	0.831321
773.728482	0.834784
774.053465	0.828259
774.378401	0.832841
774.703291	0.840736
775.028135	0.840443
775.352932	0.842372
775.677683	0.845168
776.002388	0.846216
776.327046	0.844210
776.651658	0.848000
776.976224	0.851421
777.300743	0.852095
777.625216	0.854071
777.949643	0.855745
778.274024	0.855221
778.598359	0.856939
778.922647	0.855461
779.246889	0.857000
779.571086	0.859755
779.895236	0.863419
780.219339	0.860049
780.543397	0.856960
780.867409	0.855491
781.191374	0.858064
781.515294	0.859687
781.839167	0.858103
782.162995	0.861859
782.486776	0.858874
782.810511	0.858940
783.134201	0.863070
783.457844	0.860414
783.781441	0.863725
784.104993	0.869474
784.428498	0.870087
784.751958	0.864795
785.075372	0.867565
785.398739	0.870838
785.722061	0.867885
786.045337	0.864457
786.368568	0.867602
786.691752	0.870728
787.014891	0.856066
787.337983	0.847006
787.661030	0.840792
787.984031	0.823066
788.306987	0.809317
788.629897	0.811667
788.952760	0.816002
789.275579	0.820506
789.598351	0.834764
789.921078	0.848438
790.243759	0.850572
790.566395	0.856523
790.888984	0.863024
791.211529	0.866735
791.534027	0.869798
791.856480	0.873488
792.178888	0.879250
792.501249	0.880494
792.823566	0.881867
793.145836	0.882396
793.468062	0.884316
793.790241	0.884295
794.112375	0.882314
794.434464	0.878283
794.756507	0.875486
795.078505	0.875892
795.400457	0.870603
795.722364	0.858344
796.044226	0.850948
796.366042	0.851409
796.687812	0.855066
797.009538	0.850896
797.331218	0.853420
797.652852	0.858644
797.974442	0.863771
798.295986	0.863272
798.617484	0.865316
798.938938	0.869742
799.260346	0.874733
799.581709	0.876334
799.903026	0.878980
800.224299	0.879479
800.545526	0.883255
800.866708	0.887336
801.187845	0.891853
801.508936	0.891360
801.829983	0.888974
802.150984	0.891620
802.471940	0.896315
802.792851	0.895693
803.113717	0.895996
803.434538	0.895564
803.755314	0.896697
804.076045	0.899136
804.396731	0.899575
804.717372	0.899633
805.037967	0.899883
805.358518	0.898884
805.679024	0.895465
805.999485	0.895845
806.319901	0.895224
806.640272	0.896729
806.960598	0.894640
807.280879	0.892504
807.601115	0.892503
807.921306	0.896050
808.241453	0.895420
808.561554	0.893863
808.881611	0.892956
809.201623	0.894251
809.521590	0.895456
809.841513	0.896971
810.161390	0.896049
810.481223	0.896752
810.801011	0.900099
811.120755	0.902882
811.440453	0.901390
811.760107	0.899056
812.079716	0.900042
812.399281	0.902542
812.718801	0.905381
813.038276	0.907372
813.357707	0.905304
813.677093	0.903171
813.996434	0.907002
814.315731	0.907957
814.634983	0.909897
814.954191	0.907103
815.273354	0.904093
815.592473	0.900140
815.911547	0.901333
816.230577	0.898158
816.549562	0.895155
816.868502	0.895644
817.187399	0.892006
817.506250	0.886632
817.825058	0.888439
818.143821	0.885115
818.462539	0.880076
818.781213	0.872584
819.099843	0.860412
819.418429	0.844937
819.736970	0.827820
820.055466	0.808986
820.373919	0.782214
820.692327	0.748958
821.010691	0.714593
821.329011	0.636728
821.647286	0.520475
821.965517	0.406575
822.283704	0.363885
822.601847	0.364944
822.919945	0.399965
823.237999	0.434135
823.556010	0.481454
823.873976	0.537649
824.191897	0.588106
824.509775	0.630442
824.827609	0.675863
825.145398	0.698715
825.463144	0.701840
825.780845	0.685334
826.098502	0.665869
826.416116	0.620759
826.733685	0.575688
827.051210	0.567552
827.368692	0.582127
827.686129	0.619387
828.003522	0.673062
828.320872	0.721594
828.638177	0.764562
828.955439	0.798256
829.272656	0.819051
829.589830	0.837320
829.906960	0.852984
830.224046	0.865514
830.541088	0.875185
830.858086	0.879482
831.175041	0.886379
831.491952	0.885586
831.808819	0.883044
832.125642	0.875690
832.442421	0.860497
832.759157	0.839199
833.075849	0.791509
833.392497	0.727223
833.709101	0.687486
834.025662	0.697045
834.342179	0.728742
834.658653	0.768411
834.975083	0.804159
835.291469	0.830518
835.607811	0.853302
835.924110	0.869438
836.240366	0.886493
836.556578	0.899474
836.872746	0.907815
837.188871	0.913778
837.504952	0.920018
837.820990	0.922291
838.136984	0.926142
838.452935	0.929474
838.768842	0.930445
839.084706	0.923496
839.400526	0.897893
839.716303	0.857890
840.032037	0.834785
840.347727	0.838275
840.663373	0.857041
840.978977	0.878079
841.294537	0.900960
841.610054	0.917613
841.925527	0.924501
842.240957	0.932214
842.556344	0.939310
842.871687	0.944980
843.186987	0.950153
843.502244	0.948402
843.817458	0.950830
844.132629	0.955820
844.447756	0.959627
844.762840	0.960453
845.077881	0.959175
845.392879	0.958759
845.707833	0.961472
846.022745	0.964340
846.337613	0.964400
846.652438	0.965671
846.967221	0.964682
847.281960	0.964567
847.596656	0.967384
847.911309	0.965681
848.225919	0.966293
848.540485	0.968264
848.855009	0.968375
849.169490	0.968217
849.483928	0.968279
849.798323	0.968084
850.112675	0.970166
850.426984	0.969072
850.741251	0.970083
851.055474	0.969783
851.369654	0.967716
851.683792	0.969625
851.997887	0.969228
852.311938	0.970609
852.625947	0.968955
852.939914	0.968150
853.253837	0.968116
853.567718	0.970919
853.881555	0.969446
854.195350	0.967175
854.509103	0.969285
854.822812	0.968560
855.136479	0.969723
855.450103	0.969210
855.763685	0.967710
856.077224	0.968386
856.390720	0.970717
856.704173	0.970221
857.017584	0.968387
857.330953	0.966420
857.644278	0.967805
857.957561	0.967641
858.270802	0.967251
858.584000	0.967916
858.897155	0.966114
859.210268	0.966032
859.523339	0.968406
859.836367	0.969032
860.149352	0.969082
860.462295	0.968192
860.775195	0.969312
861.088054	0.968399
861.400869	0.969153
861.713642	0.970223
862.026373	0.970192
862.339062	0.970184
862.651708	0.967211
862.964312	0.966420
863.276873	0.968003
863.589392	0.967119
863.901869	0.966261
864.214303	0.964297
864.526696	0.963561
864.839045	0.963659
865.151353	0.961087
865.463619	0.962471
865.775842	0.962195
866.088023	0.962256
866.400162	0.960316
866.712258	0.961420
867.024313	0.962367
867.336325	0.962587
867.648296	0.961927
867.960224	0.961974
868.272110	0.961864
868.583954	0.963470
868.895755	0.963645
869.207515	0.960529
869.519233	0.958603
869.830909	0.960771
870.142542	0.961774
870.454134	0.961052
870.765684	0.960047
871.077191	0.956861
871.388657	0.958346
871.700081	0.956877
872.011463	0.958566
872.322803	0.957277
872.634101	0.956682
872.945357	0.953574
873.256571	0.952617
873.567744	0.950944
873.878874	0.953638
874.189963	0.950667
874.501010	0.950665
874.812015	0.948860
875.122979	0.951082
875.433900	0.952899
875.744780	0.952803
876.055618	0.950808
876.366415	0.949367
876.677169	0.948689
876.987882	0.950663
877.298554	0.949866
877.609183	0.946519
877.919771	0.944766
878.230317	0.942261
878.540822	0.940354
878.851285	0.933771
879.161707	0.926386
879.472087	0.914228
879.782425	0.897408
880.092722	0.863595
880.402977	0.810251
880.713191	0.749141
881.023363	0.688974
881.333494	0.654795
881.643583	0.627304
881.953631	0.627596
882.263637	0.655509
882.573602	0.695221
882.883526	0.720737
883.193408	0.745143
883.503248	0.768548
883.813048	0.795414
884.122806	0.825502
884.432522	0.848734
884.742197	0.868412
885.051831	0.879944
885.361424	0.889911
885.670975	0.902384
885.980485	0.912492
886.289954	0.918488
886.599382	0.923911
886.908768	0.927819
887.218113	0.933328
887.527417	0.937968
887.836680	0.940537
888.145901	0.942992
888.455082	0.944995
888.764221	0.949608
889.073319	0.951824
889.382376	0.952989
889.691392	0.952513
890.000366	0.951062
890.309300	0.953041
890.618193	0.953368
890.927044	0.950660
891.235855	0.952217
891.544625	0.950368
891.853353	0.951414
892.162041	0.948136
892.470687	0.942229
892.779293	0.937598
893.087858	0.933036
893.396381	0.924725
893.704864	0.910773
894.013306	0.887826
894.321707	0.860373
894.630068	0.845520
894.938387	0.840976
895.246665	0.842314
895.554903	0.854682
895.863100	0.868152
896.171256	0.885345
896.479371	0.904710
896.787446	0.918115
897.095480	0.924073
897.403473	0.927040
897.711425	0.930161
898.019336	0.939685
898.327207	0.942978
898.635038	0.943773
898.942827	0.943264
899.250576	0.947292
899.558284	0.951185
899.865952	0.953354
900.173579	0.953584
900.481165	0.954313
900.788711	0.958975
901.096216	0.960485
901.403681	0.960798
901.711105	0.961907
902.018489	0.962431
902.325832	0.960349
902.633135	0.960418
902.940397	0.954146
903.247619	0.943047
903.554800	0.916387
903.861941	0.876204
904.169041	0.841318
904.476101	0.823206
904.783121	0.823971
905.090100	0.840139
905.397039	0.861064
905.703938	0.883825
906.010796	0.904012
906.317614	0.921781
906.624391	0.934253
906.931129	0.942767
907.237826	0.950630
907.544483	0.960052
907.851099	0.961389
908.157675	0.967555
908.464211	0.969230
908.770707	0.971995
909.077163	0.972879
909.383578	0.974364
909.689954	0.974665
909.996289	0.974528
910.302584	0.978088
910.608839	0.979475
910.915054	0.977948
911.221229	0.977508
911.527363	0.976350
911.833458	0.976710
912.139513	0.976873
912.445527	0.974546
912.751502	0.972763
913.057436	0.970910
913.363331	0.970121
913.669186	0.965845
913.975000	0.960732
914.280775	0.954021
914.586510	0.946789
914.892205	0.933904
915.197859	0.912152
915.503475	0.884654
915.809050	0.864864
916.114585	0.858442
916.420081	0.856087
916.725536	0.853836
917.030952	0.860887
917.336328	0.874588
917.641665	0.889276
917.946961	0.904475
918.252218	0.916783
918.557435	0.926828
918.862612	0.935260
919.167750	0.940767
919.472848	0.945777
919.777906	0.951423
920.082925	0.957262
920.387904	0.961301
920.692843	0.962985
920.997743	0.962518
921.302603	0.966710
921.607423	0.968657
921.912204	0.970866
922.216946	0.970399
922.521647	0.972485
922.826310	0.974213
923.130932	0.976705
923.435516	0.977133
923.740059	0.979668
924.044564	0.978063
924.349028	0.980594
924.653454	0.982502
924.957840	0.984322
925.262186	0.983043
925.566493	0.983118
925.870761	0.983683
926.174989	0.986656
926.479178	0.988619
926.783328	0.986962
927.087438	0.987564
927.391509	0.987966
927.695541	0.989708
927.999533	0.987566
928.303486	0.989302
928.607400	0.990845
928.911275	0.989603
929.215110	0.989145
929.518906	0.990256
929.822663	0.989786
930.126381	0.990964
930.430060	0.988786
930.733699	0.990294
931.037299	0.989185
931.340861	0.991014
931.644383	0.989479
931.947866	0.988694
932.251309	0.991183
932.554714	0.989258
932.858080	0.989559
933.161407	0.989519
933.464694	0.990142
933.767943	0.989722
934.071153	0.990268
934.374323	0.990821
934.677455	0.990478
934.980548	0.991478
935.283602	0.991186
935.586617	0.990399
935.889593	0.989304
936.192530	0.989566
936.495428	0.990836
936.798287	0.990020
937.101108	0.990436
937.403890	0.989551
937.706632	0.989061
938.009336	0.986833
938.312002	0.985558
938.614628	0.983538
938.917216	0.982239
939.219765	0.981816
939.522275	0.982654
939.824747	0.982844
940.127179	0.981899
940.429573	0.984722
940.731929	0.983489
941.034246	0.984288
941.336524	0.984212
941.638763	0.985953
941.940964	0.986139
942.243126	0.986095
942.545250	0.986134
942.847335	0.987671
943.149381	0.987325
943.451389	0.988033
943.753359	0.988230
944.055290	0.990089
944.357182	0.989036
944.659036	0.988255
944.960851	0.988245
945.262628	0.989087
945.564367	0.989503
945.866067	0.990477
946.167729	0.989643
946.469352	0.989387
946.770937	0.988878
947.072484	0.991804
947.373992	0.989346
947.675462	0.990372
947.976893	0.989675
948.278286	0.990641
948.579641	0.991382
948.880958	0.991034
949.182236	0.989960
949.483476	0.991317
949.784678	0.989320
950.085841	0.991991
950.386967	0.989861
950.688054	0.991576
950.989103	0.990279
951.290114	0.989604
951.591087	0.988707
951.892021	0.989562
952.192917	0.988027
952.493776	0.987661
952.794596	0.987830
953.095378	0.986925
953.396122	0.987687
953.696828	0.987074
953.997496	0.989583
954.298126	0.989903
954.598718	0.989639
954.899272	0.990277
955.199788	0.989764
955.500266	0.991865
955.800706	0.992739
956.101108	0.992888
956.401472	0.992899
956.701798	0.993072
957.002087	0.992766
957.302337	0.992870
957.602550	0.994558
957.902724	0.995348
958.202861	0.994788
958.502960	0.995448
958.803022	0.993949
959.103045	0.995297
959.403031	0.995831
959.702979	0.995068
960.002889	0.995204
960.302762	0.995062
960.602596	0.995867
960.902393	0.993661
961.202153	0.997793
961.501875	0.994988
961.801559	0.996090
962.101205	0.996022
962.400814	0.996708
962.700385	0.994932
962.999918	0.996935
963.299414	0.995707
963.598873	0.995916
963.898293	0.996430
964.197677	0.995851
964.497022	0.995423
964.796331	0.996160
965.095601	0.995837
965.394835	0.995917
965.694030	0.996019
965.993189	0.996199
966.292309	0.996429
966.591393	0.996687
966.890439	0.996472
967.189447	0.996043
967.488419	0.996813
967.787353	0.996544
968.086249	0.996446
968.385108	0.997830
968.683930	0.996204
968.982714	0.997477
969.281462	0.998142
969.580172	0.994803
969.878844	0.996034
970.177480	0.996725
970.476078	0.997156
970.774639	0.996284
971.073162	0.998118
971.371649	0.995652
971.670098	0.995405
971.968510	0.997143
972.266885	0.995181
972.565223	0.996144
972.863524	0.996041
973.161788	0.996058
973.460014	0.997449
973.758204	0.994903
974.056356	0.996027
974.354471	0.993667
974.652550	0.996775
974.950591	0.996017
975.248595	0.996006
975.546563	0.996349
975.844493	0.997658
976.142386	0.997181
976.440243	0.996420
976.738062	0.997412
977.035845	0.997052
977.333590	0.996898
977.631299	0.997272
977.928971	0.997352
978.226606	0.996472
978.524204	0.995907
978.821765	0.997643
979.119290	0.995782
979.416777	0.995459
979.714228	0.997350
980.011642	0.996137
980.309020	0.996699
980.606360	0.997275
980.903664	0.998173
981.200931	0.995659
981.498162	0.995728
981.795356	0.994286
982.092513	0.993235
982.389633	0.994478
982.686717	0.991557
982.983764	0.990769
983.280775	0.991839
983.577749	0.990025
983.874686	0.991545
984.171587	0.991016
984.468451	0.994051
984.765279	0.995451
985.062070	0.994451
985.358824	0.995305
985.655543	0.994275
985.952224	0.996286
986.248869	0.996385
986.545478	0.996938
986.842050	0.998063
987.138586	0.995766
987.435086	0.997796
987.731549	0.997921
988.027975	0.996958
988.324366	0.998255
988.620719	0.996792
988.917037	0.996098
989.213318	0.997395
989.509563	0.998604
989.805772	0.998199
990.101944	0.998895
990.398080	0.996851
990.694180	0.997855
990.990244	0.996510
991.286271	0.997896
991.582262	0.997853
991.878217	0.997890
992.174136	0.998306
992.470019	0.999145
992.765865	0.997226
993.061676	0.998121
993.357450	0.997573
993.653188	0.996856
993.948890	0.997119
994.244556	0.998155
994.540186	0.997652
994.835780	0.995788
995.131337	0.996116
995.426859	0.996961
995.722345	0.997657
996.017795	0.996184
996.313208	0.996114
996.608586	0.996340
996.903928	0.995955
997.199234	0.996496
997.494504	0.995990
997.789738	0.996543
998.084936	0.996728
998.380099	0.997938
998.675225	0.996659
998.970316	0.997614
999.265371	0.998149
999.560390	0.996954
999.855373	0.998506
1000.150320	0.998031
1000.445232	0.998000
1000.740108	0.997269
1001.034948	0.997791
1001.329752	0.998217
1001.624521	0.998789
1001.919254	0.998059
1002.213951	0.997344
1002.508613	0.997660
1002.803239	0.999053
1003.097829	0.999682
1003.392384	0.998665
1003.686903	0.998979
1003.981386	0.998666
1004.275834	1.000207
1004.570246	0.998173
1004.864623	0.998999
1005.158964	0.999179
1005.453270	0.999215
1005.747540	0.997794
1006.041775	0.997599
1006.335974	0.998550
1006.630138	0.998861
1006.924266	0.999229
1007.218359	0.999492
1007.512416	0.999550
1007.806438	0.998651
1008.100425	0.999568
1008.394376	0.999335
1008.688292	0.998411
1008.982172	1.000340
1009.276017	0.999140
1009.569827	0.999147
1009.863602	0.997734
1010.157341	1.001245
1010.451045	0.998932
1010.744714	0.998675
1011.038347	0.998727
1011.331945	0.998621
1011.625508	0.998518
1011.919036	0.999157
1012.212528	0.997993
1012.505986	0.997176
1012.799408	0.998672
1013.092795	0.999651
1013.386147	0.998928
1013.679464	0.998294
1013.972745	0.997891
1014.265992	0.998302
1014.559204	0.999125
1014.852380	0.999119
1015.145521	0.999675
1015.438628	0.998080
1015.731699	0.997753
1016.024736	0.998224
1016.317737	0.998600
1016.610703	0.997499
1016.903635	0.999074
1017.196531	0.998559
1017.489393	0.999254
1017.782219	0.998302
1018.075011	0.999805
1018.367768	0.998848
1018.660490	0.999125
1018.953177	0.999125
1019.245829	0.999125
