Dividing Wavelength (nm)	Counts (n)	Blue Motor Position (mm): 0.000000	Red Motor Position (mm): 26.100000	
326.493990	1.000285
326.888308	1.000285
327.282561	1.000285
327.676750	0.999833
328.070874	0.998640
328.464933	1.000908
328.858929	0.999364
329.252859	0.999583
329.646726	0.999682
330.040528	0.999598
330.434265	0.998797
330.827938	0.999465
331.221547	0.998127
331.615091	1.000051
332.008571	0.999988
332.401986	0.999297
332.795338	1.000009
333.188625	0.997383
333.581847	1.000148
333.975006	0.999221
334.368100	1.000063
334.761129	0.999207
335.154095	1.001099
335.546996	0.998096
335.939833	0.993924
336.332606	0.993833
336.725315	0.995953
337.117960	0.995137
337.510540	0.994678
337.903056	0.994990
338.295508	0.993590
338.687896	0.994201
339.080220	0.993930
339.472480	0.995155
339.864676	0.994197
340.256807	0.994604
340.648875	0.994610
341.040879	0.994903
341.432818	0.994190
341.824694	0.993524
342.216506	0.994313
342.608253	0.994527
342.999937	0.994473
343.391557	0.993927
343.783113	0.995162
344.174605	0.995939
344.566033	0.995725
344.957397	0.992045
345.348697	0.993801
345.739934	0.995206
346.131106	0.994285
346.522215	0.993957
346.913260	0.995080
347.304241	0.993105
347.695159	0.993740
348.086012	0.993481
348.476802	0.993800
348.867528	0.995365
349.258191	0.992810
349.648789	0.995179
350.039324	0.992847
350.429796	0.994991
350.820203	0.994501
351.210548	0.993481
351.600828	0.994619
351.991045	0.993615
352.381198	0.993051
352.771288	0.993972
353.161314	0.993985
353.551276	0.995734
353.941175	0.993180
354.331010	0.994652
354.720782	0.994737
355.110490	0.994044
355.500135	0.994040
355.889717	0.994079
356.279235	0.993963
356.668689	0.994195
357.058080	0.994466
357.447408	0.995162
357.836672	0.995372
358.225873	0.994394
358.615010	0.994705
359.004084	0.995520
359.393095	0.993985
359.782043	0.995002
360.170927	0.995316
360.559748	0.994614
360.948505	0.993662
361.337199	0.993977
361.725830	0.994736
362.114398	0.994344
362.502903	0.994413
362.891344	0.995108
363.279722	0.994781
363.668037	0.994780
364.056289	0.994914
364.444478	0.995622
364.832603	0.994821
365.220665	0.993598
365.608665	0.993900
365.996601	0.993961
366.384474	0.994512
366.772284	0.994486
367.160031	0.993103
367.547715	0.993320
367.935336	0.995122
368.322893	0.993847
368.710388	0.993750
369.097820	0.994921
369.485189	0.994044
369.872495	0.993843
370.259738	0.992703
370.646918	0.994245
371.034035	0.994976
371.421090	0.993739
371.808081	0.995804
372.195010	0.995344
372.581875	0.993624
372.968678	0.995293
373.355418	0.993940
373.742096	0.993945
374.128710	0.995769
374.515262	0.993953
374.901751	0.995091
375.288177	0.995418
375.674540	0.994510
376.060841	0.993595
376.447079	0.996613
376.833254	0.994602
377.219367	0.994993
377.605417	0.994442
377.991404	0.995452
378.377329	0.994839
378.763191	0.995588
379.148991	0.995993
379.534727	0.995839
379.920402	0.994413
380.306013	0.995485
380.691563	0.995821
381.077049	0.994781
381.462474	0.995861
381.847835	0.996302
382.233134	0.996113
382.618371	0.995022
383.003545	0.995510
383.388657	0.995333
383.773706	0.997514
384.158693	0.995892
384.543618	0.996040
384.928480	0.996249
385.313280	0.996285
385.698017	0.996335
386.082692	0.997107
386.467305	0.996033
386.851856	0.995536
387.236344	0.995922
387.620770	0.995862
388.005133	0.996458
388.389435	0.996363
388.773674	0.996256
389.157851	0.995910
389.541965	0.996459
389.926018	0.995362
390.310008	0.998037
390.693936	0.995968
391.077802	0.995796
391.461606	0.996020
391.845348	0.996030
392.229027	0.997081
392.612645	0.996889
392.996200	0.998469
393.379694	0.996817
393.763125	0.997602
394.146494	0.997007
394.529801	0.995997
394.913047	0.996693
395.296230	0.997084
395.679351	0.996762
396.062410	0.996575
396.445408	0.997660
396.828343	0.997556
397.211217	0.996048
397.594028	0.997418
397.976778	0.996022
398.359466	0.996980
398.742092	0.996989
399.124656	0.996074
399.507158	0.996183
399.889598	0.997057
400.271977	0.997595
400.654294	0.997640
401.036549	0.996278
401.418742	0.997331
401.800874	0.996426
402.182944	0.996980
402.564952	0.995569
402.946898	0.998472
403.328783	0.997561
403.710606	0.996433
404.092367	0.996507
404.474067	0.996723
404.855705	0.996822
405.237282	0.996518
405.618797	0.996574
406.000250	0.996387
406.381642	0.997350
406.762972	0.997475
407.144240	0.998007
407.525447	0.997410
407.906593	0.997060
408.287677	0.997690
408.668700	0.997593
409.049661	0.995744
409.430560	0.996892
409.811399	0.996564
410.192176	0.996401
410.572891	0.996614
410.953545	0.996882
411.334138	0.995506
411.714669	0.998166
412.095139	0.995966
412.475547	0.997149
412.855894	0.997682
413.236180	0.997191
413.616405	0.997071
413.996568	0.997464
414.376670	0.995966
414.756711	0.996628
415.136691	0.996896
415.516609	0.996596
415.896466	0.997658
416.276262	0.996429
416.655997	0.997446
417.035670	0.996619
417.415283	0.997054
417.794834	0.997535
418.174324	0.996259
418.553753	0.997962
418.933121	0.997078
419.312428	0.996516
419.691674	0.997297
420.070859	0.997199
420.449983	0.996870
420.829045	0.996420
421.208047	0.997766
421.586988	0.997593
421.965867	0.997231
422.344686	0.997527
422.723444	0.997304
423.102141	0.997751
423.480777	0.996587
423.859352	0.996418
424.237866	0.996727
424.616319	0.996577
424.994712	0.997043
425.373044	0.997164
425.751314	0.997257
426.129524	0.996529
426.507673	0.997178
426.885762	0.998452
427.263789	0.996868
427.641756	0.997394
428.019662	0.997690
428.397508	0.996793
428.775292	0.996468
429.153016	0.996393
429.530679	0.996662
429.908282	0.997322
430.285824	0.996473
430.663305	0.995827
431.040726	0.996368
431.418086	0.998185
431.795385	0.996703
432.172624	0.996510
432.549802	0.997084
432.926920	0.996407
433.303977	0.995936
433.680974	0.997275
434.057910	0.996363
434.434786	0.996937
434.811601	0.996123
435.188355	0.996131
435.565050	0.995317
435.941683	0.995286
436.318257	0.997153
436.694770	0.994906
437.071222	0.995144
437.447614	0.994957
437.823946	0.994613
438.200218	0.995162
438.576429	0.993790
438.952580	0.994115
439.328670	0.992576
439.704700	0.992577
440.080670	0.992865
440.456580	0.991346
440.832429	0.990456
441.208218	0.990307
441.583947	0.988416
441.959616	0.988594
442.335224	0.987072
442.710773	0.987039
443.086261	0.984231
443.461689	0.983467
443.837057	0.981948
444.212365	0.980383
444.587612	0.978675
444.962800	0.976350
445.337927	0.975751
445.712995	0.975091
446.088002	0.972117
446.462949	0.969834
446.837837	0.968102
447.212664	0.965889
447.587431	0.961841
447.962139	0.957614
448.336786	0.951321
448.711374	0.950148
449.085901	0.950390
449.460369	0.948715
449.834776	0.944907
450.209124	0.939764
450.583412	0.934345
450.957640	0.931286
451.331808	0.928253
451.705917	0.926800
452.079965	0.923447
452.453954	0.918167
452.827883	0.914011
453.201752	0.909574
453.575562	0.907446
453.949311	0.899531
454.323001	0.895618
454.696632	0.890609
455.070202	0.883289
455.443713	0.876087
455.817164	0.870389
456.190556	0.862077
456.563888	0.855718
456.937160	0.850082
457.310373	0.847255
457.683526	0.841105
458.056619	0.835742
458.429653	0.829232
458.802628	0.823799
459.175542	0.815424
459.548398	0.802920
459.921194	0.793523
460.293930	0.786134
460.666607	0.768141
461.039224	0.757076
461.411782	0.747619
461.784280	0.740157
462.156719	0.735437
462.529099	0.728593
462.901419	0.727090
463.273680	0.720921
463.645882	0.713494
464.018024	0.706328
464.390106	0.695332
464.762130	0.681081
465.134094	0.664067
465.505999	0.640755
465.877845	0.617765
466.249631	0.604304
466.621358	0.599481
466.993026	0.596008
467.364634	0.590490
467.736184	0.586239
468.107674	0.581721
468.479105	0.570967
468.850477	0.568946
469.221790	0.563513
469.593043	0.561333
469.964238	0.555316
470.335373	0.546144
470.706449	0.537755
471.077467	0.530814
471.448425	0.497712
471.819324	0.474766
472.190164	0.467234
472.560945	0.479394
472.931667	0.486149
473.302330	0.482212
473.672934	0.484591
474.043479	0.468191
474.413965	0.462706
474.784393	0.459052
475.154761	0.448516
475.525070	0.439325
475.895321	0.438786
476.265513	0.428112
476.635645	0.418739
477.005719	0.412369
477.375734	0.404355
477.745691	0.393717
478.115588	0.384785
478.485427	0.374177
478.855207	0.358864
479.224928	0.339743
479.594591	0.325501
479.964194	0.322430
480.333739	0.317880
480.703226	0.313193
481.072653	0.308038
481.442022	0.300436
481.811333	0.293866
482.180584	0.292509
482.549777	0.292802
482.918912	0.292656
483.287988	0.288729
483.657005	0.284909
484.025964	0.287713
484.394864	0.281524
484.763706	0.278812
485.132489	0.280766
485.501213	0.278139
485.869879	0.274472
486.238487	0.274760
486.607036	0.270654
486.975527	0.272606
487.343959	0.266429
487.712333	0.263608
488.080648	0.263344
488.448905	0.260753
488.817104	0.260313
489.185244	0.253567
489.553326	0.248791
489.921350	0.237903
490.289315	0.219805
490.657222	0.213696
491.025070	0.213604
491.392861	0.214675
491.760593	0.218989
492.128267	0.223555
492.495883	0.227932
492.863440	0.233425
493.230939	0.239018
493.598380	0.239457
493.965763	0.241062
494.333088	0.242892
494.700354	0.243645
495.067563	0.242201
495.434713	0.245193
495.801805	0.242607
496.168839	0.243682
496.535815	0.244627
496.902733	0.244329
497.269593	0.245514
497.636395	0.243135
498.003139	0.243121
498.369825	0.245757
498.736453	0.242124
499.103023	0.243364
499.469535	0.242697
499.835989	0.242678
500.202385	0.243390
500.568723	0.246234
500.935003	0.241580
501.301226	0.245506
501.667390	0.239792
502.033497	0.237828
502.399546	0.240593
502.765537	0.241980
503.131470	0.240633
503.497345	0.236945
503.863163	0.245648
504.228923	0.238427
504.594625	0.237002
504.960269	0.242115
505.325856	0.237238
505.691385	0.241871
506.056856	0.238193
506.422270	0.237623
506.787625	0.240088
507.152924	0.237542
507.518164	0.237896
507.883347	0.239460
508.248472	0.241277
508.613540	0.236386
508.978550	0.238501
509.343503	0.238935
509.708398	0.236690
510.073236	0.234311
510.438016	0.234195
510.802738	0.234914
511.167403	0.234093
511.532010	0.235887
511.896561	0.231359
512.261053	0.229798
512.625488	0.231999
512.989866	0.232355
513.354186	0.232788
513.718449	0.234598
514.082655	0.230830
514.446803	0.232924
514.810894	0.230702
515.174927	0.233428
515.538904	0.232766
515.902822	0.229644
516.266684	0.232219
516.630488	0.233132
516.994235	0.231720
517.357925	0.230678
517.721558	0.228765
518.085133	0.228317
518.448651	0.228510
518.812112	0.230744
519.175516	0.230231
519.538863	0.228223
519.902152	0.229478
520.265385	0.226462
520.628560	0.228079
520.991678	0.228596
521.354739	0.227538
521.717743	0.228907
522.080690	0.229180
522.443580	0.226386
522.806413	0.227371
523.169189	0.226769
523.531908	0.225575
523.894569	0.229329
524.257174	0.229193
524.619722	0.226748
524.982213	0.227933
525.344647	0.227040
525.707025	0.227778
526.069345	0.225808
526.431608	0.227388
526.793815	0.225554
527.155964	0.229470
527.518057	0.228408
527.880093	0.229503
528.242072	0.228138
528.603995	0.230111
528.965860	0.231784
529.327669	0.230409
529.689421	0.231479
530.051117	0.232289
530.412755	0.229903
530.774337	0.232286
531.135862	0.232689
531.497331	0.231837
531.858743	0.234751
532.220098	0.231462
532.581396	0.233770
532.942638	0.234507
533.303824	0.235690
533.664953	0.235112
534.026025	0.236697
534.387040	0.235085
534.747999	0.235032
535.108902	0.233703
535.469748	0.238752
535.830537	0.236816
536.191270	0.237042
536.551947	0.236671
536.912567	0.236599
537.273131	0.238264
537.633638	0.238523
537.994089	0.238683
538.354483	0.239911
538.714821	0.237143
539.075103	0.236684
539.435328	0.237432
539.795497	0.241135
540.155609	0.237889
540.515665	0.235991
540.875665	0.241717
541.235609	0.239922
541.595496	0.240177
541.955328	0.236702
542.315102	0.239391
542.674821	0.240523
543.034483	0.240456
543.394090	0.240263
543.753640	0.242252
544.113134	0.236710
544.472571	0.240246
544.831953	0.237244
545.191278	0.241199
545.550548	0.240827
545.909761	0.237658
546.268918	0.238078
546.628019	0.236515
546.987064	0.239464
547.346053	0.241399
547.704986	0.239307
548.063863	0.239411
548.422684	0.239518
548.781449	0.241731
549.140158	0.238749
549.498811	0.241783
549.857408	0.245229
550.215949	0.239919
550.574434	0.242592
550.932864	0.240875
551.291237	0.239307
551.649555	0.240922
552.007817	0.240975
552.366022	0.241292
552.724173	0.241662
553.082267	0.242243
553.440305	0.238910
553.798288	0.243381
554.156215	0.239893
554.514086	0.240520
554.871902	0.243700
555.229661	0.242913
555.587365	0.243416
555.945014	0.246130
556.302606	0.243074
556.660143	0.245579
557.017625	0.241963
557.375050	0.244422
557.732421	0.241109
558.089735	0.243336
558.446994	0.243519
558.804197	0.242464
559.161345	0.242531
559.518437	0.245957
559.875474	0.243619
560.232455	0.242932
560.589381	0.244115
560.946251	0.244470
561.303065	0.241766
561.659825	0.243425
562.016528	0.244871
562.373177	0.247666
562.729770	0.244932
563.086307	0.247192
563.442789	0.244982
563.799216	0.247642
564.155587	0.246292
564.511904	0.247483
564.868164	0.247550
565.224370	0.247609
565.580520	0.249169
565.936615	0.249135
566.292654	0.251887
566.648638	0.249154
567.004567	0.249977
567.360441	0.250509
567.716260	0.252680
568.072023	0.250485
568.427732	0.251108
568.783385	0.253616
569.138982	0.251826
569.494525	0.251445
569.850013	0.254089
570.205445	0.252745
570.560823	0.255227
570.916145	0.257085
571.271412	0.255334
571.626625	0.256656
571.981782	0.257109
572.336884	0.258058
572.691931	0.257944
573.046923	0.259088
573.401860	0.260491
573.756743	0.262081
574.111570	0.261195
574.466342	0.261342
574.821059	0.260472
575.175722	0.263418
575.530330	0.263035
575.884882	0.263046
576.239380	0.265420
576.593823	0.265967
576.948211	0.265796
577.302544	0.268785
577.656823	0.268577
578.011047	0.268105
578.365216	0.268856
578.719330	0.270998
579.073389	0.271141
579.427394	0.272051
579.781344	0.273036
580.135239	0.274734
580.489080	0.273856
580.842866	0.277091
581.196597	0.277141
581.550273	0.275597
581.903895	0.276513
582.257463	0.274630
582.610975	0.278615
582.964434	0.277558
583.317837	0.279877
583.671186	0.280460
584.024481	0.280319
584.377721	0.283016
584.730906	0.283625
585.084037	0.282421
585.437113	0.284628
585.790135	0.284092
586.143103	0.287126
586.496016	0.287900
586.848874	0.285708
587.201679	0.285970
587.554428	0.289645
587.907124	0.288046
588.259765	0.288726
588.612352	0.289441
588.964884	0.293174
589.317362	0.292834
589.669786	0.292595
590.022155	0.291483
590.374470	0.290593
590.726731	0.292713
591.078937	0.297643
591.431090	0.293744
591.783188	0.298071
592.135232	0.298271
592.487222	0.298314
592.839157	0.296499
593.191038	0.298916
593.542866	0.300482
593.894639	0.304326
594.246358	0.302113
594.598022	0.301712
594.949633	0.305147
595.301190	0.306093
595.652692	0.305510
596.004141	0.301358
596.355535	0.309235
596.706876	0.310166
597.058162	0.312390
597.409395	0.309881
597.760573	0.307544
598.111698	0.310556
598.462768	0.311441
598.813785	0.312807
599.164748	0.313444
599.515657	0.313810
599.866511	0.317536
600.217312	0.312513
600.568060	0.318234
600.918753	0.313987
601.269392	0.315181
601.619978	0.318180
601.970510	0.316653
602.320988	0.316191
602.671412	0.314053
603.021783	0.316900
603.372100	0.317872
603.722363	0.317415
604.072572	0.318363
604.422728	0.318014
604.772830	0.320175
605.122878	0.320000
605.472872	0.320755
605.822813	0.318771
606.172701	0.321306
606.522534	0.318792
606.872314	0.318932
607.222041	0.319514
607.571714	0.317725
607.921333	0.319277
608.270899	0.319169
608.620411	0.315944
608.969870	0.319593
609.319276	0.319639
609.668627	0.319799
610.017926	0.318066
610.367171	0.316850
610.716362	0.317483
611.065500	0.317837
611.414585	0.316583
611.763616	0.317175
612.112594	0.317443
612.461518	0.316780
612.810389	0.314498
613.159207	0.316909
613.507971	0.318761
613.856682	0.314569
614.205340	0.315989
614.553945	0.312930
614.902496	0.316893
615.250994	0.314533
615.599439	0.315550
615.947830	0.314866
616.296169	0.315732
616.644454	0.315344
616.992686	0.315512
617.340864	0.313158
617.688990	0.316971
618.037063	0.313283
618.385082	0.315467
618.733048	0.311815
619.080961	0.314817
619.428821	0.313764
619.776628	0.313720
620.124382	0.315628
620.472083	0.315687
620.819731	0.315474
621.167326	0.319095
621.514868	0.318931
621.862357	0.323420
622.209793	0.322468
622.557176	0.324689
622.904506	0.326411
623.251783	0.328317
623.599007	0.330297
623.946179	0.330520
624.293297	0.331961
624.640363	0.335820
624.987376	0.336411
625.334336	0.338774
625.681243	0.341033
626.028097	0.341644
626.374899	0.343333
626.721647	0.343013
627.068343	0.346205
627.414987	0.347339
627.761577	0.349672
628.108115	0.347683
628.454600	0.352627
628.801032	0.350361
629.147412	0.352499
629.493739	0.352878
629.840014	0.356224
630.186236	0.353050
630.532405	0.358921
630.878521	0.356341
631.224585	0.358458
631.570597	0.362028
631.916556	0.360267
632.262462	0.360789
632.608316	0.362732
632.954117	0.363235
633.299866	0.364527
633.645562	0.364415
633.991206	0.368876
634.336797	0.371946
634.682336	0.374024
635.027823	0.375493
635.373257	0.376164
635.718639	0.379769
636.063968	0.379288
636.409245	0.384794
636.754470	0.385283
637.099642	0.387832
637.444762	0.390819
637.789829	0.390356
638.134845	0.393566
638.479808	0.394429
638.824719	0.394115
639.169577	0.398298
639.514383	0.397009
639.859137	0.401565
640.203839	0.401721
640.548489	0.401788
640.893086	0.403236
641.237632	0.405011
641.582125	0.403421
641.926566	0.404984
642.270955	0.404889
642.615292	0.405373
642.959576	0.404153
643.303809	0.405157
643.647990	0.404289
643.992118	0.405399
644.336195	0.408926
644.680219	0.406699
645.024192	0.407838
645.368112	0.401132
645.711981	0.400686
646.055797	0.395584
646.399562	0.397800
646.743274	0.390315
647.086935	0.387431
647.430544	0.388015
647.774101	0.386940
648.117606	0.386364
648.461059	0.386550
648.804460	0.389003
649.147810	0.394267
649.491108	0.396103
649.834354	0.397417
650.177548	0.403030
650.520690	0.408347
650.863781	0.409259
651.206820	0.408885
651.549807	0.413248
651.892742	0.417174
652.235626	0.416811
652.578458	0.417848
652.921238	0.423741
653.263967	0.421570
653.606644	0.425547
653.949269	0.425197
654.291843	0.428954
654.634365	0.425734
654.976836	0.429173
655.319255	0.429513
655.661622	0.431301
656.003938	0.431155
656.346203	0.433790
656.688416	0.431768
657.030577	0.434981
657.372687	0.436937
657.714746	0.438072
658.056753	0.435030
658.398708	0.438837
658.740612	0.439971
659.082465	0.436122
659.424266	0.436992
659.766016	0.436052
660.107715	0.438824
660.449362	0.437472
660.790958	0.437862
661.132503	0.438713
661.473996	0.436176
661.815438	0.437615
662.156829	0.437741
662.498168	0.438342
662.839456	0.439394
663.180693	0.437551
663.521879	0.437535
663.863013	0.438613
664.204097	0.437348
664.545129	0.433400
664.886110	0.434205
665.227040	0.431259
665.567918	0.433981
665.908746	0.432111
666.249522	0.431359
666.590248	0.432476
666.930922	0.430657
667.271545	0.430153
667.612118	0.429466
667.952639	0.431546
668.293109	0.430072
668.633528	0.432743
668.973896	0.433022
669.314213	0.433435
669.654480	0.434762
669.994695	0.434816
670.334859	0.436214
670.674973	0.435881
671.015035	0.436260
671.355047	0.435792
671.695008	0.437524
672.034918	0.439298
672.374777	0.438555
672.714585	0.439970
673.054342	0.440030
673.394049	0.439899
673.733705	0.437073
674.073310	0.438386
674.412864	0.441774
674.752368	0.442090
675.091820	0.442490
675.431223	0.446579
675.770574	0.446495
676.109875	0.449213
676.449125	0.449333
676.788324	0.451977
677.127473	0.457578
677.466571	0.456610
677.805619	0.458086
678.144616	0.459775
678.483562	0.461131
678.822458	0.464116
679.161303	0.464983
679.500098	0.465233
679.838842	0.466902
680.177535	0.467174
680.516179	0.465562
680.854771	0.463804
681.193314	0.457691
681.531805	0.448788
681.870247	0.437602
682.208638	0.429810
682.546978	0.429360
682.885268	0.430551
683.223508	0.436909
683.561697	0.440617
683.899836	0.443622
684.237925	0.446807
684.575963	0.448723
684.913951	0.452194
685.251889	0.447740
685.589776	0.449859
685.927614	0.452130
686.265401	0.447063
686.603137	0.448317
686.940824	0.442526
687.278460	0.440832
687.616046	0.439843
687.953582	0.434690
688.291068	0.436552
688.628504	0.432044
688.965889	0.433921
689.303224	0.437944
689.640510	0.441582
689.977745	0.447679
690.314930	0.455418
690.652065	0.460007
690.989150	0.467847
691.326185	0.473773
691.663170	0.479054
692.000105	0.485809
692.336990	0.492882
692.673825	0.494949
693.010610	0.502400
693.347345	0.507671
693.684030	0.508910
694.020665	0.513908
694.357251	0.522955
694.693786	0.522232
695.030272	0.526138
695.366707	0.529828
695.703093	0.533361
696.039429	0.531400
696.375716	0.532600
696.711952	0.535689
697.048139	0.537404
697.384276	0.539292
697.720363	0.536924
698.056400	0.537012
698.392388	0.542163
698.728326	0.544907
699.064214	0.548452
699.400053	0.548143
699.735842	0.552263
700.071581	0.554809
700.407270	0.557746
700.742910	0.560596
701.078501	0.567363
701.414042	0.567479
701.749533	0.570392
702.084974	0.579085
702.420366	0.571128
702.755709	0.579631
703.091002	0.586775
703.426246	0.580194
703.761440	0.586560
704.096584	0.590975
704.431679	0.587741
704.766725	0.590090
705.101721	0.591248
705.436668	0.587194
705.771565	0.594489
706.106413	0.591026
706.441212	0.586522
706.775961	0.585314
707.110661	0.588961
707.445311	0.585050
707.779913	0.581943
708.114465	0.579811
708.448967	0.577355
708.783421	0.568974
709.117825	0.563739
709.452180	0.564206
709.786485	0.557449
710.120742	0.547571
710.454949	0.549839
710.789107	0.542017
711.123216	0.532270
711.457275	0.534911
711.791286	0.525832
712.125247	0.524734
712.459159	0.535353
712.793023	0.528402
713.126837	0.531977
713.460602	0.532232
713.794318	0.541544
714.127985	0.540664
714.461602	0.550433
714.795171	0.553388
715.128691	0.561738
715.462162	0.568802
715.795584	0.574757
716.128957	0.577165
716.462281	0.583073
716.795556	0.587540
717.128782	0.592009
717.461960	0.601882
717.795088	0.600420
718.128167	0.606938
718.461198	0.615282
718.794180	0.615430
719.127113	0.618140
719.459997	0.622431
719.792833	0.628591
720.125619	0.630141
720.458357	0.635438
720.791046	0.635232
721.123686	0.638539
721.456278	0.645071
721.788821	0.643083
722.121315	0.647023
722.453761	0.650364
722.786158	0.649085
723.118506	0.645271
723.450805	0.653543
723.783056	0.649196
724.115259	0.646604
724.447412	0.646616
724.779518	0.647538
725.111574	0.646704
725.443582	0.641411
725.775542	0.643915
726.107453	0.635850
726.439315	0.636335
726.771129	0.634245
727.102895	0.627623
727.434612	0.621273
727.766281	0.618406
728.097901	0.618348
728.429473	0.617895
728.760996	0.616897
729.092471	0.616741
729.423897	0.620343
729.755276	0.618974
730.086606	0.619569
730.417887	0.613549
730.749120	0.604759
731.080305	0.595592
731.411442	0.591442
731.742530	0.596919
732.073570	0.595438
732.404562	0.588048
732.735506	0.588807
733.066401	0.594069
733.397249	0.603819
733.728048	0.614480
734.058798	0.627456
734.389501	0.637401
734.720156	0.647368
735.050762	0.655269
735.381320	0.656196
735.711831	0.666032
736.042293	0.669946
736.372707	0.666588
736.703073	0.670675
737.033391	0.673213
737.363661	0.670422
737.693883	0.665489
738.024056	0.663970
738.354182	0.665443
738.684260	0.654117
739.014290	0.650053
739.344272	0.651114
739.674207	0.644522
740.004093	0.644214
740.333931	0.644439
740.663722	0.644522
740.993464	0.644798
741.323159	0.648478
741.652806	0.653262
741.982405	0.658578
742.311956	0.662865
742.641460	0.665114
742.970915	0.668735
743.300323	0.675972
743.629683	0.682340
743.958996	0.684622
744.288260	0.688742
744.617477	0.695604
744.946647	0.696639
745.275768	0.701788
745.604842	0.701635
745.933869	0.712284
746.262847	0.712626
746.591778	0.705333
746.920662	0.712838
747.249498	0.718919
747.578286	0.709376
747.907027	0.705216
748.235720	0.706737
748.564365	0.701398
748.892963	0.701119
749.221514	0.703630
749.550017	0.709422
749.878473	0.709048
750.206881	0.714776
750.535242	0.716709
750.863555	0.716710
751.191821	0.717301
751.520039	0.720916
751.848210	0.725493
752.176334	0.717171
752.504411	0.717008
752.832440	0.725973
753.160421	0.728224
753.488356	0.726746
753.816243	0.724647
754.144082	0.732844
754.471875	0.736357
754.799620	0.731938
755.127318	0.733242
755.454969	0.732947
755.782572	0.732912
756.110129	0.737396
756.437638	0.739706
756.765100	0.737124
757.092515	0.734591
757.419882	0.733996
757.747203	0.739018
758.074477	0.738458
758.401703	0.735172
758.728882	0.730048
759.056014	0.729025
759.383099	0.728164
759.710138	0.729821
760.037129	0.726292
760.364073	0.720442
760.690970	0.721701
761.017820	0.728276
761.344623	0.724296
761.671379	0.714486
761.998088	0.703922
762.324751	0.680377
762.651366	0.639103
762.977935	0.572837
763.304456	0.520423
763.630931	0.511281
763.957359	0.549809
764.283740	0.594774
764.610074	0.621838
764.936362	0.652163
765.262602	0.679367
765.588796	0.700376
765.914943	0.717370
766.241044	0.735568
766.567097	0.742432
766.893104	0.752281
767.219064	0.758269
767.544978	0.764630
767.870845	0.779015
768.196665	0.782151
768.522438	0.780212
768.848165	0.780597
769.173846	0.789356
769.499479	0.794417
769.825066	0.798232
770.150607	0.803345
770.476101	0.798630
770.801548	0.799885
771.126949	0.810338
771.452303	0.814175
771.777611	0.813859
772.102872	0.812532
772.428087	0.818120
772.753256	0.821393
773.078378	0.822912
773.403453	0.832385
773.728482	0.837304
774.053465	0.828881
774.378401	0.833013
774.703291	0.841876
775.028135	0.841405
775.352932	0.843813
775.677683	0.847170
776.002388	0.846942
776.327046	0.846586
776.651658	0.851108
776.976224	0.853329
777.300743	0.852798
777.625216	0.854523
777.949643	0.856316
778.274024	0.857302
778.598359	0.857958
778.922647	0.856250
779.246889	0.858110
779.571086	0.862412
779.895236	0.863731
780.219339	0.861196
780.543397	0.858227
780.867409	0.856793
781.191374	0.858753
781.515294	0.860412
781.839167	0.858968
782.162995	0.861559
782.486776	0.860702
782.810511	0.860473
783.134201	0.864014
783.457844	0.860781
783.781441	0.864519
784.104993	0.869765
784.428498	0.870525
784.751958	0.866051
785.075372	0.869092
785.398739	0.873688
785.722061	0.868654
786.045337	0.864709
786.368568	0.869747
786.691752	0.872067
787.014891	0.857857
787.337983	0.848753
787.661030	0.842004
787.984031	0.824097
788.306987	0.811291
788.629897	0.813483
788.952760	0.817666
789.275579	0.821960
789.598351	0.836691
789.921078	0.849806
790.243759	0.851223
790.566395	0.856898
790.888984	0.864481
791.211529	0.868157
791.534027	0.872340
791.856480	0.874585
792.178888	0.878801
792.501249	0.881219
792.823566	0.883566
793.145836	0.883321
793.468062	0.885195
793.790241	0.885438
794.112375	0.883040
794.434464	0.878417
794.756507	0.877597
795.078505	0.877892
795.400457	0.872815
795.722364	0.860812
796.044226	0.853769
796.366042	0.852617
796.687812	0.855866
797.009538	0.852573
797.331218	0.854420
797.652852	0.860643
797.974442	0.864662
798.295986	0.863397
798.617484	0.866428
798.938938	0.872024
799.260346	0.876792
799.581709	0.878213
799.903026	0.879445
800.224299	0.880847
800.545526	0.884449
800.866708	0.889057
801.187845	0.892773
801.508936	0.891620
801.829983	0.889844
802.150984	0.892847
802.471940	0.898627
802.792851	0.897260
803.113717	0.898396
803.434538	0.896220
803.755314	0.897718
804.076045	0.900465
804.396731	0.900411
804.717372	0.899823
805.037967	0.902094
805.358518	0.899622
805.679024	0.896825
805.999485	0.897520
806.319901	0.897532
806.640272	0.898207
806.960598	0.896946
807.280879	0.893307
807.601115	0.893161
807.921306	0.896319
808.241453	0.896262
808.561554	0.894841
808.881611	0.894571
809.201623	0.895718
809.521590	0.897008
809.841513	0.896930
810.161390	0.896217
810.481223	0.897498
810.801011	0.901699
811.120755	0.902968
811.440453	0.902044
811.760107	0.900209
812.079716	0.900345
812.399281	0.904019
812.718801	0.906863
813.038276	0.906467
813.357707	0.906239
813.677093	0.903713
813.996434	0.907320
814.315731	0.907930
814.634983	0.910225
814.954191	0.907444
815.273354	0.905496
815.592473	0.901520
815.911547	0.901450
816.230577	0.899027
816.549562	0.895793
816.868502	0.897444
817.187399	0.893073
817.506250	0.888152
817.825058	0.889761
818.143821	0.886729
818.462539	0.881502
818.781213	0.873047
819.099843	0.862792
819.418429	0.847426
819.736970	0.829581
820.055466	0.810774
820.373919	0.784851
820.692327	0.753410
821.010691	0.718613
821.329011	0.642031
821.647286	0.527999
821.965517	0.414166
822.283704	0.371803
822.601847	0.373261
822.919945	0.408856
823.237999	0.442171
823.556010	0.488434
823.873976	0.544058
824.191897	0.594280
824.509775	0.636479
824.827609	0.681280
825.145398	0.703456
825.463144	0.705733
825.780845	0.689798
826.098502	0.671078
826.416116	0.625562
826.733685	0.582088
827.051210	0.573625
827.368692	0.587808
827.686129	0.625107
828.003522	0.677314
828.320872	0.724801
828.638177	0.767448
828.955439	0.801152
829.272656	0.823471
829.589830	0.839509
829.906960	0.855421
830.224046	0.867295
830.541088	0.876905
830.858086	0.881663
831.175041	0.888322
831.491952	0.888114
831.808819	0.883578
832.125642	0.876529
832.442421	0.862683
832.759157	0.839994
833.075849	0.795186
833.392497	0.732178
833.709101	0.690816
834.025662	0.701495
834.342179	0.732034
834.658653	0.771352
834.975083	0.806753
835.291469	0.833015
835.607811	0.854131
835.924110	0.871302
836.240366	0.887363
836.556578	0.901528
836.872746	0.909156
837.188871	0.915121
837.504952	0.921068
837.820990	0.924276
838.136984	0.926893
838.452935	0.930301
838.768842	0.931290
839.084706	0.924825
839.400526	0.899306
839.716303	0.860434
840.032037	0.837590
840.347727	0.839923
840.663373	0.858642
840.978977	0.879072
841.294537	0.902041
841.610054	0.918726
841.925527	0.926455
842.240957	0.932816
842.556344	0.939810
842.871687	0.946266
843.186987	0.950083
843.502244	0.951280
843.817458	0.952715
844.132629	0.954820
844.447756	0.960076
844.762840	0.961104
845.077881	0.959120
845.392879	0.959018
845.707833	0.963069
846.022745	0.964415
846.337613	0.964647
846.652438	0.965696
846.967221	0.964716
847.281960	0.965139
847.596656	0.967197
847.911309	0.965942
848.225919	0.967667
848.540485	0.967559
848.855009	0.967908
849.169490	0.968536
849.483928	0.969166
849.798323	0.967894
850.112675	0.970879
850.426984	0.969013
850.741251	0.969860
851.055474	0.969884
851.369654	0.967428
851.683792	0.969297
851.997887	0.969867
852.311938	0.970878
852.625947	0.969424
852.939914	0.967676
853.253837	0.968287
853.567718	0.971399
853.881555	0.970277
854.195350	0.968311
854.509103	0.970544
854.822812	0.969589
855.136479	0.970704
855.450103	0.969863
855.763685	0.968652
856.077224	0.968731
856.390720	0.970674
856.704173	0.971243
857.017584	0.968916
857.330953	0.966843
857.644278	0.967774
857.957561	0.967816
858.270802	0.969047
858.584000	0.968898
858.897155	0.966897
859.210268	0.967282
859.523339	0.968625
859.836367	0.970473
860.149352	0.971529
860.462295	0.969087
860.775195	0.970286
861.088054	0.968833
861.400869	0.969299
861.713642	0.970483
862.026373	0.971119
862.339062	0.971422
862.651708	0.968922
862.964312	0.967077
863.276873	0.968881
863.589392	0.968218
863.901869	0.966863
864.214303	0.965208
864.526696	0.964579
864.839045	0.963898
865.151353	0.961997
865.463619	0.962163
865.775842	0.962356
866.088023	0.962063
866.400162	0.961369
866.712258	0.962255
867.024313	0.963204
867.336325	0.963326
867.648296	0.963164
867.960224	0.962004
868.272110	0.961668
868.583954	0.963320
868.895755	0.963763
869.207515	0.961199
869.519233	0.960017
869.830909	0.961224
870.142542	0.962840
870.454134	0.962210
870.765684	0.960067
871.077191	0.958636
871.388657	0.959152
871.700081	0.958277
872.011463	0.958389
872.322803	0.957579
872.634101	0.957565
872.945357	0.954956
873.256571	0.954619
873.567744	0.952683
873.878874	0.953217
874.189963	0.952659
874.501010	0.951089
874.812015	0.949300
875.122979	0.951678
875.433900	0.953228
875.744780	0.953775
876.055618	0.951149
876.366415	0.949842
876.677169	0.950087
876.987882	0.951994
877.298554	0.952413
877.609183	0.947896
877.919771	0.944594
878.230317	0.943242
878.540822	0.941000
878.851285	0.935449
879.161707	0.928520
879.472087	0.916576
879.782425	0.899945
880.092722	0.866145
880.402977	0.814784
880.713191	0.755040
881.023363	0.697435
881.333494	0.664430
881.643583	0.636186
881.953631	0.635220
882.263637	0.663944
882.573602	0.703418
882.883526	0.728276
883.193408	0.752141
883.503248	0.773677
883.813048	0.800082
884.122806	0.829975
884.432522	0.853756
884.742197	0.871510
885.051831	0.883705
885.361424	0.892249
885.670975	0.905301
885.980485	0.914983
886.289954	0.919833
886.599382	0.925468
886.908768	0.928708
887.218113	0.935659
887.527417	0.939849
887.836680	0.942468
888.145901	0.943483
888.455082	0.945769
888.764221	0.950640
889.073319	0.953124
889.382376	0.952837
889.691392	0.954795
890.000366	0.952389
890.309300	0.954678
890.618193	0.953727
890.927044	0.951822
891.235855	0.953019
891.544625	0.952797
891.853353	0.952425
892.162041	0.949957
892.470687	0.943641
892.779293	0.938537
893.087858	0.935401
893.396381	0.926740
893.704864	0.914402
894.013306	0.891403
894.321707	0.863583
894.630068	0.849966
894.938387	0.846500
895.246665	0.847787
895.554903	0.859726
895.863100	0.872075
896.171256	0.889147
896.479371	0.908293
896.787446	0.921467
897.095480	0.926199
897.403473	0.928942
897.711425	0.933836
898.019336	0.941711
898.327207	0.943054
898.635038	0.946465
898.942827	0.944863
899.250576	0.948216
899.558284	0.952361
899.865952	0.955548
900.173579	0.956346
900.481165	0.956127
900.788711	0.960024
901.096216	0.961348
901.403681	0.961885
901.711105	0.963087
902.018489	0.963053
902.325832	0.963298
902.633135	0.961755
902.940397	0.955851
903.247619	0.943929
903.554800	0.918716
903.861941	0.881286
904.169041	0.846319
904.476101	0.828495
904.783121	0.830254
905.090100	0.846464
905.397039	0.866200
905.703938	0.887474
906.010796	0.907501
906.317614	0.922870
906.624391	0.935158
906.931129	0.945218
907.237826	0.952377
907.544483	0.959569
907.851099	0.963514
908.157675	0.968188
908.464211	0.970195
908.770707	0.972831
909.077163	0.974291
909.383578	0.975132
909.689954	0.974521
909.996289	0.976112
910.302584	0.978273
910.608839	0.979599
910.915054	0.979077
911.221229	0.977179
911.527363	0.977430
911.833458	0.976710
912.139513	0.977015
912.445527	0.975395
912.751502	0.974379
913.057436	0.972487
913.363331	0.970624
913.669186	0.966853
913.975000	0.962144
914.280775	0.956223
914.586510	0.949444
914.892205	0.936625
915.197859	0.915841
915.503475	0.888302
915.809050	0.869732
916.114585	0.864902
916.420081	0.861860
916.725536	0.858899
917.030952	0.867446
917.336328	0.880281
917.641665	0.894044
917.946961	0.909449
918.252218	0.921199
918.557435	0.928807
918.862612	0.937501
919.167750	0.943094
919.472848	0.949002
919.777906	0.953840
920.082925	0.957849
920.387904	0.962413
920.692843	0.963054
920.997743	0.964423
921.302603	0.968390
921.607423	0.969795
921.912204	0.971999
922.216946	0.973020
922.521647	0.974299
922.826310	0.975542
923.130932	0.976824
923.435516	0.978330
923.740059	0.979669
924.044564	0.978791
924.349028	0.980378
924.653454	0.982451
924.957840	0.984105
925.262186	0.984644
925.566493	0.982190
925.870761	0.984746
926.174989	0.986169
926.479178	0.987755
926.783328	0.988152
927.087438	0.988486
927.391509	0.987249
927.695541	0.989216
927.999533	0.988159
928.303486	0.989111
928.607400	0.991420
928.911275	0.989584
929.215110	0.989717
929.518906	0.990965
929.822663	0.989096
930.126381	0.990303
930.430060	0.990319
930.733699	0.989336
931.037299	0.989163
931.340861	0.990237
931.644383	0.990379
931.947866	0.989345
932.251309	0.989080
932.554714	0.989548
932.858080	0.990228
933.161407	0.989791
933.464694	0.990962
933.767943	0.989442
934.071153	0.990894
934.374323	0.991303
934.677455	0.990385
934.980548	0.991848
935.283602	0.990192
935.586617	0.991420
935.889593	0.990640
936.192530	0.990236
936.495428	0.991203
936.798287	0.990788
937.101108	0.990543
937.403890	0.988995
937.706632	0.989252
938.009336	0.986200
938.312002	0.986241
938.614628	0.983749
938.917216	0.983790
939.219765	0.980647
939.522275	0.983958
939.824747	0.982998
940.127179	0.983292
940.429573	0.984082
940.731929	0.984059
941.034246	0.984365
941.336524	0.986165
941.638763	0.986006
941.940964	0.986770
942.243126	0.986197
942.545250	0.987355
942.847335	0.988390
943.149381	0.987773
943.451389	0.988865
943.753359	0.988539
944.055290	0.990382
944.357182	0.989338
944.659036	0.987819
944.960851	0.988805
945.262628	0.989425
945.564367	0.990596
945.866067	0.990251
946.167729	0.989605
946.469352	0.990219
946.770937	0.989191
947.072484	0.990730
947.373992	0.990487
947.675462	0.990481
947.976893	0.990106
948.278286	0.989036
948.579641	0.990747
948.880958	0.990354
949.182236	0.991571
949.483476	0.991129
949.784678	0.989562
950.085841	0.990867
950.386967	0.989489
950.688054	0.990476
950.989103	0.990084
951.290114	0.988612
951.591087	0.989646
951.892021	0.988904
952.192917	0.988409
952.493776	0.987487
952.794596	0.987293
953.095378	0.987684
953.396122	0.987929
953.696828	0.986996
953.997496	0.989830
954.298126	0.990392
954.598718	0.990560
954.899272	0.990766
955.199788	0.990489
955.500266	0.991279
955.800706	0.994401
956.101108	0.992579
956.401472	0.993035
956.701798	0.993799
957.002087	0.992961
957.302337	0.992830
957.602550	0.994728
957.902724	0.994298
958.202861	0.995102
958.502960	0.995249
958.803022	0.993309
959.103045	0.996422
959.403031	0.995142
959.702979	0.994327
960.002889	0.995391
960.302762	0.994465
960.602596	0.996533
960.902393	0.994210
961.202153	0.996388
961.501875	0.995891
961.801559	0.995276
962.101205	0.995475
962.400814	0.996199
962.700385	0.997198
962.999918	0.994536
963.299414	0.995886
963.598873	0.994811
963.898293	0.996587
964.197677	0.995806
964.497022	0.996059
964.796331	0.997264
965.095601	0.996095
965.394835	0.996355
965.694030	0.997106
965.993189	0.996493
966.292309	0.996556
966.591393	0.997680
966.890439	0.996299
967.189447	0.996488
967.488419	0.997362
967.787353	0.996469
968.086249	0.994919
968.385108	0.997395
968.683930	0.996776
968.982714	0.996727
969.281462	0.996736
969.580172	0.995254
969.878844	0.997658
970.177480	0.996385
970.476078	0.996612
970.774639	0.996450
971.073162	0.997695
971.371649	0.995685
971.670098	0.996082
971.968510	0.995826
972.266885	0.995642
972.565223	0.995996
972.863524	0.996028
973.161788	0.996186
973.460014	0.996515
973.758204	0.995446
974.056356	0.995983
974.354471	0.994903
974.652550	0.995605
974.950591	0.995590
975.248595	0.995856
975.546563	0.995677
975.844493	0.998655
976.142386	0.995663
976.440243	0.996677
976.738062	0.997148
977.035845	0.997421
977.333590	0.996594
977.631299	0.997462
977.928971	0.997058
978.226606	0.996623
978.524204	0.996640
978.821765	0.997190
979.119290	0.997042
979.416777	0.996892
979.714228	0.995951
980.011642	0.995482
980.309020	0.996502
980.606360	0.996494
980.903664	0.997705
981.200931	0.995938
981.498162	0.994431
981.795356	0.994464
982.092513	0.992397
982.389633	0.994354
982.686717	0.991056
982.983764	0.990716
983.280775	0.989613
983.577749	0.990159
983.874686	0.990840
984.171587	0.991958
984.468451	0.994534
984.765279	0.995002
985.062070	0.994845
985.358824	0.995487
985.655543	0.994388
985.952224	0.995907
986.248869	0.995852
986.545478	0.996407
986.842050	0.997981
987.138586	0.994857
987.435086	0.996898
987.731549	0.997241
988.027975	0.997744
988.324366	0.998254
988.620719	0.996480
988.917037	0.996426
989.213318	0.998017
989.509563	0.998090
989.805772	0.998337
990.101944	0.996929
990.398080	0.997385
990.694180	0.997964
990.990244	0.996702
991.286271	0.997273
991.582262	0.997073
991.878217	0.998040
992.174136	0.998662
992.470019	0.998029
992.765865	0.998442
993.061676	0.997817
993.357450	0.997718
993.653188	0.996983
993.948890	0.996827
994.244556	0.997591
994.540186	0.997081
994.835780	0.995472
995.131337	0.997475
995.426859	0.995846
995.722345	0.997117
996.017795	0.996244
996.313208	0.994765
996.608586	0.995810
996.903928	0.996702
997.199234	0.995203
997.494504	0.996186
997.789738	0.995840
998.084936	0.996088
998.380099	0.998003
998.675225	0.997421
998.970316	0.997488
999.265371	0.997570
999.560390	0.996677
999.855373	0.997989
1000.150320	0.997168
1000.445232	0.998378
1000.740108	0.997493
1001.034948	0.997227
1001.329752	0.999022
1001.624521	0.998678
1001.919254	0.998215
1002.213951	0.997113
1002.508613	0.997351
1002.803239	0.998848
1003.097829	0.998232
1003.392384	0.998803
1003.686903	0.998125
1003.981386	0.997853
1004.275834	0.999005
1004.570246	0.997535
1004.864623	0.998911
1005.158964	0.999351
1005.453270	0.998412
1005.747540	0.997295
1006.041775	0.998397
1006.335974	0.998909
1006.630138	0.998708
1006.924266	1.000399
1007.218359	1.000366
1007.512416	0.999306
1007.806438	0.997380
1008.100425	0.997865
1008.394376	0.998588
1008.688292	0.998096
1008.982172	0.999801
1009.276017	0.998133
1009.569827	0.998673
1009.863602	0.998760
1010.157341	0.999245
1010.451045	0.998377
1010.744714	0.997692
1011.038347	0.997848
1011.331945	0.997566
1011.625508	0.997343
1011.919036	0.997650
1012.212528	0.999155
1012.505986	0.996974
1012.799408	0.998341
1013.092795	0.997985
1013.386147	0.999217
1013.679464	0.998344
1013.972745	0.996964
1014.265992	0.995655
1014.559204	0.997746
1014.852380	0.998085
1015.145521	0.999004
1015.438628	0.997705
1015.731699	0.998275
1016.024736	0.999065
1016.317737	0.999231
1016.610703	0.998446
1016.903635	0.998737
1017.196531	0.998459
1017.489393	0.998594
1017.782219	0.998126
1018.075011	0.997380
1018.367768	0.998557
1018.660490	0.999035
1018.953177	0.999035
1019.245829	0.999035
