Dividing Wavelength (nm)	Counts (n)	Blue Motor Position (mm): 0.000000	Red Motor Position (mm): 18.200000	
326.493990	1.000814
326.888308	1.000814
327.282561	1.000814
327.676750	1.000194
328.070874	1.000360
328.464933	1.001054
328.858929	1.000745
329.252859	1.000997
329.646726	0.999504
330.040528	1.001186
330.434265	1.000249
330.827938	1.001648
331.221547	1.001221
331.615091	1.000336
332.008571	1.000861
332.401986	1.000266
332.795338	1.000258
333.188625	0.999117
333.581847	1.000351
333.975006	1.000772
334.368100	1.000288
334.761129	0.999345
335.154095	1.001386
335.546996	0.997855
335.939833	0.993153
336.332606	0.994084
336.725315	0.995034
337.117960	0.995736
337.510540	0.993511
337.903056	0.995228
338.295508	0.992940
338.687896	0.994427
339.080220	0.996316
339.472480	0.993971
339.864676	0.995220
340.256807	0.994877
340.648875	0.995278
341.040879	0.995091
341.432818	0.994674
341.824694	0.994574
342.216506	0.995939
342.608253	0.995331
342.999937	0.994092
343.391557	0.994738
343.783113	0.994195
344.174605	0.994961
344.566033	0.995180
344.957397	0.993507
345.348697	0.994574
345.739934	0.994790
346.131106	0.994497
346.522215	0.993416
346.913260	0.993116
347.304241	0.994309
347.695159	0.994083
348.086012	0.992037
348.476802	0.993787
348.867528	0.994246
349.258191	0.994145
349.648789	0.994694
350.039324	0.994248
350.429796	0.995272
350.820203	0.995310
351.210548	0.994119
351.600828	0.993246
351.991045	0.995506
352.381198	0.993414
352.771288	0.994916
353.161314	0.993844
353.551276	0.995280
353.941175	0.995219
354.331010	0.994293
354.720782	0.994301
355.110490	0.993989
355.500135	0.995353
355.889717	0.993924
356.279235	0.993581
356.668689	0.993469
357.058080	0.993540
357.447408	0.994799
357.836672	0.995311
358.225873	0.995711
358.615010	0.994781
359.004084	0.996238
359.393095	0.994355
359.782043	0.993681
360.170927	0.996339
360.559748	0.995377
360.948505	0.993762
361.337199	0.994537
361.725830	0.993549
362.114398	0.994912
362.502903	0.995073
362.891344	0.995522
363.279722	0.993577
363.668037	0.994205
364.056289	0.995064
364.444478	0.995819
364.832603	0.995961
365.220665	0.994247
365.608665	0.993560
365.996601	0.994613
366.384474	0.995128
366.772284	0.994905
367.160031	0.992090
367.547715	0.993151
367.935336	0.994718
368.322893	0.994754
368.710388	0.992927
369.097820	0.994531
369.485189	0.994600
369.872495	0.993858
370.259738	0.992710
370.646918	0.994643
371.034035	0.995385
371.421090	0.994045
371.808081	0.993170
372.195010	0.995128
372.581875	0.994905
372.968678	0.993561
373.355418	0.994858
373.742096	0.993345
374.128710	0.995933
374.515262	0.994145
374.901751	0.995359
375.288177	0.995193
375.674540	0.995357
376.060841	0.995105
376.447079	0.994355
376.833254	0.993500
377.219367	0.994942
377.605417	0.994815
377.991404	0.995438
378.377329	0.994482
378.763191	0.994559
379.148991	0.996991
379.534727	0.994634
379.920402	0.995989
380.306013	0.994804
380.691563	0.995972
381.077049	0.994112
381.462474	0.995478
381.847835	0.995907
382.233134	0.995401
382.618371	0.994870
383.003545	0.995192
383.388657	0.994693
383.773706	0.995929
384.158693	0.996090
384.543618	0.994826
384.928480	0.996323
385.313280	0.995153
385.698017	0.995323
386.082692	0.995685
386.467305	0.995927
386.851856	0.995599
387.236344	0.995018
387.620770	0.995127
388.005133	0.995382
388.389435	0.996840
388.773674	0.995172
389.157851	0.996081
389.541965	0.995599
389.926018	0.994248
390.310008	0.996126
390.693936	0.995273
391.077802	0.994687
391.461606	0.995542
391.845348	0.995382
392.229027	0.995520
392.612645	0.995522
392.996200	0.996287
393.379694	0.995430
393.763125	0.996288
394.146494	0.996818
394.529801	0.995016
394.913047	0.996097
395.296230	0.995383
395.679351	0.995825
396.062410	0.995359
396.445408	0.995630
396.828343	0.996116
397.211217	0.994738
397.594028	0.994997
397.976778	0.994477
398.359466	0.994190
398.742092	0.994770
399.124656	0.995156
399.507158	0.994785
399.889598	0.994240
400.271977	0.994785
400.654294	0.995188
401.036549	0.995810
401.418742	0.995067
401.800874	0.994207
402.182944	0.994350
402.564952	0.994096
402.946898	0.994801
403.328783	0.993110
403.710606	0.992315
404.092367	0.991891
404.474067	0.990376
404.855705	0.989444
405.237282	0.988251
405.618797	0.986490
406.000250	0.984898
406.381642	0.983528
406.762972	0.981756
407.144240	0.980373
407.525447	0.977405
407.906593	0.974901
408.287677	0.971947
408.668700	0.969553
409.049661	0.965234
409.430560	0.962218
409.811399	0.958150
410.192176	0.953240
410.572891	0.949350
410.953545	0.943660
411.334138	0.940661
411.714669	0.935461
412.095139	0.931916
412.475547	0.924982
412.855894	0.919432
413.236180	0.914124
413.616405	0.909447
413.996568	0.901843
414.376670	0.896360
414.756711	0.890883
415.136691	0.883845
415.516609	0.874581
415.896466	0.866516
416.276262	0.857963
416.655997	0.852299
417.035670	0.837385
417.415283	0.827642
417.794834	0.821091
418.174324	0.815725
418.553753	0.810659
418.933121	0.794433
419.312428	0.783604
419.691674	0.776006
420.070859	0.762053
420.449983	0.758018
420.829045	0.743679
421.208047	0.739732
421.586988	0.726765
421.965867	0.716805
422.344686	0.701408
422.723444	0.700530
423.102141	0.700837
423.480777	0.676151
423.859352	0.680704
424.237866	0.656618
424.616319	0.649844
424.994712	0.635782
425.373044	0.633916
425.751314	0.617361
426.129524	0.621055
426.507673	0.600948
426.885762	0.589303
427.263789	0.585280
427.641756	0.585956
428.019662	0.571254
428.397508	0.563536
428.775292	0.559773
429.153016	0.547116
429.530679	0.546515
429.908282	0.534880
430.285824	0.538262
430.663305	0.513937
431.040726	0.526960
431.418086	0.522702
431.795385	0.510341
432.172624	0.504309
432.549802	0.501097
432.926920	0.496144
433.303977	0.491210
433.680974	0.485312
434.057910	0.480474
434.434786	0.477027
434.811601	0.476315
435.188355	0.456429
435.565050	0.462768
435.941683	0.462201
436.318257	0.444619
436.694770	0.443319
437.071222	0.439252
437.447614	0.442027
437.823946	0.446610
438.200218	0.434672
438.576429	0.442919
438.952580	0.434607
439.328670	0.430389
439.704700	0.435845
440.080670	0.435914
440.456580	0.416804
440.832429	0.423681
441.208218	0.433733
441.583947	0.422781
441.959616	0.421817
442.335224	0.426231
442.710773	0.416844
443.086261	0.414021
443.461689	0.427857
443.837057	0.417456
444.212365	0.407296
444.587612	0.414334
444.962800	0.403890
445.337927	0.404967
445.712995	0.431562
446.088002	0.393312
446.462949	0.403696
446.837837	0.407565
447.212664	0.397347
447.587431	0.388504
447.962139	0.358907
448.336786	0.318441
448.711374	0.328848
449.085901	0.371923
449.460369	0.376286
449.834776	0.380181
450.209124	0.359293
450.583412	0.351956
450.957640	0.344871
451.331808	0.355936
451.705917	0.379107
452.079965	0.383655
452.453954	0.372041
452.827883	0.378737
453.201752	0.373695
453.575562	0.384960
453.949311	0.373990
454.323001	0.379657
454.696632	0.375298
455.070202	0.368319
455.443713	0.360028
455.817164	0.354945
456.190556	0.350808
456.563888	0.347567
456.937160	0.345133
457.310373	0.362355
457.683526	0.361065
458.056619	0.366465
458.429653	0.367309
458.802628	0.370234
459.175542	0.364846
459.548398	0.347626
459.921194	0.340077
460.293930	0.340377
460.666607	0.317690
461.039224	0.305944
461.411782	0.301866
461.784280	0.301364
462.156719	0.305303
462.529099	0.309790
462.901419	0.325139
463.273680	0.330157
463.645882	0.329836
464.018024	0.335169
464.390106	0.328012
464.762130	0.313338
465.134094	0.296137
465.505999	0.265499
465.877845	0.235936
466.249631	0.223010
466.621358	0.230549
466.993026	0.244332
467.364634	0.250494
467.736184	0.259327
468.107674	0.267762
468.479105	0.267126
468.850477	0.273688
469.221790	0.280404
469.593043	0.291057
469.964238	0.295648
470.335373	0.294954
470.706449	0.293066
471.077467	0.294038
471.448425	0.256140
471.819324	0.231653
472.190164	0.231107
472.560945	0.259767
472.931667	0.281941
473.302330	0.286506
473.672934	0.298053
474.043479	0.286155
474.413965	0.287822
474.784393	0.291519
475.154761	0.286658
475.525070	0.283611
475.895321	0.289565
476.265513	0.283807
476.635645	0.279082
477.005719	0.278991
477.375734	0.275621
477.745691	0.269077
478.115588	0.265215
478.485427	0.259030
478.855207	0.245904
479.224928	0.228359
479.594591	0.216557
479.964194	0.220024
480.333739	0.221361
480.703226	0.222756
481.072653	0.221307
481.442022	0.217026
481.811333	0.213330
482.180584	0.216947
482.549777	0.222258
482.918912	0.225630
483.287988	0.225098
483.657005	0.224818
484.025964	0.231563
484.394864	0.228839
484.763706	0.228869
485.132489	0.233936
485.501213	0.234738
485.869879	0.233232
486.238487	0.236311
486.607036	0.234460
486.975527	0.238991
487.343959	0.234788
487.712333	0.233761
488.080648	0.235153
488.448905	0.234547
488.817104	0.235610
489.185244	0.230005
489.553326	0.227176
489.921350	0.216867
490.289315	0.199477
490.657222	0.194535
491.025070	0.195578
491.392861	0.197403
491.760593	0.203112
492.128267	0.208849
492.495883	0.214439
492.863440	0.220339
493.230939	0.226976
493.598380	0.228285
493.965763	0.230267
494.333088	0.232589
494.700354	0.234173
495.067563	0.233362
495.434713	0.236484
495.801805	0.234461
496.168839	0.235762
496.535815	0.237133
496.902733	0.237074
497.269593	0.238602
497.636395	0.236251
498.003139	0.236894
498.369825	0.239728
498.736453	0.236360
499.103023	0.237367
499.469535	0.237097
499.835989	0.237199
500.202385	0.238192
500.568723	0.241422
500.935003	0.236702
501.301226	0.240754
501.667390	0.235298
502.033497	0.233542
502.399546	0.236519
502.765537	0.238099
503.131470	0.236700
503.497345	0.233098
503.863163	0.241590
504.228923	0.234729
504.594625	0.233497
504.960269	0.238731
505.325856	0.234010
505.691385	0.238078
506.056856	0.235284
506.422270	0.234694
506.787625	0.237024
507.152924	0.234257
507.518164	0.234937
507.883347	0.236512
508.248472	0.238511
508.613540	0.233410
508.978550	0.235867
509.343503	0.236172
509.708398	0.233990
510.073236	0.231648
510.438016	0.231666
510.802738	0.232450
511.167403	0.231408
511.532010	0.233332
511.896561	0.228824
512.261053	0.227692
512.625488	0.229519
512.989866	0.230000
513.354186	0.230559
513.718449	0.232020
514.082655	0.228562
514.446803	0.230685
514.810894	0.228279
515.174927	0.231330
515.538904	0.230464
515.902822	0.227401
516.266684	0.229727
516.630488	0.231020
516.994235	0.229454
517.357925	0.228599
517.721558	0.226859
518.085133	0.226195
518.448651	0.226438
518.812112	0.228710
519.175516	0.228175
519.538863	0.225840
519.902152	0.227456
520.265385	0.224427
520.628560	0.226114
520.991678	0.226404
521.354739	0.225514
521.717743	0.226862
522.080690	0.227144
522.443580	0.224573
522.806413	0.225484
523.169189	0.224756
523.531908	0.223502
523.894569	0.227224
524.257174	0.227293
524.619722	0.224829
524.982213	0.225757
525.344647	0.224736
525.707025	0.225646
526.069345	0.223690
526.431608	0.225607
526.793815	0.223564
527.155964	0.227445
527.518057	0.226492
527.880093	0.227979
528.242072	0.226146
528.603995	0.228001
528.965860	0.229685
529.327669	0.228469
529.689421	0.229455
530.051117	0.230285
530.412755	0.228004
530.774337	0.230235
531.135862	0.230556
531.497331	0.229741
531.858743	0.232910
532.220098	0.229696
532.581396	0.232140
532.942638	0.232769
533.303824	0.233417
533.664953	0.233517
534.026025	0.234988
534.387040	0.233010
534.747999	0.232953
535.108902	0.231985
535.469748	0.236811
535.830537	0.234545
536.191270	0.235058
536.551947	0.234479
536.912567	0.234576
537.273131	0.236297
537.633638	0.236507
537.994089	0.236949
538.354483	0.237596
538.714821	0.234909
539.075103	0.234771
539.435328	0.235532
539.795497	0.239279
540.155609	0.235914
540.515665	0.233905
540.875665	0.239437
541.235609	0.237807
541.595496	0.238205
541.955328	0.234773
542.315102	0.237610
542.674821	0.238526
543.034483	0.238318
543.394090	0.238105
543.753640	0.239947
544.113134	0.234867
544.472571	0.238441
544.831953	0.235217
545.191278	0.239514
545.550548	0.238707
545.909761	0.235684
546.268918	0.236063
546.628019	0.234593
546.987064	0.237371
547.346053	0.239071
547.704986	0.236823
548.063863	0.237455
548.422684	0.237301
548.781449	0.239384
549.140158	0.236969
549.498811	0.239826
549.857408	0.242881
550.215949	0.237780
550.574434	0.240711
550.932864	0.238592
551.291237	0.237261
551.649555	0.238759
552.007817	0.238452
552.366022	0.239477
552.724173	0.239686
553.082267	0.239949
553.440305	0.236839
553.798288	0.241221
554.156215	0.237726
554.514086	0.238303
554.871902	0.241573
555.229661	0.240771
555.587365	0.241405
555.945014	0.243779
556.302606	0.240971
556.660143	0.243317
557.017625	0.239899
557.375050	0.241783
557.732421	0.239206
558.089735	0.241180
558.446994	0.241195
558.804197	0.240286
559.161345	0.240235
559.518437	0.244094
559.875474	0.241471
560.232455	0.240902
560.589381	0.242005
560.946251	0.241923
561.303065	0.239825
561.659825	0.241498
562.016528	0.242830
562.373177	0.245597
562.729770	0.242794
563.086307	0.245023
563.442789	0.242617
563.799216	0.245690
564.155587	0.244269
564.511904	0.245434
564.868164	0.245505
565.224370	0.245181
565.580520	0.246962
565.936615	0.246922
566.292654	0.249916
566.648638	0.246874
567.004567	0.248069
567.360441	0.248441
567.716260	0.250435
568.072023	0.248343
568.427732	0.248845
568.783385	0.251204
569.138982	0.249551
569.494525	0.249186
569.850013	0.252029
570.205445	0.250395
570.560823	0.252996
570.916145	0.254743
571.271412	0.253004
571.626625	0.254687
571.981782	0.254803
572.336884	0.255895
572.691931	0.255584
573.046923	0.256982
573.401860	0.258240
573.756743	0.259977
574.111570	0.258566
574.466342	0.259492
574.821059	0.258358
575.175722	0.260925
575.530330	0.260775
575.884882	0.261063
576.239380	0.263109
576.593823	0.263757
576.948211	0.263131
577.302544	0.266482
577.656823	0.266148
578.011047	0.266004
578.365216	0.266836
578.719330	0.268507
579.073389	0.268654
579.427394	0.269911
579.781344	0.270840
580.135239	0.272112
580.489080	0.271600
580.842866	0.274812
581.196597	0.274446
581.550273	0.273201
581.903895	0.274156
582.257463	0.272581
582.610975	0.275783
582.964434	0.275057
583.317837	0.277498
583.671186	0.277801
584.024481	0.277822
584.377721	0.280469
584.730906	0.281148
585.084037	0.280203
585.437113	0.281999
585.790135	0.281754
586.143103	0.284883
586.496016	0.285650
586.848874	0.283486
587.201679	0.283833
587.554428	0.287067
587.907124	0.286002
588.259765	0.286498
588.612352	0.286801
588.964884	0.290826
589.317362	0.290285
589.669786	0.290368
590.022155	0.289010
590.374470	0.288103
590.726731	0.290775
591.078937	0.295064
591.431090	0.291420
591.783188	0.295583
592.135232	0.296354
592.487222	0.296267
592.839157	0.294169
593.191038	0.296743
593.542866	0.298142
593.894639	0.301784
594.246358	0.299832
594.598022	0.299467
594.949633	0.302777
595.301190	0.303536
595.652692	0.303079
596.004141	0.299278
596.355535	0.307229
596.706876	0.307257
597.058162	0.310215
597.409395	0.307309
597.760573	0.304932
598.111698	0.308256
598.462768	0.308548
598.813785	0.310135
599.164748	0.311202
599.515657	0.311709
599.866511	0.314754
600.217312	0.310107
600.568060	0.315740
600.918753	0.312078
601.269392	0.312897
601.619978	0.316047
601.970510	0.313690
602.320988	0.314114
602.671412	0.311335
603.021783	0.313791
603.372100	0.315691
603.722363	0.315275
604.072572	0.315679
604.422728	0.315768
604.772830	0.317729
605.122878	0.317460
605.472872	0.318116
605.822813	0.316408
606.172701	0.319039
606.522534	0.316218
606.872314	0.316471
607.222041	0.317431
607.571714	0.315659
607.921333	0.317059
608.270899	0.316671
608.620411	0.313180
608.969870	0.317252
609.319276	0.317502
609.668627	0.317245
610.017926	0.315636
610.367171	0.314546
610.716362	0.314716
611.065500	0.315543
611.414585	0.313874
611.763616	0.314499
612.112594	0.315081
612.461518	0.314575
612.810389	0.312164
613.159207	0.314425
613.507971	0.316205
613.856682	0.312125
614.205340	0.313581
614.553945	0.310627
614.902496	0.314267
615.250994	0.312165
615.599439	0.313107
615.947830	0.312532
616.296169	0.313671
616.644454	0.312812
616.992686	0.313339
617.340864	0.310738
617.688990	0.314151
618.037063	0.311241
618.385082	0.312990
618.733048	0.309727
619.080961	0.312414
619.428821	0.311356
619.776628	0.310928
620.124382	0.312939
620.472083	0.313181
620.819731	0.312832
621.167326	0.316601
621.514868	0.316464
621.862357	0.320585
622.209793	0.320355
622.557176	0.322421
622.904506	0.323700
623.251783	0.325675
623.599007	0.328202
623.946179	0.328031
624.293297	0.329592
624.640363	0.333751
624.987376	0.334152
625.334336	0.336441
625.681243	0.338897
626.028097	0.339205
626.374899	0.340880
626.721647	0.340808
627.068343	0.343848
627.414987	0.345040
627.761577	0.347038
628.108115	0.345329
628.454600	0.350860
628.801032	0.347816
629.147412	0.349952
629.493739	0.350259
629.840014	0.353765
630.186236	0.350626
630.532405	0.356280
630.878521	0.353602
631.224585	0.356463
631.570597	0.359943
631.916556	0.358062
632.262462	0.358430
632.608316	0.360540
632.954117	0.361404
633.299866	0.361674
633.645562	0.362317
633.991206	0.366933
634.336797	0.369907
634.682336	0.372128
635.027823	0.373646
635.373257	0.374170
635.718639	0.377699
636.063968	0.376638
636.409245	0.383111
636.754470	0.383135
637.099642	0.385627
637.444762	0.389004
637.789829	0.388374
638.134845	0.391415
638.479808	0.392868
638.824719	0.392288
639.169577	0.395980
639.514383	0.395077
639.859137	0.399329
640.203839	0.399380
640.548489	0.399839
640.893086	0.400494
641.237632	0.402457
641.582125	0.401537
641.926566	0.402794
642.270955	0.403304
642.615292	0.402808
642.959576	0.402375
643.303809	0.402795
643.647990	0.402416
643.992118	0.403041
644.336195	0.406839
644.680219	0.404777
645.024192	0.405462
645.368112	0.399566
645.711981	0.398095
646.055797	0.393644
646.399562	0.396025
646.743274	0.387984
647.086935	0.384958
647.430544	0.385632
647.774101	0.384270
648.117606	0.384193
648.461059	0.384120
648.804460	0.387010
649.147810	0.392185
649.491108	0.393746
649.834354	0.395304
650.177548	0.400996
650.520690	0.406415
650.863781	0.407079
651.206820	0.406898
651.549807	0.411587
651.892742	0.415352
652.235626	0.414856
652.578458	0.415958
652.921238	0.421731
653.263967	0.419546
653.606644	0.423777
653.949269	0.423290
654.291843	0.427241
654.634365	0.423810
654.976836	0.427339
655.319255	0.427352
655.661622	0.429191
656.003938	0.429280
656.346203	0.431917
656.688416	0.430077
657.030577	0.433316
657.372687	0.435087
657.714746	0.435643
658.056753	0.432863
658.398708	0.436738
658.740612	0.437764
659.082465	0.433868
659.424266	0.434516
659.766016	0.433992
660.107715	0.436859
660.449362	0.435765
660.790958	0.436257
661.132503	0.437125
661.473996	0.434642
661.815438	0.435027
662.156829	0.435470
662.498168	0.436214
662.839456	0.438251
663.180693	0.435247
663.521879	0.435187
663.863013	0.435561
664.204097	0.434645
664.545129	0.431595
664.886110	0.431971
665.227040	0.429431
665.567918	0.432022
665.908746	0.429651
666.249522	0.429650
666.590248	0.430579
666.930922	0.428957
667.271545	0.427597
667.612118	0.427587
667.952639	0.429591
668.293109	0.428316
668.633528	0.430948
668.973896	0.430621
669.314213	0.431288
669.654480	0.433177
669.994695	0.432673
670.334859	0.434121
670.674973	0.434009
671.015035	0.434578
671.355047	0.433486
671.695008	0.435535
672.034918	0.437092
672.374777	0.436399
672.714585	0.437304
673.054342	0.437633
673.394049	0.437586
673.733705	0.435498
674.073310	0.435923
674.412864	0.439382
674.752368	0.440031
675.091820	0.440499
675.431223	0.444795
675.770574	0.445042
676.109875	0.448131
676.449125	0.447572
676.788324	0.450038
677.127473	0.455260
677.466571	0.455412
677.805619	0.456842
678.144616	0.457809
678.483562	0.459942
678.822458	0.461512
679.161303	0.463469
679.500098	0.462985
679.838842	0.464811
680.177535	0.464650
680.516179	0.463192
680.854771	0.462821
681.193314	0.455678
681.531805	0.447053
681.870247	0.435633
682.208638	0.427570
682.546978	0.427083
682.885268	0.428523
683.223508	0.435073
683.561697	0.438678
683.899836	0.441407
684.237925	0.444383
684.575963	0.447419
684.913951	0.450353
685.251889	0.446074
685.589776	0.448329
685.927614	0.450780
686.265401	0.444812
686.603137	0.445935
686.940824	0.439728
687.278460	0.438531
687.616046	0.437484
687.953582	0.432676
688.291068	0.434078
688.628504	0.429728
688.965889	0.431715
689.303224	0.436102
689.640510	0.440075
689.977745	0.445805
690.314930	0.453790
690.652065	0.458485
690.989150	0.466176
691.326185	0.472738
691.663170	0.476253
692.000105	0.483585
692.336990	0.491029
692.673825	0.493782
693.010610	0.500492
693.347345	0.505652
693.684030	0.507147
694.020665	0.512038
694.357251	0.520508
694.693786	0.520627
695.030272	0.524463
695.366707	0.528193
695.703093	0.531543
696.039429	0.529204
696.375716	0.530945
696.711952	0.534403
697.048139	0.536206
697.384276	0.537630
697.720363	0.536419
698.056400	0.535249
698.392388	0.540875
698.728326	0.543811
699.064214	0.546163
699.400053	0.547514
699.735842	0.550086
700.071581	0.553928
700.407270	0.556404
700.742910	0.558766
701.078501	0.566053
701.414042	0.565883
701.749533	0.569154
702.084974	0.577211
702.420366	0.570068
702.755709	0.576966
703.091002	0.585634
703.426246	0.578803
703.761440	0.585051
704.096584	0.589639
704.431679	0.586469
704.766725	0.588219
705.101721	0.590767
705.436668	0.586521
705.771565	0.593363
706.106413	0.589752
706.441212	0.584873
706.775961	0.583607
707.110661	0.586745
707.445311	0.583537
707.779913	0.580441
708.114465	0.578685
708.448967	0.575545
708.783421	0.567791
709.117825	0.562039
709.452180	0.563143
709.786485	0.555745
710.120742	0.546053
710.454949	0.548005
710.789107	0.540563
711.123216	0.530969
711.457275	0.533080
711.791286	0.523795
712.125247	0.522589
712.459159	0.533431
712.793023	0.526331
713.126837	0.530859
713.460602	0.530755
713.794318	0.539558
714.127985	0.538447
714.461602	0.548457
714.795171	0.552146
715.128691	0.559555
715.462162	0.567319
715.795584	0.573240
716.128957	0.575154
716.462281	0.582289
716.795556	0.586887
717.128782	0.591257
717.461960	0.600866
717.795088	0.598589
718.128167	0.605044
718.461198	0.613719
718.794180	0.615110
719.127113	0.617192
719.459997	0.621015
719.792833	0.626735
720.125619	0.628052
720.458357	0.634002
720.791046	0.633533
721.123686	0.637395
721.456278	0.644424
721.788821	0.641771
722.121315	0.646142
722.453761	0.650025
722.786158	0.647222
723.118506	0.643856
723.450805	0.652155
723.783056	0.648185
724.115259	0.645596
724.447412	0.645185
724.779518	0.646727
725.111574	0.645207
725.443582	0.640544
725.775542	0.642642
726.107453	0.634947
726.439315	0.633900
726.771129	0.633542
727.102895	0.626273
727.434612	0.619646
727.766281	0.617443
728.097901	0.617015
728.429473	0.617181
728.760996	0.615092
729.092471	0.615138
729.423897	0.618711
729.755276	0.617612
730.086606	0.617736
730.417887	0.612732
730.749120	0.604086
731.080305	0.594019
731.411442	0.590531
731.742530	0.595103
732.073570	0.594818
732.404562	0.586416
732.735506	0.588153
733.066401	0.593595
733.397249	0.601625
733.728048	0.614003
734.058798	0.626141
734.389501	0.636415
734.720156	0.645566
735.050762	0.653916
735.381320	0.655270
735.711831	0.664750
736.042293	0.669531
736.372707	0.664449
736.703073	0.669219
737.033391	0.672592
737.363661	0.669455
737.693883	0.664157
738.024056	0.663563
738.354182	0.663541
738.684260	0.652033
739.014290	0.648964
739.344272	0.649128
739.674207	0.643003
740.004093	0.642584
740.333931	0.643710
740.663722	0.642978
740.993464	0.643534
741.323159	0.646933
741.652806	0.652513
741.982405	0.657205
742.311956	0.661515
742.641460	0.664112
742.970915	0.667607
743.300323	0.675035
743.629683	0.681723
743.958996	0.683982
744.288260	0.688699
744.617477	0.694313
744.946647	0.695620
745.275768	0.701403
745.604842	0.700989
745.933869	0.710774
746.262847	0.711552
746.591778	0.705260
746.920662	0.711193
747.249498	0.717852
747.578286	0.708294
747.907027	0.704267
748.235720	0.705858
748.564365	0.700026
748.892963	0.700664
749.221514	0.703404
749.550017	0.707813
749.878473	0.706926
750.206881	0.714510
750.535242	0.716471
750.863555	0.715364
751.191821	0.717273
751.520039	0.719539
751.848210	0.724645
752.176334	0.716793
752.504411	0.716488
752.832440	0.724914
753.160421	0.728072
753.488356	0.726464
753.816243	0.723810
754.144082	0.732089
754.471875	0.735681
754.799620	0.730047
755.127318	0.733017
755.454969	0.732124
755.782572	0.732441
756.110129	0.736287
756.437638	0.739634
756.765100	0.735224
757.092515	0.733974
757.419882	0.732277
757.747203	0.737407
758.074477	0.737837
758.401703	0.735185
758.728882	0.729064
759.056014	0.728522
759.383099	0.727645
759.710138	0.728957
760.037129	0.725708
760.364073	0.719494
760.690970	0.721660
761.017820	0.726955
761.344623	0.723455
761.671379	0.713724
761.998088	0.702331
762.324751	0.679568
762.651366	0.637445
762.977935	0.570308
763.304456	0.518424
763.630931	0.508374
763.957359	0.548289
764.283740	0.592547
764.610074	0.619802
764.936362	0.651395
765.262602	0.677118
765.588796	0.698980
765.914943	0.717495
766.241044	0.735086
766.567097	0.740827
766.893104	0.750937
767.219064	0.757427
767.544978	0.763824
767.870845	0.777187
768.196665	0.782063
768.522438	0.779771
768.848165	0.780722
769.173846	0.789612
769.499479	0.794288
769.825066	0.797449
770.150607	0.802793
770.476101	0.797534
770.801548	0.799094
771.126949	0.810378
771.452303	0.814493
771.777611	0.813079
772.102872	0.812594
772.428087	0.817520
772.753256	0.821158
773.078378	0.823172
773.403453	0.831674
773.728482	0.836702
774.053465	0.830411
774.378401	0.833593
774.703291	0.841668
775.028135	0.841990
775.352932	0.843065
775.677683	0.845867
776.002388	0.846321
776.327046	0.846106
776.651658	0.848940
776.976224	0.852969
777.300743	0.852036
777.625216	0.854784
777.949643	0.857181
778.274024	0.856475
778.598359	0.857939
778.922647	0.857546
779.246889	0.857521
779.571086	0.861292
779.895236	0.864457
780.219339	0.860764
780.543397	0.858446
780.867409	0.856294
781.191374	0.858335
781.515294	0.860169
781.839167	0.859424
782.162995	0.862748
782.486776	0.860183
782.810511	0.859650
783.134201	0.863439
783.457844	0.861566
783.781441	0.864433
784.104993	0.871913
784.428498	0.871733
784.751958	0.867281
785.075372	0.869140
785.398739	0.872295
785.722061	0.868992
786.045337	0.864177
786.368568	0.869889
786.691752	0.871704
787.014891	0.858429
787.337983	0.847573
787.661030	0.841252
787.984031	0.823557
788.306987	0.810970
788.629897	0.812856
788.952760	0.816467
789.275579	0.821343
789.598351	0.836722
789.921078	0.849961
790.243759	0.850758
790.566395	0.856951
790.888984	0.864065
791.211529	0.869200
791.534027	0.870977
791.856480	0.874229
792.178888	0.879702
792.501249	0.881242
792.823566	0.883156
793.145836	0.882583
793.468062	0.885314
793.790241	0.884787
794.112375	0.883612
794.434464	0.878072
794.756507	0.877748
795.078505	0.877319
795.400457	0.871663
795.722364	0.859991
796.044226	0.853135
796.366042	0.852637
796.687812	0.855115
797.009538	0.851602
797.331218	0.854586
797.652852	0.859581
797.974442	0.864948
798.295986	0.863518
798.617484	0.866634
798.938938	0.871033
799.260346	0.875256
799.581709	0.877382
799.903026	0.880362
800.224299	0.880939
800.545526	0.884222
800.866708	0.889237
801.187845	0.891921
801.508936	0.891481
801.829983	0.890245
802.150984	0.892535
802.471940	0.898143
802.792851	0.897703
803.113717	0.898619
803.434538	0.896348
803.755314	0.897515
804.076045	0.899348
804.396731	0.900460
804.717372	0.900138
805.037967	0.900760
805.358518	0.900190
805.679024	0.896490
805.999485	0.897617
806.319901	0.896867
806.640272	0.899083
806.960598	0.896830
807.280879	0.893634
807.601115	0.892262
807.921306	0.896438
808.241453	0.896166
808.561554	0.893724
808.881611	0.894226
809.201623	0.896470
809.521590	0.896625
809.841513	0.896820
810.161390	0.896547
810.481223	0.898371
810.801011	0.901760
811.120755	0.902854
811.440453	0.902751
811.760107	0.900493
812.079716	0.900867
812.399281	0.904116
812.718801	0.906080
813.038276	0.907335
813.357707	0.906828
813.677093	0.903477
813.996434	0.907353
814.315731	0.908981
814.634983	0.909215
814.954191	0.906823
815.273354	0.905575
815.592473	0.901490
815.911547	0.901704
816.230577	0.899371
816.549562	0.896475
816.868502	0.897450
817.187399	0.892976
817.506250	0.887911
817.825058	0.889274
818.143821	0.886681
818.462539	0.881613
818.781213	0.872450
819.099843	0.861505
819.418429	0.847003
819.736970	0.828567
820.055466	0.809161
820.373919	0.783239
820.692327	0.751481
821.010691	0.716509
821.329011	0.638434
821.647286	0.523086
821.965517	0.409594
822.283704	0.366565
822.601847	0.367992
822.919945	0.403304
823.237999	0.437216
823.556010	0.484368
823.873976	0.538875
824.191897	0.590765
824.509775	0.632777
824.827609	0.678453
825.145398	0.701049
825.463144	0.704149
825.780845	0.687116
826.098502	0.668201
826.416116	0.622247
826.733685	0.578001
827.051210	0.569546
827.368692	0.584502
827.686129	0.622804
828.003522	0.675576
828.320872	0.722320
828.638177	0.766440
828.955439	0.798611
829.272656	0.821324
829.589830	0.838710
829.906960	0.854661
830.224046	0.866594
830.541088	0.877270
830.858086	0.881134
831.175041	0.888389
831.491952	0.886614
831.808819	0.883628
832.125642	0.876703
832.442421	0.862331
832.759157	0.839861
833.075849	0.793986
833.392497	0.729632
833.709101	0.688904
834.025662	0.698839
834.342179	0.730658
834.658653	0.769324
834.975083	0.805562
835.291469	0.831191
835.607811	0.854265
835.924110	0.869499
836.240366	0.888097
836.556578	0.900664
836.872746	0.908603
837.188871	0.914325
837.504952	0.920449
837.820990	0.923668
838.136984	0.927118
838.452935	0.930315
838.768842	0.932114
839.084706	0.924726
839.400526	0.899117
839.716303	0.859364
840.032037	0.836044
840.347727	0.839727
840.663373	0.858280
840.978977	0.879763
841.294537	0.902383
841.610054	0.918094
841.925527	0.926391
842.240957	0.933255
842.556344	0.939918
842.871687	0.946203
843.186987	0.950330
843.502244	0.950037
843.817458	0.952105
844.132629	0.955081
844.447756	0.960137
844.762840	0.961185
845.077881	0.959212
845.392879	0.960548
845.707833	0.962756
846.022745	0.964930
846.337613	0.965793
846.652438	0.966992
846.967221	0.964961
847.281960	0.965838
847.596656	0.968955
847.911309	0.965539
848.225919	0.967936
848.540485	0.969286
848.855009	0.968635
849.169490	0.967773
849.483928	0.968870
849.798323	0.969944
850.112675	0.969812
850.426984	0.970809
850.741251	0.970273
851.055474	0.969874
851.369654	0.967876
851.683792	0.970078
851.997887	0.970485
852.311938	0.970666
852.625947	0.969125
852.939914	0.969269
853.253837	0.969030
853.567718	0.970887
853.881555	0.970891
854.195350	0.968233
854.509103	0.969899
854.822812	0.970470
855.136479	0.970954
855.450103	0.969846
855.763685	0.969738
856.077224	0.969026
856.390720	0.971743
856.704173	0.970589
857.017584	0.968935
857.330953	0.966899
857.644278	0.968151
857.957561	0.967909
858.270802	0.968917
858.584000	0.967585
858.897155	0.967335
859.210268	0.968435
859.523339	0.968220
859.836367	0.971023
860.149352	0.969500
860.462295	0.968904
860.775195	0.969995
861.088054	0.970300
861.400869	0.968574
861.713642	0.971072
862.026373	0.970572
862.339062	0.971184
862.651708	0.968722
862.964312	0.968634
863.276873	0.971239
863.589392	0.968911
863.901869	0.967411
864.214303	0.965907
864.526696	0.965198
864.839045	0.963522
865.151353	0.962918
865.463619	0.962502
865.775842	0.963012
866.088023	0.962980
866.400162	0.962310
866.712258	0.963283
867.024313	0.963659
867.336325	0.963407
867.648296	0.963052
867.960224	0.963157
868.272110	0.961376
868.583954	0.963438
868.895755	0.964635
869.207515	0.961727
869.519233	0.960247
869.830909	0.961422
870.142542	0.963365
870.454134	0.963324
870.765684	0.960363
871.077191	0.958752
871.388657	0.959694
871.700081	0.958277
872.011463	0.959507
872.322803	0.957888
872.634101	0.956607
872.945357	0.955289
873.256571	0.952996
873.567744	0.953604
873.878874	0.954239
874.189963	0.952993
874.501010	0.952173
874.812015	0.950227
875.122979	0.951163
875.433900	0.953239
875.744780	0.954662
876.055618	0.952714
876.366415	0.949522
876.677169	0.951293
876.987882	0.951845
877.298554	0.951655
877.609183	0.947234
877.919771	0.944792
878.230317	0.942919
878.540822	0.940864
878.851285	0.934983
879.161707	0.926636
879.472087	0.914679
879.782425	0.899047
880.092722	0.864968
880.402977	0.812814
880.713191	0.752537
881.023363	0.693078
881.333494	0.658633
881.643583	0.630561
881.953631	0.630239
882.263637	0.659267
882.573602	0.698920
882.883526	0.724192
883.193408	0.747920
883.503248	0.770551
883.813048	0.798419
884.122806	0.827023
884.432522	0.851384
884.742197	0.871091
885.051831	0.881936
885.361424	0.892538
885.670975	0.903652
885.980485	0.913434
886.289954	0.919655
886.599382	0.925220
886.908768	0.929300
887.218113	0.934716
887.527417	0.938851
887.836680	0.943989
888.145901	0.944077
888.455082	0.946410
888.764221	0.950840
889.073319	0.953261
889.382376	0.953539
889.691392	0.953979
890.000366	0.952918
890.309300	0.955028
890.618193	0.953773
890.927044	0.952319
891.235855	0.951230
891.544625	0.951227
891.853353	0.951830
892.162041	0.948977
892.470687	0.943019
892.779293	0.937379
893.087858	0.934474
893.396381	0.926245
893.704864	0.913666
894.013306	0.890113
894.321707	0.862573
894.630068	0.848880
894.938387	0.843433
895.246665	0.844097
895.554903	0.856727
895.863100	0.870805
896.171256	0.887545
896.479371	0.906547
896.787446	0.919870
897.095480	0.925045
897.403473	0.928308
897.711425	0.933577
898.019336	0.940648
898.327207	0.943787
898.635038	0.945411
898.942827	0.946471
899.250576	0.949034
899.558284	0.952847
899.865952	0.954260
900.173579	0.956222
900.481165	0.955863
900.788711	0.959713
901.096216	0.961847
901.403681	0.960946
901.711105	0.964157
902.018489	0.964379
902.325832	0.963367
902.633135	0.962241
902.940397	0.956034
903.247619	0.944374
903.554800	0.918788
903.861941	0.879309
904.169041	0.842976
904.476101	0.825567
904.783121	0.825950
905.090100	0.842631
905.397039	0.864657
905.703938	0.886149
906.010796	0.906726
906.317614	0.923961
906.624391	0.934619
906.931129	0.943512
907.237826	0.952336
907.544483	0.959940
907.851099	0.962832
908.157675	0.967515
908.464211	0.970353
908.770707	0.973646
909.077163	0.975154
909.383578	0.975076
909.689954	0.975270
909.996289	0.976616
910.302584	0.977471
910.608839	0.980189
910.915054	0.978610
911.221229	0.978989
911.527363	0.976734
911.833458	0.977398
912.139513	0.976537
912.445527	0.975625
912.751502	0.975261
913.057436	0.972230
913.363331	0.969494
913.669186	0.966693
913.975000	0.962312
914.280775	0.956048
914.586510	0.948228
914.892205	0.934947
915.197859	0.914365
915.503475	0.886845
915.809050	0.867334
916.114585	0.860979
916.420081	0.859259
916.725536	0.855384
917.030952	0.864392
917.336328	0.876423
917.641665	0.891930
917.946961	0.906884
918.252218	0.919370
918.557435	0.927200
918.862612	0.936382
919.167750	0.943430
919.472848	0.946617
919.777906	0.952294
920.082925	0.958975
920.387904	0.962589
920.692843	0.963068
920.997743	0.964479
921.302603	0.967960
921.607423	0.969958
921.912204	0.971590
922.216946	0.972771
922.521647	0.973338
922.826310	0.974840
923.130932	0.978182
923.435516	0.979018
923.740059	0.979433
924.044564	0.979893
924.349028	0.980210
924.653454	0.983988
924.957840	0.984881
925.262186	0.984782
925.566493	0.984235
925.870761	0.985584
926.174989	0.985934
926.479178	0.989256
926.783328	0.989162
927.087438	0.988714
927.391509	0.989045
927.695541	0.991477
927.999533	0.989972
928.303486	0.989983
928.607400	0.991138
928.911275	0.990374
929.215110	0.990910
929.518906	0.992032
929.822663	0.989674
930.126381	0.991285
930.430060	0.990035
930.733699	0.990856
931.037299	0.991139
931.340861	0.990746
931.644383	0.990501
931.947866	0.990710
932.251309	0.990960
932.554714	0.990611
932.858080	0.990724
933.161407	0.991042
933.464694	0.991414
933.767943	0.990722
934.071153	0.991154
934.374323	0.992552
934.677455	0.992366
934.980548	0.992017
935.283602	0.990909
935.586617	0.992204
935.889593	0.990779
936.192530	0.990859
936.495428	0.991933
936.798287	0.991698
937.101108	0.991196
937.403890	0.989196
937.706632	0.989648
938.009336	0.986867
938.312002	0.986439
938.614628	0.985350
938.917216	0.984307
939.219765	0.981141
939.522275	0.983763
939.824747	0.983208
940.127179	0.983172
940.429573	0.985026
940.731929	0.984133
941.034246	0.983865
941.336524	0.987136
941.638763	0.986538
941.940964	0.986509
942.243126	0.986586
942.545250	0.987919
942.847335	0.988322
943.149381	0.989625
943.451389	0.988284
943.753359	0.989228
944.055290	0.991081
944.357182	0.990165
944.659036	0.989430
944.960851	0.990416
945.262628	0.991862
945.564367	0.991010
945.866067	0.990654
946.167729	0.989214
946.469352	0.990195
946.770937	0.990179
947.072484	0.991078
947.373992	0.989635
947.675462	0.990369
947.976893	0.990766
948.278286	0.990109
948.579641	0.992425
948.880958	0.992028
949.182236	0.992026
949.483476	0.991162
949.784678	0.991438
950.085841	0.991746
950.386967	0.991089
950.688054	0.990552
950.989103	0.992414
951.290114	0.989815
951.591087	0.990646
951.892021	0.989614
952.192917	0.989559
952.493776	0.988067
952.794596	0.987881
953.095378	0.987011
953.396122	0.989220
953.696828	0.988129
953.997496	0.990717
954.298126	0.990442
954.598718	0.990561
954.899272	0.991503
955.199788	0.990564
955.500266	0.993486
955.800706	0.993655
956.101108	0.994203
956.401472	0.994817
956.701798	0.994105
957.002087	0.992970
957.302337	0.994676
957.602550	0.995568
957.902724	0.995535
958.202861	0.995777
958.502960	0.996034
958.803022	0.993855
959.103045	0.996753
959.403031	0.996536
959.702979	0.995605
960.002889	0.995779
960.302762	0.994544
960.602596	0.996688
960.902393	0.994753
961.202153	0.997138
961.501875	0.996741
961.801559	0.996116
962.101205	0.996016
962.400814	0.995908
962.700385	0.997616
962.999918	0.998361
963.299414	0.996995
963.598873	0.996427
963.898293	0.997623
964.197677	0.996329
964.497022	0.996534
964.796331	0.998523
965.095601	0.996430
965.394835	0.997432
965.694030	0.997130
965.993189	0.998396
966.292309	0.996235
966.591393	0.997183
966.890439	0.997872
967.189447	0.997071
967.488419	0.997725
967.787353	0.996328
968.086249	0.997632
968.385108	0.997482
968.683930	0.997777
968.982714	0.998479
969.281462	0.996893
969.580172	0.996602
969.878844	0.996597
970.177480	0.998308
970.476078	0.997204
970.774639	0.997647
971.073162	0.998072
971.371649	0.996773
971.670098	0.997380
971.968510	0.998731
972.266885	0.996034
972.565223	0.996345
972.863524	0.996422
973.161788	0.996088
973.460014	0.997455
973.758204	0.995574
974.056356	0.996933
974.354471	0.995248
974.652550	0.997963
974.950591	0.997341
975.248595	0.997288
975.546563	0.996739
975.844493	0.998740
976.142386	0.996614
976.440243	0.998171
976.738062	0.998450
977.035845	0.999025
977.333590	0.996744
977.631299	0.997458
977.928971	0.996253
978.226606	0.997273
978.524204	0.996539
978.821765	0.998106
979.119290	0.997383
979.416777	0.996901
979.714228	0.997965
980.011642	0.996858
980.309020	0.997949
980.606360	0.997854
980.903664	0.999579
981.200931	0.997258
981.498162	0.995088
981.795356	0.994532
982.092513	0.994200
982.389633	0.995643
982.686717	0.991928
982.983764	0.992580
983.280775	0.991074
983.577749	0.991277
983.874686	0.991687
984.171587	0.992022
984.468451	0.994584
984.765279	0.995021
985.062070	0.995915
985.358824	0.995637
985.655543	0.995455
985.952224	0.996831
986.248869	0.997117
986.545478	0.997451
986.842050	0.998620
987.138586	0.995860
987.435086	0.997979
987.731549	0.998929
988.027975	0.998863
988.324366	0.997530
988.620719	0.998465
988.917037	0.996950
989.213318	0.998058
989.509563	0.998302
989.805772	0.998627
990.101944	0.998798
990.398080	0.997949
990.694180	0.998489
990.990244	0.998365
991.286271	0.998738
991.582262	0.997464
991.878217	0.998805
992.174136	0.998936
992.470019	0.999353
992.765865	0.998559
993.061676	0.999662
993.357450	0.998230
993.653188	0.997328
993.948890	0.998712
994.244556	0.998401
994.540186	0.997899
994.835780	0.996367
995.131337	0.998054
995.426859	0.996313
995.722345	0.997481
996.017795	0.997146
996.313208	0.996750
996.608586	0.995889
996.903928	0.997018
997.199234	0.996855
997.494504	0.996997
997.789738	0.996668
998.084936	0.997365
998.380099	0.998067
998.675225	0.997680
998.970316	0.998339
999.265371	0.998513
999.560390	0.998987
999.855373	0.998768
1000.150320	0.999503
1000.445232	0.999603
1000.740108	0.998809
1001.034948	0.997809
1001.329752	0.999037
1001.624521	0.998890
1001.919254	0.998701
1002.213951	0.997923
1002.508613	0.998593
1002.803239	0.999612
1003.097829	0.999848
1003.392384	0.999673
1003.686903	0.997762
1003.981386	0.998655
1004.275834	0.998755
1004.570246	0.999498
1004.864623	1.000324
1005.158964	1.000228
1005.453270	0.999030
1005.747540	0.999058
1006.041775	0.998487
1006.335974	1.000831
1006.630138	0.999735
1006.924266	0.999354
1007.218359	1.000891
1007.512416	1.000067
1007.806438	0.999508
1008.100425	0.999529
1008.394376	0.999593
1008.688292	0.999456
1008.982172	1.000762
1009.276017	0.999313
1009.569827	0.999757
1009.863602	0.999591
1010.157341	1.000360
1010.451045	0.998925
1010.744714	0.998611
1011.038347	0.999362
1011.331945	0.999261
1011.625508	0.998358
1011.919036	0.999570
1012.212528	0.999341
1012.505986	0.998993
1012.799408	0.998336
1013.092795	0.999677
1013.386147	0.999896
1013.679464	0.999362
1013.972745	0.999154
1014.265992	0.998649
1014.559204	0.999140
1014.852380	0.999742
1015.145521	0.999796
1015.438628	1.000220
1015.731699	0.999447
1016.024736	0.999376
1016.317737	0.999394
1016.610703	0.998756
1016.903635	1.000855
1017.196531	0.999116
1017.489393	1.001261
1017.782219	0.999723
1018.075011	0.999455
1018.367768	0.999203
1018.660490	0.999687
1018.953177	0.999687
1019.245829	0.999687
