Dividing Wavelength (nm)	Counts (n)	Blue Motor Position (mm): 0.000000	Red Motor Position (mm): 11.800000	
326.493990	0.999762
326.888308	0.999762
327.282561	0.999762
327.676750	0.999237
328.070874	0.999425
328.464933	1.000240
328.858929	0.998357
329.252859	0.998571
329.646726	1.000276
330.040528	0.999850
330.434265	0.999783
330.827938	1.001372
331.221547	1.000379
331.615091	0.999661
332.008571	0.999958
332.401986	0.999619
332.795338	0.999345
333.188625	0.998267
333.581847	0.999569
333.975006	0.999343
334.368100	0.998009
334.761129	0.999937
335.154095	1.000415
335.546996	0.997289
335.939833	0.993132
336.332606	0.991886
336.725315	0.993016
337.117960	0.994572
337.510540	0.993794
337.903056	0.993850
338.295508	0.991700
338.687896	0.993741
339.080220	0.993917
339.472480	0.994468
339.864676	0.993705
340.256807	0.993892
340.648875	0.993996
341.040879	0.993429
341.432818	0.993305
341.824694	0.992743
342.216506	0.994390
342.608253	0.992794
342.999937	0.992546
343.391557	0.993737
343.783113	0.993950
344.174605	0.994183
344.566033	0.995214
344.957397	0.991632
345.348697	0.993101
345.739934	0.993727
346.131106	0.993320
346.522215	0.992875
346.913260	0.993782
347.304241	0.993511
347.695159	0.992285
348.086012	0.993436
348.476802	0.994310
348.867528	0.993396
349.258191	0.991484
349.648789	0.993178
350.039324	0.993567
350.429796	0.992891
350.820203	0.994358
351.210548	0.992523
351.600828	0.993211
351.991045	0.993060
352.381198	0.991938
352.771288	0.993658
353.161314	0.994083
353.551276	0.993897
353.941175	0.993436
354.331010	0.991844
354.720782	0.993110
355.110490	0.993034
355.500135	0.993866
355.889717	0.994072
356.279235	0.993371
356.668689	0.992628
357.058080	0.993293
357.447408	0.994394
357.836672	0.994561
358.225873	0.994756
358.615010	0.991516
359.004084	0.995403
359.393095	0.992507
359.782043	0.992084
360.170927	0.993286
360.559748	0.994124
360.948505	0.993265
361.337199	0.992645
361.725830	0.993179
362.114398	0.992565
362.502903	0.992804
362.891344	0.993805
363.279722	0.992734
363.668037	0.993811
364.056289	0.993590
364.444478	0.994079
364.832603	0.993617
365.220665	0.992974
365.608665	0.992798
365.996601	0.991963
366.384474	0.992427
366.772284	0.992479
367.160031	0.991366
367.547715	0.991978
367.935336	0.993155
368.322893	0.992788
368.710388	0.991381
369.097820	0.992178
369.485189	0.992044
369.872495	0.991562
370.259738	0.990876
370.646918	0.993185
371.034035	0.992720
371.421090	0.993008
371.808081	0.991875
372.195010	0.991144
372.581875	0.992098
372.968678	0.991745
373.355418	0.992213
373.742096	0.992440
374.128710	0.994111
374.515262	0.991213
374.901751	0.991760
375.288177	0.991566
375.674540	0.994001
376.060841	0.991470
376.447079	0.992501
376.833254	0.992839
377.219367	0.992789
377.605417	0.992299
377.991404	0.992197
378.377329	0.991616
378.763191	0.992765
379.148991	0.993506
379.534727	0.992458
379.920402	0.991675
380.306013	0.992645
380.691563	0.993142
381.077049	0.991106
381.462474	0.993094
381.847835	0.993025
382.233134	0.991829
382.618371	0.991267
383.003545	0.992261
383.388657	0.990299
383.773706	0.991143
384.158693	0.990097
384.543618	0.988140
384.928480	0.988483
385.313280	0.986174
385.698017	0.985679
386.082692	0.982789
386.467305	0.980159
386.851856	0.977282
387.236344	0.972760
387.620770	0.969939
388.005133	0.967034
388.389435	0.963417
388.773674	0.957200
389.157851	0.953639
389.541965	0.947124
389.926018	0.944375
390.310008	0.937841
390.693936	0.931818
391.077802	0.925880
391.461606	0.919514
391.845348	0.910021
392.229027	0.904967
392.612645	0.897161
392.996200	0.887274
393.379694	0.877071
393.763125	0.867312
394.146494	0.860692
394.529801	0.848760
394.913047	0.838171
395.296230	0.832003
395.679351	0.819678
396.062410	0.809086
396.445408	0.803488
396.828343	0.791702
397.211217	0.780887
397.594028	0.780414
397.976778	0.765415
398.359466	0.755463
398.742092	0.744229
399.124656	0.744182
399.507158	0.728310
399.889598	0.719517
400.271977	0.705597
400.654294	0.702018
401.036549	0.693454
401.418742	0.689458
401.800874	0.670586
402.182944	0.663056
402.564952	0.649241
402.946898	0.645386
403.328783	0.639964
403.710606	0.644297
404.092367	0.617194
404.474067	0.617029
404.855705	0.611681
405.237282	0.615873
405.618797	0.598709
406.000250	0.590650
406.381642	0.578735
406.762972	0.579748
407.144240	0.575606
407.525447	0.573295
407.906593	0.563171
408.287677	0.556379
408.668700	0.561952
409.049661	0.553860
409.430560	0.547891
409.811399	0.554265
410.192176	0.534736
410.572891	0.539684
410.953545	0.527178
411.334138	0.539138
411.714669	0.531932
412.095139	0.542504
412.475547	0.526957
412.855894	0.527624
413.236180	0.526268
413.616405	0.531436
413.996568	0.521331
414.376670	0.526959
414.756711	0.531414
415.136691	0.528141
415.516609	0.520046
415.896466	0.515522
416.276262	0.511680
416.655997	0.513257
417.035670	0.494526
417.415283	0.486030
417.794834	0.491192
418.174324	0.496347
418.553753	0.505649
418.933121	0.487519
419.312428	0.480653
419.691674	0.486681
420.070859	0.475477
420.449983	0.482768
420.829045	0.472837
421.208047	0.481605
421.586988	0.475048
421.965867	0.473954
422.344686	0.462230
422.723444	0.475142
423.102141	0.491430
423.480777	0.464838
423.859352	0.485506
424.237866	0.462711
424.616319	0.463311
424.994712	0.454109
425.373044	0.464435
425.751314	0.452090
426.129524	0.468230
426.507673	0.453575
426.885762	0.446439
427.263789	0.452118
427.641756	0.461125
428.019662	0.451802
428.397508	0.450367
428.775292	0.454788
429.153016	0.446955
429.530679	0.452847
429.908282	0.446518
430.285824	0.456308
430.663305	0.435177
431.040726	0.456149
431.418086	0.456292
431.795385	0.447979
432.172624	0.446103
432.549802	0.447231
432.926920	0.445893
433.303977	0.445754
433.680974	0.442169
434.057910	0.441299
434.434786	0.440698
434.811601	0.443409
435.188355	0.425648
435.565050	0.434747
435.941683	0.435937
436.318257	0.421075
436.694770	0.420624
437.071222	0.418811
437.447614	0.423801
437.823946	0.430152
438.200218	0.419587
438.576429	0.430233
438.952580	0.422798
439.328670	0.419268
439.704700	0.425847
440.080670	0.427050
440.456580	0.407981
440.832429	0.415763
441.208218	0.426731
441.583947	0.416040
441.959616	0.415604
442.335224	0.420178
442.710773	0.411929
443.086261	0.409659
443.461689	0.422853
443.837057	0.413507
444.212365	0.403470
444.587612	0.410461
444.962800	0.399960
445.337927	0.401226
445.712995	0.428001
446.088002	0.390452
446.462949	0.400707
446.837837	0.405127
447.212664	0.394406
447.587431	0.385780
447.962139	0.356258
448.336786	0.315624
448.711374	0.325925
449.085901	0.369532
449.460369	0.374344
449.834776	0.377749
450.209124	0.357140
450.583412	0.349318
450.957640	0.342856
451.331808	0.353750
451.705917	0.377047
452.079965	0.381958
452.453954	0.369859
452.827883	0.376753
453.201752	0.371968
453.575562	0.383367
453.949311	0.371710
454.323001	0.377433
454.696632	0.373222
455.070202	0.366150
455.443713	0.358078
455.817164	0.352862
456.190556	0.348717
456.563888	0.345354
456.937160	0.343095
457.310373	0.360481
457.683526	0.359161
458.056619	0.365109
458.429653	0.365300
458.802628	0.368981
459.175542	0.363272
459.548398	0.346142
459.921194	0.338154
460.293930	0.338640
460.666607	0.316049
461.039224	0.304333
461.411782	0.299947
461.784280	0.299086
462.156719	0.303266
462.529099	0.307990
462.901419	0.323723
463.273680	0.327993
463.645882	0.327939
464.018024	0.333740
464.390106	0.326505
464.762130	0.311252
465.134094	0.294250
465.505999	0.263618
465.877845	0.233959
466.249631	0.220970
466.621358	0.228459
466.993026	0.242264
467.364634	0.248628
467.736184	0.257381
468.107674	0.266017
468.479105	0.264916
468.850477	0.271789
469.221790	0.278282
469.593043	0.288969
469.964238	0.293505
470.335373	0.292986
470.706449	0.291281
471.077467	0.291935
471.448425	0.253942
471.819324	0.229669
472.190164	0.228996
472.560945	0.257776
472.931667	0.279555
473.302330	0.284168
473.672934	0.296042
474.043479	0.284271
474.413965	0.285925
474.784393	0.289538
475.154761	0.284721
475.525070	0.281601
475.895321	0.287111
476.265513	0.281227
476.635645	0.276826
477.005719	0.276431
477.375734	0.272945
477.745691	0.267135
478.115588	0.263044
478.485427	0.256827
478.855207	0.243525
479.224928	0.226212
479.594591	0.214236
479.964194	0.217401
480.333739	0.218560
480.703226	0.220015
481.072653	0.218580
481.442022	0.214353
481.811333	0.210744
482.180584	0.214556
482.549777	0.219681
482.918912	0.223186
483.287988	0.222505
483.657005	0.222278
484.025964	0.228905
484.394864	0.226234
484.763706	0.226665
485.132489	0.231643
485.501213	0.232158
485.869879	0.230902
486.238487	0.234109
486.607036	0.231915
486.975527	0.236428
487.343959	0.232493
487.712333	0.231641
488.080648	0.232939
488.448905	0.232039
488.817104	0.233427
489.185244	0.227746
489.553326	0.224718
489.921350	0.214692
490.289315	0.197126
490.657222	0.192205
491.025070	0.193649
491.392861	0.195554
491.760593	0.201213
492.128267	0.206729
492.495883	0.212323
492.863440	0.218362
493.230939	0.225052
493.598380	0.226081
493.965763	0.228220
494.333088	0.230521
494.700354	0.232146
495.067563	0.231095
495.434713	0.234217
495.801805	0.232566
496.168839	0.233894
496.535815	0.235201
496.902733	0.235107
497.269593	0.236739
497.636395	0.234510
498.003139	0.234618
498.369825	0.237675
498.736453	0.234086
499.103023	0.235593
499.469535	0.235181
499.835989	0.235334
500.202385	0.236155
500.568723	0.239615
500.935003	0.234637
501.301226	0.238747
501.667390	0.233250
502.033497	0.231244
502.399546	0.234309
502.765537	0.236200
503.131470	0.234539
503.497345	0.230865
503.863163	0.239482
504.228923	0.232555
504.594625	0.231102
504.960269	0.236557
505.325856	0.231766
505.691385	0.236210
506.056856	0.232915
506.422270	0.232231
506.787625	0.234627
507.152924	0.231967
507.518164	0.232606
507.883347	0.234478
508.248472	0.235955
508.613540	0.231288
508.978550	0.233670
509.343503	0.233999
509.708398	0.231781
510.073236	0.229261
510.438016	0.229421
510.802738	0.230339
511.167403	0.229344
511.532010	0.231366
511.896561	0.226579
512.261053	0.225541
512.625488	0.227693
512.989866	0.227621
513.354186	0.228306
513.718449	0.229743
514.082655	0.226241
514.446803	0.228653
514.810894	0.226309
515.174927	0.228948
515.538904	0.228174
515.902822	0.225309
516.266684	0.227522
516.630488	0.229030
516.994235	0.227709
517.357925	0.226406
517.721558	0.224668
518.085133	0.224250
518.448651	0.224336
518.812112	0.226423
519.175516	0.226188
519.538863	0.223692
519.902152	0.225513
520.265385	0.222177
520.628560	0.223862
520.991678	0.224401
521.354739	0.223295
521.717743	0.224387
522.080690	0.224995
522.443580	0.222386
522.806413	0.223242
523.169189	0.222427
523.531908	0.221584
523.894569	0.225139
524.257174	0.224878
524.619722	0.222524
524.982213	0.223751
525.344647	0.222445
525.707025	0.223540
526.069345	0.221596
526.431608	0.223192
526.793815	0.221397
527.155964	0.225268
527.518057	0.224383
527.880093	0.225277
528.242072	0.223910
528.603995	0.225693
528.965860	0.227748
529.327669	0.226328
529.689421	0.227080
530.051117	0.228069
530.412755	0.225861
530.774337	0.228156
531.135862	0.228759
531.497331	0.227969
531.858743	0.230477
532.220098	0.227549
532.581396	0.230064
532.942638	0.230594
533.303824	0.231255
533.664953	0.231313
534.026025	0.232763
534.387040	0.230842
534.747999	0.230670
535.108902	0.229692
535.469748	0.234577
535.830537	0.232415
536.191270	0.233127
536.551947	0.232673
536.912567	0.232590
537.273131	0.234353
537.633638	0.234249
537.994089	0.234843
538.354483	0.235903
538.714821	0.232853
539.075103	0.232584
539.435328	0.233549
539.795497	0.236897
540.155609	0.233498
540.515665	0.232015
540.875665	0.237713
541.235609	0.236125
541.595496	0.236056
541.955328	0.232716
542.315102	0.235348
542.674821	0.236428
543.034483	0.236196
543.394090	0.236173
543.753640	0.237933
544.113134	0.232801
544.472571	0.236119
544.831953	0.233072
545.191278	0.237188
545.550548	0.236783
545.909761	0.233515
546.268918	0.234198
546.628019	0.232658
546.987064	0.235160
547.346053	0.236983
547.704986	0.234797
548.063863	0.235511
548.422684	0.235430
548.781449	0.237252
549.140158	0.234712
549.498811	0.237738
549.857408	0.240842
550.215949	0.235751
550.574434	0.238473
550.932864	0.236550
551.291237	0.235286
551.649555	0.236804
552.007817	0.236463
552.366022	0.237103
552.724173	0.237415
553.082267	0.238066
553.440305	0.234569
553.798288	0.239231
554.156215	0.235957
554.514086	0.236397
554.871902	0.239728
555.229661	0.238833
555.587365	0.239153
555.945014	0.241706
556.302606	0.238727
556.660143	0.241373
557.017625	0.237692
557.375050	0.239885
557.732421	0.237110
558.089735	0.239276
558.446994	0.239179
558.804197	0.238325
559.161345	0.238217
559.518437	0.241856
559.875474	0.239554
560.232455	0.238764
560.589381	0.240218
560.946251	0.239710
561.303065	0.237748
561.659825	0.239353
562.016528	0.240548
562.373177	0.243422
562.729770	0.240717
563.086307	0.242853
563.442789	0.240668
563.799216	0.243513
564.155587	0.241913
564.511904	0.243334
564.868164	0.243453
565.224370	0.243307
565.580520	0.245103
565.936615	0.245148
566.292654	0.247985
566.648638	0.245053
567.004567	0.245829
567.360441	0.246501
567.716260	0.248471
568.072023	0.246376
568.427732	0.246908
568.783385	0.249632
569.138982	0.247647
569.494525	0.246875
569.850013	0.250238
570.205445	0.248528
570.560823	0.250782
570.916145	0.252991
571.271412	0.251242
571.626625	0.252904
571.981782	0.252837
572.336884	0.253982
572.691931	0.253795
573.046923	0.255064
573.401860	0.256246
573.756743	0.257659
574.111570	0.256699
574.466342	0.257228
574.821059	0.256425
575.175722	0.259189
575.530330	0.258997
575.884882	0.259116
576.239380	0.260973
576.593823	0.261729
576.948211	0.261050
577.302544	0.264615
577.656823	0.264241
578.011047	0.264017
578.365216	0.264956
578.719330	0.266857
579.073389	0.266703
579.427394	0.268212
579.781344	0.268928
580.135239	0.270204
580.489080	0.270157
580.842866	0.273083
581.196597	0.272480
581.550273	0.271181
581.903895	0.272172
582.257463	0.270209
582.610975	0.274012
582.964434	0.273192
583.317837	0.275569
583.671186	0.276276
584.024481	0.276400
584.377721	0.278790
584.730906	0.279183
585.084037	0.278380
585.437113	0.280259
585.790135	0.279810
586.143103	0.282480
586.496016	0.283929
586.848874	0.281414
587.201679	0.281934
587.554428	0.285265
587.907124	0.283847
588.259765	0.284845
588.612352	0.285029
588.964884	0.288944
589.317362	0.288963
589.669786	0.288389
590.022155	0.287036
590.374470	0.286526
590.726731	0.288473
591.078937	0.293047
591.431090	0.289489
591.783188	0.293695
592.135232	0.294244
592.487222	0.294105
592.839157	0.292213
593.191038	0.294721
593.542866	0.296386
593.894639	0.300287
594.246358	0.298130
594.598022	0.297684
594.949633	0.301327
595.301190	0.301938
595.652692	0.301183
596.004141	0.297161
596.355535	0.304949
596.706876	0.306039
597.058162	0.307984
597.409395	0.305669
597.760573	0.303224
598.111698	0.306546
598.462768	0.306861
598.813785	0.308411
599.164748	0.309463
599.515657	0.309787
599.866511	0.313187
600.217312	0.308470
600.568060	0.313804
600.918753	0.310163
601.269392	0.311154
601.619978	0.314355
601.970510	0.312120
602.320988	0.312125
602.671412	0.309926
603.021783	0.312265
603.372100	0.313567
603.722363	0.313556
604.072572	0.314192
604.422728	0.314136
604.772830	0.316034
605.122878	0.315337
605.472872	0.316109
605.822813	0.314553
606.172701	0.317226
606.522534	0.314763
606.872314	0.314406
607.222041	0.315704
607.571714	0.313713
607.921333	0.314734
608.270899	0.314797
608.620411	0.311337
608.969870	0.315422
609.319276	0.315627
609.668627	0.315580
610.017926	0.314244
610.367171	0.312299
610.716362	0.313714
611.065500	0.313368
611.414585	0.312290
611.763616	0.313034
612.112594	0.313130
612.461518	0.312896
612.810389	0.310217
613.159207	0.312846
613.507971	0.314498
613.856682	0.310124
614.205340	0.311772
614.553945	0.308342
614.902496	0.312589
615.250994	0.310681
615.599439	0.311200
615.947830	0.310561
616.296169	0.311637
616.644454	0.311132
616.992686	0.311340
617.340864	0.309118
617.688990	0.312791
618.037063	0.309072
618.385082	0.310932
618.733048	0.308417
619.080961	0.310138
619.428821	0.309611
619.776628	0.309584
620.124382	0.311191
620.472083	0.311326
620.819731	0.311128
621.167326	0.314695
621.514868	0.314683
621.862357	0.319016
622.209793	0.318747
622.557176	0.320699
622.904506	0.321589
623.251783	0.324172
623.599007	0.326272
623.946179	0.326047
624.293297	0.327717
624.640363	0.331772
624.987376	0.332155
625.334336	0.334637
625.681243	0.337148
626.028097	0.337633
626.374899	0.338937
626.721647	0.338872
627.068343	0.342628
627.414987	0.343200
627.761577	0.345553
628.108115	0.343796
628.454600	0.348992
628.801032	0.345803
629.147412	0.348368
629.493739	0.348705
629.840014	0.351837
630.186236	0.349125
630.532405	0.354809
630.878521	0.352587
631.224585	0.354223
631.570597	0.357908
631.916556	0.356442
632.262462	0.356836
632.608316	0.358463
632.954117	0.359799
633.299866	0.360171
633.645562	0.360823
633.991206	0.364928
634.336797	0.368355
634.682336	0.370445
635.027823	0.372187
635.373257	0.372504
635.718639	0.376164
636.063968	0.375405
636.409245	0.381524
636.754470	0.381128
637.099642	0.383725
637.444762	0.387198
637.789829	0.385981
638.134845	0.389741
638.479808	0.391151
638.824719	0.390688
639.169577	0.394576
639.514383	0.393279
639.859137	0.397526
640.203839	0.396879
640.548489	0.398088
640.893086	0.399511
641.237632	0.400953
641.582125	0.399672
641.926566	0.401137
642.270955	0.401483
642.615292	0.401593
642.959576	0.401037
643.303809	0.401611
643.647990	0.400647
643.992118	0.401459
644.336195	0.405552
644.680219	0.403100
645.024192	0.404251
645.368112	0.397505
645.711981	0.396221
646.055797	0.391599
646.399562	0.394295
646.743274	0.386728
647.086935	0.383764
647.430544	0.383966
647.774101	0.382516
648.117606	0.382367
648.461059	0.382605
648.804460	0.385300
649.147810	0.390453
649.491108	0.392090
649.834354	0.393904
650.177548	0.399172
650.520690	0.404226
650.863781	0.405850
651.206820	0.404981
651.549807	0.409992
651.892742	0.413449
652.235626	0.413405
652.578458	0.413696
652.921238	0.420591
653.263967	0.417833
653.606644	0.421711
653.949269	0.421720
654.291843	0.425287
654.634365	0.422146
654.976836	0.425618
655.319255	0.425515
655.661622	0.427629
656.003938	0.427465
656.346203	0.430305
656.688416	0.427587
657.030577	0.431247
657.372687	0.433335
657.714746	0.434505
658.056753	0.431466
658.398708	0.434982
658.740612	0.436686
659.082465	0.432667
659.424266	0.433006
659.766016	0.432473
660.107715	0.435352
660.449362	0.433767
660.790958	0.434528
661.132503	0.434896
661.473996	0.432507
661.815438	0.433277
662.156829	0.433766
662.498168	0.434538
662.839456	0.435879
663.180693	0.433632
663.521879	0.433725
663.863013	0.434434
664.204097	0.433120
664.545129	0.429998
664.886110	0.430568
665.227040	0.427763
665.567918	0.430534
665.908746	0.428151
666.249522	0.427962
666.590248	0.429165
666.930922	0.427314
667.271545	0.426452
667.612118	0.425707
667.952639	0.427797
668.293109	0.426484
668.633528	0.429324
668.973896	0.428954
669.314213	0.429765
669.654480	0.431020
669.994695	0.431773
670.334859	0.432326
670.674973	0.432690
671.015035	0.432725
671.355047	0.432805
671.695008	0.433782
672.034918	0.435572
672.374777	0.435136
672.714585	0.435905
673.054342	0.436257
673.394049	0.436242
673.733705	0.433704
674.073310	0.434994
674.412864	0.437763
674.752368	0.438493
675.091820	0.438889
675.431223	0.443212
675.770574	0.442739
676.109875	0.446002
676.449125	0.445785
676.788324	0.448007
677.127473	0.453736
677.466571	0.453619
677.805619	0.454798
678.144616	0.456539
678.483562	0.457886
678.822458	0.460338
679.161303	0.461667
679.500098	0.462045
679.838842	0.463476
680.177535	0.463060
680.516179	0.461745
680.854771	0.460421
681.193314	0.453810
681.531805	0.445550
681.870247	0.433998
682.208638	0.426333
682.546978	0.425296
682.885268	0.426826
683.223508	0.433328
683.561697	0.437125
683.899836	0.439413
684.237925	0.443028
684.575963	0.445437
684.913951	0.448525
685.251889	0.444211
685.589776	0.446526
685.927614	0.448149
686.265401	0.442822
686.603137	0.444761
686.940824	0.437994
687.278460	0.436711
687.616046	0.436129
687.953582	0.430723
688.291068	0.432073
688.628504	0.428182
688.965889	0.430056
689.303224	0.434276
689.640510	0.438163
689.977745	0.443826
690.314930	0.452180
690.652065	0.456201
690.989150	0.464396
691.326185	0.470324
691.663170	0.475049
692.000105	0.482294
692.336990	0.489088
692.673825	0.491923
693.010610	0.498635
693.347345	0.504011
693.684030	0.505507
694.020665	0.510690
694.357251	0.519151
694.693786	0.519187
695.030272	0.523209
695.366707	0.526076
695.703093	0.529933
696.039429	0.527590
696.375716	0.529823
696.711952	0.532294
697.048139	0.534565
697.384276	0.536019
697.720363	0.534561
698.056400	0.534233
698.392388	0.539444
698.728326	0.541839
699.064214	0.544296
699.400053	0.545546
699.735842	0.549225
700.071581	0.551887
700.407270	0.554446
700.742910	0.557003
701.078501	0.564260
701.414042	0.564156
701.749533	0.568125
702.084974	0.575907
702.420366	0.568831
702.755709	0.576082
703.091002	0.584116
703.426246	0.577070
703.761440	0.583459
704.096584	0.587958
704.431679	0.584795
704.766725	0.586874
705.101721	0.589057
705.436668	0.584477
705.771565	0.592227
706.106413	0.588500
706.441212	0.583961
706.775961	0.582911
707.110661	0.585153
707.445311	0.582177
707.779913	0.579238
708.114465	0.577828
708.448967	0.573904
708.783421	0.566229
709.117825	0.561529
709.452180	0.560912
709.786485	0.554349
710.120742	0.544895
710.454949	0.546038
710.789107	0.538797
711.123216	0.529480
711.457275	0.531127
711.791286	0.521880
712.125247	0.520799
712.459159	0.531854
712.793023	0.524471
713.126837	0.528753
713.460602	0.528961
713.794318	0.538952
714.127985	0.537632
714.461602	0.547119
714.795171	0.550267
715.128691	0.558447
715.462162	0.565899
715.795584	0.571785
716.128957	0.573829
716.462281	0.581264
716.795556	0.584256
717.128782	0.589749
717.461960	0.599797
717.795088	0.597117
718.128167	0.603455
718.461198	0.612256
718.794180	0.612266
719.127113	0.615613
719.459997	0.620002
719.792833	0.624849
720.125619	0.626817
720.458357	0.632769
720.791046	0.632529
721.123686	0.634955
721.456278	0.642381
721.788821	0.639985
722.121315	0.644439
722.453761	0.648646
722.786158	0.645655
723.118506	0.642984
723.450805	0.651168
723.783056	0.646520
724.115259	0.643552
724.447412	0.642750
724.779518	0.644869
725.111574	0.644263
725.443582	0.638809
725.775542	0.641354
726.107453	0.633587
726.439315	0.633054
726.771129	0.631878
727.102895	0.624736
727.434612	0.618153
727.766281	0.615942
728.097901	0.615735
728.429473	0.615072
728.760996	0.613544
729.092471	0.613593
729.423897	0.617219
729.755276	0.616147
730.086606	0.616878
730.417887	0.610617
730.749120	0.601642
731.080305	0.592650
731.411442	0.588267
731.742530	0.593676
732.073570	0.593281
732.404562	0.584855
732.735506	0.586438
733.066401	0.591256
733.397249	0.600790
733.728048	0.612133
734.058798	0.624033
734.389501	0.634556
734.720156	0.644475
735.050762	0.653034
735.381320	0.654109
735.711831	0.662576
736.042293	0.668029
736.372707	0.662815
736.703073	0.668094
737.033391	0.670168
737.363661	0.667361
737.693883	0.662742
738.024056	0.661041
738.354182	0.661933
738.684260	0.651138
739.014290	0.647046
739.344272	0.648166
739.674207	0.641288
740.004093	0.641126
740.333931	0.641455
740.663722	0.641311
740.993464	0.641934
741.323159	0.645640
741.652806	0.650905
741.982405	0.655945
742.311956	0.660770
742.641460	0.662462
742.970915	0.665270
743.300323	0.674318
743.629683	0.680183
743.958996	0.681492
744.288260	0.686048
744.617477	0.692458
744.946647	0.693770
745.275768	0.699008
745.604842	0.699736
745.933869	0.709612
746.262847	0.709121
746.591778	0.703604
746.920662	0.709147
747.249498	0.715891
747.578286	0.706508
747.907027	0.702739
748.235720	0.703872
748.564365	0.698561
748.892963	0.698648
749.221514	0.701041
749.550017	0.706271
749.878473	0.706111
750.206881	0.712711
750.535242	0.713266
750.863555	0.714036
751.191821	0.714480
751.520039	0.718118
751.848210	0.722911
752.176334	0.715768
752.504411	0.714638
752.832440	0.721419
753.160421	0.726370
753.488356	0.724570
753.816243	0.721933
754.144082	0.730862
754.471875	0.734422
754.799620	0.730099
755.127318	0.730651
755.454969	0.730886
755.782572	0.730075
756.110129	0.735328
756.437638	0.738193
756.765100	0.733987
757.092515	0.732609
757.419882	0.731231
757.747203	0.736715
758.074477	0.736520
758.401703	0.733224
758.728882	0.728004
759.056014	0.726797
759.383099	0.726297
759.710138	0.726657
760.037129	0.723718
760.364073	0.717274
760.690970	0.719105
761.017820	0.725748
761.344623	0.721499
761.671379	0.711840
761.998088	0.700495
762.324751	0.677685
762.651366	0.635944
762.977935	0.568290
763.304456	0.516209
763.630931	0.507063
763.957359	0.545218
764.283740	0.590801
764.610074	0.617921
764.936362	0.649236
765.262602	0.675831
765.588796	0.697565
765.914943	0.716327
766.241044	0.732634
766.567097	0.739602
766.893104	0.748674
767.219064	0.756439
767.544978	0.762690
767.870845	0.776156
768.196665	0.779855
768.522438	0.778468
768.848165	0.778267
769.173846	0.788185
769.499479	0.792457
769.825066	0.795598
770.150607	0.801440
770.476101	0.796407
770.801548	0.797532
771.126949	0.808386
771.452303	0.813019
771.777611	0.811683
772.102872	0.810612
772.428087	0.816101
772.753256	0.820285
773.078378	0.822081
773.403453	0.830838
773.728482	0.835915
774.053465	0.829134
774.378401	0.832344
774.703291	0.840679
775.028135	0.840060
775.352932	0.841460
775.677683	0.844560
776.002388	0.845403
776.327046	0.844406
776.651658	0.847452
776.976224	0.850340
777.300743	0.850829
777.625216	0.853007
777.949643	0.855469
778.274024	0.855520
778.598359	0.858119
778.922647	0.854909
779.246889	0.856298
779.571086	0.860487
779.895236	0.862997
780.219339	0.858803
780.543397	0.857086
780.867409	0.855693
781.191374	0.857044
781.515294	0.858637
781.839167	0.856908
782.162995	0.861309
782.486776	0.857867
782.810511	0.860068
783.134201	0.862542
783.457844	0.860278
783.781441	0.862268
784.104993	0.868591
784.428498	0.868315
784.751958	0.865123
785.075372	0.866851
785.398739	0.870764
785.722061	0.867706
786.045337	0.863970
786.368568	0.868256
786.691752	0.870758
787.014891	0.855704
787.337983	0.846987
787.661030	0.839239
787.984031	0.822361
788.306987	0.809191
788.629897	0.811360
788.952760	0.815078
789.275579	0.820148
789.598351	0.834327
789.921078	0.847611
790.243759	0.850033
790.566395	0.855648
790.888984	0.861635
791.211529	0.867239
791.534027	0.871409
791.856480	0.872991
792.178888	0.878717
792.501249	0.879558
792.823566	0.881476
793.145836	0.881198
793.468062	0.883727
793.790241	0.883291
794.112375	0.880918
794.434464	0.876681
794.756507	0.876103
795.078505	0.875526
795.400457	0.870649
795.722364	0.858515
796.044226	0.851924
796.366042	0.850969
796.687812	0.853471
797.009538	0.849673
797.331218	0.853039
797.652852	0.857134
797.974442	0.862185
798.295986	0.862474
798.617484	0.864534
798.938938	0.869879
799.260346	0.874329
799.581709	0.876698
799.903026	0.878418
800.224299	0.878448
800.545526	0.882665
800.866708	0.887810
801.187845	0.890487
801.508936	0.890438
801.829983	0.888791
802.150984	0.891204
802.471940	0.895503
802.792851	0.895550
803.113717	0.896171
803.434538	0.895316
803.755314	0.897846
804.076045	0.898355
804.396731	0.898805
804.717372	0.897296
805.037967	0.899827
805.358518	0.898558
805.679024	0.895789
805.999485	0.895130
806.319901	0.894961
806.640272	0.897664
806.960598	0.894852
807.280879	0.892193
807.601115	0.890829
807.921306	0.894171
808.241453	0.895429
808.561554	0.892174
808.881611	0.892924
809.201623	0.894822
809.521590	0.894168
809.841513	0.896231
810.161390	0.894928
810.481223	0.896485
810.801011	0.899314
811.120755	0.901328
811.440453	0.900347
811.760107	0.899111
812.079716	0.899544
812.399281	0.902308
812.718801	0.904655
813.038276	0.906967
813.357707	0.906092
813.677093	0.903172
813.996434	0.905656
814.315731	0.906860
814.634983	0.908200
814.954191	0.906346
815.273354	0.903627
815.592473	0.900759
815.911547	0.900363
816.230577	0.896968
816.549562	0.895332
816.868502	0.896081
817.187399	0.892107
817.506250	0.887645
817.825058	0.888574
818.143821	0.884616
818.462539	0.878803
818.781213	0.871237
819.099843	0.860448
819.418429	0.844087
819.736970	0.827848
820.055466	0.807204
820.373919	0.780838
820.692327	0.748968
821.010691	0.712502
821.329011	0.635710
821.647286	0.519043
821.965517	0.404281
822.283704	0.361600
822.601847	0.362290
822.919945	0.398241
823.237999	0.432109
823.556010	0.480179
823.873976	0.535134
824.191897	0.586980
824.509775	0.630419
824.827609	0.675450
825.145398	0.698467
825.463144	0.700838
825.780845	0.684330
826.098502	0.665220
826.416116	0.619070
826.733685	0.574363
827.051210	0.564650
827.368692	0.581083
827.686129	0.619220
828.003522	0.672126
828.320872	0.719831
828.638177	0.763890
828.955439	0.797346
829.272656	0.819059
829.589830	0.836344
829.906960	0.852634
830.224046	0.865457
830.541088	0.874877
830.858086	0.880427
831.175041	0.886328
831.491952	0.885721
831.808819	0.882699
832.125642	0.875932
832.442421	0.860448
832.759157	0.838231
833.075849	0.791251
833.392497	0.726898
833.709101	0.685797
834.025662	0.695815
834.342179	0.727030
834.658653	0.767410
834.975083	0.803593
835.291469	0.828849
835.607811	0.853164
835.924110	0.868152
836.240366	0.885093
836.556578	0.898659
836.872746	0.907344
837.188871	0.913552
837.504952	0.920046
837.820990	0.921599
838.136984	0.926444
838.452935	0.928448
838.768842	0.930339
839.084706	0.923932
839.400526	0.897961
839.716303	0.856896
840.032037	0.834219
840.347727	0.838254
840.663373	0.856879
840.978977	0.877742
841.294537	0.900991
841.610054	0.917614
841.925527	0.924449
842.240957	0.932274
842.556344	0.939323
842.871687	0.944896
843.186987	0.948944
843.502244	0.948632
843.817458	0.951334
844.132629	0.954933
844.447756	0.960244
844.762840	0.959863
845.077881	0.959142
845.392879	0.958242
845.707833	0.961338
846.022745	0.963094
846.337613	0.964536
846.652438	0.965004
846.967221	0.963194
847.281960	0.964720
847.596656	0.966748
847.911309	0.966747
848.225919	0.966693
848.540485	0.968173
848.855009	0.967973
849.169490	0.967675
849.483928	0.967313
849.798323	0.968272
850.112675	0.969350
850.426984	0.969083
850.741251	0.969051
851.055474	0.969639
851.369654	0.967510
851.683792	0.969204
851.997887	0.969762
852.311938	0.970599
852.625947	0.969189
852.939914	0.968064
853.253837	0.968839
853.567718	0.970498
853.881555	0.969438
854.195350	0.967778
854.509103	0.969232
854.822812	0.969726
855.136479	0.969717
855.450103	0.969759
855.763685	0.967354
856.077224	0.968254
856.390720	0.970058
856.704173	0.969734
857.017584	0.967941
857.330953	0.966358
857.644278	0.967818
857.957561	0.967593
858.270802	0.967446
858.584000	0.968065
858.897155	0.966425
859.210268	0.966804
859.523339	0.967759
859.836367	0.970151
860.149352	0.969760
860.462295	0.967679
860.775195	0.969429
861.088054	0.969337
861.400869	0.968478
861.713642	0.970359
862.026373	0.969429
862.339062	0.970172
862.651708	0.966290
862.964312	0.967284
863.276873	0.968235
863.589392	0.967278
863.901869	0.965337
864.214303	0.965226
864.526696	0.963244
864.839045	0.964704
865.151353	0.960753
865.463619	0.961240
865.775842	0.961665
866.088023	0.961485
866.400162	0.961529
866.712258	0.961368
867.024313	0.962220
867.336325	0.962090
867.648296	0.962438
867.960224	0.960824
868.272110	0.961086
868.583954	0.963459
868.895755	0.963408
869.207515	0.960658
869.519233	0.958280
869.830909	0.960970
870.142542	0.961061
870.454134	0.960325
870.765684	0.959754
871.077191	0.956928
871.388657	0.958708
871.700081	0.957390
872.011463	0.957799
872.322803	0.957053
872.634101	0.955335
872.945357	0.953491
873.256571	0.951917
873.567744	0.951537
873.878874	0.952621
874.189963	0.950975
874.501010	0.950376
874.812015	0.947447
875.122979	0.950571
875.433900	0.951954
875.744780	0.953065
876.055618	0.949905
876.366415	0.948348
876.677169	0.948843
876.987882	0.949597
877.298554	0.950544
877.609183	0.947062
877.919771	0.944069
878.230317	0.941819
878.540822	0.938999
878.851285	0.933820
879.161707	0.924903
879.472087	0.912512
879.782425	0.896543
880.092722	0.861274
880.402977	0.808775
880.713191	0.746785
881.023363	0.686845
881.333494	0.651936
881.643583	0.624468
881.953631	0.624161
882.263637	0.652604
882.573602	0.691693
882.883526	0.718407
883.193408	0.743259
883.503248	0.766432
883.813048	0.793620
884.122806	0.824644
884.432522	0.847597
884.742197	0.867481
885.051831	0.878461
885.361424	0.889400
885.670975	0.901225
885.980485	0.912944
886.289954	0.917876
886.599382	0.923541
886.908768	0.926804
887.218113	0.931946
887.527417	0.937706
887.836680	0.940807
888.145901	0.941906
888.455082	0.945231
888.764221	0.949664
889.073319	0.951360
889.382376	0.951898
889.691392	0.952208
890.000366	0.951733
890.309300	0.951892
890.618193	0.951850
890.927044	0.950676
891.235855	0.949225
891.544625	0.950087
891.853353	0.950682
892.162041	0.948417
892.470687	0.941101
892.779293	0.935725
893.087858	0.931652
893.396381	0.924012
893.704864	0.911348
894.013306	0.886134
894.321707	0.859012
894.630068	0.843506
894.938387	0.840410
895.246665	0.840577
895.554903	0.853798
895.863100	0.866215
896.171256	0.884628
896.479371	0.903269
896.787446	0.917299
897.095480	0.923495
897.403473	0.927253
897.711425	0.930793
898.019336	0.938686
898.327207	0.940951
898.635038	0.943296
898.942827	0.943712
899.250576	0.946902
899.558284	0.950390
899.865952	0.952293
900.173579	0.954496
900.481165	0.954402
900.788711	0.958507
901.096216	0.959904
901.403681	0.960364
901.711105	0.961016
902.018489	0.961910
902.325832	0.960605
902.633135	0.961652
902.940397	0.953596
903.247619	0.941843
903.554800	0.915382
903.861941	0.875354
904.169041	0.839126
904.476101	0.820737
904.783121	0.821855
905.090100	0.838792
905.397039	0.860726
905.703938	0.883148
906.010796	0.903001
906.317614	0.920746
906.624391	0.932866
906.931129	0.941528
907.237826	0.950324
907.544483	0.957805
907.851099	0.961239
908.157675	0.967493
908.464211	0.969043
908.770707	0.972291
909.077163	0.973606
909.383578	0.973239
909.689954	0.974613
909.996289	0.974411
910.302584	0.977038
910.608839	0.978971
910.915054	0.977287
911.221229	0.977025
911.527363	0.975356
911.833458	0.976106
912.139513	0.975299
912.445527	0.974334
912.751502	0.972741
913.057436	0.970499
913.363331	0.968519
913.669186	0.964866
913.975000	0.959825
914.280775	0.954229
914.586510	0.946896
914.892205	0.932684
915.197859	0.911294
915.503475	0.883763
915.809050	0.863970
916.114585	0.857115
916.420081	0.854523
916.725536	0.850667
917.030952	0.859639
917.336328	0.872247
917.641665	0.888279
917.946961	0.904155
918.252218	0.916469
918.557435	0.925970
918.862612	0.933439
919.167750	0.939900
919.472848	0.945322
919.777906	0.950572
920.082925	0.957561
920.387904	0.960851
920.692843	0.961963
920.997743	0.962913
921.302603	0.966352
921.607423	0.966588
921.912204	0.970333
922.216946	0.970239
922.521647	0.972516
922.826310	0.973479
923.130932	0.976824
923.435516	0.978444
923.740059	0.978510
924.044564	0.978144
924.349028	0.979892
924.653454	0.982553
924.957840	0.984218
925.262186	0.983632
925.566493	0.984038
925.870761	0.984287
926.174989	0.985575
926.479178	0.986049
926.783328	0.986809
927.087438	0.988032
927.391509	0.988411
927.695541	0.989158
927.999533	0.988890
928.303486	0.989072
928.607400	0.990615
928.911275	0.988732
929.215110	0.988915
929.518906	0.990680
929.822663	0.989160
930.126381	0.990915
930.430060	0.990378
930.733699	0.989627
931.037299	0.988606
931.340861	0.990030
931.644383	0.989232
931.947866	0.988536
932.251309	0.990669
932.554714	0.989313
932.858080	0.989710
933.161407	0.989427
933.464694	0.990307
933.767943	0.989488
934.071153	0.990588
934.374323	0.991749
934.677455	0.990458
934.980548	0.989970
935.283602	0.989880
935.586617	0.991095
935.889593	0.990213
936.192530	0.990171
936.495428	0.989828
936.798287	0.990375
937.101108	0.988722
937.403890	0.987577
937.706632	0.987818
938.009336	0.986133
938.312002	0.984081
938.614628	0.982878
938.917216	0.981281
939.219765	0.982239
939.522275	0.981997
939.824747	0.981560
940.127179	0.981850
940.429573	0.983807
940.731929	0.983888
941.034246	0.982830
941.336524	0.984978
941.638763	0.984977
941.940964	0.985098
942.243126	0.985831
942.545250	0.987065
942.847335	0.987689
943.149381	0.987053
943.451389	0.987634
943.753359	0.987397
944.055290	0.989656
944.357182	0.989474
944.659036	0.986592
944.960851	0.989127
945.262628	0.988602
945.564367	0.989460
945.866067	0.989456
946.167729	0.989759
946.469352	0.988473
946.770937	0.988674
947.072484	0.989245
947.373992	0.990261
947.675462	0.989795
947.976893	0.989957
948.278286	0.989576
948.579641	0.991140
948.880958	0.989823
949.182236	0.990156
949.483476	0.991391
949.784678	0.990103
950.085841	0.990630
950.386967	0.990653
950.688054	0.990109
950.989103	0.990894
951.290114	0.988237
951.591087	0.989769
951.892021	0.987601
952.192917	0.989105
952.493776	0.988020
952.794596	0.986940
953.095378	0.987566
953.396122	0.987490
953.696828	0.986020
953.997496	0.989624
954.298126	0.990367
954.598718	0.990845
954.899272	0.989869
955.199788	0.990075
955.500266	0.991877
955.800706	0.991313
956.101108	0.992898
956.401472	0.993263
956.701798	0.993447
957.002087	0.992886
957.302337	0.993587
957.602550	0.994972
957.902724	0.993829
958.202861	0.995003
958.502960	0.995090
958.803022	0.993341
959.103045	0.995278
959.403031	0.995108
959.702979	0.994584
960.002889	0.996129
960.302762	0.993698
960.602596	0.996480
960.902393	0.994801
961.202153	0.996224
961.501875	0.996542
961.801559	0.994406
962.101205	0.995265
962.400814	0.995889
962.700385	0.997270
962.999918	0.995884
963.299414	0.996422
963.598873	0.995209
963.898293	0.995858
964.197677	0.995878
964.497022	0.995054
964.796331	0.997074
965.095601	0.996786
965.394835	0.996892
965.694030	0.997467
965.993189	0.998023
966.292309	0.996169
966.591393	0.997199
966.890439	0.997205
967.189447	0.996654
967.488419	0.997036
967.787353	0.995930
968.086249	0.995650
968.385108	0.996622
968.683930	0.996435
968.982714	0.996642
969.281462	0.996093
969.580172	0.995637
969.878844	0.997316
970.177480	0.997061
970.476078	0.996858
970.774639	0.996235
971.073162	0.996023
971.371649	0.995819
971.670098	0.995939
971.968510	0.997658
972.266885	0.995028
972.565223	0.995327
972.863524	0.995934
973.161788	0.994781
973.460014	0.996901
973.758204	0.994997
974.056356	0.996416
974.354471	0.994215
974.652550	0.994768
974.950591	0.995931
975.248595	0.995571
975.546563	0.995327
975.844493	0.998038
976.142386	0.996510
976.440243	0.997385
976.738062	0.996540
977.035845	0.998526
977.333590	0.996886
977.631299	0.996991
977.928971	0.995246
978.226606	0.995696
978.524204	0.995359
978.821765	0.997604
979.119290	0.996048
979.416777	0.995647
979.714228	0.997272
980.011642	0.995413
980.309020	0.996716
980.606360	0.995987
980.903664	0.998047
981.200931	0.995195
981.498162	0.994720
981.795356	0.994315
982.092513	0.993417
982.389633	0.994175
982.686717	0.990984
982.983764	0.989501
983.280775	0.989826
983.577749	0.988946
983.874686	0.991650
984.171587	0.991387
984.468451	0.992821
984.765279	0.994254
985.062070	0.993462
985.358824	0.994418
985.655543	0.994271
985.952224	0.996073
986.248869	0.996936
986.545478	0.996130
986.842050	0.997610
987.138586	0.995263
987.435086	0.997254
987.731549	0.998696
988.027975	0.997279
988.324366	0.997694
988.620719	0.996371
988.917037	0.995890
989.213318	0.997297
989.509563	0.998718
989.805772	0.997884
990.101944	0.997464
990.398080	0.997241
990.694180	0.997746
990.990244	0.996885
991.286271	0.997022
991.582262	0.997738
991.878217	0.998524
992.174136	0.997659
992.470019	0.998544
992.765865	0.996887
993.061676	0.997978
993.357450	0.996236
993.653188	0.996791
993.948890	0.996671
994.244556	0.996924
994.540186	0.996137
994.835780	0.996327
995.131337	0.997719
995.426859	0.996426
995.722345	0.997360
996.017795	0.996934
996.313208	0.996886
996.608586	0.995733
996.903928	0.996677
997.199234	0.995579
997.494504	0.996258
997.789738	0.995712
998.084936	0.995796
998.380099	0.997303
998.675225	0.997244
998.970316	0.997348
999.265371	0.998450
999.560390	0.997604
999.855373	0.998602
1000.150320	0.997812
1000.445232	0.997678
1000.740108	0.997687
1001.034948	0.997341
1001.329752	0.998465
1001.624521	0.998299
1001.919254	0.996423
1002.213951	0.997330
1002.508613	0.997363
1002.803239	0.998621
1003.097829	0.998407
1003.392384	0.999424
1003.686903	0.998202
1003.981386	0.997603
1004.275834	0.998114
1004.570246	0.997712
1004.864623	0.998283
1005.158964	0.999622
1005.453270	0.998588
1005.747540	0.997878
1006.041775	0.997380
1006.335974	0.999160
1006.630138	0.999791
1006.924266	0.998785
1007.218359	0.999205
1007.512416	0.998761
1007.806438	0.999928
1008.100425	0.998837
1008.394376	0.999054
1008.688292	0.997627
1008.982172	0.999881
1009.276017	0.999358
1009.569827	0.997547
1009.863602	0.999028
1010.157341	0.998933
1010.451045	0.999179
1010.744714	0.998949
1011.038347	0.997839
1011.331945	0.998331
1011.625508	0.997502
1011.919036	0.997949
1012.212528	0.998764
1012.505986	0.997582
1012.799408	0.997904
1013.092795	0.999136
1013.386147	0.999048
1013.679464	0.999631
1013.972745	0.998419
1014.265992	0.996888
1014.559204	0.999358
1014.852380	0.998778
1015.145521	0.998463
1015.438628	0.999004
1015.731699	0.998741
1016.024736	0.998188
1016.317737	0.999586
1016.610703	0.997272
1016.903635	0.998867
1017.196531	0.998695
1017.489393	0.999373
1017.782219	0.998615
1018.075011	0.997666
1018.367768	0.999009
1018.660490	0.999134
1018.953177	0.999134
1019.245829	0.999134
