Dividing Wavelength (nm)	Counts (n)	Blue Motor Position (mm): 0.000000	Red Motor Position (mm): 37.500000	
326.493990	1.001694
326.888308	1.001694
327.282561	1.001694
327.676750	1.000734
328.070874	1.000081
328.464933	1.000069
328.858929	0.998795
329.252859	1.000161
329.646726	1.000234
330.040528	1.000379
330.434265	0.998347
330.827938	1.001540
331.221547	1.001752
331.615091	0.999287
332.008571	1.000005
332.401986	0.999480
332.795338	1.000221
333.188625	0.999676
333.581847	1.001042
333.975006	0.999791
334.368100	1.000468
334.761129	0.999910
335.154095	1.001898
335.546996	0.999193
335.939833	0.996197
336.332606	0.996636
336.725315	0.997862
337.117960	0.998604
337.510540	0.996853
337.903056	0.997879
338.295508	0.995947
338.687896	0.997976
339.080220	0.996697
339.472480	0.997166
339.864676	0.997531
340.256807	0.997589
340.648875	0.997531
341.040879	0.997318
341.432818	0.997248
341.824694	0.997735
342.216506	0.997947
342.608253	0.997129
342.999937	0.997342
343.391557	0.997473
343.783113	0.997273
344.174605	0.997307
344.566033	0.998400
344.957397	0.996346
345.348697	0.996782
345.739934	0.997141
346.131106	0.996573
346.522215	0.996611
346.913260	0.996569
347.304241	0.997753
347.695159	0.997568
348.086012	0.996745
348.476802	0.996992
348.867528	0.996933
349.258191	0.996199
349.648789	0.998225
350.039324	0.997471
350.429796	0.997650
350.820203	0.998444
351.210548	0.997677
351.600828	0.997267
351.991045	0.997078
352.381198	0.996108
352.771288	0.997083
353.161314	0.997429
353.551276	0.998289
353.941175	0.996761
354.331010	0.997073
354.720782	0.997164
355.110490	0.997081
355.500135	0.997429
355.889717	0.997671
356.279235	0.997571
356.668689	0.996850
357.058080	0.995698
357.447408	0.997264
357.836672	0.996717
358.225873	0.998075
358.615010	0.997368
359.004084	0.998354
359.393095	0.997679
359.782043	0.997186
360.170927	0.997669
360.559748	0.998507
360.948505	0.997300
361.337199	0.997900
361.725830	0.997585
362.114398	0.997342
362.502903	0.998370
362.891344	0.997524
363.279722	0.997734
363.668037	0.997666
364.056289	0.996846
364.444478	0.997800
364.832603	0.997573
365.220665	0.997445
365.608665	0.996705
365.996601	0.997247
366.384474	0.998776
366.772284	0.997321
367.160031	0.996732
367.547715	0.996316
367.935336	0.997909
368.322893	0.997992
368.710388	0.995167
369.097820	0.996431
369.485189	0.997954
369.872495	0.997717
370.259738	0.995228
370.646918	0.998230
371.034035	0.999128
371.421090	0.997123
371.808081	0.997208
372.195010	0.996916
372.581875	0.997866
372.968678	0.996329
373.355418	0.996588
373.742096	0.997745
374.128710	0.998055
374.515262	0.997458
374.901751	0.997442
375.288177	0.997619
375.674540	0.998199
376.060841	0.995989
376.447079	0.997274
376.833254	0.997177
377.219367	0.997946
377.605417	0.998137
377.991404	0.998352
378.377329	0.996885
378.763191	0.998064
379.148991	0.998049
379.534727	0.999026
379.920402	0.998825
380.306013	0.998294
380.691563	0.998558
381.077049	0.998241
381.462474	0.998865
381.847835	0.998634
382.233134	0.998301
382.618371	0.998129
383.003545	0.997341
383.388657	0.997965
383.773706	0.998449
384.158693	0.998786
384.543618	0.997688
384.928480	0.999467
385.313280	0.998534
385.698017	0.999329
386.082692	0.999414
386.467305	0.998363
386.851856	0.997873
387.236344	0.998163
387.620770	0.997542
388.005133	0.998981
388.389435	0.998861
388.773674	0.998219
389.157851	0.999018
389.541965	0.998869
389.926018	0.998243
390.310008	0.998453
390.693936	0.998889
391.077802	0.998948
391.461606	0.999025
391.845348	0.998995
392.229027	1.000374
392.612645	0.999308
392.996200	0.999329
393.379694	0.998674
393.763125	0.999202
394.146494	0.998791
394.529801	0.998791
394.913047	0.999164
395.296230	0.998603
395.679351	0.998839
396.062410	0.998023
396.445408	0.999039
396.828343	0.998099
397.211217	0.998734
397.594028	0.999310
397.976778	0.998533
398.359466	0.998506
398.742092	0.998752
399.124656	0.999087
399.507158	0.999029
399.889598	0.998687
400.271977	0.999796
400.654294	0.999491
401.036549	0.999991
401.418742	0.999947
401.800874	0.998518
402.182944	0.998008
402.564952	0.998662
402.946898	0.999891
403.328783	0.999848
403.710606	0.999434
404.092367	0.999033
404.474067	0.999046
404.855705	0.998747
405.237282	0.999726
405.618797	0.999254
406.000250	0.998797
406.381642	0.998981
406.762972	0.999286
407.144240	0.999730
407.525447	0.999797
407.906593	0.999854
408.287677	0.999267
408.668700	0.999584
409.049661	0.998269
409.430560	0.999750
409.811399	0.998480
410.192176	0.998251
410.572891	0.999005
410.953545	0.999135
411.334138	0.998425
411.714669	1.000035
412.095139	0.999289
412.475547	1.000054
412.855894	0.999617
413.236180	0.999824
413.616405	0.999424
413.996568	1.000091
414.376670	0.999385
414.756711	0.999625
415.136691	0.999594
415.516609	0.999269
415.896466	0.999475
416.276262	0.998591
416.655997	0.999450
417.035670	0.998738
417.415283	0.999204
417.794834	0.999344
418.174324	0.998971
418.553753	0.999358
418.933121	0.998802
419.312428	0.999232
419.691674	0.999923
420.070859	0.999650
420.449983	0.999359
420.829045	0.998962
421.208047	0.999462
421.586988	0.999802
421.965867	0.998859
422.344686	1.000685
422.723444	0.998864
423.102141	0.998438
423.480777	0.999775
423.859352	0.998907
424.237866	0.998863
424.616319	0.999152
424.994712	0.999599
425.373044	0.999748
425.751314	1.000150
426.129524	0.999683
426.507673	0.999446
426.885762	1.000506
427.263789	0.999342
427.641756	0.999450
428.019662	0.999789
428.397508	0.999175
428.775292	0.998754
429.153016	0.998930
429.530679	1.000184
429.908282	1.000910
430.285824	0.999374
430.663305	0.998582
431.040726	0.999251
431.418086	1.000865
431.795385	1.000205
432.172624	0.998809
432.549802	1.000080
432.926920	0.999071
433.303977	0.999091
433.680974	1.000116
434.057910	0.999327
434.434786	1.000128
434.811601	0.998882
435.188355	0.998744
435.565050	0.998967
435.941683	0.999259
436.318257	1.000510
436.694770	0.998839
437.071222	0.999679
437.447614	0.999545
437.823946	1.000119
438.200218	0.999484
438.576429	0.999922
438.952580	0.999857
439.328670	0.999785
439.704700	0.999454
440.080670	0.999510
440.456580	0.999724
440.832429	0.998406
441.208218	1.000177
441.583947	0.999554
441.959616	0.999875
442.335224	0.998972
442.710773	1.000832
443.086261	0.999113
443.461689	0.999494
443.837057	0.999348
444.212365	0.999657
444.587612	0.999295
444.962800	0.999451
445.337927	0.999867
445.712995	0.999987
446.088002	0.999918
446.462949	0.999553
446.837837	1.000040
447.212664	1.000182
447.587431	0.999839
447.962139	1.000370
448.336786	1.000122
448.711374	0.999824
449.085901	0.999391
449.460369	0.999818
449.834776	0.999272
450.209124	1.000892
450.583412	1.000329
450.957640	0.999480
451.331808	0.999623
451.705917	0.999567
452.079965	0.999049
452.453954	0.999789
452.827883	0.999125
453.201752	0.999975
453.575562	0.999520
453.949311	1.000595
454.323001	1.000277
454.696632	0.999860
455.070202	0.999592
455.443713	0.999764
455.817164	0.999834
456.190556	1.000299
456.563888	0.999401
456.937160	1.000184
457.310373	0.999612
457.683526	0.999814
458.056619	0.999187
458.429653	0.999819
458.802628	0.999171
459.175542	0.999267
459.548398	0.999740
459.921194	0.999216
460.293930	0.999676
460.666607	0.999239
461.039224	0.998718
461.411782	0.999628
461.784280	0.998797
462.156719	1.000700
462.529099	1.000199
462.901419	0.999836
463.273680	0.999457
463.645882	1.000074
464.018024	0.999730
464.390106	0.999921
464.762130	1.000740
465.134094	0.999791
465.505999	1.000338
465.877845	1.000297
466.249631	0.999689
466.621358	0.999714
466.993026	0.999374
467.364634	0.999537
467.736184	1.000475
468.107674	0.999382
468.479105	0.999189
468.850477	1.000142
469.221790	0.999863
469.593043	0.999942
469.964238	1.000093
470.335373	0.999669
470.706449	1.000113
471.077467	1.000120
471.448425	1.000004
471.819324	1.000905
472.190164	0.999819
472.560945	0.999742
472.931667	1.000103
473.302330	0.999583
473.672934	1.000065
474.043479	0.999386
474.413965	0.999329
474.784393	1.000356
475.154761	0.999537
475.525070	0.998856
475.895321	1.000358
476.265513	0.999643
476.635645	0.999754
477.005719	1.000184
477.375734	0.999336
477.745691	1.000250
478.115588	0.999492
478.485427	1.000231
478.855207	0.999471
479.224928	0.999772
479.594591	0.999751
479.964194	1.000815
480.333739	1.000624
480.703226	0.999531
481.072653	1.000571
481.442022	1.000124
481.811333	0.999391
482.180584	1.000440
482.549777	0.999680
482.918912	1.000611
483.287988	1.000424
483.657005	0.999669
484.025964	1.000381
484.394864	1.000937
484.763706	1.000404
485.132489	1.000530
485.501213	1.000379
485.869879	0.999583
486.238487	0.999963
486.607036	1.000370
486.975527	0.999441
487.343959	0.999727
487.712333	1.000270
488.080648	1.000407
488.448905	0.999663
488.817104	1.000002
489.185244	1.000080
489.553326	1.000157
489.921350	0.999992
490.289315	0.999604
490.657222	1.000050
491.025070	1.000147
491.392861	1.000658
491.760593	1.000785
492.128267	0.999574
492.495883	0.999503
492.863440	0.999819
493.230939	0.999981
493.598380	0.999606
493.965763	1.000576
494.333088	0.999708
494.700354	0.999743
495.067563	0.999901
495.434713	0.999057
495.801805	1.000028
496.168839	0.999329
496.535815	0.999700
496.902733	0.999742
497.269593	0.999514
497.636395	0.999588
498.003139	1.000230
498.369825	1.000101
498.736453	0.999779
499.103023	0.999272
499.469535	0.999433
499.835989	0.999887
500.202385	0.999809
500.568723	0.999640
500.935003	0.999387
501.301226	0.999622
501.667390	0.999225
502.033497	1.000419
502.399546	1.000366
502.765537	0.999190
503.131470	0.999501
503.497345	0.999323
503.863163	1.000438
504.228923	0.999486
504.594625	0.999993
504.960269	0.999709
505.325856	0.999506
505.691385	0.999781
506.056856	0.999433
506.422270	0.999770
506.787625	0.999403
507.152924	0.999436
507.518164	0.998387
507.883347	0.998959
508.248472	0.999194
508.613540	0.999450
508.978550	0.999804
509.343503	0.998738
509.708398	0.999318
510.073236	0.999965
510.438016	0.999358
510.802738	0.999299
511.167403	0.999411
511.532010	0.998882
511.896561	0.998738
512.261053	0.999687
512.625488	0.999143
512.989866	0.999094
513.354186	0.999163
513.718449	0.999322
514.082655	0.998619
514.446803	0.999271
514.810894	0.999276
515.174927	0.999086
515.538904	0.998427
515.902822	0.998696
516.266684	0.999031
516.630488	0.999543
516.994235	0.998458
517.357925	0.998535
517.721558	0.998894
518.085133	0.998068
518.448651	0.999077
518.812112	0.998489
519.175516	0.998124
519.538863	0.999025
519.902152	0.998093
520.265385	0.998048
520.628560	0.997991
520.991678	0.998594
521.354739	0.998260
521.717743	0.998233
522.080690	0.998211
522.443580	0.997859
522.806413	0.997679
523.169189	0.997901
523.531908	0.997482
523.894569	0.997708
524.257174	0.997912
524.619722	0.998004
524.982213	0.997946
525.344647	0.997976
525.707025	0.997268
526.069345	0.996794
526.431608	0.996850
526.793815	0.997450
527.155964	0.997082
527.518057	0.996836
527.880093	0.997279
528.242072	0.996549
528.603995	0.995989
528.965860	0.997168
529.327669	0.996101
529.689421	0.995812
530.051117	0.996133
530.412755	0.995597
530.774337	0.996100
531.135862	0.995384
531.497331	0.994847
531.858743	0.995158
532.220098	0.994815
532.581396	0.994863
532.942638	0.994784
533.303824	0.994414
533.664953	0.993772
534.026025	0.993483
534.387040	0.992500
534.747999	0.993025
535.108902	0.992651
535.469748	0.992005
535.830537	0.991250
536.191270	0.991644
536.551947	0.990850
536.912567	0.990680
537.273131	0.991287
537.633638	0.989667
537.994089	0.989383
538.354483	0.988963
538.714821	0.988316
539.075103	0.988177
539.435328	0.987862
539.795497	0.986367
540.155609	0.985564
540.515665	0.985995
540.875665	0.984559
541.235609	0.984624
541.595496	0.983281
541.955328	0.982311
542.315102	0.982372
542.674821	0.982128
543.034483	0.980728
543.394090	0.980172
543.753640	0.979854
544.113134	0.978964
544.472571	0.978716
544.831953	0.977606
545.191278	0.975561
545.550548	0.975828
545.909761	0.974180
546.268918	0.973680
546.628019	0.972871
546.987064	0.970732
547.346053	0.970888
547.704986	0.969464
548.063863	0.968566
548.422684	0.968029
548.781449	0.966829
549.140158	0.965247
549.498811	0.964003
549.857408	0.962834
550.215949	0.961446
550.574434	0.959908
550.932864	0.959010
551.291237	0.957975
551.649555	0.956097
552.007817	0.954266
552.366022	0.953202
552.724173	0.952012
553.082267	0.950558
553.440305	0.947548
553.798288	0.947628
554.156215	0.944445
554.514086	0.943519
554.871902	0.941927
555.229661	0.939815
555.587365	0.938161
555.945014	0.937846
556.302606	0.933737
556.660143	0.933275
557.017625	0.929504
557.375050	0.928244
557.732421	0.925937
558.089735	0.924833
558.446994	0.923246
558.804197	0.920514
559.161345	0.918446
559.518437	0.917433
559.875474	0.912937
560.232455	0.911270
560.589381	0.909174
560.946251	0.904971
561.303065	0.904488
561.659825	0.901894
562.016528	0.899016
562.373177	0.897947
562.729770	0.894391
563.086307	0.892733
563.442789	0.890094
563.799216	0.886953
564.155587	0.883959
564.511904	0.881321
564.868164	0.878695
565.224370	0.876024
565.580520	0.873108
565.936615	0.871019
566.292654	0.867430
566.648638	0.865490
567.004567	0.861566
567.360441	0.860087
567.716260	0.856600
568.072023	0.853761
568.427732	0.849906
568.783385	0.849339
569.138982	0.843919
569.494525	0.841200
569.850013	0.838747
570.205445	0.834758
570.560823	0.833078
570.916145	0.829654
571.271412	0.825949
571.626625	0.822111
571.981782	0.819671
572.336884	0.816427
572.691931	0.813585
573.046923	0.809304
573.401860	0.807125
573.756743	0.803285
574.111570	0.799943
574.466342	0.798584
574.821059	0.793034
575.175722	0.791163
575.530330	0.787065
575.884882	0.783623
576.239380	0.780795
576.593823	0.777540
576.948211	0.773212
577.302544	0.771948
577.656823	0.767287
578.011047	0.764677
578.365216	0.760418
578.719330	0.757437
579.073389	0.753301
579.427394	0.751299
579.781344	0.748147
580.135239	0.743918
580.489080	0.741180
580.842866	0.737941
581.196597	0.733831
581.550273	0.730575
581.903895	0.727227
582.257463	0.723129
582.610975	0.720479
582.964434	0.717477
583.317837	0.714261
583.671186	0.711164
584.024481	0.707237
584.377721	0.704692
584.730906	0.701345
585.084037	0.697441
585.437113	0.695210
585.790135	0.690534
586.143103	0.688552
586.496016	0.685954
586.848874	0.681007
587.201679	0.678565
587.554428	0.675929
587.907124	0.671537
588.259765	0.668501
588.612352	0.664743
588.964884	0.663942
589.317362	0.659749
589.669786	0.655703
590.022155	0.653086
590.374470	0.647645
590.726731	0.646380
591.078937	0.644028
591.431090	0.638144
591.783188	0.638525
592.135232	0.633475
592.487222	0.631949
592.839157	0.626334
593.191038	0.624872
593.542866	0.622223
593.894639	0.620397
594.246358	0.616340
594.598022	0.612943
594.949633	0.611580
595.301190	0.608171
595.652692	0.604682
596.004141	0.598471
596.355535	0.600202
596.706876	0.597142
597.058162	0.594926
597.409395	0.590275
597.760573	0.585875
598.111698	0.584655
598.462768	0.581154
598.813785	0.579784
599.164748	0.576731
599.515657	0.574403
599.866511	0.571989
600.217312	0.567739
600.568060	0.567699
600.918753	0.561816
601.269392	0.559979
601.619978	0.558623
601.970510	0.553680
602.320988	0.551313
602.671412	0.546062
603.021783	0.545162
603.372100	0.543144
603.722363	0.538854
604.072572	0.537633
604.422728	0.534711
604.772830	0.533133
605.122878	0.529844
605.472872	0.527614
605.822813	0.523119
606.172701	0.522780
606.522534	0.517835
606.872314	0.515840
607.222041	0.513067
607.571714	0.509295
607.921333	0.507372
608.270899	0.504431
608.620411	0.499820
608.969870	0.500741
609.319276	0.497789
609.668627	0.494418
610.017926	0.491599
610.367171	0.487190
610.716362	0.485249
611.065500	0.484007
611.414585	0.479597
611.763616	0.478382
612.112594	0.475988
612.461518	0.473632
612.810389	0.469884
613.159207	0.469055
613.507971	0.468358
613.856682	0.462501
614.205340	0.462027
614.553945	0.457018
614.902496	0.457631
615.250994	0.453943
615.599439	0.453202
615.947830	0.449822
616.296169	0.449175
616.644454	0.446485
616.992686	0.444806
617.340864	0.440890
617.688990	0.442149
618.037063	0.438023
618.385082	0.437848
618.733048	0.433130
619.080961	0.433698
619.428821	0.430944
619.776628	0.428634
620.124382	0.428562
620.472083	0.426674
620.819731	0.424595
621.167326	0.425733
621.514868	0.423488
621.862357	0.425477
622.209793	0.423507
622.557176	0.422872
622.904506	0.422240
623.251783	0.422175
623.599007	0.422027
623.946179	0.420207
624.293297	0.420112
624.640363	0.422032
624.987376	0.420285
625.334336	0.421559
625.681243	0.421393
626.028097	0.420772
626.374899	0.421080
626.721647	0.418782
627.068343	0.421047
627.414987	0.420180
627.761577	0.421300
628.108115	0.418640
628.454600	0.422167
628.801032	0.418049
629.147412	0.418985
629.493739	0.417802
629.840014	0.419593
630.186236	0.416101
630.532405	0.419927
630.878521	0.416889
631.224585	0.418570
631.570597	0.420430
631.916556	0.417760
632.262462	0.417166
632.608316	0.418304
632.954117	0.417966
633.299866	0.417756
633.645562	0.416605
633.991206	0.419590
634.336797	0.421392
634.682336	0.422418
635.027823	0.422517
635.373257	0.422171
635.718639	0.424509
636.063968	0.422284
636.409245	0.426546
636.754470	0.425910
637.099642	0.427918
637.444762	0.429561
637.789829	0.428299
638.134845	0.430797
638.479808	0.431515
638.824719	0.430163
639.169577	0.433703
639.514383	0.431447
639.859137	0.434908
640.203839	0.434241
640.548489	0.433783
640.893086	0.434466
641.237632	0.435703
641.582125	0.433453
641.926566	0.434199
642.270955	0.433755
642.615292	0.434030
642.959576	0.432141
643.303809	0.432356
643.647990	0.431413
643.992118	0.431236
644.336195	0.434349
644.680219	0.432340
645.024192	0.432447
645.368112	0.425778
645.711981	0.424682
646.055797	0.419814
646.399562	0.421352
646.743274	0.413823
647.086935	0.411048
647.430544	0.410667
647.774101	0.409159
648.117606	0.408567
648.461059	0.408403
648.804460	0.410368
649.147810	0.414978
649.491108	0.416089
649.834354	0.416758
650.177548	0.421812
650.520690	0.426718
650.863781	0.427417
651.206820	0.426553
651.549807	0.430656
651.892742	0.434273
652.235626	0.433292
652.578458	0.434085
652.921238	0.439870
653.263967	0.437503
653.606644	0.441229
653.949269	0.440606
654.291843	0.444058
654.634365	0.440397
654.976836	0.443211
655.319255	0.443474
655.661622	0.444519
656.003938	0.444655
656.346203	0.447103
656.688416	0.444532
657.030577	0.447811
657.372687	0.449214
657.714746	0.449828
658.056753	0.446683
658.398708	0.450327
658.740612	0.450981
659.082465	0.447425
659.424266	0.447305
659.766016	0.446857
660.107715	0.448575
660.449362	0.448125
660.790958	0.448822
661.132503	0.448505
661.473996	0.446882
661.815438	0.447570
662.156829	0.447106
662.498168	0.447931
662.839456	0.448814
663.180693	0.446810
663.521879	0.446355
663.863013	0.447765
664.204097	0.445388
664.545129	0.442488
664.886110	0.442432
665.227040	0.439831
665.567918	0.442184
665.908746	0.440189
666.249522	0.439724
666.590248	0.440781
666.930922	0.438775
667.271545	0.437940
667.612118	0.437781
667.952639	0.439225
668.293109	0.437581
668.633528	0.440775
668.973896	0.440128
669.314213	0.440817
669.654480	0.441961
669.994695	0.442224
670.334859	0.442979
670.674973	0.442744
671.015035	0.443122
671.355047	0.442826
671.695008	0.443920
672.034918	0.445498
672.374777	0.444958
672.714585	0.446507
673.054342	0.446243
673.394049	0.446325
673.733705	0.443618
674.073310	0.444417
674.412864	0.447635
674.752368	0.448167
675.091820	0.447739
675.431223	0.453202
675.770574	0.452392
676.109875	0.455540
676.449125	0.455251
676.788324	0.457085
677.127473	0.462615
677.466571	0.462779
677.805619	0.464421
678.144616	0.465025
678.483562	0.466461
678.822458	0.469656
679.161303	0.470837
679.500098	0.470325
679.838842	0.472484
680.177535	0.471950
680.516179	0.470273
680.854771	0.469492
681.193314	0.462812
681.531805	0.453886
681.870247	0.442450
682.208638	0.435121
682.546978	0.434177
682.885268	0.436025
683.223508	0.442300
683.561697	0.446165
683.899836	0.448716
684.237925	0.451750
684.575963	0.454220
684.913951	0.457305
685.251889	0.453199
685.589776	0.454716
685.927614	0.457238
686.265401	0.451996
686.603137	0.452546
686.940824	0.447185
687.278460	0.444988
687.616046	0.444419
687.953582	0.439412
688.291068	0.440735
688.628504	0.436230
688.965889	0.439023
689.303224	0.442436
689.640510	0.447072
689.977745	0.452256
690.314930	0.459996
690.652065	0.464489
690.989150	0.471588
691.326185	0.478587
691.663170	0.483192
692.000105	0.490132
692.336990	0.497008
692.673825	0.499413
693.010610	0.506163
693.347345	0.511365
693.684030	0.513708
694.020665	0.517736
694.357251	0.526275
694.693786	0.526420
695.030272	0.530337
695.366707	0.533908
695.703093	0.536656
696.039429	0.534979
696.375716	0.536440
696.711952	0.539388
697.048139	0.541274
697.384276	0.543199
697.720363	0.541222
698.056400	0.540856
698.392388	0.546029
698.728326	0.549151
699.064214	0.552104
699.400053	0.553123
699.735842	0.555681
700.071581	0.559050
700.407270	0.561665
700.742910	0.564548
701.078501	0.570663
701.414042	0.571122
701.749533	0.574564
702.084974	0.582473
702.420366	0.574788
702.755709	0.583039
703.091002	0.590574
703.426246	0.583080
703.761440	0.589232
704.096584	0.594908
704.431679	0.592065
704.766725	0.593483
705.101721	0.594656
705.436668	0.591279
705.771565	0.598195
706.106413	0.595040
706.441212	0.590814
706.775961	0.588899
707.110661	0.591477
707.445311	0.588207
707.779913	0.585147
708.114465	0.584074
708.448967	0.580295
708.783421	0.572832
709.117825	0.566894
709.452180	0.566978
709.786485	0.561421
710.120742	0.551827
710.454949	0.553553
710.789107	0.545361
711.123216	0.536919
711.457275	0.538022
711.791286	0.529343
712.125247	0.527824
712.459159	0.539678
712.793023	0.531529
713.126837	0.535530
713.460602	0.536112
713.794318	0.544954
714.127985	0.543754
714.461602	0.553652
714.795171	0.557249
715.128691	0.564864
715.462162	0.571858
715.795584	0.578277
716.128957	0.580531
716.462281	0.587705
716.795556	0.590362
717.128782	0.596355
717.461960	0.605142
717.795088	0.603476
718.128167	0.610048
718.461198	0.618792
718.794180	0.619608
719.127113	0.621729
719.459997	0.625638
719.792833	0.631435
720.125619	0.633267
720.458357	0.638169
720.791046	0.638405
721.123686	0.642147
721.456278	0.649254
721.788821	0.645865
722.121315	0.649990
722.453761	0.654410
722.786158	0.652841
723.118506	0.648736
723.450805	0.657236
723.783056	0.652764
724.115259	0.649499
724.447412	0.649243
724.779518	0.651011
725.111574	0.649569
725.443582	0.645015
725.775542	0.647047
726.107453	0.640719
726.439315	0.639523
726.771129	0.637611
727.102895	0.631167
727.434612	0.624520
727.766281	0.622718
728.097901	0.621751
728.429473	0.621662
728.760996	0.619960
729.092471	0.619958
729.423897	0.623129
729.755276	0.623086
730.086606	0.622777
730.417887	0.617315
730.749120	0.608405
731.080305	0.599406
731.411442	0.595025
731.742530	0.600570
732.073570	0.599328
732.404562	0.591497
732.735506	0.592870
733.066401	0.598035
733.397249	0.607064
733.728048	0.618140
734.058798	0.630260
734.389501	0.641059
734.720156	0.650779
735.050762	0.658337
735.381320	0.660123
735.711831	0.669666
736.042293	0.674180
736.372707	0.669146
736.703073	0.673764
737.033391	0.676265
737.363661	0.672770
737.693883	0.669316
738.024056	0.667964
738.354182	0.668239
738.684260	0.657525
739.014290	0.652973
739.344272	0.653815
739.674207	0.647818
740.004093	0.646900
740.333931	0.647226
740.663722	0.647796
740.993464	0.648122
741.323159	0.652025
741.652806	0.656695
741.982405	0.661987
742.311956	0.666087
742.641460	0.668478
742.970915	0.671423
743.300323	0.679568
743.629683	0.686305
743.958996	0.688094
744.288260	0.692717
744.617477	0.697888
744.946647	0.699306
745.275768	0.704761
745.604842	0.704602
745.933869	0.714284
746.262847	0.714875
746.591778	0.708944
746.920662	0.714990
747.249498	0.721833
747.578286	0.712636
747.907027	0.708999
748.235720	0.709491
748.564365	0.704317
748.892963	0.703799
749.221514	0.707196
749.550017	0.711579
749.878473	0.711314
750.206881	0.718200
750.535242	0.719942
750.863555	0.718098
751.191821	0.720190
751.520039	0.723285
751.848210	0.728596
752.176334	0.721878
752.504411	0.720546
752.832440	0.727086
753.160421	0.732018
753.488356	0.731115
753.816243	0.728228
754.144082	0.737484
754.471875	0.740355
754.799620	0.735658
755.127318	0.736009
755.454969	0.737133
755.782572	0.735796
756.110129	0.741370
756.437638	0.742866
756.765100	0.740112
757.092515	0.738071
757.419882	0.736756
757.747203	0.742262
758.074477	0.741174
758.401703	0.738634
758.728882	0.733371
759.056014	0.733123
759.383099	0.731536
759.710138	0.732471
760.037129	0.729285
760.364073	0.722719
760.690970	0.725991
761.017820	0.731292
761.344623	0.727832
761.671379	0.717792
761.998088	0.706211
762.324751	0.684557
762.651366	0.642797
762.977935	0.576408
763.304456	0.525272
763.630931	0.515793
763.957359	0.554374
764.283740	0.598652
764.610074	0.626780
764.936362	0.655675
765.262602	0.682969
765.588796	0.703395
765.914943	0.721594
766.241044	0.739232
766.567097	0.745630
766.893104	0.755103
767.219064	0.762338
767.544978	0.767505
767.870845	0.781049
768.196665	0.784712
768.522438	0.783226
768.848165	0.784689
769.173846	0.793206
769.499479	0.797524
769.825066	0.801201
770.150607	0.806319
770.476101	0.801528
770.801548	0.802668
771.126949	0.813337
771.452303	0.817448
771.777611	0.816860
772.102872	0.815941
772.428087	0.820826
772.753256	0.824051
773.078378	0.826700
773.403453	0.835412
773.728482	0.839959
774.053465	0.833695
774.378401	0.836832
774.703291	0.844719
775.028135	0.844851
775.352932	0.845763
775.677683	0.848630
776.002388	0.848954
776.327046	0.849349
776.651658	0.852797
776.976224	0.855048
777.300743	0.856112
777.625216	0.857918
777.949643	0.859910
778.274024	0.859309
778.598359	0.861991
778.922647	0.860610
779.246889	0.860507
779.571086	0.864565
779.895236	0.866521
780.219339	0.864076
780.543397	0.861257
780.867409	0.859084
781.191374	0.861461
781.515294	0.862789
781.839167	0.861722
782.162995	0.865126
782.486776	0.862210
782.810511	0.862698
783.134201	0.866756
783.457844	0.864535
783.781441	0.867450
784.104993	0.872334
784.428498	0.873701
784.751958	0.868984
785.075372	0.871959
785.398739	0.875662
785.722061	0.871608
786.045337	0.866302
786.368568	0.872841
786.691752	0.874651
787.014891	0.859376
787.337983	0.851431
787.661030	0.844890
787.984031	0.826607
788.306987	0.814848
788.629897	0.816337
788.952760	0.820905
789.275579	0.825599
789.598351	0.839585
789.921078	0.852190
790.243759	0.854126
790.566395	0.859561
790.888984	0.867396
791.211529	0.871517
791.534027	0.875600
791.856480	0.876718
792.178888	0.882300
792.501249	0.883541
792.823566	0.885615
793.145836	0.885863
793.468062	0.887813
793.790241	0.887961
794.112375	0.885953
794.434464	0.881061
794.756507	0.880833
795.078505	0.880131
795.400457	0.874124
795.722364	0.862861
796.044226	0.856166
796.366042	0.855205
796.687812	0.859592
797.009538	0.854326
797.331218	0.857393
797.652852	0.861571
797.974442	0.867385
798.295986	0.867787
798.617484	0.869597
798.938938	0.874154
799.260346	0.878843
799.581709	0.881234
799.903026	0.882965
800.224299	0.882950
800.545526	0.886723
800.866708	0.892098
801.187845	0.895221
801.508936	0.895039
801.829983	0.892420
802.150984	0.894835
802.471940	0.900194
802.792851	0.900020
803.113717	0.900232
803.434538	0.898828
803.755314	0.901245
804.076045	0.903805
804.396731	0.902269
804.717372	0.901559
805.037967	0.904165
805.358518	0.901373
805.679024	0.899765
805.999485	0.899962
806.319901	0.899177
806.640272	0.900497
806.960598	0.900062
807.280879	0.897928
807.601115	0.895289
807.921306	0.900031
808.241453	0.899362
808.561554	0.897792
808.881611	0.896815
809.201623	0.898653
809.521590	0.899127
809.841513	0.899034
810.161390	0.899567
810.481223	0.900400
810.801011	0.904354
811.120755	0.906190
811.440453	0.905097
811.760107	0.903450
812.079716	0.903797
812.399281	0.906035
812.718801	0.909587
813.038276	0.909624
813.357707	0.909597
813.677093	0.906380
813.996434	0.908983
814.315731	0.911165
814.634983	0.912167
814.954191	0.911173
815.273354	0.907763
815.592473	0.904755
815.911547	0.903830
816.230577	0.901614
816.549562	0.899062
816.868502	0.899857
817.187399	0.895431
817.506250	0.891034
817.825058	0.893409
818.143821	0.889539
818.462539	0.884544
818.781213	0.876363
819.099843	0.866182
819.418429	0.850639
819.736970	0.834050
820.055466	0.813787
820.373919	0.790579
820.692327	0.756965
821.010691	0.723698
821.329011	0.648393
821.647286	0.535045
821.965517	0.422525
822.283704	0.380635
822.601847	0.382320
822.919945	0.418292
823.237999	0.450844
823.556010	0.496455
823.873976	0.551427
824.191897	0.601020
824.509775	0.642557
824.827609	0.687245
825.145398	0.709128
825.463144	0.711858
825.780845	0.695284
826.098502	0.677209
826.416116	0.631755
826.733685	0.588761
827.051210	0.580500
827.368692	0.595523
827.686129	0.631074
828.003522	0.683750
828.320872	0.730738
828.638177	0.772652
828.955439	0.805485
829.272656	0.827883
829.589830	0.842257
829.906960	0.858721
830.224046	0.870625
830.541088	0.880646
830.858086	0.885350
831.175041	0.891480
831.491952	0.891209
831.808819	0.888111
832.125642	0.880376
832.442421	0.866610
832.759157	0.845726
833.075849	0.799607
833.392497	0.737381
833.709101	0.697218
834.025662	0.707182
834.342179	0.737955
834.658653	0.776311
834.975083	0.811515
835.291469	0.837548
835.607811	0.858950
835.924110	0.874558
836.240366	0.890702
836.556578	0.904984
836.872746	0.911577
837.188871	0.917626
837.504952	0.922302
837.820990	0.926382
838.136984	0.929809
838.452935	0.933338
838.768842	0.934333
839.084706	0.928666
839.400526	0.902120
839.716303	0.863379
840.032037	0.842384
840.347727	0.844689
840.663373	0.862626
840.978977	0.884109
841.294537	0.904907
841.610054	0.921633
841.925527	0.929562
842.240957	0.935834
842.556344	0.942122
842.871687	0.948256
843.186987	0.951812
843.502244	0.952862
843.817458	0.955313
844.132629	0.956707
844.447756	0.962882
844.762840	0.962598
845.077881	0.962480
845.392879	0.961692
845.707833	0.965718
846.022745	0.966468
846.337613	0.968059
846.652438	0.968999
846.967221	0.966521
847.281960	0.967376
847.596656	0.968435
847.911309	0.968044
848.225919	0.969735
848.540485	0.969908
848.855009	0.970517
849.169490	0.970798
849.483928	0.971102
849.798323	0.970724
850.112675	0.972035
850.426984	0.971831
850.741251	0.972808
851.055474	0.971396
851.369654	0.969978
851.683792	0.971037
851.997887	0.971330
852.311938	0.973281
852.625947	0.971657
852.939914	0.970048
853.253837	0.970719
853.567718	0.972696
853.881555	0.971956
854.195350	0.969441
854.509103	0.971676
854.822812	0.972033
855.136479	0.972532
855.450103	0.971523
855.763685	0.970611
856.077224	0.970960
856.390720	0.972929
856.704173	0.973522
857.017584	0.970796
857.330953	0.968899
857.644278	0.970838
857.957561	0.970193
858.270802	0.970788
858.584000	0.969399
858.897155	0.968492
859.210268	0.969259
859.523339	0.970298
859.836367	0.972780
860.149352	0.973350
860.462295	0.969552
860.775195	0.972060
861.088054	0.970610
861.400869	0.971335
861.713642	0.971742
862.026373	0.973474
862.339062	0.972342
862.651708	0.970256
862.964312	0.969911
863.276873	0.971702
863.589392	0.970623
863.901869	0.968609
864.214303	0.967829
864.526696	0.966665
864.839045	0.965389
865.151353	0.963603
865.463619	0.965202
865.775842	0.964859
866.088023	0.965024
866.400162	0.964790
866.712258	0.964505
867.024313	0.964633
867.336325	0.965991
867.648296	0.965066
867.960224	0.964813
868.272110	0.964450
868.583954	0.966960
868.895755	0.966749
869.207515	0.964453
869.519233	0.962419
869.830909	0.964188
870.142542	0.964940
870.454134	0.963904
870.765684	0.963886
871.077191	0.960512
871.388657	0.961869
871.700081	0.959439
872.011463	0.960976
872.322803	0.960379
872.634101	0.958920
872.945357	0.956423
873.256571	0.955641
873.567744	0.955387
873.878874	0.956091
874.189963	0.954041
874.501010	0.954307
874.812015	0.953408
875.122979	0.954634
875.433900	0.956670
875.744780	0.956228
876.055618	0.954569
876.366415	0.953344
876.677169	0.954049
876.987882	0.954908
877.298554	0.953678
877.609183	0.951030
877.919771	0.948253
878.230317	0.946548
878.540822	0.944929
878.851285	0.938943
879.161707	0.930517
879.472087	0.920418
879.782425	0.905707
880.092722	0.871842
880.402977	0.821931
880.713191	0.764027
881.023363	0.706787
881.333494	0.674360
881.643583	0.646271
881.953631	0.645831
882.263637	0.674360
882.573602	0.713395
882.883526	0.737554
883.193408	0.759665
883.503248	0.781418
883.813048	0.808069
884.122806	0.836792
884.432522	0.858362
884.742197	0.877423
885.051831	0.887328
885.361424	0.898008
885.670975	0.908450
885.980485	0.919881
886.289954	0.925031
886.599382	0.928524
886.908768	0.933534
887.218113	0.938032
887.527417	0.942818
887.836680	0.944690
888.145901	0.947053
888.455082	0.949828
888.764221	0.953228
889.073319	0.955929
889.382376	0.956022
889.691392	0.956774
890.000366	0.955936
890.309300	0.957268
890.618193	0.956476
890.927044	0.955595
891.235855	0.954751
891.544625	0.954747
891.853353	0.956309
892.162041	0.952948
892.470687	0.946553
892.779293	0.941154
893.087858	0.939103
893.396381	0.930409
893.704864	0.919339
894.013306	0.895486
894.321707	0.869960
894.630068	0.856388
894.938387	0.852544
895.246665	0.853902
895.554903	0.864747
895.863100	0.877587
896.171256	0.893104
896.479371	0.911854
896.787446	0.924473
897.095480	0.930497
897.403473	0.932676
897.711425	0.937131
898.019336	0.944230
898.327207	0.947463
898.635038	0.949743
898.942827	0.949851
899.250576	0.952227
899.558284	0.956546
899.865952	0.958293
900.173579	0.958945
900.481165	0.958727
900.788711	0.963726
901.096216	0.964126
901.403681	0.963979
901.711105	0.966674
902.018489	0.966575
902.325832	0.965354
902.633135	0.963917
902.940397	0.959357
903.247619	0.948146
903.554800	0.923983
903.861941	0.886047
904.169041	0.852697
904.476101	0.836197
904.783121	0.837129
905.090100	0.853009
905.397039	0.873007
905.703938	0.893347
906.010796	0.911922
906.317614	0.928467
906.624391	0.938756
906.931129	0.948001
907.237826	0.955803
907.544483	0.963363
907.851099	0.964987
908.157675	0.970714
908.464211	0.972954
908.770707	0.975735
909.077163	0.976711
909.383578	0.977770
909.689954	0.977728
909.996289	0.978404
910.302584	0.980605
910.608839	0.981943
910.915054	0.981364
911.221229	0.980298
911.527363	0.979797
911.833458	0.980064
912.139513	0.979950
912.445527	0.978211
912.751502	0.977039
913.057436	0.974945
913.363331	0.973271
913.669186	0.969721
913.975000	0.964213
914.280775	0.958400
914.586510	0.953024
914.892205	0.941184
915.197859	0.920966
915.503475	0.894331
915.809050	0.876660
916.114585	0.872172
916.420081	0.870377
916.725536	0.866250
917.030952	0.873971
917.336328	0.885920
917.641665	0.900520
917.946961	0.915009
918.252218	0.926376
918.557435	0.933211
918.862612	0.941616
919.167750	0.947855
919.472848	0.951528
919.777906	0.957138
920.082925	0.962144
920.387904	0.964936
920.692843	0.966715
920.997743	0.967328
921.302603	0.971290
921.607423	0.972542
921.912204	0.975082
922.216946	0.975421
922.521647	0.975996
922.826310	0.977768
923.130932	0.978608
923.435516	0.981333
923.740059	0.982290
924.044564	0.980645
924.349028	0.983587
924.653454	0.985618
924.957840	0.987631
925.262186	0.987112
925.566493	0.986706
925.870761	0.987215
926.174989	0.988384
926.479178	0.989856
926.783328	0.990145
927.087438	0.990486
927.391509	0.990335
927.695541	0.991745
927.999533	0.991280
928.303486	0.992111
928.607400	0.993966
928.911275	0.992471
929.215110	0.991475
929.518906	0.991518
929.822663	0.991315
930.126381	0.992038
930.430060	0.991481
930.733699	0.992232
931.037299	0.990790
931.340861	0.991472
931.644383	0.992106
931.947866	0.990467
932.251309	0.992623
932.554714	0.991415
932.858080	0.992123
933.161407	0.991793
933.464694	0.993546
933.767943	0.991948
934.071153	0.992374
934.374323	0.993625
934.677455	0.993623
934.980548	0.993441
935.283602	0.992808
935.586617	0.992805
935.889593	0.991796
936.192530	0.991603
936.495428	0.993041
936.798287	0.992339
937.101108	0.993509
937.403890	0.991799
937.706632	0.992078
938.009336	0.989074
938.312002	0.987215
938.614628	0.986067
938.917216	0.985653
939.219765	0.983506
939.522275	0.985728
939.824747	0.984504
940.127179	0.985619
940.429573	0.987081
940.731929	0.986209
941.034246	0.986644
941.336524	0.987402
941.638763	0.988311
941.940964	0.988301
942.243126	0.988102
942.545250	0.989954
942.847335	0.990390
943.149381	0.989856
943.451389	0.989177
943.753359	0.990260
944.055290	0.992154
944.357182	0.991737
944.659036	0.990901
944.960851	0.990713
945.262628	0.992217
945.564367	0.991314
945.866067	0.991430
946.167729	0.991645
946.469352	0.992139
946.770937	0.990727
947.072484	0.993086
947.373992	0.990662
947.675462	0.992129
947.976893	0.991615
948.278286	0.992204
948.579641	0.992973
948.880958	0.993075
949.182236	0.992530
949.483476	0.992736
949.784678	0.992145
950.085841	0.992681
950.386967	0.992706
950.688054	0.992744
950.989103	0.992664
951.290114	0.991481
951.591087	0.991589
951.892021	0.992339
952.192917	0.991085
952.493776	0.990641
952.794596	0.990238
953.095378	0.989394
953.396122	0.988410
953.696828	0.989567
953.997496	0.991871
954.298126	0.992456
954.598718	0.992495
954.899272	0.991822
955.199788	0.992318
955.500266	0.993088
955.800706	0.993645
956.101108	0.994894
956.401472	0.995061
956.701798	0.995627
957.002087	0.994101
957.302337	0.994264
957.602550	0.997411
957.902724	0.996062
958.202861	0.996384
958.502960	0.996847
958.803022	0.995242
959.103045	0.997126
959.403031	0.996800
959.702979	0.996365
960.002889	0.996502
960.302762	0.995305
960.602596	0.997624
960.902393	0.995994
961.202153	0.998395
961.501875	0.997725
961.801559	0.997385
962.101205	0.996995
962.400814	0.997057
962.700385	0.997365
962.999918	0.998264
963.299414	0.997513
963.598873	0.996252
963.898293	0.995619
964.197677	0.996105
964.497022	0.996616
964.796331	0.998464
965.095601	0.997845
965.394835	0.996362
965.694030	0.997983
965.993189	0.997819
966.292309	0.996695
966.591393	0.998371
966.890439	0.998492
967.189447	0.996807
967.488419	0.998666
967.787353	0.996403
968.086249	0.997727
968.385108	0.998616
968.683930	0.998408
968.982714	0.997746
969.281462	0.998883
969.580172	0.997410
969.878844	0.998200
970.177480	0.996791
970.476078	0.998365
970.774639	0.997933
971.073162	0.999208
971.371649	0.997112
971.670098	0.996767
971.968510	0.998469
972.266885	0.996119
972.565223	0.996803
972.863524	0.997571
973.161788	0.997441
973.460014	0.998346
973.758204	0.996809
974.056356	0.997402
974.354471	0.995056
974.652550	0.997646
974.950591	0.996657
975.248595	0.997636
975.546563	0.996977
975.844493	0.999310
976.142386	0.997742
976.440243	0.997933
976.738062	0.999265
977.035845	0.998336
977.333590	0.998075
977.631299	0.998467
977.928971	0.999324
978.226606	0.997042
978.524204	0.996399
978.821765	0.998107
979.119290	0.996386
979.416777	0.997820
979.714228	0.997586
980.011642	0.997946
980.309020	0.998050
980.606360	0.997194
980.903664	0.998748
981.200931	0.997490
981.498162	0.996137
981.795356	0.996407
982.092513	0.995029
982.389633	0.996284
982.686717	0.991413
982.983764	0.993563
983.280775	0.990949
983.577749	0.991926
983.874686	0.993932
984.171587	0.992550
984.468451	0.995903
984.765279	0.996209
985.062070	0.994422
985.358824	0.996044
985.655543	0.996526
985.952224	0.996968
986.248869	0.997364
986.545478	0.997692
986.842050	0.999033
987.138586	0.996034
987.435086	0.997738
987.731549	0.998439
988.027975	0.998954
988.324366	0.997494
988.620719	0.997707
988.917037	0.995874
989.213318	0.999027
989.509563	0.999814
989.805772	0.998805
990.101944	0.998829
990.398080	0.997983
990.694180	0.998326
990.990244	0.997135
991.286271	0.998876
991.582262	0.997447
991.878217	0.998450
992.174136	1.000484
992.470019	0.998952
992.765865	0.998185
993.061676	0.998869
993.357450	0.997640
993.653188	0.997709
993.948890	0.997417
994.244556	0.997648
994.540186	0.997692
994.835780	0.997252
995.131337	0.998084
995.426859	0.997081
995.722345	0.997416
996.017795	0.996591
996.313208	0.996927
996.608586	0.996431
996.903928	0.996649
997.199234	0.996569
997.494504	0.998612
997.789738	0.996728
998.084936	0.997361
998.380099	0.997945
998.675225	0.997113
998.970316	1.000044
999.265371	0.998022
999.560390	0.999227
999.855373	1.000212
1000.150320	0.998016
1000.445232	0.997787
1000.740108	0.998027
1001.034948	0.998812
1001.329752	0.999502
1001.624521	0.999789
1001.919254	0.998360
1002.213951	0.998818
1002.508613	0.999219
1002.803239	0.999819
1003.097829	0.999485
1003.392384	0.999423
1003.686903	0.998141
1003.981386	0.999098
1004.275834	1.000187
1004.570246	0.998528
1004.864623	0.999840
1005.158964	0.999913
1005.453270	0.998911
1005.747540	0.997494
1006.041775	0.999182
1006.335974	0.999738
1006.630138	1.000225
1006.924266	0.999142
1007.218359	1.000888
1007.512416	0.999969
1007.806438	0.999653
1008.100425	1.000470
1008.394376	0.998970
1008.688292	0.999024
1008.982172	1.001549
1009.276017	1.000069
1009.569827	0.999823
1009.863602	0.999825
1010.157341	1.000262
1010.451045	0.999591
1010.744714	0.999349
1011.038347	1.000634
1011.331945	0.999474
1011.625508	0.997996
1011.919036	0.999525
1012.212528	0.998409
1012.505986	0.998215
1012.799408	1.000028
1013.092795	0.998875
1013.386147	1.000204
1013.679464	0.998364
1013.972745	0.999314
1014.265992	0.998531
1014.559204	0.999186
1014.852380	1.000150
1015.145521	0.999221
1015.438628	0.999717
1015.731699	1.000207
1016.024736	0.998136
1016.317737	1.000238
1016.610703	0.998852
1016.903635	1.000096
1017.196531	0.998660
1017.489393	1.000842
1017.782219	0.998940
1018.075011	0.999823
1018.367768	0.999397
1018.660490	1.000060
1018.953177	1.000060
1019.245829	1.000060
