Dividing Wavelength (nm)	Counts (n)	Blue Motor Position (mm): 0.000000	Red Motor Position (mm): 16.200000	
326.493990	1.001848
326.888308	1.001848
327.282561	1.001848
327.676750	1.002009
328.070874	0.999835
328.464933	1.000047
328.858929	0.999248
329.252859	1.000033
329.646726	1.001032
330.040528	1.001142
330.434265	0.999743
330.827938	1.002090
331.221547	1.000920
331.615091	1.001502
332.008571	1.000591
332.401986	1.000731
332.795338	1.000751
333.188625	0.999504
333.581847	1.001521
333.975006	1.000021
334.368100	1.000453
334.761129	1.000821
335.154095	1.001404
335.546996	0.999059
335.939833	0.994840
336.332606	0.994179
336.725315	0.995321
337.117960	0.995795
337.510540	0.993743
337.903056	0.995551
338.295508	0.992999
338.687896	0.995062
339.080220	0.993992
339.472480	0.995288
339.864676	0.994512
340.256807	0.996311
340.648875	0.995399
341.040879	0.995488
341.432818	0.995591
341.824694	0.994797
342.216506	0.996109
342.608253	0.995289
342.999937	0.994475
343.391557	0.994894
343.783113	0.994859
344.174605	0.995777
344.566033	0.995367
344.957397	0.994781
345.348697	0.993602
345.739934	0.994110
346.131106	0.994041
346.522215	0.995626
346.913260	0.993880
347.304241	0.994298
347.695159	0.994584
348.086012	0.993301
348.476802	0.994152
348.867528	0.995643
349.258191	0.993058
349.648789	0.994053
350.039324	0.994540
350.429796	0.996019
350.820203	0.995703
351.210548	0.993731
351.600828	0.993304
351.991045	0.993956
352.381198	0.993022
352.771288	0.994439
353.161314	0.993547
353.551276	0.995094
353.941175	0.993796
354.331010	0.994401
354.720782	0.995039
355.110490	0.994027
355.500135	0.994441
355.889717	0.995435
356.279235	0.993847
356.668689	0.993673
357.058080	0.994085
357.447408	0.995501
357.836672	0.995152
358.225873	0.995081
358.615010	0.993992
359.004084	0.995887
359.393095	0.994414
359.782043	0.995437
360.170927	0.995533
360.559748	0.995823
360.948505	0.995017
361.337199	0.995208
361.725830	0.995567
362.114398	0.994286
362.502903	0.994410
362.891344	0.996574
363.279722	0.994668
363.668037	0.995094
364.056289	0.993924
364.444478	0.995828
364.832603	0.995479
365.220665	0.994311
365.608665	0.993517
365.996601	0.993856
366.384474	0.995744
366.772284	0.993750
367.160031	0.992938
367.547715	0.992330
367.935336	0.994545
368.322893	0.994431
368.710388	0.994147
369.097820	0.994360
369.485189	0.993604
369.872495	0.994603
370.259738	0.991918
370.646918	0.995256
371.034035	0.994944
371.421090	0.994958
371.808081	0.993886
372.195010	0.994992
372.581875	0.994606
372.968678	0.994084
373.355418	0.994041
373.742096	0.994160
374.128710	0.995266
374.515262	0.995266
374.901751	0.995048
375.288177	0.994702
375.674540	0.995436
376.060841	0.994049
376.447079	0.994936
376.833254	0.993954
377.219367	0.994174
377.605417	0.994882
377.991404	0.994728
378.377329	0.993701
378.763191	0.994737
379.148991	0.995343
379.534727	0.995075
379.920402	0.994979
380.306013	0.994125
380.691563	0.995129
381.077049	0.994675
381.462474	0.994809
381.847835	0.995692
382.233134	0.994306
382.618371	0.994790
383.003545	0.994511
383.388657	0.993760
383.773706	0.995623
384.158693	0.995653
384.543618	0.994378
384.928480	0.995431
385.313280	0.994234
385.698017	0.995630
386.082692	0.995079
386.467305	0.994376
386.851856	0.993552
387.236344	0.994227
387.620770	0.993346
388.005133	0.995243
388.389435	0.994430
388.773674	0.994630
389.157851	0.995014
389.541965	0.995228
389.926018	0.994963
390.310008	0.995936
390.693936	0.994710
391.077802	0.994429
391.461606	0.994474
391.845348	0.994525
392.229027	0.995532
392.612645	0.994225
392.996200	0.994948
393.379694	0.993845
393.763125	0.994791
394.146494	0.993874
394.529801	0.994850
394.913047	0.994521
395.296230	0.993735
395.679351	0.993146
396.062410	0.993282
396.445408	0.993291
396.828343	0.992150
397.211217	0.991501
397.594028	0.990941
397.976778	0.989341
398.359466	0.988570
398.742092	0.987355
399.124656	0.985241
399.507158	0.983276
399.889598	0.980887
400.271977	0.978789
400.654294	0.976307
401.036549	0.973824
401.418742	0.969873
401.800874	0.964656
402.182944	0.960990
402.564952	0.955691
402.946898	0.952888
403.328783	0.947601
403.710606	0.943632
404.092367	0.935665
404.474067	0.931762
404.855705	0.925095
405.237282	0.921997
405.618797	0.912556
406.000250	0.905675
406.381642	0.898090
406.762972	0.891874
407.144240	0.885509
407.525447	0.878249
407.906593	0.869020
408.287677	0.859291
408.668700	0.854965
409.049661	0.843715
409.430560	0.834535
409.811399	0.827759
410.192176	0.813661
410.572891	0.807486
410.953545	0.794809
411.334138	0.791379
411.714669	0.779747
412.095139	0.776857
412.475547	0.760286
412.855894	0.752474
413.236180	0.743010
413.616405	0.736922
413.996568	0.724283
414.376670	0.718655
414.756711	0.713375
415.136691	0.702474
415.516609	0.688721
415.896466	0.678211
416.276262	0.667418
416.655997	0.661481
417.035670	0.640275
417.415283	0.626975
417.794834	0.623226
418.174324	0.619805
418.553753	0.620110
418.933121	0.598810
419.312428	0.586351
419.691674	0.583799
420.070859	0.568534
420.449983	0.568595
420.829045	0.553893
421.208047	0.556716
421.586988	0.545673
421.965867	0.538851
422.344686	0.524019
422.723444	0.530699
423.102141	0.541967
423.480777	0.513508
423.859352	0.528811
424.237866	0.503193
424.616319	0.500809
424.994712	0.488935
425.373044	0.496159
425.751314	0.481196
426.129524	0.494487
426.507673	0.477175
426.885762	0.468375
427.263789	0.470857
427.641756	0.478668
428.019662	0.467424
428.397508	0.465038
428.775292	0.467575
429.153016	0.458848
429.530679	0.463898
429.908282	0.455819
430.285824	0.464676
430.663305	0.442973
431.040726	0.462475
431.418086	0.462519
431.795385	0.453917
432.172624	0.451445
432.549802	0.452223
432.926920	0.450353
433.303977	0.449429
433.680974	0.446435
434.057910	0.444831
434.434786	0.444146
434.811601	0.446212
435.188355	0.428057
435.565050	0.437298
435.941683	0.438853
436.318257	0.423056
436.694770	0.423286
437.071222	0.421743
437.447614	0.426190
437.823946	0.432316
438.200218	0.421392
438.576429	0.431486
438.952580	0.424003
439.328670	0.420554
439.704700	0.427392
440.080670	0.428503
440.456580	0.409420
440.832429	0.417249
441.208218	0.428131
441.583947	0.417669
441.959616	0.416975
442.335224	0.421845
442.710773	0.413156
443.086261	0.411060
443.461689	0.424959
443.837057	0.415245
444.212365	0.405060
444.587612	0.411459
444.962800	0.401587
445.337927	0.403460
445.712995	0.429201
446.088002	0.391662
446.462949	0.401746
446.837837	0.406488
447.212664	0.395683
447.587431	0.386931
447.962139	0.357807
448.336786	0.316922
448.711374	0.326827
449.085901	0.371057
449.460369	0.375716
449.834776	0.378698
450.209124	0.358228
450.583412	0.350807
450.957640	0.344025
451.331808	0.355166
451.705917	0.378740
452.079965	0.382949
452.453954	0.371382
452.827883	0.378034
453.201752	0.373035
453.575562	0.384160
453.949311	0.373186
454.323001	0.378990
454.696632	0.374573
455.070202	0.367777
455.443713	0.359687
455.817164	0.354218
456.190556	0.350394
456.563888	0.346624
456.937160	0.344401
457.310373	0.361436
457.683526	0.360577
458.056619	0.365931
458.429653	0.366712
458.802628	0.370038
459.175542	0.364724
459.548398	0.347079
459.921194	0.339839
460.293930	0.339982
460.666607	0.317330
461.039224	0.305520
461.411782	0.301289
461.784280	0.300756
462.156719	0.304549
462.529099	0.309153
462.901419	0.325319
463.273680	0.329620
463.645882	0.329119
464.018024	0.334973
464.390106	0.327532
464.762130	0.312895
465.134094	0.295674
465.505999	0.265321
465.877845	0.235303
466.249631	0.222441
466.621358	0.229872
466.993026	0.243551
467.364634	0.249957
467.736184	0.258797
468.107674	0.267364
468.479105	0.266103
468.850477	0.273335
469.221790	0.280123
469.593043	0.290348
469.964238	0.294961
470.335373	0.294528
470.706449	0.292918
471.077467	0.293625
471.448425	0.255496
471.819324	0.231186
472.190164	0.230479
472.560945	0.259181
472.931667	0.281493
473.302330	0.285347
473.672934	0.297292
474.043479	0.285851
474.413965	0.287315
474.784393	0.291143
475.154761	0.286246
475.525070	0.283341
475.895321	0.289089
476.265513	0.283452
476.635645	0.278178
477.005719	0.278342
477.375734	0.274969
477.745691	0.268420
478.115588	0.264775
478.485427	0.258476
478.855207	0.245323
479.224928	0.227826
479.594591	0.216079
479.964194	0.219595
480.333739	0.220469
480.703226	0.222253
481.072653	0.220371
481.442022	0.216274
481.811333	0.212703
482.180584	0.216335
482.549777	0.221555
482.918912	0.224796
483.287988	0.224248
483.657005	0.223961
484.025964	0.230466
484.394864	0.227645
484.763706	0.228397
485.132489	0.233448
485.501213	0.233964
485.869879	0.232534
486.238487	0.235671
486.607036	0.233695
486.975527	0.238084
487.343959	0.234104
487.712333	0.233043
488.080648	0.234566
488.448905	0.233743
488.817104	0.234945
489.185244	0.229445
489.553326	0.226439
489.921350	0.216287
490.289315	0.198773
490.657222	0.193693
491.025070	0.194801
491.392861	0.196825
491.760593	0.202775
492.128267	0.208311
492.495883	0.213753
492.863440	0.219852
493.230939	0.226276
493.598380	0.227497
493.965763	0.229797
494.333088	0.232244
494.700354	0.233577
495.067563	0.232512
495.434713	0.235979
495.801805	0.233913
496.168839	0.235159
496.535815	0.236761
496.902733	0.236468
497.269593	0.238254
497.636395	0.236051
498.003139	0.236564
498.369825	0.239279
498.736453	0.235804
499.103023	0.237268
499.469535	0.236624
499.835989	0.236893
500.202385	0.237683
500.568723	0.241203
500.935003	0.236177
501.301226	0.240648
501.667390	0.234584
502.033497	0.232917
502.399546	0.235702
502.765537	0.237299
503.131470	0.236122
503.497345	0.232370
503.863163	0.241124
504.228923	0.234163
504.594625	0.232988
504.960269	0.238261
505.325856	0.233450
505.691385	0.237666
506.056856	0.234513
506.422270	0.233868
506.787625	0.236548
507.152924	0.233681
507.518164	0.234146
507.883347	0.235999
508.248472	0.237678
508.613540	0.232910
508.978550	0.235317
509.343503	0.235659
509.708398	0.233321
510.073236	0.230862
510.438016	0.231051
510.802738	0.231834
511.167403	0.230887
511.532010	0.232832
511.896561	0.228169
512.261053	0.226975
512.625488	0.229247
512.989866	0.229378
513.354186	0.229830
513.718449	0.231745
514.082655	0.228104
514.446803	0.230129
514.810894	0.227818
515.174927	0.230460
515.538904	0.230201
515.902822	0.226787
516.266684	0.229167
516.630488	0.230411
516.994235	0.229204
517.357925	0.228173
517.721558	0.226265
518.085133	0.225626
518.448651	0.225877
518.812112	0.227864
519.175516	0.227561
519.538863	0.225369
519.902152	0.226878
520.265385	0.223677
520.628560	0.225589
520.991678	0.225895
521.354739	0.224982
521.717743	0.226224
522.080690	0.226499
522.443580	0.223735
522.806413	0.224640
523.169189	0.223905
523.531908	0.222993
523.894569	0.226385
524.257174	0.226605
524.619722	0.224422
524.982213	0.225488
525.344647	0.224302
525.707025	0.224920
526.069345	0.223218
526.431608	0.224943
526.793815	0.222895
527.155964	0.226898
527.518057	0.225788
527.880093	0.226842
528.242072	0.225410
528.603995	0.227326
528.965860	0.229060
529.327669	0.227913
529.689421	0.228749
530.051117	0.229655
530.412755	0.227307
530.774337	0.229588
531.135862	0.229956
531.497331	0.229157
531.858743	0.232032
532.220098	0.229081
532.581396	0.231705
532.942638	0.231780
533.303824	0.232864
533.664953	0.232691
534.026025	0.234301
534.387040	0.232432
534.747999	0.232188
535.108902	0.230975
535.469748	0.235836
535.830537	0.233835
536.191270	0.234577
536.551947	0.233816
536.912567	0.234110
537.273131	0.235766
537.633638	0.235760
537.994089	0.236270
538.354483	0.237374
538.714821	0.234284
539.075103	0.233790
539.435328	0.234800
539.795497	0.238408
540.155609	0.235122
540.515665	0.233644
540.875665	0.239183
541.235609	0.237387
541.595496	0.237698
541.955328	0.234037
542.315102	0.236636
542.674821	0.237821
543.034483	0.237820
543.394090	0.237543
543.753640	0.239492
544.113134	0.234287
544.472571	0.237550
544.831953	0.234620
545.191278	0.238445
545.550548	0.238170
545.909761	0.234872
546.268918	0.235331
546.628019	0.233932
546.987064	0.236762
547.346053	0.238297
547.704986	0.236219
548.063863	0.236501
548.422684	0.236689
548.781449	0.238665
549.140158	0.235975
549.498811	0.239383
549.857408	0.242079
550.215949	0.237282
550.574434	0.240086
550.932864	0.238049
551.291237	0.236850
551.649555	0.238112
552.007817	0.237789
552.366022	0.238695
552.724173	0.238689
553.082267	0.239260
553.440305	0.236249
553.798288	0.240624
554.156215	0.237079
554.514086	0.237873
554.871902	0.241081
555.229661	0.240058
555.587365	0.240784
555.945014	0.243532
556.302606	0.240321
556.660143	0.242566
557.017625	0.239173
557.375050	0.241334
557.732421	0.238289
558.089735	0.240392
558.446994	0.240596
558.804197	0.239570
559.161345	0.239790
559.518437	0.243276
559.875474	0.240836
560.232455	0.240321
560.589381	0.241600
560.946251	0.241512
561.303065	0.239090
561.659825	0.240694
562.016528	0.241943
562.373177	0.244621
562.729770	0.242048
563.086307	0.244246
563.442789	0.242030
563.799216	0.244616
564.155587	0.243245
564.511904	0.244705
564.868164	0.244685
565.224370	0.244299
565.580520	0.246276
565.936615	0.246089
566.292654	0.249150
566.648638	0.246435
567.004567	0.246924
567.360441	0.247811
567.716260	0.249718
568.072023	0.247526
568.427732	0.248307
568.783385	0.250720
569.138982	0.248802
569.494525	0.248601
569.850013	0.251340
570.205445	0.249822
570.560823	0.252402
570.916145	0.254430
571.271412	0.252664
571.626625	0.254162
571.981782	0.254606
572.336884	0.255352
572.691931	0.255056
573.046923	0.256498
573.401860	0.257870
573.756743	0.259355
574.111570	0.257937
574.466342	0.258558
574.821059	0.257479
575.175722	0.260342
575.530330	0.260418
575.884882	0.260707
576.239380	0.262354
576.593823	0.263235
576.948211	0.262450
577.302544	0.265763
577.656823	0.265565
578.011047	0.265565
578.365216	0.266147
578.719330	0.268319
579.073389	0.268039
579.427394	0.268989
579.781344	0.269906
580.135239	0.271304
580.489080	0.271209
580.842866	0.274126
581.196597	0.273983
581.550273	0.272963
581.903895	0.273694
582.257463	0.271631
582.610975	0.275448
582.964434	0.274525
583.317837	0.277194
583.671186	0.277505
584.024481	0.277587
584.377721	0.279757
584.730906	0.280437
585.084037	0.279937
585.437113	0.281504
585.790135	0.280948
586.143103	0.283845
586.496016	0.285073
586.848874	0.282699
587.201679	0.283207
587.554428	0.286500
587.907124	0.285489
588.259765	0.285932
588.612352	0.286691
588.964884	0.290572
589.317362	0.290138
589.669786	0.289767
590.022155	0.288747
590.374470	0.287500
590.726731	0.289772
591.078937	0.294482
591.431090	0.290752
591.783188	0.294990
592.135232	0.295248
592.487222	0.295656
592.839157	0.293845
593.191038	0.295872
593.542866	0.297842
593.894639	0.301453
594.246358	0.299288
594.598022	0.298951
594.949633	0.302661
595.301190	0.303061
595.652692	0.302626
596.004141	0.298687
596.355535	0.306681
596.706876	0.307158
597.058162	0.309623
597.409395	0.307060
597.760573	0.304329
598.111698	0.307782
598.462768	0.308442
598.813785	0.309640
599.164748	0.310951
599.515657	0.311078
599.866511	0.314724
600.217312	0.309944
600.568060	0.315053
600.918753	0.311428
601.269392	0.312222
601.619978	0.315564
601.970510	0.313356
602.320988	0.313821
602.671412	0.311382
603.021783	0.313664
603.372100	0.314848
603.722363	0.314856
604.072572	0.315468
604.422728	0.315240
604.772830	0.317446
605.122878	0.317075
605.472872	0.317520
605.822813	0.316209
606.172701	0.318522
606.522534	0.316074
606.872314	0.315734
607.222041	0.316799
607.571714	0.315016
607.921333	0.316347
608.270899	0.315921
608.620411	0.312973
608.969870	0.317148
609.319276	0.316750
609.668627	0.316968
610.017926	0.315282
610.367171	0.313759
610.716362	0.314981
611.065500	0.314844
611.414585	0.313185
611.763616	0.314058
612.112594	0.314435
612.461518	0.314191
612.810389	0.311693
613.159207	0.314071
613.507971	0.315895
613.856682	0.311762
614.205340	0.313256
614.553945	0.310090
614.902496	0.313894
615.250994	0.311973
615.599439	0.312616
615.947830	0.312117
616.296169	0.313055
616.644454	0.312605
616.992686	0.312381
617.340864	0.310184
617.688990	0.314041
618.037063	0.310751
618.385082	0.312495
618.733048	0.309296
619.080961	0.311686
619.428821	0.311104
619.776628	0.310943
620.124382	0.312407
620.472083	0.313104
620.819731	0.312281
621.167326	0.316023
621.514868	0.315823
621.862357	0.320313
622.209793	0.319692
622.557176	0.321591
622.904506	0.322900
623.251783	0.325095
623.599007	0.327644
623.946179	0.327485
624.293297	0.329167
624.640363	0.332899
624.987376	0.333589
625.334336	0.336415
625.681243	0.338227
626.028097	0.339252
626.374899	0.339880
626.721647	0.340464
627.068343	0.343878
627.414987	0.344593
627.761577	0.346505
628.108115	0.345074
628.454600	0.350154
628.801032	0.347556
629.147412	0.349445
629.493739	0.349779
629.840014	0.353173
630.186236	0.350719
630.532405	0.356302
630.878521	0.353615
631.224585	0.355778
631.570597	0.359502
631.916556	0.357169
632.262462	0.358095
632.608316	0.360122
632.954117	0.360935
633.299866	0.361530
633.645562	0.362303
633.991206	0.366090
634.336797	0.369516
634.682336	0.371171
635.027823	0.372820
635.373257	0.373713
635.718639	0.377269
636.063968	0.376770
636.409245	0.382488
636.754470	0.382661
637.099642	0.384959
637.444762	0.388315
637.789829	0.387384
638.134845	0.391132
638.479808	0.391879
638.824719	0.391719
639.169577	0.396000
639.514383	0.394520
639.859137	0.399446
640.203839	0.398416
640.548489	0.399410
640.893086	0.400573
641.237632	0.402609
641.582125	0.400761
641.926566	0.402334
642.270955	0.402577
642.615292	0.402972
642.959576	0.401714
643.303809	0.402775
643.647990	0.402084
643.992118	0.402543
644.336195	0.406617
644.680219	0.404157
645.024192	0.405379
645.368112	0.398564
645.711981	0.397823
646.055797	0.392957
646.399562	0.395616
646.743274	0.387693
647.086935	0.385028
647.430544	0.385071
647.774101	0.384006
648.117606	0.383330
648.461059	0.383805
648.804460	0.386056
649.147810	0.391818
649.491108	0.393538
649.834354	0.394859
650.177548	0.400611
650.520690	0.405691
650.863781	0.407201
651.206820	0.406457
651.549807	0.410740
651.892742	0.414629
652.235626	0.414300
652.578458	0.415864
652.921238	0.421782
653.263967	0.419174
653.606644	0.423337
653.949269	0.423045
654.291843	0.426711
654.634365	0.423722
654.976836	0.426722
655.319255	0.426987
655.661622	0.428166
656.003938	0.428444
656.346203	0.431597
656.688416	0.429524
657.030577	0.432793
657.372687	0.434825
657.714746	0.435675
658.056753	0.432293
658.398708	0.436240
658.740612	0.437209
659.082465	0.434079
659.424266	0.434237
659.766016	0.433307
660.107715	0.436401
660.449362	0.435515
660.790958	0.436419
661.132503	0.436255
661.473996	0.433963
661.815438	0.434628
662.156829	0.435266
662.498168	0.436385
662.839456	0.437129
663.180693	0.435310
663.521879	0.434843
663.863013	0.435821
664.204097	0.434294
664.545129	0.431512
664.886110	0.431656
665.227040	0.428712
665.567918	0.431879
665.908746	0.429729
666.249522	0.429197
666.590248	0.430204
666.930922	0.428234
667.271545	0.426980
667.612118	0.427603
667.952639	0.429144
668.293109	0.427305
668.633528	0.430887
668.973896	0.430294
669.314213	0.430878
669.654480	0.432057
669.994695	0.432615
670.334859	0.433972
670.674973	0.433663
671.015035	0.434046
671.355047	0.433941
671.695008	0.435017
672.034918	0.437062
672.374777	0.436654
672.714585	0.437234
673.054342	0.437388
673.394049	0.437504
673.733705	0.434685
674.073310	0.436533
674.412864	0.439206
674.752368	0.439504
675.091820	0.439919
675.431223	0.444288
675.770574	0.444540
676.109875	0.447619
676.449125	0.447433
676.788324	0.449535
677.127473	0.454846
677.466571	0.454510
677.805619	0.456385
678.144616	0.457162
678.483562	0.459101
678.822458	0.460872
679.161303	0.462730
679.500098	0.463035
679.838842	0.464825
680.177535	0.463529
680.516179	0.462866
680.854771	0.461823
681.193314	0.455696
681.531805	0.446791
681.870247	0.434927
682.208638	0.427530
682.546978	0.426285
682.885268	0.428356
683.223508	0.434662
683.561697	0.438641
683.899836	0.440599
684.237925	0.444390
684.575963	0.447010
684.913951	0.449712
685.251889	0.446180
685.589776	0.447616
685.927614	0.450121
686.265401	0.444536
686.603137	0.446057
686.940824	0.440232
687.278460	0.437969
687.616046	0.437439
687.953582	0.431986
688.291068	0.433658
688.628504	0.429238
688.965889	0.431330
689.303224	0.435953
689.640510	0.439494
689.977745	0.445488
690.314930	0.453273
690.652065	0.457868
690.989150	0.465732
691.326185	0.472254
691.663170	0.476430
692.000105	0.483782
692.336990	0.490549
692.673825	0.493368
693.010610	0.500274
693.347345	0.505834
693.684030	0.507297
694.020665	0.511641
694.357251	0.520664
694.693786	0.520091
695.030272	0.524220
695.366707	0.528280
695.703093	0.531433
696.039429	0.529078
696.375716	0.530642
696.711952	0.532920
697.048139	0.535927
697.384276	0.537037
697.720363	0.535668
698.056400	0.535106
698.392388	0.540870
698.728326	0.543287
699.064214	0.545856
699.400053	0.546697
699.735842	0.550407
700.071581	0.553807
700.407270	0.556010
700.742910	0.558997
701.078501	0.565436
701.414042	0.565509
701.749533	0.569251
702.084974	0.576977
702.420366	0.570238
702.755709	0.577299
703.091002	0.585030
703.426246	0.579049
703.761440	0.584266
704.096584	0.589338
704.431679	0.585877
704.766725	0.588866
705.101721	0.589996
705.436668	0.585707
705.771565	0.593497
706.106413	0.589898
706.441212	0.585070
706.775961	0.583766
707.110661	0.587230
707.445311	0.582774
707.779913	0.580311
708.114465	0.578875
708.448967	0.576417
708.783421	0.567479
709.117825	0.562450
709.452180	0.562180
709.786485	0.555387
710.120742	0.545752
710.454949	0.547733
710.789107	0.539694
711.123216	0.531420
711.457275	0.532829
711.791286	0.523024
712.125247	0.522363
712.459159	0.533105
712.793023	0.525709
713.126837	0.530233
713.460602	0.530128
713.794318	0.539559
714.127985	0.538474
714.461602	0.548540
714.795171	0.551725
715.128691	0.559149
715.462162	0.567049
715.795584	0.572891
716.128957	0.576028
716.462281	0.582026
716.795556	0.585830
717.128782	0.590958
717.461960	0.600774
717.795088	0.598826
718.128167	0.605049
718.461198	0.613932
718.794180	0.614758
719.127113	0.616626
719.459997	0.620496
719.792833	0.627576
720.125619	0.628190
720.458357	0.634031
720.791046	0.633698
721.123686	0.637760
721.456278	0.644133
721.788821	0.640822
722.121315	0.645435
722.453761	0.650287
722.786158	0.647157
723.118506	0.643752
723.450805	0.652517
723.783056	0.648064
724.115259	0.644848
724.447412	0.645138
724.779518	0.646555
725.111574	0.645238
725.443582	0.640633
725.775542	0.642981
726.107453	0.634843
726.439315	0.634739
726.771129	0.633006
727.102895	0.626396
727.434612	0.619392
727.766281	0.617060
728.097901	0.616446
728.429473	0.616466
728.760996	0.615095
729.092471	0.614846
729.423897	0.618224
729.755276	0.617510
730.086606	0.617161
730.417887	0.612260
730.749120	0.603344
731.080305	0.594309
731.411442	0.590222
731.742530	0.595054
732.073570	0.594006
732.404562	0.586375
732.735506	0.587904
733.066401	0.592514
733.397249	0.601718
733.728048	0.613680
734.058798	0.625527
734.389501	0.636495
734.720156	0.645444
735.050762	0.654225
735.381320	0.655256
735.711831	0.664335
736.042293	0.669037
736.372707	0.664648
736.703073	0.669451
737.033391	0.671933
737.363661	0.668592
737.693883	0.664236
738.024056	0.662752
738.354182	0.663586
738.684260	0.652795
739.014290	0.648481
739.344272	0.649205
739.674207	0.642717
740.004093	0.641731
740.333931	0.642924
740.663722	0.642566
740.993464	0.642907
741.323159	0.646951
741.652806	0.652720
741.982405	0.656462
742.311956	0.661457
742.641460	0.663957
742.970915	0.667661
743.300323	0.675193
743.629683	0.681335
743.958996	0.682970
744.288260	0.687832
744.617477	0.693728
744.946647	0.695172
745.275768	0.700917
745.604842	0.700696
745.933869	0.710718
746.262847	0.710714
746.591778	0.704656
746.920662	0.710770
747.249498	0.717581
747.578286	0.708145
747.907027	0.704145
748.235720	0.705305
748.564365	0.698753
748.892963	0.700188
749.221514	0.702702
749.550017	0.707917
749.878473	0.707452
750.206881	0.713858
750.535242	0.715987
750.863555	0.715017
751.191821	0.716378
751.520039	0.719897
751.848210	0.724839
752.176334	0.716758
752.504411	0.716342
752.832440	0.723931
753.160421	0.727680
753.488356	0.726427
753.816243	0.723908
754.144082	0.731996
754.471875	0.735801
754.799620	0.730584
755.127318	0.732746
755.454969	0.732654
755.782572	0.731783
756.110129	0.736348
756.437638	0.738859
756.765100	0.735301
757.092515	0.733468
757.419882	0.732427
757.747203	0.737746
758.074477	0.738038
758.401703	0.734662
758.728882	0.729352
759.056014	0.728610
759.383099	0.727038
759.710138	0.728378
760.037129	0.725174
760.364073	0.719281
760.690970	0.721789
761.017820	0.727329
761.344623	0.723023
761.671379	0.714039
761.998088	0.701467
762.324751	0.679068
762.651366	0.637671
762.977935	0.570328
763.304456	0.518501
763.630931	0.508750
763.957359	0.547139
764.283740	0.592318
764.610074	0.619290
764.936362	0.650412
765.262602	0.676889
765.588796	0.699509
765.914943	0.717102
766.241044	0.734197
766.567097	0.741277
766.893104	0.751035
767.219064	0.757712
767.544978	0.764085
767.870845	0.777318
768.196665	0.780925
768.522438	0.779275
768.848165	0.780611
769.173846	0.789216
769.499479	0.793882
769.825066	0.796871
770.150607	0.803316
770.476101	0.797385
770.801548	0.798922
771.126949	0.809618
771.452303	0.814191
771.777611	0.813575
772.102872	0.812308
772.428087	0.817976
772.753256	0.821058
773.078378	0.822660
773.403453	0.831793
773.728482	0.837075
774.053465	0.830067
774.378401	0.833070
774.703291	0.841874
775.028135	0.840680
775.352932	0.842446
775.677683	0.845552
776.002388	0.846364
776.327046	0.845267
776.651658	0.848976
776.976224	0.852325
777.300743	0.852550
777.625216	0.854661
777.949643	0.856099
778.274024	0.857181
778.598359	0.857397
778.922647	0.856599
779.246889	0.857446
779.571086	0.861266
779.895236	0.864242
780.219339	0.862421
780.543397	0.858020
780.867409	0.856606
781.191374	0.858913
781.515294	0.860060
781.839167	0.859374
782.162995	0.862407
782.486776	0.859262
782.810511	0.860024
783.134201	0.863691
783.457844	0.861738
783.781441	0.864398
784.104993	0.871021
784.428498	0.870896
784.751958	0.865947
785.075372	0.868303
785.398739	0.872430
785.722061	0.868311
786.045337	0.863521
786.368568	0.869277
786.691752	0.871999
787.014891	0.857430
787.337983	0.849037
787.661030	0.841099
787.984031	0.823069
788.306987	0.810935
788.629897	0.812724
788.952760	0.815681
789.275579	0.820882
789.598351	0.836918
789.921078	0.849336
790.243759	0.852452
790.566395	0.856644
790.888984	0.863525
791.211529	0.868617
791.534027	0.870783
791.856480	0.873304
792.178888	0.878072
792.501249	0.881983
792.823566	0.882937
793.145836	0.882665
793.468062	0.885178
793.790241	0.884211
794.112375	0.883772
794.434464	0.877688
794.756507	0.878039
795.078505	0.876932
795.400457	0.873031
795.722364	0.860248
796.044226	0.852599
796.366042	0.851666
796.687812	0.855771
797.009538	0.851137
797.331218	0.854689
797.652852	0.859644
797.974442	0.864468
798.295986	0.865063
798.617484	0.867078
798.938938	0.870694
799.260346	0.875479
799.581709	0.877486
799.903026	0.880181
800.224299	0.881327
800.545526	0.884953
800.866708	0.887858
801.187845	0.892744
801.508936	0.892408
801.829983	0.889575
802.150984	0.892598
802.471940	0.898012
802.792851	0.896897
803.113717	0.897981
803.434538	0.894888
803.755314	0.899414
804.076045	0.899823
804.396731	0.899777
804.717372	0.900771
805.037967	0.901498
805.358518	0.899205
805.679024	0.896539
805.999485	0.897107
806.319901	0.896192
806.640272	0.897772
806.960598	0.896598
807.280879	0.893996
807.601115	0.893013
807.921306	0.896310
808.241453	0.895748
808.561554	0.895187
808.881611	0.893828
809.201623	0.896300
809.521590	0.896005
809.841513	0.897786
810.161390	0.896652
810.481223	0.896746
810.801011	0.900718
811.120755	0.903161
811.440453	0.901317
811.760107	0.901173
812.079716	0.900435
812.399281	0.904826
812.718801	0.907383
813.038276	0.906440
813.357707	0.907481
813.677093	0.904468
813.996434	0.906956
814.315731	0.908331
814.634983	0.910237
814.954191	0.908367
815.273354	0.905322
815.592473	0.900956
815.911547	0.901371
816.230577	0.898799
816.549562	0.895894
816.868502	0.896978
817.187399	0.894012
817.506250	0.887845
817.825058	0.889953
818.143821	0.887259
818.462539	0.881507
818.781213	0.873124
819.099843	0.862330
819.418429	0.846313
819.736970	0.829028
820.055466	0.808856
820.373919	0.783606
820.692327	0.751040
821.010691	0.716181
821.329011	0.638402
821.647286	0.522314
821.965517	0.407932
822.283704	0.365466
822.601847	0.365990
822.919945	0.402264
823.237999	0.435697
823.556010	0.483265
823.873976	0.538674
824.191897	0.590002
824.509775	0.632722
824.827609	0.677741
825.145398	0.701060
825.463144	0.703673
825.780845	0.687021
826.098502	0.667696
826.416116	0.622183
826.733685	0.577641
827.051210	0.568827
827.368692	0.584082
827.686129	0.621742
828.003522	0.674610
828.320872	0.721932
828.638177	0.765475
828.955439	0.799679
829.272656	0.820621
829.589830	0.838480
829.906960	0.855241
830.224046	0.866465
830.541088	0.877409
830.858086	0.880890
831.175041	0.887802
831.491952	0.886504
831.808819	0.883983
832.125642	0.877938
832.442421	0.862004
832.759157	0.839894
833.075849	0.792922
833.392497	0.729603
833.709101	0.688810
834.025662	0.697425
834.342179	0.730576
834.658653	0.768722
834.975083	0.806678
835.291469	0.832041
835.607811	0.854112
835.924110	0.870958
836.240366	0.885980
836.556578	0.902135
836.872746	0.908299
837.188871	0.915099
837.504952	0.920212
837.820990	0.923353
838.136984	0.927535
838.452935	0.929747
838.768842	0.930936
839.084706	0.925498
839.400526	0.898567
839.716303	0.858725
840.032037	0.835933
840.347727	0.839411
840.663373	0.858329
840.978977	0.879827
841.294537	0.902685
841.610054	0.917655
841.925527	0.926352
842.240957	0.933553
842.556344	0.940015
842.871687	0.946333
843.186987	0.950340
843.502244	0.950966
843.817458	0.953154
844.132629	0.955699
844.447756	0.960581
844.762840	0.960903
845.077881	0.959669
845.392879	0.960526
845.707833	0.962935
846.022745	0.965077
846.337613	0.964946
846.652438	0.966955
846.967221	0.964737
847.281960	0.965941
847.596656	0.967986
847.911309	0.966768
848.225919	0.968404
848.540485	0.967796
848.855009	0.969123
849.169490	0.969263
849.483928	0.969399
849.798323	0.970022
850.112675	0.969896
850.426984	0.969752
850.741251	0.970195
851.055474	0.970973
851.369654	0.968934
851.683792	0.970729
851.997887	0.970524
852.311938	0.971738
852.625947	0.970786
852.939914	0.968667
853.253837	0.969841
853.567718	0.970893
853.881555	0.970833
854.195350	0.968988
854.509103	0.969221
854.822812	0.970651
855.136479	0.970120
855.450103	0.970807
855.763685	0.968866
856.077224	0.969315
856.390720	0.971010
856.704173	0.971077
857.017584	0.968839
857.330953	0.966393
857.644278	0.968737
857.957561	0.968598
858.270802	0.968920
858.584000	0.968089
858.897155	0.966983
859.210268	0.967871
859.523339	0.968672
859.836367	0.970261
860.149352	0.970809
860.462295	0.968733
860.775195	0.970408
861.088054	0.970132
861.400869	0.970618
861.713642	0.969802
862.026373	0.970324
862.339062	0.971187
862.651708	0.968290
862.964312	0.968654
863.276873	0.969653
863.589392	0.968536
863.901869	0.965420
864.214303	0.965065
864.526696	0.964342
864.839045	0.963388
865.151353	0.962092
865.463619	0.963483
865.775842	0.963181
866.088023	0.962270
866.400162	0.962155
866.712258	0.963317
867.024313	0.963187
867.336325	0.964649
867.648296	0.963976
867.960224	0.963227
868.272110	0.962742
868.583954	0.964477
868.895755	0.964507
869.207515	0.961860
869.519233	0.959478
869.830909	0.961833
870.142542	0.963026
870.454134	0.962787
870.765684	0.961247
871.077191	0.957588
871.388657	0.959673
871.700081	0.957357
872.011463	0.959713
872.322803	0.958960
872.634101	0.957021
872.945357	0.955718
873.256571	0.952954
873.567744	0.952818
873.878874	0.953231
874.189963	0.952659
874.501010	0.951412
874.812015	0.950097
875.122979	0.951373
875.433900	0.953656
875.744780	0.953238
876.055618	0.951445
876.366415	0.950384
876.677169	0.950965
876.987882	0.951351
877.298554	0.950636
877.609183	0.947195
877.919771	0.945022
878.230317	0.942776
878.540822	0.940766
878.851285	0.935215
879.161707	0.927141
879.472087	0.914909
879.782425	0.898449
880.092722	0.864558
880.402977	0.812203
880.713191	0.750445
881.023363	0.691568
881.333494	0.656523
881.643583	0.628399
881.953631	0.629451
882.263637	0.656970
882.573602	0.697205
882.883526	0.722549
883.193408	0.746905
883.503248	0.768956
883.813048	0.797720
884.122806	0.826566
884.432522	0.850693
884.742197	0.869817
885.051831	0.880590
885.361424	0.891830
885.670975	0.902830
885.980485	0.914074
886.289954	0.919691
886.599382	0.924663
886.908768	0.928231
887.218113	0.934914
887.527417	0.940027
887.836680	0.942013
888.145901	0.943851
888.455082	0.947141
888.764221	0.950406
889.073319	0.953101
889.382376	0.952633
889.691392	0.953755
890.000366	0.952318
890.309300	0.954180
890.618193	0.953891
890.927044	0.950418
891.235855	0.951326
891.544625	0.951932
891.853353	0.952286
892.162041	0.949470
892.470687	0.941766
892.779293	0.938394
893.087858	0.934259
893.396381	0.926677
893.704864	0.913246
894.013306	0.888957
894.321707	0.862147
894.630068	0.846974
894.938387	0.842637
895.246665	0.844420
895.554903	0.856796
895.863100	0.870176
896.171256	0.887916
896.479371	0.906209
896.787446	0.918486
897.095480	0.924387
897.403473	0.928151
897.711425	0.933330
898.019336	0.941223
898.327207	0.942882
898.635038	0.944954
898.942827	0.945036
899.250576	0.947839
899.558284	0.953055
899.865952	0.954474
900.173579	0.956158
900.481165	0.956526
900.788711	0.960166
901.096216	0.962027
901.403681	0.962226
901.711105	0.964230
902.018489	0.963702
902.325832	0.962900
902.633135	0.961506
902.940397	0.956444
903.247619	0.944225
903.554800	0.917338
903.861941	0.878138
904.169041	0.842275
904.476101	0.825072
904.783121	0.824456
905.090100	0.843161
905.397039	0.864263
905.703938	0.885967
906.010796	0.906108
906.317614	0.922369
906.624391	0.935168
906.931129	0.944099
907.237826	0.951263
907.544483	0.958676
907.851099	0.962514
908.157675	0.967924
908.464211	0.970828
908.770707	0.973176
909.077163	0.974692
909.383578	0.975312
909.689954	0.975578
909.996289	0.977463
910.302584	0.977922
910.608839	0.979606
910.915054	0.980133
911.221229	0.977864
911.527363	0.977907
911.833458	0.976941
912.139513	0.977875
912.445527	0.975284
912.751502	0.974991
913.057436	0.973302
913.363331	0.969403
913.669186	0.967308
913.975000	0.961450
914.280775	0.955825
914.586510	0.949791
914.892205	0.934661
915.197859	0.914065
915.503475	0.885195
915.809050	0.866455
916.114585	0.859955
916.420081	0.857514
916.725536	0.855192
917.030952	0.863311
917.336328	0.876091
917.641665	0.891069
917.946961	0.906631
918.252218	0.918007
918.557435	0.927421
918.862612	0.936513
919.167750	0.942186
919.472848	0.947830
919.777906	0.952602
920.082925	0.956911
920.387904	0.962127
920.692843	0.962948
920.997743	0.964532
921.302603	0.968258
921.607423	0.968779
921.912204	0.970746
922.216946	0.972823
922.521647	0.973617
922.826310	0.975169
923.130932	0.976836
923.435516	0.979657
923.740059	0.980005
924.044564	0.979254
924.349028	0.981395
924.653454	0.983884
924.957840	0.985719
925.262186	0.984465
925.566493	0.984495
925.870761	0.985537
926.174989	0.986985
926.479178	0.989256
926.783328	0.988823
927.087438	0.988558
927.391509	0.987977
927.695541	0.989891
927.999533	0.990347
928.303486	0.990137
928.607400	0.991812
928.911275	0.990149
929.215110	0.990731
929.518906	0.991216
929.822663	0.989799
930.126381	0.991225
930.430060	0.990600
930.733699	0.991267
931.037299	0.990361
931.340861	0.991828
931.644383	0.989448
931.947866	0.990104
932.251309	0.991018
932.554714	0.991005
932.858080	0.991849
933.161407	0.990350
933.464694	0.991416
933.767943	0.989440
934.071153	0.991744
934.374323	0.992244
934.677455	0.991667
934.980548	0.991808
935.283602	0.991603
935.586617	0.991100
935.889593	0.991214
936.192530	0.990810
936.495428	0.991680
936.798287	0.991321
937.101108	0.990153
937.403890	0.990128
937.706632	0.988912
938.009336	0.988739
938.312002	0.986109
938.614628	0.983488
938.917216	0.984518
939.219765	0.982616
939.522275	0.983911
939.824747	0.983411
940.127179	0.983126
940.429573	0.984596
940.731929	0.984239
941.034246	0.985163
941.336524	0.985837
941.638763	0.987995
941.940964	0.986297
942.243126	0.987684
942.545250	0.987983
942.847335	0.988753
943.149381	0.989426
943.451389	0.988046
943.753359	0.989508
944.055290	0.992477
944.357182	0.990073
944.659036	0.988925
944.960851	0.990023
945.262628	0.990701
945.564367	0.991370
945.866067	0.991021
946.167729	0.990501
946.469352	0.991141
946.770937	0.988761
947.072484	0.990881
947.373992	0.989555
947.675462	0.991026
947.976893	0.989907
948.278286	0.990874
948.579641	0.992150
948.880958	0.991869
949.182236	0.991031
949.483476	0.992444
949.784678	0.990345
950.085841	0.992044
950.386967	0.991687
950.688054	0.991325
950.989103	0.992091
951.290114	0.990063
951.591087	0.990150
951.892021	0.990296
952.192917	0.988869
952.493776	0.988807
952.794596	0.989055
953.095378	0.988176
953.396122	0.987720
953.696828	0.987377
953.997496	0.991052
954.298126	0.991482
954.598718	0.990765
954.899272	0.991590
955.199788	0.989995
955.500266	0.991891
955.800706	0.993712
956.101108	0.994066
956.401472	0.994041
956.701798	0.994059
957.002087	0.993636
957.302337	0.994833
957.602550	0.996900
957.902724	0.994832
958.202861	0.995647
958.502960	0.995225
958.803022	0.994476
959.103045	0.997589
959.403031	0.996163
959.702979	0.995712
960.002889	0.996511
960.302762	0.996566
960.602596	0.996671
960.902393	0.995189
961.202153	0.997783
961.501875	0.998513
961.801559	0.996692
962.101205	0.995623
962.400814	0.997053
962.700385	0.996750
962.999918	0.996954
963.299414	0.996584
963.598873	0.997235
963.898293	0.996831
964.197677	0.996305
964.497022	0.997294
964.796331	0.997413
965.095601	0.995685
965.394835	0.997955
965.694030	0.997059
965.993189	0.997942
966.292309	0.996517
966.591393	0.998278
966.890439	0.997389
967.189447	0.996832
967.488419	0.996599
967.787353	0.996679
968.086249	0.997308
968.385108	0.997997
968.683930	0.998182
968.982714	0.997884
969.281462	0.998255
969.580172	0.997639
969.878844	0.996792
970.177480	0.997158
970.476078	0.998203
970.774639	0.997773
971.073162	0.997953
971.371649	0.997658
971.670098	0.997080
971.968510	0.997657
972.266885	0.996238
972.565223	0.996757
972.863524	0.996338
973.161788	0.996943
973.460014	0.997890
973.758204	0.995290
974.056356	0.996704
974.354471	0.994449
974.652550	0.997453
974.950591	0.997419
975.248595	0.996541
975.546563	0.997040
975.844493	0.998534
976.142386	0.997401
976.440243	0.998160
976.738062	0.997601
977.035845	0.998594
977.333590	0.998540
977.631299	0.998104
977.928971	0.996413
978.226606	0.998019
978.524204	0.997474
978.821765	0.998996
979.119290	0.997275
979.416777	0.997571
979.714228	0.998977
980.011642	0.997618
980.309020	0.997387
980.606360	0.997431
980.903664	0.998854
981.200931	0.996472
981.498162	0.995715
981.795356	0.995164
982.092513	0.994798
982.389633	0.994138
982.686717	0.991478
982.983764	0.992707
983.280775	0.991077
983.577749	0.990723
983.874686	0.991839
984.171587	0.991560
984.468451	0.994671
984.765279	0.995604
985.062070	0.995629
985.358824	0.995586
985.655543	0.995986
985.952224	0.996902
986.248869	0.996851
986.545478	0.996496
986.842050	0.998760
987.138586	0.997377
987.435086	0.997464
987.731549	0.998622
988.027975	0.998174
988.324366	0.997340
988.620719	0.998047
988.917037	0.996295
989.213318	0.999662
989.509563	0.999422
989.805772	0.998607
990.101944	0.998932
990.398080	0.998000
990.694180	0.998369
990.990244	0.998193
991.286271	0.998170
991.582262	0.999154
991.878217	0.997588
992.174136	0.999350
992.470019	0.999621
992.765865	0.998545
993.061676	0.999008
993.357450	0.998475
993.653188	0.997514
993.948890	0.998463
994.244556	1.000196
994.540186	0.997816
994.835780	0.997113
995.131337	0.997118
995.426859	0.997560
995.722345	0.997660
996.017795	0.997198
996.313208	0.996330
996.608586	0.995056
996.903928	0.998771
997.199234	0.996630
997.494504	0.996808
997.789738	0.995761
998.084936	0.997465
998.380099	0.998657
998.675225	0.997423
998.970316	0.998058
999.265371	0.998460
999.560390	0.998763
999.855373	0.999092
1000.150320	0.999153
1000.445232	0.999170
1000.740108	0.999071
1001.034948	0.999441
1001.329752	0.999622
1001.624521	0.999812
1001.919254	0.998749
1002.213951	0.999039
1002.508613	0.997891
1002.803239	0.999767
1003.097829	0.999734
1003.392384	0.999207
1003.686903	0.999832
1003.981386	0.999388
1004.275834	0.999765
1004.570246	0.999009
1004.864623	1.000099
1005.158964	1.000507
1005.453270	0.998870
1005.747540	0.998455
1006.041775	0.998874
1006.335974	1.000158
1006.630138	0.999603
1006.924266	0.999728
1007.218359	1.001422
1007.512416	1.000935
1007.806438	0.999842
1008.100425	0.999994
1008.394376	1.000013
1008.688292	0.997950
1008.982172	1.000907
1009.276017	0.999396
1009.569827	0.999998
1009.863602	0.999542
1010.157341	1.000456
1010.451045	0.998955
1010.744714	0.999847
1011.038347	0.999884
1011.331945	0.999343
1011.625508	0.997611
1011.919036	0.999098
1012.212528	1.000455
1012.505986	0.997259
1012.799408	0.999990
1013.092795	0.999386
1013.386147	1.000222
1013.679464	1.000920
1013.972745	0.997671
1014.265992	0.997136
1014.559204	1.000338
1014.852380	0.999463
1015.145521	0.998845
1015.438628	0.999799
1015.731699	0.998329
1016.024736	0.998751
1016.317737	1.000391
1016.610703	0.999030
1016.903635	1.000791
1017.196531	0.999304
1017.489393	1.000606
1017.782219	0.999394
1018.075011	0.999335
1018.367768	0.999873
1018.660490	1.001165
1018.953177	1.001165
1019.245829	1.001165
