Dividing Wavelength (nm)	Counts (n)	Blue Motor Position (mm): 0.000000	Red Motor Position (mm): 35.800000	
326.493990	1.000057
326.888308	1.000057
327.282561	1.000057
327.676750	0.999181
328.070874	1.000176
328.464933	1.000345
328.858929	0.998916
329.252859	1.000080
329.646726	1.000475
330.040528	1.001556
330.434265	1.000229
330.827938	1.000458
331.221547	1.001091
331.615091	1.000494
332.008571	0.999311
332.401986	1.000781
332.795338	1.000165
333.188625	0.998817
333.581847	1.000050
333.975006	1.000247
334.368100	0.998669
334.761129	0.999362
335.154095	1.000362
335.546996	0.998242
335.939833	0.995668
336.332606	0.996243
336.725315	0.997577
337.117960	0.998536
337.510540	0.996649
337.903056	0.996436
338.295508	0.996263
338.687896	0.997222
339.080220	0.997536
339.472480	0.996828
339.864676	0.997166
340.256807	0.996688
340.648875	0.997744
341.040879	0.997887
341.432818	0.997419
341.824694	0.995974
342.216506	0.997129
342.608253	0.996377
342.999937	0.996267
343.391557	0.996655
343.783113	0.996594
344.174605	0.997028
344.566033	0.996212
344.957397	0.996866
345.348697	0.997196
345.739934	0.997652
346.131106	0.996627
346.522215	0.995833
346.913260	0.996714
347.304241	0.996484
347.695159	0.995960
348.086012	0.995856
348.476802	0.996155
348.867528	0.997854
349.258191	0.994532
349.648789	0.997376
350.039324	0.996150
350.429796	0.995984
350.820203	0.997210
351.210548	0.996403
351.600828	0.996974
351.991045	0.996667
352.381198	0.996967
352.771288	0.996605
353.161314	0.997308
353.551276	0.998271
353.941175	0.997387
354.331010	0.996726
354.720782	0.997266
355.110490	0.997798
355.500135	0.997356
355.889717	0.997044
356.279235	0.995953
356.668689	0.997231
357.058080	0.996560
357.447408	0.998076
357.836672	0.997644
358.225873	0.998182
358.615010	0.996884
359.004084	0.998594
359.393095	0.997722
359.782043	0.997411
360.170927	0.998170
360.559748	0.998300
360.948505	0.995888
361.337199	0.996465
361.725830	0.997444
362.114398	0.996045
362.502903	0.997450
362.891344	0.997857
363.279722	0.995842
363.668037	0.997448
364.056289	0.996495
364.444478	0.997802
364.832603	0.997638
365.220665	0.997266
365.608665	0.996313
365.996601	0.997052
366.384474	0.997378
366.772284	0.997371
367.160031	0.995145
367.547715	0.996087
367.935336	0.996899
368.322893	0.995923
368.710388	0.996200
369.097820	0.997602
369.485189	0.996943
369.872495	0.996203
370.259738	0.994294
370.646918	0.998305
371.034035	0.997157
371.421090	0.996585
371.808081	0.996684
372.195010	0.997321
372.581875	0.997030
372.968678	0.996285
373.355418	0.997459
373.742096	0.996509
374.128710	0.998086
374.515262	0.996058
374.901751	0.998595
375.288177	0.998329
375.674540	0.998277
376.060841	0.996806
376.447079	0.997960
376.833254	0.997730
377.219367	0.998976
377.605417	0.998164
377.991404	0.998330
378.377329	0.997458
378.763191	0.997541
379.148991	0.999493
379.534727	0.998329
379.920402	0.997784
380.306013	0.997642
380.691563	0.999593
381.077049	0.997937
381.462474	0.997102
381.847835	0.998412
382.233134	0.997750
382.618371	0.997289
383.003545	0.998022
383.388657	0.998412
383.773706	0.998750
384.158693	0.998177
384.543618	0.998282
384.928480	0.999728
385.313280	0.998798
385.698017	0.998846
386.082692	0.999104
386.467305	0.999537
386.851856	0.998578
387.236344	0.998989
387.620770	0.997779
388.005133	0.999230
388.389435	1.000021
388.773674	0.998980
389.157851	0.999747
389.541965	0.998787
389.926018	0.998738
390.310008	0.999784
390.693936	0.998616
391.077802	0.999085
391.461606	0.998700
391.845348	0.998473
392.229027	0.999381
392.612645	0.998611
392.996200	1.000010
393.379694	0.999143
393.763125	0.999687
394.146494	0.999309
394.529801	0.997911
394.913047	0.999298
395.296230	0.999477
395.679351	0.999598
396.062410	0.998466
396.445408	0.999355
396.828343	0.999607
397.211217	0.999502
397.594028	0.999393
397.976778	0.998979
398.359466	0.999648
398.742092	0.999229
399.124656	0.999003
399.507158	0.999130
399.889598	0.999161
400.271977	1.000123
400.654294	0.999739
401.036549	0.999014
401.418742	0.999382
401.800874	0.999049
402.182944	0.999550
402.564952	0.999553
402.946898	0.999913
403.328783	0.998992
403.710606	0.999022
404.092367	0.998931
404.474067	0.999188
404.855705	0.999345
405.237282	0.999299
405.618797	0.999811
406.000250	0.998362
406.381642	0.999972
406.762972	0.999626
407.144240	1.001003
407.525447	0.999551
407.906593	0.999755
408.287677	0.999359
408.668700	0.999716
409.049661	0.998213
409.430560	1.000101
409.811399	0.998624
410.192176	0.999033
410.572891	0.999786
410.953545	1.000050
411.334138	0.999562
411.714669	0.998848
412.095139	0.999305
412.475547	1.000312
412.855894	0.999959
413.236180	1.000405
413.616405	1.000299
413.996568	1.001097
414.376670	1.000106
414.756711	0.998881
415.136691	1.000146
415.516609	0.999787
415.896466	0.999768
416.276262	0.998097
416.655997	0.999604
417.035670	0.999756
417.415283	0.999033
417.794834	1.000483
418.174324	0.998947
418.553753	0.999332
418.933121	0.999622
419.312428	0.999915
419.691674	0.999666
420.070859	0.999652
420.449983	1.000249
420.829045	0.999894
421.208047	1.000124
421.586988	1.001067
421.965867	0.999589
422.344686	1.000834
422.723444	1.000233
423.102141	0.999952
423.480777	1.000529
423.859352	1.000200
424.237866	0.999512
424.616319	1.000217
424.994712	1.001131
425.373044	1.001163
425.751314	1.000345
426.129524	0.999581
426.507673	0.999915
426.885762	1.001636
427.263789	1.000354
427.641756	1.000611
428.019662	1.001193
428.397508	0.999903
428.775292	0.999646
429.153016	1.000467
429.530679	1.000477
429.908282	1.000116
430.285824	0.998696
430.663305	1.000036
431.040726	1.000184
431.418086	1.001728
431.795385	1.000936
432.172624	1.000265
432.549802	1.000989
432.926920	1.000412
433.303977	0.999473
433.680974	1.000729
434.057910	0.999661
434.434786	1.000909
434.811601	0.999939
435.188355	0.999150
435.565050	0.999019
435.941683	1.001048
436.318257	1.001572
436.694770	0.999732
437.071222	1.000276
437.447614	1.000862
437.823946	1.000026
438.200218	1.000376
438.576429	1.000183
438.952580	1.001167
439.328670	1.000566
439.704700	1.001524
440.080670	1.000854
440.456580	1.000157
440.832429	0.999597
441.208218	1.000162
441.583947	1.000364
441.959616	1.000658
442.335224	1.000468
442.710773	1.001497
443.086261	1.000043
443.461689	0.999490
443.837057	1.000329
444.212365	1.000760
444.587612	1.000417
444.962800	1.000250
445.337927	1.000092
445.712995	1.000962
446.088002	1.001580
446.462949	1.001408
446.837837	1.000677
447.212664	1.001041
447.587431	1.000494
447.962139	1.000545
448.336786	1.000876
448.711374	1.000626
449.085901	1.000305
449.460369	1.000829
449.834776	1.000468
450.209124	1.001043
450.583412	1.000412
450.957640	1.000100
451.331808	1.000849
451.705917	1.000870
452.079965	1.000501
452.453954	1.001257
452.827883	1.000948
453.201752	1.001097
453.575562	1.000901
453.949311	1.001638
454.323001	1.001359
454.696632	1.000947
455.070202	1.000544
455.443713	1.000385
455.817164	1.001460
456.190556	1.001188
456.563888	0.999825
456.937160	1.000545
457.310373	1.000611
457.683526	1.000817
458.056619	1.000412
458.429653	1.000885
458.802628	1.000041
459.175542	1.000418
459.548398	1.000721
459.921194	1.000483
460.293930	1.001252
460.666607	1.000171
461.039224	0.999076
461.411782	1.000493
461.784280	1.000229
462.156719	1.001216
462.529099	1.001122
462.901419	1.000895
463.273680	1.000664
463.645882	1.001339
464.018024	1.000859
464.390106	1.000552
464.762130	1.001716
465.134094	1.000978
465.505999	1.001340
465.877845	0.999952
466.249631	1.001185
466.621358	1.000870
466.993026	1.001285
467.364634	1.001061
467.736184	1.001957
468.107674	1.000243
468.479105	1.000835
468.850477	1.001816
469.221790	1.001192
469.593043	1.000962
469.964238	1.001771
470.335373	1.000947
470.706449	1.000506
471.077467	1.000659
471.448425	1.000622
471.819324	1.002206
472.190164	1.000357
472.560945	1.001208
472.931667	1.000692
473.302330	1.000974
473.672934	1.000451
474.043479	1.000592
474.413965	1.000873
474.784393	1.001087
475.154761	1.000801
475.525070	1.000398
475.895321	1.000707
476.265513	1.000654
476.635645	1.001188
477.005719	1.001447
477.375734	1.000109
477.745691	1.000743
478.115588	1.000890
478.485427	1.001732
478.855207	1.000834
479.224928	1.001290
479.594591	1.000583
479.964194	1.001387
480.333739	1.001235
480.703226	1.001540
481.072653	1.001633
481.442022	1.001565
481.811333	1.000226
482.180584	1.001463
482.549777	1.000364
482.918912	1.000818
483.287988	1.001205
483.657005	1.000953
484.025964	1.001262
484.394864	1.001704
484.763706	1.000941
485.132489	1.001493
485.501213	1.001022
485.869879	1.001930
486.238487	1.001827
486.607036	1.001582
486.975527	1.001036
487.343959	1.000606
487.712333	1.000743
488.080648	1.001120
488.448905	1.000734
488.817104	1.001669
489.185244	1.001109
489.553326	1.000851
489.921350	1.001042
490.289315	1.001475
490.657222	1.001458
491.025070	1.001326
491.392861	1.001602
491.760593	1.001911
492.128267	1.001274
492.495883	1.000155
492.863440	1.000874
493.230939	1.001810
493.598380	1.001295
493.965763	1.000904
494.333088	1.001360
494.700354	1.000379
495.067563	1.001239
495.434713	1.000607
495.801805	1.001759
496.168839	1.000774
496.535815	1.000286
496.902733	1.000190
497.269593	1.000766
497.636395	1.001298
498.003139	1.000771
498.369825	1.001012
498.736453	1.000742
499.103023	0.999906
499.469535	1.000100
499.835989	1.000569
500.202385	1.000582
500.568723	1.000724
500.935003	1.001117
501.301226	1.000608
501.667390	0.999949
502.033497	1.000451
502.399546	1.000729
502.765537	1.000067
503.131470	1.000092
503.497345	0.999755
503.863163	1.000886
504.228923	1.000321
504.594625	1.000050
504.960269	1.000912
505.325856	1.000272
505.691385	1.000096
506.056856	0.999742
506.422270	1.000058
506.787625	1.000022
507.152924	0.999989
507.518164	0.999297
507.883347	0.999602
508.248472	0.999228
508.613540	0.999270
508.978550	0.999890
509.343503	0.999003
509.708398	0.998879
510.073236	0.998958
510.438016	0.999394
510.802738	0.998163
511.167403	0.998713
511.532010	0.998196
511.896561	0.997671
512.261053	0.997330
512.625488	0.996725
512.989866	0.997095
513.354186	0.997192
513.718449	0.996003
514.082655	0.996127
514.446803	0.996052
514.810894	0.995816
515.174927	0.995104
515.538904	0.994423
515.902822	0.994697
516.266684	0.994789
516.630488	0.994129
516.994235	0.992759
517.357925	0.992817
517.721558	0.992373
518.085133	0.991208
518.448651	0.992096
518.812112	0.991296
519.175516	0.990005
519.538863	0.989605
519.902152	0.988486
520.265385	0.987772
520.628560	0.987771
520.991678	0.986852
521.354739	0.986835
521.717743	0.985703
522.080690	0.984798
522.443580	0.983465
522.806413	0.982729
523.169189	0.981718
523.531908	0.980326
523.894569	0.980123
524.257174	0.979281
524.619722	0.978034
524.982213	0.977664
525.344647	0.975538
525.707025	0.974289
526.069345	0.972944
526.431608	0.972263
526.793815	0.970691
527.155964	0.969203
527.518057	0.969155
527.880093	0.967692
528.242072	0.965767
528.603995	0.964237
528.965860	0.963899
529.327669	0.960965
529.689421	0.959916
530.051117	0.958870
530.412755	0.955761
530.774337	0.954865
531.135862	0.952516
531.497331	0.951988
531.858743	0.950099
532.220098	0.947656
532.581396	0.946209
532.942638	0.944521
533.303824	0.941933
533.664953	0.939747
534.026025	0.937515
534.387040	0.934848
534.747999	0.933158
535.108902	0.930454
535.469748	0.928846
535.830537	0.926058
536.191270	0.924183
536.551947	0.920953
536.912567	0.918719
537.273131	0.917157
537.633638	0.911937
537.994089	0.910446
538.354483	0.907872
538.714821	0.905394
539.075103	0.902177
539.435328	0.898746
539.795497	0.897091
540.155609	0.892683
540.515665	0.890235
540.875665	0.887191
541.235609	0.883900
541.595496	0.880972
541.955328	0.876481
542.315102	0.875310
542.674821	0.871318
543.034483	0.867882
543.394090	0.863642
543.753640	0.861744
544.113134	0.856523
544.472571	0.853918
544.831953	0.849386
545.191278	0.846115
545.550548	0.842912
545.909761	0.838122
546.268918	0.834709
546.628019	0.831210
546.987064	0.826856
547.346053	0.824385
547.704986	0.818920
548.063863	0.815635
548.422684	0.812490
548.781449	0.808951
549.140158	0.804699
549.498811	0.801443
549.857408	0.798755
550.215949	0.792286
550.574434	0.789779
550.932864	0.784354
551.291237	0.781300
551.649555	0.775922
552.007817	0.772208
552.366022	0.768228
552.724173	0.763768
553.082267	0.760504
553.440305	0.753263
553.798288	0.752391
554.156215	0.745654
554.514086	0.741891
554.871902	0.738425
555.229661	0.733879
555.587365	0.730235
555.945014	0.728171
556.302606	0.720107
556.660143	0.718405
557.017625	0.710880
557.375050	0.707578
557.732421	0.702171
558.089735	0.698218
558.446994	0.694548
558.804197	0.689764
559.161345	0.685440
559.518437	0.683088
559.875474	0.676523
560.232455	0.672094
560.589381	0.668738
560.946251	0.662130
561.303065	0.658668
561.659825	0.654127
562.016528	0.650653
562.373177	0.648472
562.729770	0.641311
563.086307	0.638879
563.442789	0.633952
563.799216	0.628708
564.155587	0.624301
564.511904	0.620049
564.868164	0.616150
565.224370	0.612257
565.580520	0.607800
565.936615	0.605242
566.292654	0.601059
566.648638	0.596034
567.004567	0.591730
567.360441	0.588228
567.716260	0.584309
568.072023	0.579169
568.427732	0.574668
568.783385	0.573619
569.138982	0.566458
569.494525	0.562241
569.850013	0.560124
570.205445	0.554568
570.560823	0.552707
570.916145	0.549436
571.271412	0.543935
571.626625	0.540985
571.981782	0.537792
572.336884	0.534021
572.691931	0.531196
573.046923	0.526280
573.401860	0.524087
573.756743	0.521059
574.111570	0.516125
574.466342	0.513780
574.821059	0.508835
575.175722	0.507327
575.530330	0.502583
575.884882	0.499622
576.239380	0.497310
576.593823	0.493700
576.948211	0.489629
577.302544	0.489033
577.656823	0.484139
578.011047	0.481813
578.365216	0.477892
578.719330	0.476497
579.073389	0.472722
579.427394	0.470535
579.781344	0.467790
580.135239	0.465557
580.489080	0.462259
580.842866	0.460839
581.196597	0.457982
581.550273	0.453966
581.903895	0.451087
582.257463	0.447070
582.610975	0.446057
582.964434	0.443318
583.317837	0.441907
583.671186	0.439578
584.024481	0.436258
584.377721	0.435693
584.730906	0.433048
585.084037	0.429731
585.437113	0.428888
585.790135	0.425129
586.143103	0.425267
586.496016	0.423704
586.848874	0.418803
587.201679	0.417018
587.554428	0.417014
587.907124	0.413465
588.259765	0.412032
588.612352	0.409931
588.964884	0.411561
589.317362	0.408437
589.669786	0.406161
590.022155	0.402704
590.374470	0.399528
590.726731	0.399547
591.078937	0.401270
591.431090	0.394677
591.783188	0.397074
592.135232	0.394663
592.487222	0.393489
592.839157	0.389221
593.191038	0.389702
593.542866	0.389221
593.894639	0.390015
594.246358	0.386318
594.598022	0.383993
594.949633	0.385644
595.301190	0.384441
595.652692	0.382269
596.004141	0.376307
596.355535	0.382165
596.706876	0.380861
597.058162	0.381479
597.409395	0.377272
597.760573	0.373519
598.111698	0.375134
598.462768	0.373834
598.813785	0.373565
599.164748	0.373089
599.515657	0.372170
599.866511	0.373812
600.217312	0.368179
600.568060	0.371511
600.918753	0.367049
601.269392	0.366717
601.619978	0.368477
601.970510	0.364827
602.320988	0.363965
602.671412	0.360278
603.021783	0.361927
603.372100	0.362153
603.722363	0.360378
604.072572	0.360279
604.422728	0.359007
604.772830	0.359688
605.122878	0.358452
605.472872	0.358194
605.822813	0.355463
606.172701	0.357127
606.522534	0.353363
606.872314	0.353062
607.222041	0.352779
607.571714	0.350447
607.921333	0.350614
608.270899	0.349421
608.620411	0.345943
608.969870	0.348520
609.319276	0.348355
609.668627	0.347243
610.017926	0.345271
610.367171	0.342867
610.716362	0.342976
611.065500	0.342648
611.414585	0.340616
611.763616	0.340896
612.112594	0.340831
612.461518	0.339458
612.810389	0.336959
613.159207	0.338448
613.507971	0.340084
613.856682	0.335406
614.205340	0.336516
614.553945	0.332470
614.902496	0.336053
615.250994	0.333547
615.599439	0.334008
615.947830	0.332563
616.296169	0.333692
616.644454	0.332800
616.992686	0.332478
617.340864	0.329899
617.688990	0.333266
618.037063	0.329578
618.385082	0.330766
618.733048	0.327502
619.080961	0.329860
619.428821	0.328777
619.776628	0.327915
620.124382	0.329451
620.472083	0.329358
620.819731	0.328489
621.167326	0.331798
621.514868	0.331392
621.862357	0.334894
622.209793	0.334367
622.557176	0.336172
622.904506	0.337044
623.251783	0.339390
623.599007	0.341083
623.946179	0.340128
624.293297	0.342047
624.640363	0.345605
624.987376	0.345962
625.334336	0.348184
625.681243	0.350141
626.028097	0.350668
626.374899	0.351502
626.721647	0.351389
627.068343	0.354961
627.414987	0.355345
627.761577	0.357436
628.108115	0.355639
628.454600	0.360584
628.801032	0.357492
629.147412	0.359497
629.493739	0.360205
629.840014	0.363178
630.186236	0.360302
630.532405	0.365941
630.878521	0.363024
631.224585	0.365020
631.570597	0.368735
631.916556	0.366835
632.262462	0.367280
632.608316	0.368876
632.954117	0.369502
633.299866	0.370468
633.645562	0.370921
633.991206	0.375012
634.336797	0.378110
634.682336	0.380004
635.027823	0.381254
635.373257	0.381750
635.718639	0.385562
636.063968	0.384323
636.409245	0.390516
636.754470	0.390460
637.099642	0.392874
637.444762	0.396161
637.789829	0.394979
638.134845	0.398236
638.479808	0.399374
638.824719	0.399591
639.169577	0.403314
639.514383	0.402248
639.859137	0.405696
640.203839	0.406213
640.548489	0.406789
640.893086	0.407681
641.237632	0.409156
641.582125	0.407424
641.926566	0.409582
642.270955	0.409171
642.615292	0.409661
642.959576	0.408833
643.303809	0.409162
643.647990	0.408378
643.992118	0.409104
644.336195	0.412609
644.680219	0.411087
645.024192	0.411843
645.368112	0.405279
645.711981	0.404171
646.055797	0.399566
646.399562	0.402313
646.743274	0.393970
647.086935	0.391320
647.430544	0.391605
647.774101	0.390133
648.117606	0.390153
648.461059	0.390547
648.804460	0.392646
649.147810	0.397942
649.491108	0.399447
649.834354	0.401359
650.177548	0.406713
650.520690	0.411624
650.863781	0.412704
651.206820	0.412310
651.549807	0.416678
651.892742	0.420994
652.235626	0.420311
652.578458	0.421092
652.921238	0.427445
653.263967	0.425546
653.606644	0.429081
653.949269	0.428325
654.291843	0.432551
654.634365	0.429616
654.976836	0.432696
655.319255	0.432593
655.661622	0.433954
656.003938	0.434559
656.346203	0.437501
656.688416	0.434952
657.030577	0.438636
657.372687	0.440518
657.714746	0.440869
658.056753	0.437823
658.398708	0.441682
658.740612	0.443032
659.082465	0.439905
659.424266	0.439738
659.766016	0.438874
660.107715	0.441783
660.449362	0.440399
660.790958	0.441208
661.132503	0.442198
661.473996	0.439007
661.815438	0.440360
662.156829	0.440531
662.498168	0.440790
662.839456	0.442878
663.180693	0.440617
663.521879	0.440545
663.863013	0.441001
664.204097	0.439576
664.545129	0.436589
664.886110	0.437215
665.227040	0.434027
665.567918	0.437420
665.908746	0.434670
666.249522	0.434207
666.590248	0.435744
666.930922	0.433866
667.271545	0.431935
667.612118	0.432538
667.952639	0.434478
668.293109	0.433222
668.633528	0.436085
668.973896	0.435657
669.314213	0.435849
669.654480	0.437930
669.994695	0.438126
670.334859	0.438900
670.674973	0.438504
671.015035	0.439147
671.355047	0.439327
671.695008	0.439871
672.034918	0.441694
672.374777	0.441465
672.714585	0.442491
673.054342	0.442582
673.394049	0.443036
673.733705	0.440145
674.073310	0.441463
674.412864	0.444321
674.752368	0.444856
675.091820	0.444709
675.431223	0.449375
675.770574	0.449184
676.109875	0.452240
676.449125	0.451975
676.788324	0.454516
677.127473	0.459598
677.466571	0.459914
677.805619	0.461213
678.144616	0.462520
678.483562	0.463997
678.822458	0.466417
679.161303	0.467430
679.500098	0.467717
679.838842	0.469507
680.177535	0.469496
680.516179	0.467745
680.854771	0.466794
681.193314	0.460209
681.531805	0.451929
681.870247	0.440180
682.208638	0.432559
682.546978	0.431606
682.885268	0.433281
683.223508	0.439502
683.561697	0.443444
683.899836	0.445990
684.237925	0.449479
684.575963	0.452276
684.913951	0.454540
685.251889	0.450653
685.589776	0.452706
685.927614	0.455491
686.265401	0.449445
686.603137	0.450611
686.940824	0.444932
687.278460	0.442732
687.616046	0.442624
687.953582	0.436970
688.291068	0.438561
688.628504	0.434737
688.965889	0.436705
689.303224	0.440905
689.640510	0.445115
689.977745	0.450157
690.314930	0.458454
690.652065	0.463103
690.989150	0.470643
691.326185	0.476734
691.663170	0.481501
692.000105	0.488341
692.336990	0.495604
692.673825	0.497748
693.010610	0.505066
693.347345	0.510291
693.684030	0.512032
694.020665	0.516455
694.357251	0.524787
694.693786	0.525160
695.030272	0.528225
695.366707	0.532573
695.703093	0.536251
696.039429	0.534110
696.375716	0.535321
696.711952	0.537795
697.048139	0.539644
697.384276	0.541801
697.720363	0.540156
698.056400	0.539053
698.392388	0.544419
698.728326	0.547911
699.064214	0.551505
699.400053	0.551288
699.735842	0.555177
700.071581	0.557348
700.407270	0.561013
700.742910	0.562544
701.078501	0.570136
701.414042	0.569968
701.749533	0.573010
702.084974	0.581845
702.420366	0.574499
702.755709	0.581758
703.091002	0.588882
703.426246	0.582327
703.761440	0.589462
704.096584	0.593824
704.431679	0.591063
704.766725	0.592426
705.101721	0.595198
705.436668	0.590780
705.771565	0.597677
706.106413	0.593698
706.441212	0.589001
706.775961	0.588063
707.110661	0.590668
707.445311	0.587261
707.779913	0.584806
708.114465	0.582993
708.448967	0.580118
708.783421	0.571719
709.117825	0.566992
709.452180	0.566762
709.786485	0.560470
710.120742	0.550780
710.454949	0.552474
710.789107	0.544745
711.123216	0.535624
711.457275	0.537695
711.791286	0.528053
712.125247	0.526980
712.459159	0.538125
712.793023	0.531040
713.126837	0.534898
713.460602	0.534599
713.794318	0.544657
714.127985	0.543143
714.461602	0.553598
714.795171	0.556480
715.128691	0.564109
715.462162	0.571834
715.795584	0.577579
716.128957	0.580131
716.462281	0.586767
716.795556	0.590453
717.128782	0.595743
717.461960	0.605002
717.795088	0.602591
718.128167	0.609203
718.461198	0.617925
718.794180	0.618219
719.127113	0.620912
719.459997	0.624197
719.792833	0.631084
720.125619	0.632039
720.458357	0.637761
720.791046	0.637314
721.123686	0.640994
721.456278	0.648206
721.788821	0.645448
722.121315	0.649360
722.453761	0.653380
722.786158	0.651644
723.118506	0.647793
723.450805	0.655502
723.783056	0.652243
724.115259	0.648909
724.447412	0.649433
724.779518	0.650244
725.111574	0.648633
725.443582	0.644584
725.775542	0.647391
726.107453	0.639519
726.439315	0.638880
726.771129	0.637380
727.102895	0.630312
727.434612	0.623143
727.766281	0.622056
728.097901	0.621147
728.429473	0.620649
728.760996	0.618669
729.092471	0.619726
729.423897	0.622676
729.755276	0.621536
730.086606	0.621737
730.417887	0.616588
730.749120	0.607731
731.080305	0.597994
731.411442	0.594253
731.742530	0.599534
732.073570	0.598665
732.404562	0.591414
732.735506	0.592828
733.066401	0.597049
733.397249	0.606469
733.728048	0.617345
734.058798	0.630078
734.389501	0.640133
734.720156	0.650418
735.050762	0.657794
735.381320	0.658604
735.711831	0.668511
736.042293	0.673008
736.372707	0.668831
736.703073	0.673486
737.033391	0.676377
737.363661	0.672496
737.693883	0.667889
738.024056	0.667095
738.354182	0.667886
738.684260	0.656666
739.014290	0.653131
739.344272	0.653298
739.674207	0.647518
740.004093	0.646778
740.333931	0.646557
740.663722	0.646205
740.993464	0.647539
741.323159	0.651634
741.652806	0.656380
741.982405	0.661259
742.311956	0.665830
742.641460	0.667940
742.970915	0.671026
743.300323	0.678839
743.629683	0.685421
743.958996	0.686999
744.288260	0.691775
744.617477	0.697303
744.946647	0.698990
745.275768	0.704507
745.604842	0.704197
745.933869	0.714439
746.262847	0.714386
746.591778	0.708439
746.920662	0.714333
747.249498	0.720136
747.578286	0.711860
747.907027	0.708492
748.235720	0.709417
748.564365	0.704538
748.892963	0.703684
749.221514	0.706301
749.550017	0.712050
749.878473	0.710749
750.206881	0.717303
750.535242	0.718823
750.863555	0.718831
751.191821	0.720192
751.520039	0.723326
751.848210	0.728360
752.176334	0.720439
752.504411	0.719855
752.832440	0.727611
753.160421	0.731604
753.488356	0.730143
753.816243	0.727658
754.144082	0.735810
754.471875	0.738936
754.799620	0.734778
755.127318	0.736840
755.454969	0.735658
755.782572	0.734871
756.110129	0.740609
756.437638	0.742727
756.765100	0.739159
757.092515	0.736789
757.419882	0.736142
757.747203	0.741641
758.074477	0.740301
758.401703	0.738492
758.728882	0.732216
759.056014	0.731672
759.383099	0.730451
759.710138	0.732110
760.037129	0.729030
760.364073	0.722883
760.690970	0.725407
761.017820	0.731354
761.344623	0.726790
761.671379	0.717541
761.998088	0.706578
762.324751	0.683431
762.651366	0.642742
762.977935	0.576135
763.304456	0.524203
763.630931	0.515040
763.957359	0.553752
764.283740	0.597988
764.610074	0.625231
764.936362	0.655223
765.262602	0.682097
765.588796	0.703730
765.914943	0.721732
766.241044	0.738726
766.567097	0.745025
766.893104	0.754571
767.219064	0.760027
767.544978	0.767599
767.870845	0.781129
768.196665	0.784677
768.522438	0.783042
768.848165	0.783330
769.173846	0.791917
769.499479	0.797638
769.825066	0.800410
770.150607	0.805075
770.476101	0.800863
770.801548	0.801658
771.126949	0.813030
771.452303	0.817400
771.777611	0.816152
772.102872	0.815080
772.428087	0.821520
772.753256	0.823880
773.078378	0.825517
773.403453	0.833674
773.728482	0.838928
774.053465	0.832630
774.378401	0.835651
774.703291	0.844630
775.028135	0.843358
775.352932	0.845279
775.677683	0.849166
776.002388	0.848170
776.327046	0.848364
776.651658	0.852029
776.976224	0.855211
777.300743	0.855178
777.625216	0.856899
777.949643	0.859409
778.274024	0.858586
778.598359	0.860813
778.922647	0.858966
779.246889	0.859493
779.571086	0.863422
779.895236	0.866523
780.219339	0.863897
780.543397	0.859451
780.867409	0.858543
781.191374	0.860643
781.515294	0.862115
781.839167	0.862180
782.162995	0.864485
782.486776	0.862239
782.810511	0.862194
783.134201	0.866281
783.457844	0.863577
783.781441	0.866535
784.104993	0.872935
784.428498	0.872490
784.751958	0.868747
785.075372	0.872059
785.398739	0.874666
785.722061	0.871031
786.045337	0.866595
786.368568	0.872062
786.691752	0.873919
787.014891	0.859347
787.337983	0.851320
787.661030	0.844303
787.984031	0.826623
788.306987	0.813661
788.629897	0.815477
788.952760	0.820249
789.275579	0.824920
789.598351	0.839157
789.921078	0.852415
790.243759	0.853697
790.566395	0.858879
790.888984	0.865694
791.211529	0.871383
791.534027	0.873639
791.856480	0.876653
792.178888	0.881178
792.501249	0.884021
792.823566	0.885839
793.145836	0.885726
793.468062	0.887564
793.790241	0.887553
794.112375	0.885426
794.434464	0.880231
794.756507	0.880228
795.078505	0.879631
795.400457	0.874856
795.722364	0.862871
796.044226	0.855188
796.366042	0.855026
796.687812	0.857870
797.009538	0.854333
797.331218	0.857079
797.652852	0.862046
797.974442	0.866636
798.295986	0.867512
798.617484	0.868834
798.938938	0.874133
799.260346	0.878288
799.581709	0.880039
799.903026	0.883981
800.224299	0.883374
800.545526	0.886971
800.866708	0.890982
801.187845	0.895036
801.508936	0.893412
801.829983	0.892447
802.150984	0.894694
802.471940	0.901562
802.792851	0.899635
803.113717	0.901373
803.434538	0.898622
803.755314	0.900941
804.076045	0.901260
804.396731	0.902049
804.717372	0.901579
805.037967	0.903641
805.358518	0.901468
805.679024	0.898699
805.999485	0.897796
806.319901	0.900196
806.640272	0.900100
806.960598	0.899100
807.280879	0.896029
807.601115	0.894265
807.921306	0.898439
808.241453	0.898224
808.561554	0.896819
808.881611	0.895496
809.201623	0.899213
809.521590	0.898681
809.841513	0.899730
810.161390	0.898547
810.481223	0.900434
810.801011	0.903606
811.120755	0.906009
811.440453	0.903820
811.760107	0.903061
812.079716	0.902170
812.399281	0.905479
812.718801	0.908400
813.038276	0.909737
813.357707	0.908902
813.677093	0.906170
813.996434	0.908546
814.315731	0.910415
814.634983	0.911757
814.954191	0.910423
815.273354	0.906633
815.592473	0.903056
815.911547	0.904692
816.230577	0.901331
816.549562	0.898927
816.868502	0.900258
817.187399	0.894759
817.506250	0.890115
817.825058	0.891566
818.143821	0.888901
818.462539	0.883972
818.781213	0.875830
819.099843	0.865004
819.418429	0.849704
819.736970	0.834896
820.055466	0.814551
820.373919	0.788900
820.692327	0.756535
821.010691	0.721882
821.329011	0.647126
821.647286	0.534348
821.965517	0.422301
822.283704	0.379480
822.601847	0.381628
822.919945	0.417036
823.237999	0.449898
823.556010	0.495370
823.873976	0.550825
824.191897	0.600323
824.509775	0.641511
824.827609	0.686562
825.145398	0.708765
825.463144	0.711308
825.780845	0.694780
826.098502	0.676761
826.416116	0.630715
826.733685	0.587619
827.051210	0.580122
827.368692	0.594508
827.686129	0.630916
828.003522	0.683171
828.320872	0.729662
828.638177	0.772301
828.955439	0.803927
829.272656	0.826780
829.589830	0.842490
829.906960	0.857429
830.224046	0.869410
830.541088	0.879993
830.858086	0.884747
831.175041	0.889800
831.491952	0.889471
831.808819	0.886864
832.125642	0.879946
832.442421	0.865383
832.759157	0.844032
833.075849	0.799325
833.392497	0.736288
833.709101	0.696859
834.025662	0.705981
834.342179	0.736435
834.658653	0.775808
834.975083	0.810678
835.291469	0.836923
835.607811	0.859383
835.924110	0.873347
836.240366	0.890314
836.556578	0.904261
836.872746	0.911355
837.188871	0.917239
837.504952	0.922267
837.820990	0.924655
838.136984	0.929868
838.452935	0.932888
838.768842	0.933529
839.084706	0.927029
839.400526	0.901813
839.716303	0.863314
840.032037	0.841632
840.347727	0.844737
840.663373	0.862318
840.978977	0.883584
841.294537	0.905928
841.610054	0.920000
841.925527	0.928531
842.240957	0.934988
842.556344	0.942276
842.871687	0.947463
843.186987	0.951664
843.502244	0.952058
843.817458	0.954469
844.132629	0.957106
844.447756	0.962373
844.762840	0.962781
845.077881	0.962212
845.392879	0.961276
845.707833	0.964565
846.022745	0.966486
846.337613	0.967073
846.652438	0.966734
846.967221	0.965469
847.281960	0.967879
847.596656	0.968256
847.911309	0.967350
848.225919	0.967889
848.540485	0.969629
848.855009	0.969977
849.169490	0.970350
849.483928	0.970403
849.798323	0.969895
850.112675	0.971160
850.426984	0.971278
850.741251	0.971576
851.055474	0.971976
851.369654	0.969245
851.683792	0.971354
851.997887	0.970690
852.311938	0.972107
852.625947	0.972281
852.939914	0.969806
853.253837	0.970009
853.567718	0.971744
853.881555	0.972135
854.195350	0.969376
854.509103	0.970418
854.822812	0.971066
855.136479	0.971437
855.450103	0.971416
855.763685	0.970748
856.077224	0.969493
856.390720	0.972229
856.704173	0.971282
857.017584	0.969521
857.330953	0.968528
857.644278	0.969241
857.957561	0.970567
858.270802	0.970730
858.584000	0.969528
858.897155	0.968166
859.210268	0.969250
859.523339	0.970025
859.836367	0.971229
860.149352	0.972494
860.462295	0.969595
860.775195	0.971901
861.088054	0.969994
861.400869	0.971476
861.713642	0.972072
862.026373	0.971629
862.339062	0.971604
862.651708	0.969767
862.964312	0.969711
863.276873	0.971758
863.589392	0.970321
863.901869	0.968030
864.214303	0.966779
864.526696	0.966283
864.839045	0.964781
865.151353	0.963468
865.463619	0.964335
865.775842	0.964563
866.088023	0.964401
866.400162	0.964862
866.712258	0.963533
867.024313	0.964427
867.336325	0.965484
867.648296	0.965576
867.960224	0.963790
868.272110	0.962784
868.583954	0.966439
868.895755	0.965926
869.207515	0.964098
869.519233	0.960343
869.830909	0.962549
870.142542	0.964236
870.454134	0.964827
870.765684	0.962064
871.077191	0.959721
871.388657	0.960973
871.700081	0.959428
872.011463	0.959824
872.322803	0.959859
872.634101	0.958867
872.945357	0.956737
873.256571	0.956675
873.567744	0.955826
873.878874	0.955434
874.189963	0.953876
874.501010	0.952743
874.812015	0.951336
875.122979	0.952609
875.433900	0.956333
875.744780	0.957200
876.055618	0.953410
876.366415	0.951585
876.677169	0.952241
876.987882	0.952979
877.298554	0.952757
877.609183	0.949988
877.919771	0.947496
878.230317	0.945917
878.540822	0.943830
878.851285	0.938452
879.161707	0.931123
879.472087	0.919485
879.782425	0.903687
880.092722	0.870425
880.402977	0.820723
880.713191	0.762243
881.023363	0.705560
881.333494	0.673181
881.643583	0.645026
881.953631	0.644726
882.263637	0.673330
882.573602	0.712061
882.883526	0.736241
883.193408	0.758394
883.503248	0.781072
883.813048	0.807588
884.122806	0.836151
884.432522	0.858226
884.742197	0.876667
885.051831	0.888303
885.361424	0.897396
885.670975	0.908066
885.980485	0.918428
886.289954	0.922934
886.599382	0.929294
886.908768	0.931902
887.218113	0.938011
887.527417	0.941033
887.836680	0.944824
888.145901	0.945879
888.455082	0.949638
888.764221	0.953713
889.073319	0.955601
889.382376	0.955213
889.691392	0.955690
890.000366	0.954770
890.309300	0.956288
890.618193	0.956496
890.927044	0.954248
891.235855	0.954109
891.544625	0.953960
891.853353	0.955436
892.162041	0.951934
892.470687	0.946032
892.779293	0.940766
893.087858	0.937772
893.396381	0.930804
893.704864	0.919392
894.013306	0.894798
894.321707	0.869181
894.630068	0.855677
894.938387	0.851784
895.246665	0.852830
895.554903	0.864303
895.863100	0.876790
896.171256	0.893867
896.479371	0.911084
896.787446	0.924921
897.095480	0.930205
897.403473	0.931778
897.711425	0.937131
898.019336	0.944053
898.327207	0.946426
898.635038	0.948780
898.942827	0.947508
899.250576	0.951345
899.558284	0.955210
899.865952	0.956471
900.173579	0.957437
900.481165	0.958287
900.788711	0.962554
901.096216	0.964108
901.403681	0.964114
901.711105	0.965120
902.018489	0.966238
902.325832	0.964596
902.633135	0.964019
902.940397	0.958680
903.247619	0.947055
903.554800	0.923260
903.861941	0.884859
904.169041	0.852362
904.476101	0.836044
904.783121	0.836804
905.090100	0.851607
905.397039	0.872338
905.703938	0.893184
906.010796	0.911787
906.317614	0.928114
906.624391	0.937439
906.931129	0.946744
907.237826	0.955274
907.544483	0.962760
907.851099	0.964998
908.157675	0.969396
908.464211	0.973374
908.770707	0.973860
909.077163	0.977224
909.383578	0.976739
909.689954	0.977042
909.996289	0.976677
910.302584	0.980526
910.608839	0.981105
910.915054	0.980567
911.221229	0.979670
911.527363	0.979563
911.833458	0.978675
912.139513	0.979146
912.445527	0.976995
912.751502	0.975947
913.057436	0.973523
913.363331	0.972857
913.669186	0.969985
913.975000	0.963686
914.280775	0.959852
914.586510	0.951950
914.892205	0.939983
915.197859	0.920007
915.503475	0.893041
915.809050	0.875632
916.114585	0.872321
916.420081	0.869193
916.725536	0.865501
917.030952	0.873534
917.336328	0.885375
917.641665	0.899114
917.946961	0.914593
918.252218	0.925699
918.557435	0.933096
918.862612	0.940995
919.167750	0.946870
919.472848	0.950853
919.777906	0.956837
920.082925	0.961191
920.387904	0.965460
920.692843	0.965578
920.997743	0.965411
921.302603	0.970347
921.607423	0.971468
921.912204	0.975453
922.216946	0.974300
922.521647	0.975014
922.826310	0.977394
923.130932	0.978906
923.435516	0.980417
923.740059	0.980498
924.044564	0.978978
924.349028	0.982963
924.653454	0.984118
924.957840	0.986962
925.262186	0.985024
925.566493	0.984936
925.870761	0.986816
926.174989	0.987446
926.479178	0.989881
926.783328	0.989216
927.087438	0.988452
927.391509	0.988392
927.695541	0.990386
927.999533	0.990388
928.303486	0.991181
928.607400	0.991005
928.911275	0.991230
929.215110	0.991063
929.518906	0.991857
929.822663	0.991041
930.126381	0.992080
930.430060	0.991094
930.733699	0.991994
931.037299	0.990501
931.340861	0.991783
931.644383	0.991010
931.947866	0.990783
932.251309	0.990992
932.554714	0.992343
932.858080	0.991162
933.161407	0.990739
933.464694	0.993122
933.767943	0.990990
934.071153	0.992003
934.374323	0.992240
934.677455	0.991947
934.980548	0.992048
935.283602	0.991963
935.586617	0.992391
935.889593	0.991569
936.192530	0.991904
936.495428	0.992109
936.798287	0.991648
937.101108	0.991306
937.403890	0.989367
937.706632	0.989851
938.009336	0.988577
938.312002	0.987709
938.614628	0.984929
938.917216	0.985751
939.219765	0.983069
939.522275	0.984819
939.824747	0.985662
940.127179	0.984737
940.429573	0.985707
940.731929	0.985105
941.034246	0.986072
941.336524	0.987480
941.638763	0.986800
941.940964	0.987873
942.243126	0.987751
942.545250	0.988633
942.847335	0.988837
943.149381	0.989091
943.451389	0.988850
943.753359	0.989000
944.055290	0.992074
944.357182	0.990256
944.659036	0.989522
944.960851	0.989572
945.262628	0.990669
945.564367	0.991121
945.866067	0.990784
946.167729	0.990803
946.469352	0.990893
946.770937	0.990194
947.072484	0.992155
947.373992	0.990663
947.675462	0.990049
947.976893	0.991471
948.278286	0.992355
948.579641	0.992755
948.880958	0.990819
949.182236	0.992516
949.483476	0.992499
949.784678	0.991152
950.085841	0.991485
950.386967	0.992334
950.688054	0.990582
950.989103	0.991521
951.290114	0.990376
951.591087	0.990049
951.892021	0.990530
952.192917	0.990026
952.493776	0.990425
952.794596	0.989787
953.095378	0.988500
953.396122	0.989732
953.696828	0.987901
953.997496	0.991643
954.298126	0.992240
954.598718	0.990794
954.899272	0.991749
955.199788	0.990460
955.500266	0.993594
955.800706	0.995045
956.101108	0.992722
956.401472	0.994028
956.701798	0.994439
957.002087	0.993468
957.302337	0.994332
957.602550	0.995463
957.902724	0.995688
958.202861	0.995584
958.502960	0.995322
958.803022	0.994405
959.103045	0.997275
959.403031	0.996491
959.702979	0.995504
960.002889	0.996586
960.302762	0.995929
960.602596	0.996270
960.902393	0.995239
961.202153	0.997601
961.501875	0.996336
961.801559	0.996039
962.101205	0.996357
962.400814	0.997821
962.700385	0.997341
962.999918	0.996750
963.299414	0.997091
963.598873	0.995830
963.898293	0.997018
964.197677	0.995481
964.497022	0.997443
964.796331	0.997017
965.095601	0.997146
965.394835	0.997423
965.694030	0.997165
965.993189	0.996971
966.292309	0.996738
966.591393	0.997661
966.890439	0.997153
967.189447	0.997175
967.488419	0.997541
967.787353	0.996781
968.086249	0.996831
968.385108	0.998073
968.683930	0.997486
968.982714	0.997435
969.281462	0.998449
969.580172	0.997265
969.878844	0.997597
970.177480	0.997875
970.476078	0.997853
970.774639	0.996958
971.073162	0.997759
971.371649	0.996980
971.670098	0.997226
971.968510	0.997844
972.266885	0.996225
972.565223	0.996740
972.863524	0.995607
973.161788	0.997302
973.460014	0.996737
973.758204	0.997006
974.056356	0.996588
974.354471	0.995461
974.652550	0.997369
974.950591	0.996465
975.248595	0.995705
975.546563	0.997214
975.844493	0.998550
976.142386	0.997946
976.440243	0.998071
976.738062	0.997173
977.035845	0.997829
977.333590	0.997336
977.631299	0.997521
977.928971	0.996412
978.226606	0.996794
978.524204	0.996293
978.821765	0.999012
979.119290	0.996544
979.416777	0.997948
979.714228	0.997044
980.011642	0.995477
980.309020	0.997040
980.606360	0.996721
980.903664	0.999031
981.200931	0.998047
981.498162	0.994319
981.795356	0.995743
982.092513	0.995020
982.389633	0.994951
982.686717	0.991508
982.983764	0.991798
983.280775	0.990887
983.577749	0.991213
983.874686	0.992684
984.171587	0.992462
984.468451	0.995188
984.765279	0.995121
985.062070	0.994434
985.358824	0.995978
985.655543	0.995344
985.952224	0.995449
986.248869	0.997328
986.545478	0.996690
986.842050	0.999681
987.138586	0.995166
987.435086	0.997854
987.731549	0.999572
988.027975	0.998041
988.324366	0.998372
988.620719	0.997494
988.917037	0.996125
989.213318	0.999074
989.509563	0.999459
989.805772	0.999399
990.101944	0.997576
990.398080	0.997359
990.694180	0.998401
990.990244	0.996924
991.286271	0.998580
991.582262	0.999139
991.878217	0.999274
992.174136	0.998675
992.470019	0.999875
992.765865	0.997303
993.061676	0.997143
993.357450	0.997149
993.653188	0.996221
993.948890	0.997395
994.244556	0.997343
994.540186	0.996478
994.835780	0.997628
995.131337	0.997450
995.426859	0.996448
995.722345	0.998054
996.017795	0.995643
996.313208	0.995600
996.608586	0.996289
996.903928	0.997623
997.199234	0.995078
997.494504	0.996619
997.789738	0.995384
998.084936	0.998007
998.380099	0.997750
998.675225	0.998694
998.970316	0.998668
999.265371	0.997554
999.560390	0.997709
999.855373	0.998154
1000.150320	0.998847
1000.445232	0.998647
1000.740108	0.997766
1001.034948	0.998271
1001.329752	0.999177
1001.624521	0.999219
1001.919254	0.997922
1002.213951	0.998201
1002.508613	0.998211
1002.803239	0.998960
1003.097829	0.998626
1003.392384	0.999348
1003.686903	0.998653
1003.981386	0.998441
1004.275834	0.999237
1004.570246	0.998313
1004.864623	0.998060
1005.158964	0.999122
1005.453270	0.999158
1005.747540	0.997135
1006.041775	0.998893
1006.335974	0.998681
1006.630138	0.999320
1006.924266	0.999906
1007.218359	1.000651
1007.512416	0.999438
1007.806438	0.998609
1008.100425	1.000143
1008.394376	0.998825
1008.688292	0.998064
1008.982172	1.000821
1009.276017	0.998652
1009.569827	1.000005
1009.863602	0.999235
1010.157341	0.999379
1010.451045	0.999694
1010.744714	0.998298
1011.038347	0.998987
1011.331945	0.999586
1011.625508	0.996820
1011.919036	0.998877
1012.212528	0.998126
1012.505986	0.997963
1012.799408	0.998571
1013.092795	0.999856
1013.386147	0.998930
1013.679464	0.999686
1013.972745	0.998336
1014.265992	0.998231
1014.559204	0.999565
1014.852380	1.000278
1015.145521	0.999171
1015.438628	0.999131
1015.731699	0.999208
1016.024736	0.998604
1016.317737	0.999061
1016.610703	0.999405
1016.903635	0.999900
1017.196531	0.997669
1017.489393	0.999520
1017.782219	0.997556
1018.075011	0.998187
1018.367768	0.998537
1018.660490	0.998908
1018.953177	0.998908
1019.245829	0.998908
