Dividing Wavelength (nm)	Counts (n)	Blue Motor Position (mm): 0.000000	Red Motor Position (mm): 18.400000	
326.493990	1.002111
326.888308	1.002111
327.282561	1.002111
327.676750	1.000705
328.070874	0.999478
328.464933	1.001862
328.858929	0.999841
329.252859	0.999886
329.646726	0.999657
330.040528	1.000985
330.434265	1.000537
330.827938	0.999711
331.221547	1.000782
331.615091	0.999474
332.008571	1.000432
332.401986	0.999933
332.795338	1.000676
333.188625	0.999467
333.581847	1.000710
333.975006	1.000886
334.368100	0.999720
334.761129	1.000413
335.154095	1.001044
335.546996	0.998017
335.939833	0.993682
336.332606	0.993395
336.725315	0.994758
337.117960	0.995792
337.510540	0.994448
337.903056	0.995743
338.295508	0.994274
338.687896	0.995035
339.080220	0.995519
339.472480	0.995217
339.864676	0.994262
340.256807	0.995004
340.648875	0.994623
341.040879	0.994801
341.432818	0.993701
341.824694	0.995105
342.216506	0.996477
342.608253	0.994048
342.999937	0.994455
343.391557	0.995126
343.783113	0.993697
344.174605	0.994033
344.566033	0.995481
344.957397	0.993193
345.348697	0.993901
345.739934	0.994989
346.131106	0.993896
346.522215	0.994534
346.913260	0.994317
347.304241	0.993304
347.695159	0.994464
348.086012	0.993939
348.476802	0.993956
348.867528	0.993877
349.258191	0.994245
349.648789	0.995319
350.039324	0.994489
350.429796	0.994651
350.820203	0.995625
351.210548	0.993744
351.600828	0.994566
351.991045	0.994359
352.381198	0.994513
352.771288	0.993588
353.161314	0.994153
353.551276	0.994381
353.941175	0.994813
354.331010	0.994511
354.720782	0.995513
355.110490	0.993643
355.500135	0.994911
355.889717	0.994077
356.279235	0.994469
356.668689	0.993417
357.058080	0.994031
357.447408	0.995634
357.836672	0.994632
358.225873	0.994584
358.615010	0.993456
359.004084	0.995505
359.393095	0.994870
359.782043	0.994122
360.170927	0.996017
360.559748	0.994698
360.948505	0.994678
361.337199	0.994206
361.725830	0.993710
362.114398	0.994351
362.502903	0.993559
362.891344	0.996256
363.279722	0.994700
363.668037	0.994828
364.056289	0.993261
364.444478	0.995324
364.832603	0.995309
365.220665	0.994519
365.608665	0.993248
365.996601	0.993941
366.384474	0.994796
366.772284	0.994592
367.160031	0.993473
367.547715	0.992931
367.935336	0.995134
368.322893	0.993926
368.710388	0.994628
369.097820	0.993994
369.485189	0.993729
369.872495	0.992595
370.259738	0.993127
370.646918	0.995275
371.034035	0.994825
371.421090	0.993858
371.808081	0.994060
372.195010	0.994076
372.581875	0.994939
372.968678	0.994032
373.355418	0.994626
373.742096	0.993791
374.128710	0.994318
374.515262	0.994393
374.901751	0.995767
375.288177	0.995166
375.674540	0.995650
376.060841	0.994517
376.447079	0.994835
376.833254	0.993690
377.219367	0.994523
377.605417	0.994260
377.991404	0.994834
378.377329	0.993573
378.763191	0.994390
379.148991	0.995732
379.534727	0.994965
379.920402	0.994805
380.306013	0.995069
380.691563	0.995800
381.077049	0.995358
381.462474	0.994997
381.847835	0.995767
382.233134	0.994193
382.618371	0.994697
383.003545	0.995674
383.388657	0.995235
383.773706	0.996009
384.158693	0.994827
384.543618	0.995161
384.928480	0.996097
385.313280	0.994956
385.698017	0.995812
386.082692	0.995112
386.467305	0.995446
386.851856	0.995469
387.236344	0.994767
387.620770	0.995672
388.005133	0.995362
388.389435	0.996274
388.773674	0.995536
389.157851	0.994822
389.541965	0.996124
389.926018	0.995144
390.310008	0.997397
390.693936	0.994651
391.077802	0.995022
391.461606	0.994894
391.845348	0.994761
392.229027	0.996560
392.612645	0.996288
392.996200	0.996252
393.379694	0.995601
393.763125	0.995811
394.146494	0.995364
394.529801	0.995676
394.913047	0.995891
395.296230	0.995818
395.679351	0.995746
396.062410	0.996076
396.445408	0.995590
396.828343	0.995957
397.211217	0.996320
397.594028	0.995175
397.976778	0.995144
398.359466	0.995184
398.742092	0.994609
399.124656	0.995074
399.507158	0.995051
399.889598	0.994599
400.271977	0.994757
400.654294	0.994024
401.036549	0.994936
401.418742	0.995616
401.800874	0.993883
402.182944	0.994538
402.564952	0.993262
402.946898	0.995231
403.328783	0.993394
403.710606	0.993118
404.092367	0.992699
404.474067	0.992881
404.855705	0.991086
405.237282	0.990753
405.618797	0.989401
406.000250	0.988087
406.381642	0.986706
406.762972	0.985248
407.144240	0.984285
407.525447	0.982202
407.906593	0.980105
408.287677	0.977027
408.668700	0.975723
409.049661	0.971619
409.430560	0.968474
409.811399	0.964577
410.192176	0.960559
410.572891	0.957768
410.953545	0.953536
411.334138	0.949971
411.714669	0.945798
412.095139	0.942717
412.475547	0.935846
412.855894	0.931072
413.236180	0.925764
413.616405	0.921489
413.996568	0.915229
414.376670	0.909640
414.756711	0.904374
415.136691	0.898349
415.516609	0.889847
415.896466	0.882339
416.276262	0.874247
416.655997	0.867367
417.035670	0.855624
417.415283	0.846172
417.794834	0.839677
418.174324	0.833405
418.553753	0.829539
418.933121	0.815187
419.312428	0.803911
419.691674	0.796861
420.070859	0.784661
420.449983	0.779197
420.829045	0.765474
421.208047	0.761185
421.586988	0.748843
421.965867	0.739309
422.344686	0.723605
422.723444	0.721101
423.102141	0.722569
423.480777	0.698807
423.859352	0.701703
424.237866	0.678591
424.616319	0.671187
424.994712	0.657151
425.373044	0.655406
425.751314	0.638396
426.129524	0.640651
426.507673	0.621572
426.885762	0.609557
427.263789	0.604841
427.641756	0.605176
428.019662	0.590079
428.397508	0.581813
428.775292	0.577286
429.153016	0.564424
429.530679	0.563193
429.908282	0.551181
430.285824	0.554115
430.663305	0.528882
431.040726	0.540600
431.418086	0.536093
431.795385	0.523728
432.172624	0.517350
432.549802	0.512974
432.926920	0.507203
433.303977	0.502322
433.680974	0.495484
434.057910	0.490265
434.434786	0.486198
434.811601	0.484785
435.188355	0.465149
435.565050	0.470332
435.941683	0.469034
436.318257	0.451805
436.694770	0.449275
437.071222	0.445047
437.447614	0.447179
437.823946	0.451307
438.200218	0.439330
438.576429	0.447297
438.952580	0.438267
439.328670	0.433396
439.704700	0.438843
440.080670	0.438904
440.456580	0.419322
440.832429	0.425327
441.208218	0.435921
441.583947	0.424091
441.959616	0.423229
442.335224	0.427407
442.710773	0.417876
443.086261	0.415153
443.461689	0.428564
443.837057	0.418918
444.212365	0.408197
444.587612	0.414225
444.962800	0.404173
445.337927	0.406129
445.712995	0.431484
446.088002	0.393518
446.462949	0.404069
446.837837	0.408668
447.212664	0.397153
447.587431	0.388609
447.962139	0.359257
448.336786	0.318348
448.711374	0.328970
449.085901	0.372309
449.460369	0.376630
449.834776	0.380186
450.209124	0.359555
450.583412	0.352129
450.957640	0.345172
451.331808	0.356805
451.705917	0.379493
452.079965	0.383803
452.453954	0.372498
452.827883	0.378896
453.201752	0.373620
453.575562	0.385207
453.949311	0.373945
454.323001	0.379593
454.696632	0.375429
455.070202	0.367865
455.443713	0.360025
455.817164	0.354890
456.190556	0.350406
456.563888	0.346992
456.937160	0.345223
457.310373	0.361973
457.683526	0.360819
458.056619	0.366843
458.429653	0.367442
458.802628	0.370453
459.175542	0.364587
459.548398	0.347452
459.921194	0.340030
460.293930	0.340096
460.666607	0.317751
461.039224	0.306112
461.411782	0.302081
461.784280	0.301020
462.156719	0.304998
462.529099	0.309841
462.901419	0.325665
463.273680	0.330070
463.645882	0.329365
464.018024	0.335055
464.390106	0.328220
464.762130	0.313106
465.134094	0.296164
465.505999	0.265545
465.877845	0.235944
466.249631	0.222995
466.621358	0.230497
466.993026	0.244169
467.364634	0.250511
467.736184	0.259494
468.107674	0.268044
468.479105	0.266776
468.850477	0.273789
469.221790	0.280641
469.593043	0.290713
469.964238	0.295847
470.335373	0.295041
470.706449	0.293164
471.077467	0.293766
471.448425	0.256365
471.819324	0.231928
472.190164	0.231059
472.560945	0.259897
472.931667	0.282143
473.302330	0.286125
473.672934	0.297873
474.043479	0.286346
474.413965	0.287990
474.784393	0.291699
475.154761	0.286210
475.525070	0.283869
475.895321	0.289628
476.265513	0.283639
476.635645	0.279176
477.005719	0.279199
477.375734	0.275855
477.745691	0.268759
478.115588	0.265528
478.485427	0.259189
478.855207	0.246185
479.224928	0.228336
479.594591	0.216722
479.964194	0.220054
480.333739	0.221109
480.703226	0.222714
481.072653	0.221290
481.442022	0.216931
481.811333	0.213232
482.180584	0.216951
482.549777	0.221925
482.918912	0.225542
483.287988	0.225138
483.657005	0.224923
484.025964	0.231256
484.394864	0.228769
484.763706	0.229217
485.132489	0.234110
485.501213	0.234937
485.869879	0.233453
486.238487	0.236446
486.607036	0.234232
486.975527	0.238899
487.343959	0.234577
487.712333	0.233709
488.080648	0.235108
488.448905	0.234302
488.817104	0.235705
489.185244	0.230235
489.553326	0.226838
489.921350	0.216640
490.289315	0.199616
490.657222	0.194285
491.025070	0.195601
491.392861	0.197688
491.760593	0.203221
492.128267	0.208908
492.495883	0.214318
492.863440	0.220504
493.230939	0.227044
493.598380	0.228188
493.965763	0.230440
494.333088	0.232717
494.700354	0.234134
495.067563	0.233235
495.434713	0.236265
495.801805	0.234263
496.168839	0.235811
496.535815	0.237156
496.902733	0.237319
497.269593	0.238615
497.636395	0.236254
498.003139	0.236744
498.369825	0.239595
498.736453	0.236310
499.103023	0.237640
499.469535	0.236882
499.835989	0.237465
500.202385	0.238346
500.568723	0.241608
500.935003	0.236827
501.301226	0.241001
501.667390	0.235430
502.033497	0.233441
502.399546	0.236137
502.765537	0.237926
503.131470	0.236328
503.497345	0.232911
503.863163	0.241623
504.228923	0.234725
504.594625	0.233105
504.960269	0.238689
505.325856	0.233941
505.691385	0.238268
506.056856	0.234860
506.422270	0.234567
506.787625	0.236819
507.152924	0.234475
507.518164	0.234838
507.883347	0.236334
508.248472	0.238285
508.613540	0.233438
508.978550	0.235636
509.343503	0.236370
509.708398	0.233968
510.073236	0.231544
510.438016	0.231489
510.802738	0.232796
511.167403	0.231424
511.532010	0.233411
511.896561	0.228858
512.261053	0.227636
512.625488	0.229771
512.989866	0.230038
513.354186	0.230326
513.718449	0.231940
514.082655	0.228542
514.446803	0.230899
514.810894	0.228272
515.174927	0.231069
515.538904	0.230514
515.902822	0.227570
516.266684	0.229959
516.630488	0.230921
516.994235	0.229826
517.357925	0.228642
517.721558	0.226954
518.085133	0.226163
518.448651	0.226563
518.812112	0.228735
519.175516	0.228215
519.538863	0.225988
519.902152	0.227443
520.265385	0.224375
520.628560	0.226322
520.991678	0.226542
521.354739	0.225685
521.717743	0.226510
522.080690	0.227107
522.443580	0.224340
522.806413	0.225312
523.169189	0.225010
523.531908	0.223709
523.894569	0.227057
524.257174	0.227218
524.619722	0.224628
524.982213	0.225771
525.344647	0.224909
525.707025	0.225469
526.069345	0.223824
526.431608	0.225722
526.793815	0.223565
527.155964	0.227654
527.518057	0.226622
527.880093	0.227738
528.242072	0.226148
528.603995	0.228243
528.965860	0.229701
529.327669	0.228746
529.689421	0.229647
530.051117	0.230294
530.412755	0.227835
530.774337	0.230502
531.135862	0.230687
531.497331	0.229959
531.858743	0.232940
532.220098	0.229852
532.581396	0.232139
532.942638	0.232677
533.303824	0.233680
533.664953	0.233083
534.026025	0.234876
534.387040	0.233210
534.747999	0.233021
535.108902	0.231712
535.469748	0.237014
535.830537	0.234551
536.191270	0.235041
536.551947	0.234513
536.912567	0.234889
537.273131	0.236517
537.633638	0.236465
537.994089	0.236910
538.354483	0.238187
538.714821	0.235086
539.075103	0.234860
539.435328	0.235487
539.795497	0.239386
540.155609	0.235739
540.515665	0.234149
540.875665	0.239607
541.235609	0.238226
541.595496	0.238100
541.955328	0.234949
542.315102	0.237716
542.674821	0.238482
543.034483	0.238540
543.394090	0.238236
543.753640	0.240196
544.113134	0.234783
544.472571	0.238472
544.831953	0.235028
545.191278	0.239298
545.550548	0.238886
545.909761	0.235556
546.268918	0.236313
546.628019	0.234660
546.987064	0.237331
547.346053	0.239361
547.704986	0.236953
548.063863	0.237507
548.422684	0.237645
548.781449	0.239191
549.140158	0.237120
549.498811	0.239869
549.857408	0.243021
550.215949	0.237674
550.574434	0.240834
550.932864	0.238635
551.291237	0.237273
551.649555	0.238891
552.007817	0.238311
552.366022	0.239546
552.724173	0.239592
553.082267	0.239949
553.440305	0.237215
553.798288	0.241279
554.156215	0.238006
554.514086	0.238349
554.871902	0.241832
555.229661	0.240990
555.587365	0.241360
555.945014	0.244082
556.302606	0.240971
556.660143	0.243286
557.017625	0.239782
557.375050	0.242277
557.732421	0.238984
558.089735	0.241124
558.446994	0.241325
558.804197	0.240209
559.161345	0.240331
559.518437	0.243973
559.875474	0.241429
560.232455	0.240887
560.589381	0.241846
560.946251	0.242234
561.303065	0.239730
561.659825	0.241388
562.016528	0.242609
562.373177	0.245328
562.729770	0.242701
563.086307	0.245109
563.442789	0.242561
563.799216	0.245766
564.155587	0.244181
564.511904	0.245227
564.868164	0.245354
565.224370	0.245310
565.580520	0.247073
565.936615	0.246661
566.292654	0.249961
566.648638	0.247126
567.004567	0.247760
567.360441	0.248480
567.716260	0.250497
568.072023	0.248002
568.427732	0.248920
568.783385	0.251363
569.138982	0.249726
569.494525	0.249323
569.850013	0.252294
570.205445	0.250165
570.560823	0.253016
570.916145	0.254936
571.271412	0.253268
571.626625	0.254777
571.981782	0.255229
572.336884	0.256158
572.691931	0.255726
573.046923	0.256929
573.401860	0.258117
573.756743	0.259792
574.111570	0.258717
574.466342	0.259297
574.821059	0.258271
575.175722	0.261248
575.530330	0.261062
575.884882	0.260857
576.239380	0.263172
576.593823	0.263693
576.948211	0.263078
577.302544	0.266615
577.656823	0.265982
578.011047	0.266129
578.365216	0.266505
578.719330	0.268890
579.073389	0.268634
579.427394	0.269860
579.781344	0.270738
580.135239	0.272098
580.489080	0.271800
580.842866	0.274632
581.196597	0.274624
581.550273	0.273184
581.903895	0.274256
582.257463	0.272452
582.610975	0.275766
582.964434	0.275292
583.317837	0.277641
583.671186	0.278177
584.024481	0.278062
584.377721	0.280896
584.730906	0.281243
585.084037	0.280417
585.437113	0.282124
585.790135	0.281435
586.143103	0.284633
586.496016	0.285658
586.848874	0.283240
587.201679	0.283696
587.554428	0.287153
587.907124	0.285747
588.259765	0.286551
588.612352	0.287415
588.964884	0.290957
589.317362	0.290687
589.669786	0.290329
590.022155	0.289127
590.374470	0.288112
590.726731	0.290449
591.078937	0.294988
591.431090	0.291440
591.783188	0.295694
592.135232	0.296201
592.487222	0.296116
592.839157	0.294414
593.191038	0.296597
593.542866	0.298401
593.894639	0.302348
594.246358	0.299896
594.598022	0.299595
594.949633	0.303202
595.301190	0.304085
595.652692	0.303213
596.004141	0.299331
596.355535	0.307194
596.706876	0.307741
597.058162	0.310398
597.409395	0.307452
597.760573	0.304866
598.111698	0.307997
598.462768	0.308667
598.813785	0.310190
599.164748	0.311329
599.515657	0.311471
599.866511	0.315166
600.217312	0.310121
600.568060	0.315664
600.918753	0.311908
601.269392	0.312873
601.619978	0.316172
601.970510	0.313776
602.320988	0.313772
602.671412	0.311847
603.021783	0.314147
603.372100	0.315371
603.722363	0.315094
604.072572	0.316109
604.422728	0.316059
604.772830	0.317796
605.122878	0.317559
605.472872	0.318084
605.822813	0.316074
606.172701	0.318805
606.522534	0.316167
606.872314	0.316370
607.222041	0.317285
607.571714	0.315668
607.921333	0.316661
608.270899	0.316331
608.620411	0.313533
608.969870	0.317125
609.319276	0.317237
609.668627	0.317161
610.017926	0.315715
610.367171	0.314485
610.716362	0.314825
611.065500	0.315098
611.414585	0.314138
611.763616	0.314439
612.112594	0.315321
612.461518	0.314445
612.810389	0.311903
613.159207	0.314586
613.507971	0.316144
613.856682	0.311943
614.205340	0.313732
614.553945	0.310437
614.902496	0.314138
615.250994	0.312576
615.599439	0.313174
615.947830	0.312425
616.296169	0.313266
616.644454	0.312784
616.992686	0.312910
617.340864	0.311023
617.688990	0.314122
618.037063	0.310971
618.385082	0.312699
618.733048	0.310069
619.080961	0.312305
619.428821	0.311853
619.776628	0.311117
620.124382	0.313101
620.472083	0.313533
620.819731	0.312658
621.167326	0.316637
621.514868	0.316071
621.862357	0.320537
622.209793	0.320161
622.557176	0.322534
622.904506	0.323556
623.251783	0.325979
623.599007	0.327929
623.946179	0.327723
624.293297	0.329545
624.640363	0.333531
624.987376	0.334167
625.334336	0.336681
625.681243	0.338779
626.028097	0.339284
626.374899	0.340581
626.721647	0.340942
627.068343	0.343510
627.414987	0.344943
627.761577	0.346946
628.108115	0.345453
628.454600	0.350464
628.801032	0.347625
629.147412	0.350306
629.493739	0.350192
629.840014	0.353693
630.186236	0.351084
630.532405	0.356249
630.878521	0.353903
631.224585	0.355967
631.570597	0.359909
631.916556	0.358106
632.262462	0.358122
632.608316	0.360295
632.954117	0.361132
633.299866	0.362133
633.645562	0.362165
633.991206	0.366989
634.336797	0.370282
634.682336	0.372191
635.027823	0.373419
635.373257	0.374279
635.718639	0.377344
636.063968	0.376848
636.409245	0.382716
636.754470	0.383037
637.099642	0.385684
637.444762	0.389099
637.789829	0.388197
638.134845	0.391703
638.479808	0.392537
638.824719	0.392012
639.169577	0.396468
639.514383	0.394818
639.859137	0.399696
640.203839	0.398969
640.548489	0.399837
640.893086	0.401269
641.237632	0.402325
641.582125	0.401080
641.926566	0.402798
642.270955	0.403073
642.615292	0.403082
642.959576	0.401916
643.303809	0.402791
643.647990	0.402301
643.992118	0.402785
644.336195	0.406676
644.680219	0.404518
645.024192	0.405358
645.368112	0.398750
645.711981	0.398514
646.055797	0.393708
646.399562	0.395782
646.743274	0.387954
647.086935	0.385335
647.430544	0.385272
647.774101	0.384521
648.117606	0.384142
648.461059	0.384551
648.804460	0.387066
649.147810	0.391880
649.491108	0.393955
649.834354	0.395563
650.177548	0.400555
650.520690	0.406436
650.863781	0.407366
651.206820	0.406578
651.549807	0.411347
651.892742	0.415387
652.235626	0.414523
652.578458	0.416095
652.921238	0.421893
653.263967	0.419937
653.606644	0.423353
653.949269	0.423513
654.291843	0.427187
654.634365	0.424018
654.976836	0.426790
655.319255	0.427306
655.661622	0.429187
656.003938	0.428775
656.346203	0.431937
656.688416	0.429872
657.030577	0.433165
657.372687	0.434733
657.714746	0.435582
658.056753	0.433339
658.398708	0.437074
658.740612	0.437995
659.082465	0.433572
659.424266	0.434419
659.766016	0.434169
660.107715	0.436340
660.449362	0.435325
660.790958	0.436258
661.132503	0.437003
661.473996	0.434649
661.815438	0.435196
662.156829	0.436056
662.498168	0.436254
662.839456	0.437694
663.180693	0.435253
663.521879	0.435755
663.863013	0.436656
664.204097	0.434453
664.545129	0.431782
664.886110	0.432215
665.227040	0.429417
665.567918	0.432171
665.908746	0.429885
666.249522	0.429772
666.590248	0.430572
666.930922	0.428624
667.271545	0.427788
667.612118	0.427629
667.952639	0.429739
668.293109	0.427917
668.633528	0.430777
668.973896	0.430919
669.314213	0.431168
669.654480	0.433174
669.994695	0.433382
670.334859	0.434114
670.674973	0.434226
671.015035	0.434251
671.355047	0.434070
671.695008	0.435280
672.034918	0.437168
672.374777	0.436246
672.714585	0.437631
673.054342	0.437925
673.394049	0.437773
673.733705	0.435199
674.073310	0.436493
674.412864	0.439943
674.752368	0.440192
675.091820	0.439980
675.431223	0.444623
675.770574	0.444443
676.109875	0.447476
676.449125	0.447532
676.788324	0.449514
677.127473	0.455987
677.466571	0.454582
677.805619	0.456337
678.144616	0.458048
678.483562	0.459521
678.822458	0.462268
679.161303	0.462911
679.500098	0.463202
679.838842	0.464677
680.177535	0.464801
680.516179	0.463059
680.854771	0.462365
681.193314	0.455836
681.531805	0.447074
681.870247	0.435680
682.208638	0.427873
682.546978	0.426625
682.885268	0.428506
683.223508	0.435066
683.561697	0.438490
683.899836	0.441622
684.237925	0.444831
684.575963	0.447096
684.913951	0.450138
685.251889	0.445852
685.589776	0.448278
685.927614	0.450107
686.265401	0.444950
686.603137	0.445780
686.940824	0.440522
687.278460	0.438086
687.616046	0.437545
687.953582	0.432432
688.291068	0.433786
688.628504	0.429915
688.965889	0.432060
689.303224	0.436482
689.640510	0.440213
689.977745	0.446327
690.314930	0.453889
690.652065	0.458193
690.989150	0.465660
691.326185	0.471992
691.663170	0.476820
692.000105	0.483573
692.336990	0.490964
692.673825	0.493375
693.010610	0.500247
693.347345	0.505958
693.684030	0.507223
694.020665	0.512450
694.357251	0.520931
694.693786	0.520480
695.030272	0.524254
695.366707	0.528201
695.703093	0.531547
696.039429	0.529408
696.375716	0.531181
696.711952	0.533669
697.048139	0.535887
697.384276	0.538022
697.720363	0.535932
698.056400	0.534834
698.392388	0.540856
698.728326	0.543662
699.064214	0.546059
699.400053	0.547339
699.735842	0.551073
700.071581	0.553297
700.407270	0.556235
700.742910	0.559054
701.078501	0.565981
701.414042	0.565819
701.749533	0.568229
702.084974	0.577724
702.420366	0.570442
702.755709	0.577716
703.091002	0.585144
703.426246	0.579200
703.761440	0.584552
704.096584	0.589174
704.431679	0.586409
704.766725	0.588729
705.101721	0.590215
705.436668	0.586272
705.771565	0.593624
706.106413	0.590026
706.441212	0.585477
706.775961	0.583685
707.110661	0.587460
707.445311	0.583325
707.779913	0.580325
708.114465	0.579082
708.448967	0.575644
708.783421	0.566843
709.117825	0.562370
709.452180	0.562335
709.786485	0.556340
710.120742	0.545991
710.454949	0.548510
710.789107	0.540065
711.123216	0.531279
711.457275	0.533080
711.791286	0.523913
712.125247	0.522488
712.459159	0.533931
712.793023	0.526310
713.126837	0.530712
713.460602	0.530612
713.794318	0.540334
714.127985	0.539269
714.461602	0.548916
714.795171	0.551901
715.128691	0.560021
715.462162	0.567678
715.795584	0.573539
716.128957	0.576128
716.462281	0.582387
716.795556	0.586221
717.128782	0.591457
717.461960	0.600864
717.795088	0.599127
718.128167	0.605377
718.461198	0.614291
718.794180	0.614533
719.127113	0.617563
719.459997	0.620835
719.792833	0.627593
720.125619	0.628515
720.458357	0.634818
720.791046	0.634430
721.123686	0.637488
721.456278	0.644276
721.788821	0.641681
722.121315	0.645539
722.453761	0.649862
722.786158	0.647855
723.118506	0.644123
723.450805	0.651863
723.783056	0.648329
724.115259	0.645440
724.447412	0.645077
724.779518	0.646586
725.111574	0.645123
725.443582	0.640198
725.775542	0.642610
726.107453	0.635254
726.439315	0.635107
726.771129	0.632897
727.102895	0.627258
727.434612	0.619071
727.766281	0.617697
728.097901	0.617666
728.429473	0.616704
728.760996	0.615321
729.092471	0.614819
729.423897	0.619167
729.755276	0.617678
730.086606	0.617933
730.417887	0.612584
730.749120	0.602910
731.080305	0.593824
731.411442	0.590346
731.742530	0.595791
732.073570	0.594383
732.404562	0.586240
732.735506	0.587836
733.066401	0.592825
733.397249	0.601426
733.728048	0.613050
734.058798	0.625195
734.389501	0.636125
734.720156	0.646040
735.050762	0.654048
735.381320	0.654547
735.711831	0.664459
736.042293	0.669596
736.372707	0.664622
736.703073	0.669266
737.033391	0.671844
737.363661	0.669064
737.693883	0.663964
738.024056	0.663223
738.354182	0.663666
738.684260	0.653313
739.014290	0.648454
739.344272	0.649689
739.674207	0.642891
740.004093	0.642636
740.333931	0.642625
740.663722	0.643148
740.993464	0.643032
741.323159	0.647123
741.652806	0.651943
741.982405	0.656968
742.311956	0.662034
742.641460	0.663935
742.970915	0.667585
743.300323	0.674597
743.629683	0.681591
743.958996	0.683457
744.288260	0.688226
744.617477	0.694855
744.946647	0.695084
745.275768	0.700237
745.604842	0.700387
745.933869	0.710740
746.262847	0.710677
746.591778	0.705168
746.920662	0.710804
747.249498	0.718035
747.578286	0.708952
747.907027	0.704149
748.235720	0.705274
748.564365	0.700905
748.892963	0.699992
749.221514	0.702845
749.550017	0.708611
749.878473	0.707670
750.206881	0.713813
750.535242	0.714603
750.863555	0.715922
751.191821	0.716334
751.520039	0.719035
751.848210	0.723869
752.176334	0.717390
752.504411	0.716293
752.832440	0.724880
753.160421	0.727990
753.488356	0.726918
753.816243	0.723666
754.144082	0.731648
754.471875	0.735152
754.799620	0.731400
755.127318	0.732265
755.454969	0.732457
755.782572	0.732597
756.110129	0.736727
756.437638	0.738757
756.765100	0.736241
757.092515	0.734099
757.419882	0.732534
757.747203	0.737382
758.074477	0.736742
758.401703	0.734747
758.728882	0.729683
759.056014	0.728207
759.383099	0.728180
759.710138	0.729112
760.037129	0.724600
760.364073	0.719275
760.690970	0.721570
761.017820	0.727162
761.344623	0.722741
761.671379	0.712751
761.998088	0.702032
762.324751	0.679669
762.651366	0.637605
762.977935	0.571075
763.304456	0.518488
763.630931	0.509121
763.957359	0.547852
764.283740	0.592601
764.610074	0.620346
764.936362	0.650591
765.262602	0.677380
765.588796	0.698704
765.914943	0.716217
766.241044	0.735155
766.567097	0.741612
766.893104	0.751500
767.219064	0.757956
767.544978	0.763693
767.870845	0.777872
768.196665	0.780778
768.522438	0.779846
768.848165	0.780373
769.173846	0.789991
769.499479	0.793594
769.825066	0.797441
770.150607	0.802522
770.476101	0.797163
770.801548	0.798368
771.126949	0.810172
771.452303	0.814647
771.777611	0.813690
772.102872	0.812573
772.428087	0.817492
772.753256	0.821248
773.078378	0.823200
773.403453	0.831669
773.728482	0.836161
774.053465	0.829675
774.378401	0.833735
774.703291	0.841674
775.028135	0.841067
775.352932	0.842985
775.677683	0.845641
776.002388	0.845916
776.327046	0.844833
776.651658	0.849611
776.976224	0.852406
777.300743	0.853523
777.625216	0.855391
777.949643	0.857067
778.274024	0.856856
778.598359	0.858866
778.922647	0.856843
779.246889	0.858004
779.571086	0.860237
779.895236	0.864614
780.219339	0.861017
780.543397	0.857979
780.867409	0.855753
781.191374	0.858367
781.515294	0.860570
781.839167	0.859674
782.162995	0.862109
782.486776	0.859029
782.810511	0.859193
783.134201	0.863692
783.457844	0.862093
783.781441	0.863828
784.104993	0.870330
784.428498	0.870430
784.751958	0.866208
785.075372	0.868039
785.398739	0.872795
785.722061	0.868747
786.045337	0.863902
786.368568	0.870446
786.691752	0.871061
787.014891	0.857539
787.337983	0.848679
787.661030	0.840851
787.984031	0.823408
788.306987	0.810758
788.629897	0.813289
788.952760	0.816192
789.275579	0.822373
789.598351	0.836775
789.921078	0.849547
790.243759	0.851751
790.566395	0.857010
790.888984	0.863606
791.211529	0.868784
791.534027	0.872286
791.856480	0.874747
792.178888	0.879662
792.501249	0.881901
792.823566	0.882120
793.145836	0.882922
793.468062	0.883902
793.790241	0.884608
794.112375	0.882433
794.434464	0.878715
794.756507	0.878473
795.078505	0.877054
795.400457	0.872270
795.722364	0.859855
796.044226	0.853465
796.366042	0.852110
796.687812	0.855639
797.009538	0.851490
797.331218	0.854404
797.652852	0.859604
797.974442	0.864416
798.295986	0.864403
798.617484	0.866820
798.938938	0.871890
799.260346	0.876009
799.581709	0.877980
799.903026	0.880126
800.224299	0.880912
800.545526	0.884632
800.866708	0.888598
801.187845	0.892906
801.508936	0.892420
801.829983	0.890683
802.150984	0.892471
802.471940	0.898579
802.792851	0.896995
803.113717	0.898222
803.434538	0.896413
803.755314	0.898341
804.076045	0.900337
804.396731	0.901249
804.717372	0.899207
805.037967	0.902052
805.358518	0.899874
805.679024	0.897441
805.999485	0.896522
806.319901	0.897292
806.640272	0.897702
806.960598	0.896222
807.280879	0.893834
807.601115	0.892017
807.921306	0.897411
808.241453	0.896088
808.561554	0.894109
808.881611	0.894664
809.201623	0.894990
809.521590	0.896361
809.841513	0.897853
810.161390	0.896179
810.481223	0.898139
810.801011	0.901421
811.120755	0.902889
811.440453	0.901810
811.760107	0.901310
812.079716	0.900634
812.399281	0.904726
812.718801	0.906125
813.038276	0.907935
813.357707	0.906637
813.677093	0.903728
813.996434	0.907265
814.315731	0.908934
814.634983	0.910499
814.954191	0.908873
815.273354	0.905614
815.592473	0.900915
815.911547	0.901535
816.230577	0.898743
816.549562	0.896616
816.868502	0.897159
817.187399	0.893120
817.506250	0.887574
817.825058	0.889907
818.143821	0.885951
818.462539	0.881231
818.781213	0.873038
819.099843	0.862104
819.418429	0.846104
819.736970	0.829436
820.055466	0.809536
820.373919	0.784402
820.692327	0.750227
821.010691	0.715950
821.329011	0.638749
821.647286	0.522907
821.965517	0.409301
822.283704	0.366738
822.601847	0.367772
822.919945	0.403749
823.237999	0.437586
823.556010	0.484044
823.873976	0.540174
824.191897	0.590447
824.509775	0.633303
824.827609	0.679224
825.145398	0.701221
825.463144	0.704153
825.780845	0.687140
826.098502	0.668679
826.416116	0.622651
826.733685	0.578353
827.051210	0.569783
827.368692	0.584590
827.686129	0.621482
828.003522	0.675211
828.320872	0.721847
828.638177	0.766180
828.955439	0.799915
829.272656	0.821666
829.589830	0.839120
829.906960	0.854603
830.224046	0.866863
830.541088	0.877445
830.858086	0.881447
831.175041	0.887328
831.491952	0.886630
831.808819	0.883108
832.125642	0.876317
832.442421	0.862267
832.759157	0.840315
833.075849	0.793885
833.392497	0.730298
833.709101	0.689450
834.025662	0.699199
834.342179	0.729424
834.658653	0.768831
834.975083	0.805618
835.291469	0.831816
835.607811	0.854628
835.924110	0.870374
836.240366	0.886808
836.556578	0.901445
836.872746	0.908705
837.188871	0.915221
837.504952	0.920461
837.820990	0.924251
838.136984	0.926211
838.452935	0.930625
838.768842	0.932673
839.084706	0.925136
839.400526	0.899806
839.716303	0.859494
840.032037	0.836398
840.347727	0.839694
840.663373	0.857872
840.978977	0.880389
841.294537	0.902399
841.610054	0.918870
841.925527	0.926510
842.240957	0.933406
842.556344	0.940049
842.871687	0.946375
843.186987	0.950698
843.502244	0.950241
843.817458	0.952636
844.132629	0.955940
844.447756	0.960940
844.762840	0.960567
845.077881	0.960619
845.392879	0.959905
845.707833	0.962897
846.022745	0.964988
846.337613	0.965257
846.652438	0.966481
846.967221	0.964702
847.281960	0.965193
847.596656	0.967691
847.911309	0.966285
848.225919	0.968157
848.540485	0.969162
848.855009	0.969086
849.169490	0.967680
849.483928	0.969548
849.798323	0.969041
850.112675	0.970821
850.426984	0.970053
850.741251	0.970795
851.055474	0.971276
851.369654	0.968097
851.683792	0.970046
851.997887	0.971147
852.311938	0.970075
852.625947	0.970605
852.939914	0.969080
853.253837	0.970032
853.567718	0.971953
853.881555	0.970973
854.195350	0.968530
854.509103	0.969690
854.822812	0.969552
855.136479	0.969966
855.450103	0.970131
855.763685	0.968293
856.077224	0.969449
856.390720	0.971017
856.704173	0.970655
857.017584	0.967848
857.330953	0.967046
857.644278	0.967804
857.957561	0.968484
858.270802	0.968564
858.584000	0.967797
858.897155	0.966582
859.210268	0.967485
859.523339	0.968492
859.836367	0.970142
860.149352	0.970803
860.462295	0.968816
860.775195	0.969900
861.088054	0.969541
861.400869	0.969554
861.713642	0.971432
862.026373	0.971133
862.339062	0.971330
862.651708	0.967762
862.964312	0.968530
863.276873	0.968906
863.589392	0.968477
863.901869	0.966401
864.214303	0.964666
864.526696	0.964985
864.839045	0.964182
865.151353	0.961852
865.463619	0.963055
865.775842	0.962345
866.088023	0.961808
866.400162	0.962473
866.712258	0.962459
867.024313	0.963260
867.336325	0.964044
867.648296	0.963135
867.960224	0.962373
868.272110	0.961424
868.583954	0.964585
868.895755	0.964686
869.207515	0.961474
869.519233	0.959899
869.830909	0.961329
870.142542	0.962119
870.454134	0.961266
870.765684	0.961348
871.077191	0.958275
871.388657	0.960094
871.700081	0.957771
872.011463	0.958225
872.322803	0.958799
872.634101	0.956548
872.945357	0.955101
873.256571	0.953851
873.567744	0.952248
873.878874	0.953540
874.189963	0.952645
874.501010	0.951629
874.812015	0.950633
875.122979	0.951596
875.433900	0.953398
875.744780	0.954161
876.055618	0.951498
876.366415	0.950194
876.677169	0.950072
876.987882	0.951154
877.298554	0.950538
877.609183	0.947837
877.919771	0.945732
878.230317	0.943281
878.540822	0.941122
878.851285	0.934697
879.161707	0.928010
879.472087	0.915683
879.782425	0.897885
880.092722	0.865093
880.402977	0.812495
880.713191	0.751919
881.023363	0.692822
881.333494	0.658746
881.643583	0.631357
881.953631	0.630725
882.263637	0.659226
882.573602	0.698199
882.883526	0.724048
883.193408	0.748288
883.503248	0.771007
883.813048	0.798072
884.122806	0.827375
884.432522	0.851346
884.742197	0.870460
885.051831	0.881294
885.361424	0.891007
885.670975	0.903625
885.980485	0.913612
886.289954	0.920828
886.599382	0.925253
886.908768	0.929094
887.218113	0.934967
887.527417	0.939427
887.836680	0.942190
888.145901	0.944216
888.455082	0.946760
888.764221	0.951430
889.073319	0.952288
889.382376	0.953701
889.691392	0.952979
890.000366	0.953316
890.309300	0.954734
890.618193	0.952985
890.927044	0.951284
891.235855	0.951566
891.544625	0.951785
891.853353	0.951732
892.162041	0.950297
892.470687	0.942719
892.779293	0.938484
893.087858	0.934332
893.396381	0.926349
893.704864	0.914568
894.013306	0.889087
894.321707	0.862973
894.630068	0.848481
894.938387	0.843042
895.246665	0.844433
895.554903	0.856970
895.863100	0.870934
896.171256	0.887320
896.479371	0.906363
896.787446	0.918790
897.095480	0.925247
897.403473	0.928889
897.711425	0.933306
898.019336	0.940331
898.327207	0.943250
898.635038	0.946640
898.942827	0.945313
899.250576	0.948564
899.558284	0.952404
899.865952	0.954582
900.173579	0.955776
900.481165	0.955740
900.788711	0.959532
901.096216	0.961564
901.403681	0.961956
901.711105	0.962994
902.018489	0.963667
902.325832	0.962883
902.633135	0.962548
902.940397	0.955344
903.247619	0.943910
903.554800	0.918288
903.861941	0.879262
904.169041	0.843642
904.476101	0.825930
904.783121	0.826924
905.090100	0.842666
905.397039	0.863366
905.703938	0.886376
906.010796	0.905343
906.317614	0.921816
906.624391	0.935172
906.931129	0.944850
907.237826	0.951879
907.544483	0.959131
907.851099	0.963458
908.157675	0.968331
908.464211	0.969337
908.770707	0.972201
909.077163	0.973836
909.383578	0.975159
909.689954	0.975128
909.996289	0.975858
910.302584	0.977969
910.608839	0.979512
910.915054	0.978584
911.221229	0.977463
911.527363	0.976290
911.833458	0.977399
912.139513	0.977361
912.445527	0.975979
912.751502	0.973922
913.057436	0.972915
913.363331	0.970649
913.669186	0.966566
913.975000	0.961896
914.280775	0.955771
914.586510	0.948658
914.892205	0.934713
915.197859	0.913622
915.503475	0.887919
915.809050	0.868045
916.114585	0.862069
916.420081	0.858034
916.725536	0.855099
917.030952	0.863544
917.336328	0.876468
917.641665	0.892157
917.946961	0.908104
918.252218	0.918425
918.557435	0.927720
918.862612	0.936534
919.167750	0.942227
919.472848	0.947148
919.777906	0.952158
920.082925	0.957942
920.387904	0.961723
920.692843	0.962970
920.997743	0.964214
921.302603	0.967027
921.607423	0.969837
921.912204	0.972443
922.216946	0.971338
922.521647	0.972887
922.826310	0.975141
923.130932	0.977335
923.435516	0.978214
923.740059	0.979109
924.044564	0.978700
924.349028	0.981270
924.653454	0.982778
924.957840	0.984667
925.262186	0.984508
925.566493	0.983809
925.870761	0.985782
926.174989	0.986734
926.479178	0.988375
926.783328	0.987136
927.087438	0.989472
927.391509	0.988045
927.695541	0.990662
927.999533	0.989329
928.303486	0.989764
928.607400	0.991360
928.911275	0.989412
929.215110	0.991053
929.518906	0.991487
929.822663	0.990329
930.126381	0.990736
930.430060	0.990529
930.733699	0.989929
931.037299	0.989651
931.340861	0.992010
931.644383	0.990051
931.947866	0.989471
932.251309	0.991747
932.554714	0.990261
932.858080	0.989806
933.161407	0.990382
933.464694	0.991827
933.767943	0.989406
934.071153	0.991320
934.374323	0.991888
934.677455	0.991830
934.980548	0.991965
935.283602	0.991851
935.586617	0.991185
935.889593	0.990859
936.192530	0.990968
936.495428	0.991724
936.798287	0.991222
937.101108	0.991446
937.403890	0.990467
937.706632	0.988680
938.009336	0.987652
938.312002	0.985751
938.614628	0.984512
938.917216	0.982294
939.219765	0.982136
939.522275	0.983038
939.824747	0.982659
940.127179	0.983311
940.429573	0.984785
940.731929	0.984887
941.034246	0.984513
941.336524	0.986037
941.638763	0.985760
941.940964	0.986205
942.243126	0.987496
942.545250	0.988981
942.847335	0.989372
943.149381	0.988805
943.451389	0.988453
943.753359	0.988613
944.055290	0.991738
944.357182	0.989715
944.659036	0.988134
944.960851	0.989490
945.262628	0.990534
945.564367	0.990949
945.866067	0.991158
946.167729	0.990643
946.469352	0.989741
946.770937	0.989406
947.072484	0.991454
947.373992	0.991024
947.675462	0.989753
947.976893	0.990407
948.278286	0.990337
948.579641	0.992301
948.880958	0.990814
949.182236	0.991262
949.483476	0.991222
949.784678	0.990667
950.085841	0.990487
950.386967	0.990973
950.688054	0.990643
950.989103	0.990689
951.290114	0.989659
951.591087	0.990164
951.892021	0.989484
952.192917	0.989546
952.493776	0.987631
952.794596	0.988635
953.095378	0.987635
953.396122	0.988276
953.696828	0.987856
953.997496	0.989872
954.298126	0.991202
954.598718	0.991207
954.899272	0.991432
955.199788	0.991188
955.500266	0.992935
955.800706	0.993812
956.101108	0.992987
956.401472	0.993421
956.701798	0.995089
957.002087	0.993097
957.302337	0.993175
957.602550	0.996280
957.902724	0.994848
958.202861	0.996014
958.502960	0.996185
958.803022	0.993432
959.103045	0.996491
959.403031	0.996204
959.702979	0.996583
960.002889	0.997171
960.302762	0.994904
960.602596	0.997034
960.902393	0.995277
961.202153	0.997134
961.501875	0.997906
961.801559	0.995677
962.101205	0.995955
962.400814	0.996989
962.700385	0.996702
962.999918	0.996673
963.299414	0.996900
963.598873	0.996385
963.898293	0.995966
964.197677	0.996156
964.497022	0.996055
964.796331	0.997992
965.095601	0.996797
965.394835	0.996569
965.694030	0.996820
965.993189	0.997620
966.292309	0.996519
966.591393	0.997593
966.890439	0.996952
967.189447	0.996998
967.488419	0.996783
967.787353	0.996383
968.086249	0.997620
968.385108	0.998399
968.683930	0.998151
968.982714	0.998469
969.281462	0.997675
969.580172	0.996647
969.878844	0.997336
970.177480	0.996507
970.476078	0.997081
970.774639	0.996554
971.073162	0.997606
971.371649	0.996739
971.670098	0.997434
971.968510	0.997378
972.266885	0.995886
972.565223	0.997258
972.863524	0.996818
973.161788	0.996329
973.460014	0.998456
973.758204	0.995347
974.056356	0.997719
974.354471	0.995413
974.652550	0.997189
974.950591	0.996733
975.248595	0.996480
975.546563	0.997344
975.844493	0.998090
976.142386	0.997239
976.440243	0.998063
976.738062	0.997175
977.035845	0.997857
977.333590	0.997509
977.631299	0.997498
977.928971	0.996924
978.226606	0.996475
978.524204	0.996538
978.821765	0.998262
979.119290	0.997579
979.416777	0.995318
979.714228	0.997672
980.011642	0.997199
980.309020	0.998410
980.606360	0.996121
980.903664	0.998838
981.200931	0.996958
981.498162	0.996068
981.795356	0.996595
982.092513	0.993071
982.389633	0.994533
982.686717	0.991847
982.983764	0.991685
983.280775	0.990406
983.577749	0.991010
983.874686	0.991504
984.171587	0.991531
984.468451	0.995633
984.765279	0.995042
985.062070	0.994871
985.358824	0.995199
985.655543	0.995328
985.952224	0.995922
986.248869	0.995908
986.545478	0.997126
986.842050	0.998933
987.138586	0.995484
987.435086	0.997458
987.731549	0.998825
988.027975	0.997664
988.324366	0.998636
988.620719	0.997896
988.917037	0.997185
989.213318	0.998797
989.509563	0.998045
989.805772	0.999071
990.101944	0.998278
990.398080	0.997318
990.694180	0.997858
990.990244	0.998865
991.286271	0.998519
991.582262	0.998267
991.878217	0.998062
992.174136	0.998255
992.470019	0.999638
992.765865	0.997989
993.061676	0.998129
993.357450	0.997222
993.653188	0.998741
993.948890	0.996907
994.244556	0.997039
994.540186	0.996963
994.835780	0.996970
995.131337	0.997217
995.426859	0.997058
995.722345	0.997903
996.017795	0.996853
996.313208	0.995614
996.608586	0.996297
996.903928	0.996340
997.199234	0.997011
997.494504	0.996365
997.789738	0.995883
998.084936	0.996846
998.380099	0.998309
998.675225	0.996386
998.970316	0.998609
999.265371	0.998125
999.560390	0.999010
999.855373	0.998976
1000.150320	0.999185
1000.445232	0.998781
1000.740108	0.998083
1001.034948	0.998405
1001.329752	0.999148
1001.624521	1.000150
1001.919254	0.999088
1002.213951	0.997773
1002.508613	0.998403
1002.803239	0.998999
1003.097829	0.999350
1003.392384	0.999646
1003.686903	0.997311
1003.981386	0.998334
1004.275834	0.999732
1004.570246	0.999479
1004.864623	0.999037
1005.158964	0.999914
1005.453270	0.999255
1005.747540	0.998056
1006.041775	0.999378
1006.335974	0.999967
1006.630138	0.999333
1006.924266	0.999888
1007.218359	1.000989
1007.512416	1.000835
1007.806438	0.999656
1008.100425	1.000620
1008.394376	0.998701
1008.688292	0.998068
1008.982172	1.000675
1009.276017	0.998706
1009.569827	0.998737
1009.863602	0.999988
1010.157341	1.000480
1010.451045	0.999298
1010.744714	0.999954
1011.038347	0.998997
1011.331945	0.998874
1011.625508	0.997264
1011.919036	0.998889
1012.212528	0.998727
1012.505986	0.998625
1012.799408	0.999499
1013.092795	0.998903
1013.386147	1.000082
1013.679464	0.999111
1013.972745	0.999611
1014.265992	0.997504
1014.559204	0.999260
1014.852380	0.999593
1015.145521	0.998146
1015.438628	0.999266
1015.731699	0.999383
1016.024736	0.999107
1016.317737	0.998910
1016.610703	0.999606
1016.903635	0.999118
1017.196531	1.000088
1017.489393	1.000083
1017.782219	0.999126
1018.075011	0.999062
1018.367768	0.999806
1018.660490	1.000044
1018.953177	1.000044
1019.245829	1.000044
