Dividing Wavelength (nm)	Counts (n)	Blue Motor Position (mm): 0.000000	Red Motor Position (mm): 35.200000	
326.493990	1.001227
326.888308	1.001227
327.282561	1.001227
327.676750	0.999083
328.070874	1.000134
328.464933	1.000202
328.858929	0.999010
329.252859	0.999643
329.646726	0.999679
330.040528	0.999763
330.434265	0.999049
330.827938	1.000978
331.221547	1.000089
331.615091	0.999507
332.008571	1.000731
332.401986	1.000078
332.795338	1.000343
333.188625	0.999994
333.581847	1.000193
333.975006	1.001040
334.368100	0.999926
334.761129	1.000000
335.154095	1.000793
335.546996	0.999685
335.939833	0.997004
336.332606	0.996814
336.725315	0.997343
337.117960	0.998348
337.510540	0.997381
337.903056	0.996732
338.295508	0.996114
338.687896	0.996830
339.080220	0.997300
339.472480	0.996013
339.864676	0.996116
340.256807	0.996224
340.648875	0.998395
341.040879	0.996691
341.432818	0.996109
341.824694	0.996972
342.216506	0.997717
342.608253	0.996673
342.999937	0.997409
343.391557	0.995986
343.783113	0.996450
344.174605	0.996810
344.566033	0.997632
344.957397	0.995702
345.348697	0.996366
345.739934	0.996483
346.131106	0.997214
346.522215	0.997286
346.913260	0.996263
347.304241	0.997685
347.695159	0.996648
348.086012	0.995474
348.476802	0.996179
348.867528	0.997147
349.258191	0.995691
349.648789	0.997743
350.039324	0.995704
350.429796	0.998080
350.820203	0.997308
351.210548	0.996788
351.600828	0.995425
351.991045	0.997688
352.381198	0.995846
352.771288	0.996977
353.161314	0.996613
353.551276	0.997470
353.941175	0.996534
354.331010	0.997382
354.720782	0.996006
355.110490	0.997279
355.500135	0.997696
355.889717	0.997036
356.279235	0.998028
356.668689	0.996776
357.058080	0.995895
357.447408	0.998356
357.836672	0.996668
358.225873	0.997803
358.615010	0.997409
359.004084	0.998042
359.393095	0.996753
359.782043	0.996776
360.170927	0.998507
360.559748	0.998336
360.948505	0.996546
361.337199	0.996423
361.725830	0.997211
362.114398	0.996712
362.502903	0.997633
362.891344	0.997439
363.279722	0.996827
363.668037	0.997847
364.056289	0.997697
364.444478	0.998159
364.832603	0.997837
365.220665	0.996800
365.608665	0.998197
365.996601	0.997149
366.384474	0.996735
366.772284	0.997243
367.160031	0.995428
367.547715	0.996526
367.935336	0.996675
368.322893	0.997541
368.710388	0.996079
369.097820	0.996732
369.485189	0.996539
369.872495	0.995673
370.259738	0.995774
370.646918	0.997208
371.034035	0.997222
371.421090	0.996622
371.808081	0.995649
372.195010	0.997314
372.581875	0.996762
372.968678	0.997293
373.355418	0.998229
373.742096	0.997343
374.128710	0.997815
374.515262	0.996808
374.901751	0.997701
375.288177	0.997189
375.674540	0.998110
376.060841	0.995956
376.447079	0.997068
376.833254	0.998251
377.219367	0.997323
377.605417	0.997640
377.991404	0.997382
378.377329	0.997287
378.763191	0.996840
379.148991	0.998382
379.534727	0.997535
379.920402	0.996985
380.306013	0.997149
380.691563	0.998280
381.077049	0.996478
381.462474	0.997433
381.847835	0.997867
382.233134	0.997467
382.618371	0.997401
383.003545	0.997161
383.388657	0.997855
383.773706	0.998631
384.158693	0.998441
384.543618	0.998003
384.928480	0.998616
385.313280	0.998440
385.698017	0.998665
386.082692	0.998609
386.467305	0.998020
386.851856	0.997873
387.236344	0.997720
387.620770	0.996823
388.005133	0.999101
388.389435	0.998613
388.773674	0.998078
389.157851	0.998306
389.541965	0.998170
389.926018	0.997248
390.310008	0.998897
390.693936	0.997532
391.077802	0.998394
391.461606	0.998765
391.845348	0.998441
392.229027	0.999905
392.612645	0.998221
392.996200	0.999747
393.379694	0.998532
393.763125	0.999444
394.146494	0.999378
394.529801	0.999210
394.913047	0.998756
395.296230	0.998199
395.679351	0.998406
396.062410	0.997665
396.445408	0.998387
396.828343	0.998060
397.211217	0.998422
397.594028	0.998541
397.976778	0.999457
398.359466	0.997510
398.742092	0.997788
399.124656	0.997658
399.507158	0.999000
399.889598	0.998401
400.271977	0.999567
400.654294	0.998846
401.036549	0.998322
401.418742	0.999112
401.800874	0.997297
402.182944	0.999141
402.564952	0.997691
402.946898	0.998959
403.328783	0.998788
403.710606	0.998429
404.092367	0.998783
404.474067	0.998750
404.855705	0.998314
405.237282	0.998486
405.618797	0.998832
406.000250	0.998666
406.381642	0.998889
406.762972	0.998883
407.144240	0.999181
407.525447	0.998986
407.906593	0.998564
408.287677	0.998750
408.668700	0.999314
409.049661	0.997646
409.430560	0.999209
409.811399	0.998578
410.192176	0.997877
410.572891	0.998454
410.953545	0.997772
411.334138	0.996963
411.714669	0.999265
412.095139	0.998060
412.475547	0.999728
412.855894	0.998333
413.236180	0.999143
413.616405	0.998307
413.996568	0.998716
414.376670	0.998970
414.756711	0.998286
415.136691	0.998727
415.516609	0.998494
415.896466	0.998018
416.276262	0.997541
416.655997	0.999207
417.035670	0.998042
417.415283	0.998881
417.794834	0.998729
418.174324	0.998995
418.553753	0.999206
418.933121	0.998087
419.312428	0.998147
419.691674	0.998372
420.070859	0.999730
420.449983	0.998613
420.829045	0.998260
421.208047	0.999245
421.586988	0.999609
421.965867	0.998891
422.344686	0.999674
422.723444	0.998524
423.102141	0.999378
423.480777	0.999123
423.859352	0.998989
424.237866	0.998776
424.616319	0.998201
424.994712	0.999086
425.373044	0.999992
425.751314	0.999543
426.129524	0.998954
426.507673	0.998991
426.885762	0.999901
427.263789	0.999188
427.641756	0.999672
428.019662	0.999604
428.397508	0.998613
428.775292	0.998267
429.153016	0.999336
429.530679	0.999260
429.908282	0.998995
430.285824	0.998507
430.663305	0.998421
431.040726	0.999698
431.418086	1.000379
431.795385	0.999056
432.172624	0.999216
432.549802	0.999024
432.926920	0.999391
433.303977	0.998632
433.680974	1.000114
434.057910	0.999866
434.434786	1.000161
434.811601	0.998371
435.188355	0.999575
435.565050	0.998292
435.941683	0.998616
436.318257	0.999916
436.694770	0.998852
437.071222	0.999433
437.447614	0.998868
437.823946	0.998324
438.200218	0.999262
438.576429	0.999021
438.952580	0.999886
439.328670	0.999135
439.704700	0.999819
440.080670	0.999848
440.456580	0.999498
440.832429	0.998321
441.208218	0.999501
441.583947	0.999165
441.959616	0.999676
442.335224	0.998954
442.710773	0.999765
443.086261	0.999187
443.461689	0.999854
443.837057	0.999479
444.212365	0.999057
444.587612	0.999304
444.962800	0.998638
445.337927	0.999678
445.712995	0.999484
446.088002	1.000227
446.462949	1.000397
446.837837	0.999798
447.212664	0.999029
447.587431	0.999228
447.962139	0.999258
448.336786	0.999478
448.711374	1.000198
449.085901	0.999445
449.460369	0.999832
449.834776	0.999130
450.209124	0.999721
450.583412	0.999295
450.957640	0.999067
451.331808	0.999565
451.705917	0.999167
452.079965	0.999260
452.453954	0.999346
452.827883	0.999264
453.201752	0.999950
453.575562	0.999753
453.949311	0.999408
454.323001	0.999134
454.696632	0.998603
455.070202	0.999527
455.443713	0.998988
455.817164	0.999334
456.190556	0.999003
456.563888	0.999204
456.937160	0.999797
457.310373	0.999221
457.683526	0.998742
458.056619	0.998952
458.429653	0.999737
458.802628	0.999009
459.175542	0.998524
459.548398	0.999348
459.921194	0.999644
460.293930	0.999959
460.666607	0.998901
461.039224	0.998167
461.411782	0.998832
461.784280	0.998882
462.156719	1.000790
462.529099	0.999865
462.901419	0.999083
463.273680	0.999203
463.645882	1.000195
464.018024	0.999389
464.390106	0.999084
464.762130	1.000454
465.134094	1.000022
465.505999	1.000219
465.877845	0.999203
466.249631	0.999779
466.621358	1.000144
466.993026	1.000041
467.364634	0.999707
467.736184	0.999785
468.107674	0.999739
468.479105	0.998983
468.850477	0.999756
469.221790	0.999379
469.593043	0.999356
469.964238	1.000427
470.335373	0.998331
470.706449	0.999357
471.077467	1.000683
471.448425	0.999924
471.819324	1.000233
472.190164	0.998867
472.560945	0.999640
472.931667	0.999938
473.302330	0.999159
473.672934	0.999783
474.043479	0.999487
474.413965	0.999792
474.784393	1.000145
475.154761	0.999247
475.525070	0.999445
475.895321	1.000357
476.265513	0.999532
476.635645	0.999160
477.005719	0.999448
477.375734	0.999066
477.745691	0.999882
478.115588	0.999807
478.485427	0.999814
478.855207	0.999488
479.224928	0.999399
479.594591	0.999901
479.964194	1.000424
480.333739	0.999324
480.703226	0.999786
481.072653	1.000077
481.442022	1.000703
481.811333	0.999254
482.180584	1.000086
482.549777	0.999523
482.918912	1.000117
483.287988	1.000094
483.657005	0.999541
484.025964	1.000016
484.394864	1.000361
484.763706	1.000359
485.132489	0.999827
485.501213	0.999601
485.869879	1.000198
486.238487	0.999974
486.607036	1.000112
486.975527	0.998783
487.343959	0.999488
487.712333	0.999613
488.080648	0.999335
488.448905	0.999636
488.817104	0.999622
489.185244	0.999785
489.553326	0.999404
489.921350	0.999472
490.289315	1.000297
490.657222	0.999702
491.025070	0.999961
491.392861	0.999675
491.760593	0.999886
492.128267	0.999510
492.495883	0.999285
492.863440	0.999941
493.230939	0.999650
493.598380	0.999066
493.965763	0.999186
494.333088	0.999601
494.700354	0.998799
495.067563	0.999428
495.434713	0.999359
495.801805	0.999563
496.168839	0.999533
496.535815	0.999106
496.902733	0.998904
497.269593	0.999418
497.636395	0.999337
498.003139	0.998766
498.369825	0.999381
498.736453	0.998049
499.103023	0.998250
499.469535	0.998166
499.835989	0.998232
500.202385	0.998358
500.568723	0.999235
500.935003	0.999284
501.301226	0.998553
501.667390	0.998221
502.033497	0.997864
502.399546	0.998572
502.765537	0.997877
503.131470	0.997886
503.497345	0.997156
503.863163	0.998645
504.228923	0.997680
504.594625	0.997667
504.960269	0.997491
505.325856	0.997350
505.691385	0.996791
506.056856	0.996661
506.422270	0.996043
506.787625	0.996155
507.152924	0.996186
507.518164	0.995766
507.883347	0.995029
508.248472	0.994974
508.613540	0.994364
508.978550	0.994801
509.343503	0.993147
509.708398	0.994169
510.073236	0.992993
510.438016	0.992583
510.802738	0.992620
511.167403	0.991644
511.532010	0.991113
511.896561	0.990391
512.261053	0.991102
512.625488	0.989049
512.989866	0.989424
513.354186	0.988052
513.718449	0.987937
514.082655	0.986609
514.446803	0.986427
514.810894	0.985662
515.174927	0.984814
515.538904	0.983769
515.902822	0.982660
516.266684	0.982277
516.630488	0.981378
516.994235	0.979839
517.357925	0.978599
517.721558	0.978246
518.085133	0.976480
518.448651	0.976674
518.812112	0.975479
519.175516	0.973277
519.538863	0.972848
519.902152	0.971130
520.265385	0.968919
520.628560	0.968250
520.991678	0.966881
521.354739	0.965727
521.717743	0.963899
522.080690	0.963588
522.443580	0.960645
522.806413	0.958693
523.169189	0.957365
523.531908	0.955107
523.894569	0.954227
524.257174	0.952237
524.619722	0.949587
524.982213	0.948659
525.344647	0.946169
525.707025	0.943577
526.069345	0.941646
526.431608	0.939156
526.793815	0.937554
527.155964	0.935072
527.518057	0.932926
527.880093	0.930786
528.242072	0.928763
528.603995	0.925001
528.965860	0.924000
529.327669	0.920577
529.689421	0.917657
530.051117	0.916188
530.412755	0.912003
530.774337	0.910614
531.135862	0.906661
531.497331	0.904245
531.858743	0.901012
532.220098	0.898080
532.581396	0.895347
532.942638	0.892340
533.303824	0.889585
533.664953	0.885226
534.026025	0.882217
534.387040	0.878760
534.747999	0.875319
535.108902	0.871235
535.469748	0.868376
535.830537	0.865036
536.191270	0.861408
536.551947	0.857295
536.912567	0.853794
537.273131	0.850805
537.633638	0.846830
537.994089	0.843431
538.354483	0.838957
538.714821	0.834869
539.075103	0.831124
539.435328	0.826968
539.795497	0.824771
540.155609	0.818743
540.515665	0.814743
540.875665	0.811761
541.235609	0.807220
541.595496	0.803426
541.955328	0.797085
542.315102	0.794522
542.674821	0.791010
543.034483	0.786394
543.394090	0.781984
543.753640	0.778495
544.113134	0.772009
544.472571	0.768863
544.831953	0.763488
545.191278	0.759786
545.550548	0.756074
545.909761	0.750087
546.268918	0.745727
546.628019	0.740752
546.987064	0.736610
547.346053	0.733529
547.704986	0.727333
548.063863	0.723446
548.422684	0.720164
548.781449	0.714612
549.140158	0.708673
549.498811	0.705452
549.857408	0.702514
550.215949	0.694696
550.574434	0.691225
550.932864	0.684828
551.291237	0.681147
551.649555	0.675070
552.007817	0.671647
552.366022	0.667414
552.724173	0.662058
553.082267	0.658901
553.440305	0.650233
553.798288	0.650503
554.156215	0.642135
554.514086	0.637732
554.871902	0.635287
555.229661	0.630189
555.587365	0.625883
555.945014	0.624207
556.302606	0.615557
556.660143	0.614037
557.017625	0.606409
557.375050	0.603211
557.732421	0.597602
558.089735	0.594040
558.446994	0.590113
558.804197	0.584880
559.161345	0.579829
559.518437	0.578607
559.875474	0.571126
560.232455	0.566528
560.589381	0.563825
560.946251	0.557001
561.303065	0.553577
561.659825	0.548599
562.016528	0.545293
562.373177	0.544072
562.729770	0.536554
563.086307	0.534284
563.442789	0.529010
563.799216	0.524692
564.155587	0.520457
564.511904	0.516485
564.868164	0.512556
565.224370	0.508869
565.580520	0.504416
565.936615	0.502235
566.292654	0.498678
566.648638	0.493227
567.004567	0.489522
567.360441	0.486155
567.716260	0.483179
568.072023	0.477756
568.427732	0.473977
568.783385	0.474075
569.138982	0.466756
569.494525	0.463309
569.850013	0.461944
570.205445	0.456489
570.560823	0.455620
570.916145	0.452959
571.271412	0.448285
571.626625	0.446080
571.981782	0.442986
572.336884	0.439918
572.691931	0.436732
573.046923	0.433456
573.401860	0.432098
573.756743	0.429419
574.111570	0.425347
574.466342	0.423329
574.821059	0.418686
575.175722	0.418000
575.530330	0.414304
575.884882	0.411814
576.239380	0.410492
576.593823	0.407415
576.948211	0.404475
577.302544	0.404821
577.656823	0.400781
578.011047	0.398789
578.365216	0.396747
578.719330	0.395889
579.073389	0.392608
579.427394	0.391781
579.781344	0.389906
580.135239	0.387946
580.489080	0.385664
580.842866	0.385561
581.196597	0.382531
581.550273	0.379701
581.903895	0.378056
582.257463	0.374563
582.610975	0.375258
582.964434	0.372574
583.317837	0.372497
583.671186	0.371110
584.024481	0.368902
584.377721	0.369259
584.730906	0.367797
585.084037	0.364646
585.437113	0.365139
585.790135	0.362148
586.143103	0.362939
586.496016	0.362396
586.848874	0.358130
587.201679	0.357286
587.554428	0.358503
587.907124	0.355695
588.259765	0.354606
588.612352	0.353271
588.964884	0.355789
589.317362	0.353853
589.669786	0.352119
590.022155	0.349810
590.374470	0.346904
590.726731	0.348201
591.078937	0.350638
591.431090	0.345662
591.783188	0.348475
592.135232	0.346913
592.487222	0.346066
592.839157	0.343326
593.191038	0.344177
593.542866	0.344556
593.894639	0.346849
594.246358	0.343742
594.598022	0.342101
594.949633	0.344507
595.301190	0.343955
595.652692	0.342301
596.004141	0.337304
596.355535	0.344225
596.706876	0.343672
597.058162	0.345040
597.409395	0.341277
597.760573	0.338380
598.111698	0.340565
598.462768	0.340154
598.813785	0.340636
599.164748	0.340794
599.515657	0.340553
599.866511	0.343095
600.217312	0.337640
600.568060	0.342308
600.918753	0.337517
601.269392	0.338256
601.619978	0.340444
601.970510	0.337605
602.320988	0.337495
602.671412	0.334528
603.021783	0.336681
603.372100	0.337007
603.722363	0.336356
604.072572	0.336726
604.422728	0.335971
604.772830	0.337542
605.122878	0.336597
605.472872	0.337014
605.822813	0.334310
606.172701	0.336607
606.522534	0.333717
606.872314	0.333282
607.222041	0.334205
607.571714	0.331538
607.921333	0.332416
608.270899	0.331945
608.620411	0.328477
608.969870	0.331998
609.319276	0.331351
609.668627	0.330887
610.017926	0.329687
610.367171	0.327659
610.716362	0.328194
611.065500	0.328443
611.414585	0.326801
611.763616	0.327240
612.112594	0.327446
612.461518	0.326391
612.810389	0.323795
613.159207	0.326195
613.507971	0.327467
613.856682	0.323420
614.205340	0.324609
614.553945	0.321204
614.902496	0.324851
615.250994	0.323181
615.599439	0.323456
615.947830	0.322478
616.296169	0.323775
616.644454	0.322905
616.992686	0.322754
617.340864	0.320740
617.688990	0.324103
618.037063	0.320537
618.385082	0.322180
618.733048	0.318625
619.080961	0.321286
619.428821	0.320684
619.776628	0.320125
620.124382	0.321961
620.472083	0.322047
620.819731	0.321577
621.167326	0.325016
621.514868	0.324582
621.862357	0.329187
622.209793	0.328088
622.557176	0.330381
622.904506	0.331578
623.251783	0.333790
623.599007	0.335781
623.946179	0.335261
624.293297	0.337308
624.640363	0.340624
624.987376	0.341302
625.334336	0.344162
625.681243	0.346033
626.028097	0.346212
626.374899	0.347615
626.721647	0.347916
627.068343	0.351164
627.414987	0.351791
627.761577	0.354057
628.108115	0.352189
628.454600	0.357210
628.801032	0.354376
629.147412	0.356441
629.493739	0.357059
629.840014	0.359745
630.186236	0.357227
630.532405	0.362919
630.878521	0.360409
631.224585	0.362556
631.570597	0.366196
631.916556	0.364265
632.262462	0.364443
632.608316	0.366831
632.954117	0.367538
633.299866	0.367996
633.645562	0.368412
633.991206	0.372748
634.336797	0.375764
634.682336	0.378266
635.027823	0.379812
635.373257	0.379858
635.718639	0.383637
636.063968	0.382314
636.409245	0.388278
636.754470	0.388902
637.099642	0.391318
637.444762	0.394386
637.789829	0.393333
638.134845	0.396941
638.479808	0.397713
638.824719	0.397842
639.169577	0.401535
639.514383	0.400653
639.859137	0.404665
640.203839	0.404754
640.548489	0.404875
640.893086	0.406722
641.237632	0.407876
641.582125	0.406736
641.926566	0.408073
642.270955	0.408013
642.615292	0.408685
642.959576	0.407092
643.303809	0.408077
643.647990	0.407887
643.992118	0.408675
644.336195	0.412148
644.680219	0.410094
645.024192	0.410604
645.368112	0.404707
645.711981	0.403583
646.055797	0.398453
646.399562	0.401017
646.743274	0.393180
647.086935	0.390339
647.430544	0.391211
647.774101	0.389636
648.117606	0.389260
648.461059	0.389468
648.804460	0.391797
649.147810	0.397490
649.491108	0.399276
649.834354	0.400182
650.177548	0.405661
650.520690	0.411357
650.863781	0.412244
651.206820	0.411772
651.549807	0.415933
651.892742	0.419804
652.235626	0.419522
652.578458	0.420622
652.921238	0.426428
653.263967	0.424496
653.606644	0.428497
653.949269	0.427870
654.291843	0.431918
654.634365	0.428361
654.976836	0.431861
655.319255	0.431864
655.661622	0.434323
656.003938	0.433812
656.346203	0.436280
656.688416	0.434618
657.030577	0.438084
657.372687	0.439884
657.714746	0.440517
658.056753	0.438116
658.398708	0.441225
658.740612	0.442413
659.082465	0.438481
659.424266	0.439201
659.766016	0.438369
660.107715	0.441299
660.449362	0.440033
660.790958	0.440391
661.132503	0.441463
661.473996	0.438858
661.815438	0.440187
662.156829	0.439973
662.498168	0.441119
662.839456	0.442398
663.180693	0.440005
663.521879	0.440094
663.863013	0.440355
664.204097	0.439368
664.545129	0.436535
664.886110	0.437005
665.227040	0.433955
665.567918	0.436533
665.908746	0.434902
666.249522	0.434144
666.590248	0.435188
666.930922	0.433465
667.271545	0.432495
667.612118	0.432673
667.952639	0.433928
668.293109	0.432706
668.633528	0.435422
668.973896	0.435131
669.314213	0.435467
669.654480	0.437656
669.994695	0.437851
670.334859	0.438490
670.674973	0.439138
671.015035	0.438980
671.355047	0.439424
671.695008	0.440256
672.034918	0.441335
672.374777	0.441185
672.714585	0.442506
673.054342	0.442802
673.394049	0.442239
673.733705	0.439969
674.073310	0.441394
674.412864	0.444636
674.752368	0.444822
675.091820	0.445459
675.431223	0.449517
675.770574	0.449388
676.109875	0.452087
676.449125	0.451727
676.788324	0.454312
677.127473	0.459443
677.466571	0.459383
677.805619	0.461607
678.144616	0.462558
678.483562	0.463900
678.822458	0.466608
679.161303	0.467460
679.500098	0.467800
679.838842	0.469780
680.177535	0.468634
680.516179	0.467868
680.854771	0.466614
681.193314	0.460015
681.531805	0.451767
681.870247	0.440152
682.208638	0.432480
682.546978	0.431875
682.885268	0.433157
683.223508	0.439382
683.561697	0.443223
683.899836	0.445913
684.237925	0.449233
684.575963	0.451719
684.913951	0.454893
685.251889	0.450645
685.589776	0.452332
685.927614	0.455304
686.265401	0.449449
686.603137	0.450985
686.940824	0.445008
687.278460	0.443073
687.616046	0.442469
687.953582	0.436929
688.291068	0.438877
688.628504	0.434663
688.965889	0.437030
689.303224	0.440796
689.640510	0.444427
689.977745	0.450683
690.314930	0.458731
690.652065	0.462613
690.989150	0.469990
691.326185	0.476530
691.663170	0.481290
692.000105	0.489014
692.336990	0.495377
692.673825	0.498040
693.010610	0.504271
693.347345	0.510060
693.684030	0.512441
694.020665	0.516511
694.357251	0.525030
694.693786	0.524372
695.030272	0.528910
695.366707	0.532307
695.703093	0.534938
696.039429	0.533290
696.375716	0.535635
696.711952	0.538163
697.048139	0.539716
697.384276	0.541802
697.720363	0.539607
698.056400	0.539805
698.392388	0.545077
698.728326	0.548304
699.064214	0.550624
699.400053	0.551334
699.735842	0.554861
700.071581	0.557927
700.407270	0.560570
700.742910	0.562857
701.078501	0.569374
701.414042	0.569768
701.749533	0.572948
702.084974	0.581145
702.420366	0.574188
702.755709	0.581385
703.091002	0.588917
703.426246	0.583084
703.761440	0.588543
704.096584	0.593818
704.431679	0.590509
704.766725	0.592811
705.101721	0.594475
705.436668	0.590108
705.771565	0.597773
706.106413	0.593941
706.441212	0.589109
706.775961	0.588128
707.110661	0.591189
707.445311	0.587502
707.779913	0.584329
708.114465	0.583708
708.448967	0.580256
708.783421	0.572203
709.117825	0.566403
709.452180	0.566257
709.786485	0.560230
710.120742	0.550222
710.454949	0.552213
710.789107	0.544848
711.123216	0.535459
711.457275	0.537769
711.791286	0.528486
712.125247	0.527282
712.459159	0.538312
712.793023	0.530072
713.126837	0.534029
713.460602	0.535050
713.794318	0.544703
714.127985	0.543311
714.461602	0.552795
714.795171	0.556772
715.128691	0.564404
715.462162	0.571701
715.795584	0.577206
716.128957	0.580324
716.462281	0.586635
716.795556	0.590510
717.128782	0.595155
717.461960	0.604481
717.795088	0.602276
718.128167	0.609358
718.461198	0.617920
718.794180	0.619056
719.127113	0.621097
719.459997	0.624886
719.792833	0.631245
720.125619	0.632716
720.458357	0.638531
720.791046	0.637465
721.123686	0.641238
721.456278	0.648811
721.788821	0.645812
722.121315	0.649285
722.453761	0.653834
722.786158	0.651388
723.118506	0.647784
723.450805	0.655410
723.783056	0.651352
724.115259	0.649372
724.447412	0.648906
724.779518	0.650760
725.111574	0.648950
725.443582	0.644459
725.775542	0.646879
726.107453	0.638875
726.439315	0.638956
726.771129	0.637864
727.102895	0.630689
727.434612	0.623595
727.766281	0.622033
728.097901	0.621119
728.429473	0.620895
728.760996	0.619239
729.092471	0.618931
729.423897	0.622669
729.755276	0.621805
730.086606	0.622315
730.417887	0.616622
730.749120	0.607659
731.080305	0.598624
731.411442	0.594165
731.742530	0.599697
732.073570	0.598875
732.404562	0.590335
732.735506	0.592311
733.066401	0.596697
733.397249	0.606027
733.728048	0.617600
734.058798	0.630534
734.389501	0.640270
734.720156	0.650476
735.050762	0.657919
735.381320	0.659185
735.711831	0.669130
736.042293	0.673183
736.372707	0.669016
736.703073	0.673390
737.033391	0.675764
737.363661	0.672310
737.693883	0.667819
738.024056	0.667326
738.354182	0.667193
738.684260	0.656850
739.014290	0.652976
739.344272	0.653579
739.674207	0.647029
740.004093	0.646347
740.333931	0.646673
740.663722	0.646746
740.993464	0.647379
741.323159	0.651467
741.652806	0.655667
741.982405	0.661108
742.311956	0.665945
742.641460	0.667288
742.970915	0.671732
743.300323	0.678875
743.629683	0.685728
743.958996	0.686842
744.288260	0.691216
744.617477	0.697675
744.946647	0.699064
745.275768	0.704315
745.604842	0.703909
745.933869	0.714026
746.262847	0.715046
746.591778	0.707625
746.920662	0.715268
747.249498	0.720449
747.578286	0.712067
747.907027	0.707609
748.235720	0.709224
748.564365	0.704158
748.892963	0.703765
749.221514	0.706853
749.550017	0.711956
749.878473	0.711415
750.206881	0.717879
750.535242	0.718830
750.863555	0.719482
751.191821	0.719911
751.520039	0.723129
751.848210	0.728750
752.176334	0.721097
752.504411	0.719706
752.832440	0.727928
753.160421	0.731095
753.488356	0.730421
753.816243	0.727150
754.144082	0.735333
754.471875	0.739189
754.799620	0.735125
755.127318	0.735505
755.454969	0.735593
755.782572	0.735668
756.110129	0.740055
756.437638	0.742011
756.765100	0.739525
757.092515	0.737769
757.419882	0.736213
757.747203	0.741354
758.074477	0.740401
758.401703	0.738441
758.728882	0.733052
759.056014	0.732107
759.383099	0.730440
759.710138	0.732458
760.037129	0.728845
760.364073	0.723716
760.690970	0.725000
761.017820	0.731825
761.344623	0.726585
761.671379	0.717848
761.998088	0.706825
762.324751	0.683948
762.651366	0.642191
762.977935	0.575842
763.304456	0.524864
763.630931	0.514969
763.957359	0.553479
764.283740	0.598375
764.610074	0.624648
764.936362	0.655719
765.262602	0.682223
765.588796	0.703325
765.914943	0.721013
766.241044	0.738884
766.567097	0.745281
766.893104	0.754518
767.219064	0.761330
767.544978	0.767013
767.870845	0.780912
768.196665	0.784265
768.522438	0.782800
768.848165	0.783622
769.173846	0.792511
769.499479	0.796050
769.825066	0.799915
770.150607	0.806124
770.476101	0.799750
770.801548	0.800838
771.126949	0.813169
771.452303	0.817317
771.777611	0.816594
772.102872	0.814808
772.428087	0.821112
772.753256	0.823934
773.078378	0.825756
773.403453	0.835805
773.728482	0.839098
774.053465	0.831220
774.378401	0.835687
774.703291	0.844457
775.028135	0.843666
775.352932	0.845247
775.677683	0.849008
776.002388	0.849398
776.327046	0.848556
776.651658	0.852108
776.976224	0.854468
777.300743	0.855544
777.625216	0.858042
777.949643	0.857878
778.274024	0.859370
778.598359	0.861156
778.922647	0.859132
779.246889	0.859951
779.571086	0.863149
779.895236	0.866840
780.219339	0.863564
780.543397	0.860882
780.867409	0.858354
781.191374	0.861672
781.515294	0.862829
781.839167	0.861776
782.162995	0.865647
782.486776	0.862999
782.810511	0.862900
783.134201	0.865706
783.457844	0.864035
783.781441	0.865978
784.104993	0.872706
784.428498	0.873207
784.751958	0.868771
785.075372	0.871517
785.398739	0.874695
785.722061	0.872038
786.045337	0.866197
786.368568	0.872178
786.691752	0.874027
787.014891	0.858787
787.337983	0.851345
787.661030	0.844710
787.984031	0.826882
788.306987	0.813685
788.629897	0.815697
788.952760	0.819565
789.275579	0.824682
789.598351	0.839461
789.921078	0.852105
790.243759	0.854701
790.566395	0.859968
790.888984	0.866826
791.211529	0.870980
791.534027	0.874318
791.856480	0.876306
792.178888	0.881575
792.501249	0.884701
792.823566	0.885360
793.145836	0.885197
793.468062	0.887226
793.790241	0.887281
794.112375	0.886218
794.434464	0.881856
794.756507	0.880591
795.078505	0.879876
795.400457	0.874990
795.722364	0.862687
796.044226	0.855380
796.366042	0.855387
796.687812	0.858229
797.009538	0.854284
797.331218	0.857525
797.652852	0.862655
797.974442	0.866572
798.295986	0.866904
798.617484	0.869958
798.938938	0.873446
799.260346	0.878399
799.581709	0.881492
799.903026	0.881713
800.224299	0.883853
800.545526	0.886803
800.866708	0.890751
801.187845	0.893841
801.508936	0.894201
801.829983	0.891900
802.150984	0.894708
802.471940	0.901005
802.792851	0.899329
803.113717	0.901002
803.434538	0.898064
803.755314	0.900476
804.076045	0.902193
804.396731	0.902527
804.717372	0.902555
805.037967	0.904053
805.358518	0.901507
805.679024	0.899850
805.999485	0.899147
806.319901	0.898891
806.640272	0.900441
806.960598	0.898675
807.280879	0.896839
807.601115	0.894336
807.921306	0.898495
808.241453	0.899045
808.561554	0.897200
808.881611	0.896355
809.201623	0.898105
809.521590	0.899392
809.841513	0.900221
810.161390	0.898675
810.481223	0.899638
810.801011	0.903642
811.120755	0.904750
811.440453	0.903622
811.760107	0.903372
812.079716	0.903267
812.399281	0.906008
812.718801	0.908432
813.038276	0.909712
813.357707	0.908499
813.677093	0.906026
813.996434	0.910040
814.315731	0.911112
814.634983	0.911507
814.954191	0.910077
815.273354	0.907547
815.592473	0.902801
815.911547	0.903887
816.230577	0.901311
816.549562	0.899124
816.868502	0.898992
817.187399	0.896266
817.506250	0.890885
817.825058	0.893521
818.143821	0.889050
818.462539	0.884820
818.781213	0.875890
819.099843	0.865062
819.418429	0.850728
819.736970	0.833558
820.055466	0.814142
820.373919	0.789474
820.692327	0.756835
821.010691	0.722512
821.329011	0.647003
821.647286	0.534149
821.965517	0.421446
822.283704	0.379260
822.601847	0.381234
822.919945	0.416596
823.237999	0.449650
823.556010	0.495461
823.873976	0.550611
824.191897	0.600176
824.509775	0.640816
824.827609	0.686546
825.145398	0.708359
825.463144	0.711397
825.780845	0.693754
826.098502	0.675687
826.416116	0.631135
826.733685	0.587881
827.051210	0.579425
827.368692	0.594478
827.686129	0.630539
828.003522	0.682784
828.320872	0.729574
828.638177	0.772102
828.955439	0.804773
829.272656	0.826395
829.589830	0.843252
829.906960	0.857656
830.224046	0.870670
830.541088	0.880059
830.858086	0.884011
831.175041	0.889514
831.491952	0.889420
831.808819	0.886527
832.125642	0.880226
832.442421	0.865829
832.759157	0.845467
833.075849	0.799164
833.392497	0.737217
833.709101	0.695888
834.025662	0.706010
834.342179	0.736972
834.658653	0.774914
834.975083	0.810467
835.291469	0.836944
835.607811	0.857587
835.924110	0.873478
836.240366	0.890201
836.556578	0.904148
836.872746	0.911976
837.188871	0.917381
837.504952	0.923122
837.820990	0.926484
838.136984	0.929638
838.452935	0.931975
838.768842	0.934630
839.084706	0.927438
839.400526	0.902597
839.716303	0.863006
840.032037	0.840922
840.347727	0.844634
840.663373	0.862382
840.978977	0.882077
841.294537	0.905441
841.610054	0.921537
841.925527	0.928504
842.240957	0.935223
842.556344	0.941185
842.871687	0.946791
843.186987	0.951621
843.502244	0.951099
843.817458	0.953438
844.132629	0.957711
844.447756	0.962340
844.762840	0.963041
845.077881	0.962312
845.392879	0.961861
845.707833	0.964007
846.022745	0.965681
846.337613	0.966685
846.652438	0.967833
846.967221	0.967145
847.281960	0.966778
847.596656	0.968325
847.911309	0.967463
848.225919	0.968671
848.540485	0.969308
848.855009	0.971553
849.169490	0.968753
849.483928	0.970626
849.798323	0.970865
850.112675	0.971890
850.426984	0.972228
850.741251	0.971352
851.055474	0.971994
851.369654	0.969723
851.683792	0.971757
851.997887	0.970696
852.311938	0.972342
852.625947	0.971223
852.939914	0.970079
853.253837	0.970731
853.567718	0.972048
853.881555	0.971293
854.195350	0.969929
854.509103	0.971017
854.822812	0.972797
855.136479	0.971254
855.450103	0.971632
855.763685	0.970050
856.077224	0.969847
856.390720	0.972061
856.704173	0.971875
857.017584	0.969442
857.330953	0.968601
857.644278	0.969799
857.957561	0.971068
858.270802	0.971101
858.584000	0.969408
858.897155	0.968165
859.210268	0.968489
859.523339	0.969098
859.836367	0.970967
860.149352	0.972548
860.462295	0.970699
860.775195	0.971447
861.088054	0.971476
861.400869	0.970519
861.713642	0.972740
862.026373	0.971673
862.339062	0.971600
862.651708	0.969718
862.964312	0.968654
863.276873	0.970752
863.589392	0.970323
863.901869	0.968733
864.214303	0.967263
864.526696	0.965825
864.839045	0.966313
865.151353	0.963548
865.463619	0.963771
865.775842	0.964645
866.088023	0.964670
866.400162	0.964483
866.712258	0.963345
867.024313	0.964770
867.336325	0.965374
867.648296	0.965121
867.960224	0.963544
868.272110	0.964346
868.583954	0.965604
868.895755	0.966465
869.207515	0.963875
869.519233	0.961107
869.830909	0.963461
870.142542	0.964642
870.454134	0.964557
870.765684	0.963724
871.077191	0.959413
871.388657	0.960697
871.700081	0.959494
872.011463	0.960378
872.322803	0.960957
872.634101	0.959007
872.945357	0.957098
873.256571	0.955930
873.567744	0.955921
873.878874	0.956094
874.189963	0.954753
874.501010	0.953579
874.812015	0.951371
875.122979	0.953747
875.433900	0.954611
875.744780	0.956355
876.055618	0.953702
876.366415	0.952298
876.677169	0.952060
876.987882	0.953810
877.298554	0.954167
877.609183	0.950565
877.919771	0.946768
878.230317	0.946298
878.540822	0.944267
878.851285	0.937784
879.161707	0.930722
879.472087	0.919843
879.782425	0.904788
880.092722	0.871151
880.402977	0.820640
880.713191	0.762618
881.023363	0.705742
881.333494	0.672525
881.643583	0.644943
881.953631	0.644822
882.263637	0.673160
882.573602	0.711755
882.883526	0.736373
883.193408	0.759197
883.503248	0.780358
883.813048	0.807315
884.122806	0.835670
884.432522	0.858817
884.742197	0.876418
885.051831	0.887108
885.361424	0.896573
885.670975	0.908525
885.980485	0.918554
886.289954	0.923560
886.599382	0.928512
886.908768	0.932574
887.218113	0.937128
887.527417	0.942536
887.836680	0.945195
888.145901	0.947341
888.455082	0.949469
888.764221	0.953359
889.073319	0.955853
889.382376	0.954849
889.691392	0.955954
890.000366	0.954480
890.309300	0.955511
890.618193	0.955617
890.927044	0.954860
891.235855	0.954949
891.544625	0.953748
891.853353	0.954798
892.162041	0.951534
892.470687	0.945214
892.779293	0.941009
893.087858	0.939002
893.396381	0.929956
893.704864	0.917510
894.013306	0.895186
894.321707	0.869349
894.630068	0.854448
894.938387	0.851793
895.246665	0.852328
895.554903	0.864326
895.863100	0.876779
896.171256	0.893109
896.479371	0.913257
896.787446	0.924386
897.095480	0.930295
897.403473	0.932738
897.711425	0.935686
898.019336	0.944244
898.327207	0.947033
898.635038	0.948227
898.942827	0.948221
899.250576	0.951866
899.558284	0.955499
899.865952	0.957990
900.173579	0.958297
900.481165	0.958226
900.788711	0.963277
901.096216	0.963414
901.403681	0.964130
901.711105	0.965841
902.018489	0.966741
902.325832	0.965137
902.633135	0.964190
902.940397	0.958989
903.247619	0.947366
903.554800	0.922928
903.861941	0.885297
904.169041	0.852255
904.476101	0.835638
904.783121	0.836677
905.090100	0.852333
905.397039	0.872683
905.703938	0.893077
906.010796	0.911591
906.317614	0.928102
906.624391	0.938169
906.931129	0.947223
907.237826	0.955380
907.544483	0.962434
907.851099	0.965519
908.157675	0.969696
908.464211	0.972432
908.770707	0.975326
909.077163	0.976368
909.383578	0.977257
909.689954	0.977633
909.996289	0.977806
910.302584	0.979740
910.608839	0.981442
910.915054	0.979621
911.221229	0.979895
911.527363	0.978651
911.833458	0.979176
912.139513	0.978809
912.445527	0.976922
912.751502	0.975017
913.057436	0.974283
913.363331	0.972111
913.669186	0.968483
913.975000	0.965079
914.280775	0.958602
914.586510	0.952585
914.892205	0.939556
915.197859	0.919212
915.503475	0.894082
915.809050	0.875806
916.114585	0.870520
916.420081	0.868010
916.725536	0.865506
917.030952	0.872208
917.336328	0.885307
917.641665	0.898648
917.946961	0.913632
918.252218	0.924214
918.557435	0.932827
918.862612	0.941277
919.167750	0.946829
919.472848	0.950577
919.777906	0.956006
920.082925	0.961796
920.387904	0.964415
920.692843	0.966212
920.997743	0.966184
921.302603	0.971531
921.607423	0.972558
921.912204	0.974652
922.216946	0.974387
922.521647	0.975378
922.826310	0.977631
923.130932	0.978885
923.435516	0.980044
923.740059	0.982873
924.044564	0.980471
924.349028	0.982866
924.653454	0.984969
924.957840	0.987839
925.262186	0.986052
925.566493	0.986028
925.870761	0.986552
926.174989	0.987765
926.479178	0.989485
926.783328	0.989908
927.087438	0.989889
927.391509	0.989520
927.695541	0.991064
927.999533	0.991031
928.303486	0.990862
928.607400	0.992136
928.911275	0.991337
929.215110	0.991565
929.518906	0.991955
929.822663	0.991116
930.126381	0.992438
930.430060	0.991006
930.733699	0.991723
931.037299	0.991098
931.340861	0.992556
931.644383	0.990502
931.947866	0.991339
932.251309	0.992066
932.554714	0.991498
932.858080	0.990524
933.161407	0.991574
933.464694	0.991932
933.767943	0.990553
934.071153	0.992628
934.374323	0.991790
934.677455	0.993169
934.980548	0.993323
935.283602	0.990984
935.586617	0.993158
935.889593	0.991724
936.192530	0.992324
936.495428	0.991615
936.798287	0.992253
937.101108	0.991782
937.403890	0.990473
937.706632	0.990106
938.009336	0.988288
938.312002	0.989026
938.614628	0.986108
938.917216	0.984173
939.219765	0.984509
939.522275	0.985343
939.824747	0.985155
940.127179	0.985983
940.429573	0.986693
940.731929	0.985325
941.034246	0.985379
941.336524	0.986771
941.638763	0.988632
941.940964	0.987680
942.243126	0.987428
942.545250	0.988920
942.847335	0.990067
943.149381	0.989582
943.451389	0.988845
943.753359	0.989244
944.055290	0.992044
944.357182	0.990365
944.659036	0.989427
944.960851	0.990713
945.262628	0.991249
945.564367	0.992040
945.866067	0.991337
946.167729	0.991633
946.469352	0.991803
946.770937	0.990852
947.072484	0.992561
947.373992	0.991721
947.675462	0.991465
947.976893	0.991083
948.278286	0.991309
948.579641	0.993230
948.880958	0.991686
949.182236	0.993447
949.483476	0.992766
949.784678	0.991174
950.085841	0.992493
950.386967	0.992347
950.688054	0.991280
950.989103	0.991654
951.290114	0.989655
951.591087	0.991403
951.892021	0.990564
952.192917	0.989381
952.493776	0.990688
952.794596	0.989514
953.095378	0.988431
953.396122	0.988159
953.696828	0.988393
953.997496	0.991484
954.298126	0.991614
954.598718	0.990887
954.899272	0.992340
955.199788	0.992063
955.500266	0.993547
955.800706	0.995014
956.101108	0.993551
956.401472	0.994883
956.701798	0.994269
957.002087	0.994179
957.302337	0.993909
957.602550	0.996158
957.902724	0.995635
958.202861	0.995741
958.502960	0.996237
958.803022	0.995266
959.103045	0.997243
959.403031	0.995647
959.702979	0.996142
960.002889	0.997607
960.302762	0.996284
960.602596	0.997050
960.902393	0.996088
961.202153	0.997440
961.501875	0.997066
961.801559	0.996772
962.101205	0.996555
962.400814	0.996880
962.700385	0.997386
962.999918	0.996427
963.299414	0.997918
963.598873	0.996355
963.898293	0.996181
964.197677	0.996501
964.497022	0.995493
964.796331	0.997883
965.095601	0.996798
965.394835	0.996789
965.694030	0.997189
965.993189	0.997849
966.292309	0.997490
966.591393	0.999182
966.890439	0.998351
967.189447	0.997513
967.488419	0.997894
967.787353	0.996240
968.086249	0.996823
968.385108	0.997161
968.683930	0.997483
968.982714	0.998847
969.281462	0.998089
969.580172	0.997024
969.878844	0.997687
970.177480	0.997244
970.476078	0.998551
970.774639	0.997625
971.073162	0.997598
971.371649	0.998017
971.670098	0.997621
971.968510	0.997296
972.266885	0.996099
972.565223	0.997010
972.863524	0.996152
973.161788	0.996353
973.460014	0.998701
973.758204	0.996339
974.056356	0.997898
974.354471	0.994394
974.652550	0.996723
974.950591	0.996390
975.248595	0.997775
975.546563	0.997287
975.844493	0.997994
976.142386	0.997033
976.440243	0.997911
976.738062	0.997967
977.035845	0.998422
977.333590	0.998591
977.631299	0.998289
977.928971	0.997562
978.226606	0.997492
978.524204	0.996328
978.821765	0.998474
979.119290	0.998720
979.416777	0.997643
979.714228	0.997121
980.011642	0.996779
980.309020	0.997559
980.606360	0.998276
980.903664	0.999659
981.200931	0.998208
981.498162	0.995835
981.795356	0.995621
982.092513	0.995254
982.389633	0.994226
982.686717	0.993341
982.983764	0.992588
983.280775	0.990800
983.577749	0.991546
983.874686	0.992145
984.171587	0.991889
984.468451	0.995291
984.765279	0.995627
985.062070	0.994122
985.358824	0.996625
985.655543	0.996426
985.952224	0.996720
986.248869	0.997021
986.545478	0.997523
986.842050	0.999534
987.138586	0.996831
987.435086	0.998001
987.731549	0.999065
988.027975	0.997556
988.324366	0.997456
988.620719	0.997827
988.917037	0.997392
989.213318	0.997763
989.509563	0.998916
989.805772	0.998786
990.101944	0.999179
990.398080	0.998738
990.694180	0.998712
990.990244	0.997294
991.286271	0.998384
991.582262	0.997653
991.878217	0.998652
992.174136	0.998849
992.470019	1.000053
992.765865	0.999294
993.061676	0.999256
993.357450	0.998036
993.653188	0.997375
993.948890	0.997766
994.244556	0.999334
994.540186	0.996753
994.835780	0.997163
995.131337	0.997927
995.426859	0.997276
995.722345	0.998042
996.017795	0.996503
996.313208	0.996508
996.608586	0.996422
996.903928	0.997707
997.199234	0.996388
997.494504	0.996482
997.789738	0.997098
998.084936	0.997236
998.380099	0.998827
998.675225	0.997118
998.970316	0.997732
999.265371	0.999559
999.560390	0.998600
999.855373	0.999103
1000.150320	0.998805
1000.445232	0.997881
1000.740108	0.998405
1001.034948	0.998443
1001.329752	0.999310
1001.624521	0.999083
1001.919254	0.998278
1002.213951	0.999079
1002.508613	0.999905
1002.803239	0.999740
1003.097829	0.999167
1003.392384	0.999926
1003.686903	0.999163
1003.981386	0.999613
1004.275834	1.000330
1004.570246	0.999630
1004.864623	0.999523
1005.158964	1.000456
1005.453270	0.998243
1005.747540	0.998888
1006.041775	0.998316
1006.335974	0.998504
1006.630138	0.998679
1006.924266	0.999099
1007.218359	1.000563
1007.512416	0.999179
1007.806438	0.999753
1008.100425	0.999426
1008.394376	0.999867
1008.688292	0.998786
1008.982172	1.000840
1009.276017	0.999355
1009.569827	0.999520
1009.863602	0.998923
1010.157341	1.000490
1010.451045	1.000960
1010.744714	0.999068
1011.038347	0.999998
1011.331945	0.999132
1011.625508	0.998489
1011.919036	0.999227
1012.212528	0.999776
1012.505986	0.998381
1012.799408	0.998524
1013.092795	1.000499
1013.386147	1.000104
1013.679464	0.999659
1013.972745	0.997531
1014.265992	0.997937
1014.559204	0.997961
1014.852380	0.999611
1015.145521	0.998260
1015.438628	0.998575
1015.731699	0.998517
1016.024736	0.998973
1016.317737	0.999324
1016.610703	0.998625
1016.903635	1.000934
1017.196531	0.998704
1017.489393	1.000920
1017.782219	0.998546
1018.075011	0.999092
1018.367768	0.999273
1018.660490	1.000040
1018.953177	1.000040
1019.245829	1.000040
