Dividing Wavelength (nm)	Counts (n)	Blue Motor Position (mm): 0.000000	Red Motor Position (mm): 36.600000	
326.493990	1.001302
326.888308	1.001302
327.282561	1.001302
327.676750	1.000653
328.070874	0.999462
328.464933	1.000450
328.858929	0.999669
329.252859	0.999600
329.646726	0.999612
330.040528	1.001389
330.434265	0.998599
330.827938	1.000534
331.221547	1.002088
331.615091	1.001421
332.008571	1.001324
332.401986	1.001616
332.795338	1.001522
333.188625	0.998201
333.581847	1.001454
333.975006	0.999139
334.368100	0.999928
334.761129	1.000035
335.154095	1.001524
335.546996	0.999932
335.939833	0.995748
336.332606	0.997157
336.725315	0.997690
337.117960	0.997779
337.510540	0.996478
337.903056	0.996726
338.295508	0.996527
338.687896	0.997486
339.080220	0.997635
339.472480	0.996999
339.864676	0.997907
340.256807	0.997277
340.648875	0.999016
341.040879	0.997775
341.432818	0.997864
341.824694	0.996527
342.216506	0.997224
342.608253	0.997398
342.999937	0.997240
343.391557	0.997382
343.783113	0.998150
344.174605	0.997787
344.566033	0.997923
344.957397	0.997702
345.348697	0.996586
345.739934	0.997591
346.131106	0.996297
346.522215	0.996328
346.913260	0.997033
347.304241	0.996481
347.695159	0.996649
348.086012	0.995702
348.476802	0.997225
348.867528	0.997965
349.258191	0.996199
349.648789	0.997780
350.039324	0.996940
350.429796	0.998488
350.820203	0.998326
351.210548	0.997030
351.600828	0.997301
351.991045	0.998081
352.381198	0.996592
352.771288	0.997403
353.161314	0.996876
353.551276	0.998001
353.941175	0.996525
354.331010	0.997618
354.720782	0.997847
355.110490	0.997220
355.500135	0.997771
355.889717	0.996029
356.279235	0.997295
356.668689	0.997790
357.058080	0.997585
357.447408	0.999342
357.836672	0.998537
358.225873	0.997895
358.615010	0.997142
359.004084	0.997710
359.393095	0.998103
359.782043	0.996996
360.170927	0.998565
360.559748	0.998607
360.948505	0.996643
361.337199	0.997277
361.725830	0.998316
362.114398	0.997331
362.502903	0.998101
362.891344	0.998503
363.279722	0.997367
363.668037	0.997768
364.056289	0.997030
364.444478	0.998553
364.832603	0.997667
365.220665	0.997311
365.608665	0.997479
365.996601	0.996913
366.384474	0.997467
366.772284	0.997901
367.160031	0.997064
367.547715	0.996977
367.935336	0.998544
368.322893	0.996882
368.710388	0.995935
369.097820	0.998258
369.485189	0.998271
369.872495	0.996461
370.259738	0.995744
370.646918	0.998624
371.034035	0.999735
371.421090	0.997382
371.808081	0.996886
372.195010	0.997942
372.581875	0.996927
372.968678	0.997950
373.355418	0.997662
373.742096	0.997030
374.128710	0.999227
374.515262	0.997127
374.901751	0.997529
375.288177	0.997602
375.674540	0.998145
376.060841	0.996428
376.447079	0.997065
376.833254	0.997724
377.219367	0.996771
377.605417	0.998453
377.991404	0.998208
378.377329	0.997437
378.763191	0.998469
379.148991	0.998951
379.534727	0.997407
379.920402	0.997005
380.306013	0.998338
380.691563	0.998019
381.077049	0.997374
381.462474	0.998540
381.847835	0.998433
382.233134	0.997671
382.618371	0.998827
383.003545	0.997526
383.388657	0.998153
383.773706	0.999309
384.158693	0.998426
384.543618	0.997639
384.928480	0.998927
385.313280	0.998308
385.698017	0.998509
386.082692	0.999044
386.467305	0.998116
386.851856	0.998193
387.236344	0.997365
387.620770	0.997343
388.005133	0.998309
388.389435	0.998879
388.773674	0.998167
389.157851	0.998846
389.541965	0.999361
389.926018	0.997992
390.310008	0.999932
390.693936	0.998384
391.077802	0.998669
391.461606	0.999032
391.845348	0.999491
392.229027	0.999475
392.612645	0.998497
392.996200	0.999843
393.379694	0.998507
393.763125	0.999392
394.146494	0.999188
394.529801	0.998058
394.913047	0.998564
395.296230	0.999098
395.679351	0.999233
396.062410	0.998697
396.445408	1.000239
396.828343	0.998551
397.211217	0.999524
397.594028	0.999275
397.976778	0.998706
398.359466	0.998496
398.742092	0.998649
399.124656	0.998784
399.507158	0.998219
399.889598	0.999362
400.271977	0.999583
400.654294	0.999005
401.036549	0.998440
401.418742	0.999469
401.800874	0.998008
402.182944	0.998965
402.564952	0.998233
402.946898	0.999524
403.328783	0.998693
403.710606	0.998888
404.092367	0.997827
404.474067	0.999523
404.855705	0.998424
405.237282	0.998388
405.618797	0.998895
406.000250	0.998610
406.381642	0.999527
406.762972	0.998259
407.144240	0.999186
407.525447	0.999046
407.906593	0.999750
408.287677	0.999351
408.668700	1.000054
409.049661	0.997932
409.430560	0.998614
409.811399	0.998434
410.192176	0.999089
410.572891	0.999371
410.953545	0.998838
411.334138	0.998542
411.714669	0.999256
412.095139	0.999124
412.475547	0.999891
412.855894	0.999298
413.236180	1.000164
413.616405	0.998684
413.996568	0.999974
414.376670	0.999138
414.756711	0.999453
415.136691	0.999585
415.516609	0.999760
415.896466	0.998840
416.276262	0.998210
416.655997	1.000026
417.035670	0.999180
417.415283	0.999147
417.794834	0.999030
418.174324	0.998924
418.553753	0.999488
418.933121	0.998683
419.312428	0.998938
419.691674	0.998027
420.070859	0.999931
420.449983	0.999629
420.829045	0.998964
421.208047	1.000207
421.586988	0.999453
421.965867	0.999078
422.344686	0.999862
422.723444	0.999930
423.102141	0.999749
423.480777	0.999855
423.859352	0.999299
424.237866	0.999204
424.616319	0.999521
424.994712	0.999676
425.373044	0.999742
425.751314	0.998993
426.129524	0.999274
426.507673	0.999492
426.885762	1.000043
427.263789	0.999606
427.641756	0.999256
428.019662	1.000010
428.397508	0.999540
428.775292	0.999006
429.153016	0.999230
429.530679	1.000099
429.908282	1.000310
430.285824	0.999428
430.663305	0.998742
431.040726	0.998815
431.418086	1.000698
431.795385	0.999876
432.172624	0.999908
432.549802	1.000177
432.926920	0.999402
433.303977	0.998755
433.680974	1.000084
434.057910	0.999569
434.434786	0.999680
434.811601	0.999000
435.188355	0.998822
435.565050	0.998604
435.941683	0.999260
436.318257	0.999982
436.694770	0.998861
437.071222	1.000256
437.447614	0.999198
437.823946	0.999675
438.200218	0.999234
438.576429	0.999726
438.952580	0.999974
439.328670	0.999655
439.704700	1.000127
440.080670	0.999894
440.456580	0.998862
440.832429	0.999812
441.208218	0.999792
441.583947	0.999690
441.959616	1.000444
442.335224	0.999598
442.710773	1.000901
443.086261	1.000207
443.461689	0.999292
443.837057	0.999749
444.212365	1.000043
444.587612	0.999220
444.962800	0.998976
445.337927	0.999782
445.712995	0.999260
446.088002	1.000321
446.462949	0.999873
446.837837	1.000575
447.212664	1.000104
447.587431	1.000322
447.962139	1.000085
448.336786	0.999680
448.711374	0.999450
449.085901	0.999014
449.460369	1.000954
449.834776	1.000052
450.209124	1.000113
450.583412	0.999849
450.957640	0.999699
451.331808	0.999759
451.705917	0.999769
452.079965	0.998876
452.453954	0.999633
452.827883	0.999650
453.201752	0.999686
453.575562	1.000835
453.949311	0.999755
454.323001	0.999520
454.696632	0.999887
455.070202	1.000251
455.443713	0.999468
455.817164	1.000053
456.190556	0.999992
456.563888	0.999584
456.937160	0.999600
457.310373	0.999267
457.683526	0.999847
458.056619	0.999440
458.429653	0.999790
458.802628	0.999119
459.175542	1.000105
459.548398	1.000212
459.921194	0.999178
460.293930	0.999701
460.666607	0.999071
461.039224	0.998911
461.411782	0.999585
461.784280	0.998728
462.156719	1.000673
462.529099	0.999858
462.901419	1.000559
463.273680	0.999853
463.645882	1.000066
464.018024	1.000024
464.390106	1.000034
464.762130	1.000762
465.134094	0.999860
465.505999	1.000176
465.877845	1.000013
466.249631	1.000469
466.621358	1.000131
466.993026	1.000462
467.364634	1.000185
467.736184	1.000373
468.107674	0.999944
468.479105	0.999404
468.850477	1.000108
469.221790	1.000785
469.593043	1.000739
469.964238	1.001024
470.335373	0.999163
470.706449	1.000198
471.077467	1.001342
471.448425	1.000167
471.819324	1.000622
472.190164	0.999818
472.560945	1.000127
472.931667	0.999213
473.302330	0.999646
473.672934	0.999813
474.043479	0.999831
474.413965	1.000124
474.784393	1.000279
475.154761	0.999946
475.525070	0.999116
475.895321	1.000862
476.265513	0.999830
476.635645	0.999911
477.005719	1.000996
477.375734	0.999737
477.745691	1.000406
478.115588	1.000119
478.485427	1.000363
478.855207	1.000447
479.224928	0.999780
479.594591	0.999887
479.964194	0.999553
480.333739	1.000326
480.703226	0.999843
481.072653	1.000679
481.442022	1.000105
481.811333	0.999613
482.180584	1.000604
482.549777	0.999569
482.918912	0.999848
483.287988	1.000362
483.657005	0.999973
484.025964	1.000605
484.394864	1.000175
484.763706	0.999703
485.132489	0.999910
485.501213	1.000048
485.869879	0.999805
486.238487	0.999853
486.607036	1.000598
486.975527	0.999397
487.343959	0.999633
487.712333	0.999835
488.080648	0.999320
488.448905	1.000411
488.817104	1.000081
489.185244	1.000445
489.553326	1.000043
489.921350	1.000319
490.289315	0.999775
490.657222	1.000486
491.025070	1.000130
491.392861	1.000277
491.760593	1.000407
492.128267	1.000142
492.495883	1.000165
492.863440	0.999518
493.230939	0.999739
493.598380	1.000456
493.965763	0.999459
494.333088	1.000399
494.700354	0.999565
495.067563	0.999890
495.434713	0.999499
495.801805	1.000941
496.168839	1.000023
496.535815	0.998678
496.902733	0.999717
497.269593	1.000041
497.636395	0.999358
498.003139	0.999845
498.369825	1.000128
498.736453	0.999322
499.103023	0.998647
499.469535	0.999230
499.835989	0.999354
500.202385	0.999714
500.568723	0.999677
500.935003	0.999872
501.301226	0.999374
501.667390	1.000179
502.033497	0.999666
502.399546	0.999531
502.765537	0.998852
503.131470	0.999702
503.497345	0.998847
503.863163	1.000327
504.228923	1.000047
504.594625	0.999686
504.960269	0.999769
505.325856	0.999404
505.691385	0.999771
506.056856	0.999966
506.422270	0.999275
506.787625	0.999758
507.152924	0.999225
507.518164	0.998931
507.883347	0.998750
508.248472	0.999116
508.613540	0.999103
508.978550	0.999722
509.343503	0.998282
509.708398	0.998932
510.073236	0.998827
510.438016	0.999342
510.802738	0.998857
511.167403	0.998149
511.532010	0.998812
511.896561	0.998628
512.261053	1.000044
512.625488	0.998971
512.989866	0.998825
513.354186	0.998515
513.718449	0.998379
514.082655	0.998499
514.446803	0.998389
514.810894	0.998507
515.174927	0.998491
515.538904	0.997768
515.902822	0.998208
516.266684	0.998422
516.630488	0.999060
516.994235	0.997434
517.357925	0.997385
517.721558	0.997042
518.085133	0.997207
518.448651	0.998347
518.812112	0.997425
519.175516	0.996608
519.538863	0.996919
519.902152	0.996378
520.265385	0.996817
520.628560	0.996262
520.991678	0.996477
521.354739	0.996349
521.717743	0.995600
522.080690	0.996017
522.443580	0.994708
522.806413	0.994319
523.169189	0.993923
523.531908	0.993762
523.894569	0.993918
524.257174	0.993675
524.619722	0.993254
524.982213	0.992950
525.344647	0.992607
525.707025	0.991583
526.069345	0.990956
526.431608	0.990849
526.793815	0.990785
527.155964	0.990580
527.518057	0.989471
527.880093	0.988885
528.242072	0.988505
528.603995	0.988188
528.965860	0.988416
529.327669	0.986631
529.689421	0.985891
530.051117	0.986401
530.412755	0.984511
530.774337	0.984752
531.135862	0.983603
531.497331	0.982892
531.858743	0.981579
532.220098	0.981782
532.581396	0.981196
532.942638	0.980552
533.303824	0.978886
533.664953	0.978094
534.026025	0.976543
534.387040	0.975570
534.747999	0.975304
535.108902	0.973877
535.469748	0.972489
535.830537	0.972104
536.191270	0.971009
536.551947	0.968786
536.912567	0.968181
537.273131	0.968142
537.633638	0.966012
537.994089	0.963518
538.354483	0.963013
538.714821	0.961740
539.075103	0.960026
539.435328	0.958872
539.795497	0.957816
540.155609	0.955120
540.515665	0.954201
540.875665	0.953122
541.235609	0.950922
541.595496	0.949112
541.955328	0.946491
542.315102	0.945436
542.674821	0.943458
543.034483	0.941735
543.394090	0.939645
543.753640	0.938219
544.113134	0.935632
544.472571	0.934021
544.831953	0.932070
545.191278	0.929631
545.550548	0.927652
545.909761	0.924733
546.268918	0.922937
546.628019	0.921034
546.987064	0.917757
547.346053	0.916506
547.704986	0.913566
548.063863	0.910759
548.422684	0.909345
548.781449	0.906294
549.140158	0.903129
549.498811	0.900881
549.857408	0.899145
550.215949	0.895096
550.574434	0.892198
550.932864	0.888802
551.291237	0.887873
551.649555	0.883017
552.007817	0.880385
552.366022	0.877546
552.724173	0.874943
553.082267	0.872605
553.440305	0.866562
553.798288	0.865729
554.156215	0.861168
554.514086	0.858552
554.871902	0.855949
555.229661	0.851961
555.587365	0.848592
555.945014	0.847199
556.302606	0.840414
556.660143	0.839750
557.017625	0.834199
557.375050	0.831619
557.732421	0.827117
558.089735	0.823437
558.446994	0.821218
558.804197	0.817451
559.161345	0.813236
559.518437	0.811032
559.875474	0.805748
560.232455	0.801542
560.589381	0.799850
560.946251	0.793200
561.303065	0.791370
561.659825	0.786907
562.016528	0.783510
562.373177	0.781551
562.729770	0.775399
563.086307	0.773762
563.442789	0.769593
563.799216	0.764363
564.155587	0.760449
564.511904	0.756749
564.868164	0.752606
565.224370	0.750321
565.580520	0.744622
565.936615	0.743209
566.292654	0.737697
566.648638	0.734327
567.004567	0.729091
567.360441	0.726615
567.716260	0.722783
568.072023	0.718905
568.427732	0.713439
568.783385	0.712255
569.138982	0.705578
569.494525	0.702033
569.850013	0.699835
570.205445	0.693629
570.560823	0.692269
570.916145	0.687820
571.271412	0.683325
571.626625	0.679783
571.981782	0.675601
572.336884	0.671704
572.691931	0.669295
573.046923	0.663958
573.401860	0.660580
573.756743	0.657691
574.111570	0.653020
574.466342	0.650113
574.821059	0.644965
575.175722	0.642324
575.530330	0.637565
575.884882	0.634212
576.239380	0.631219
576.593823	0.627170
576.948211	0.622410
577.302544	0.621810
577.656823	0.616671
578.011047	0.613328
578.365216	0.609041
578.719330	0.606693
579.073389	0.602213
579.427394	0.600035
579.781344	0.596481
580.135239	0.592894
580.489080	0.589524
580.842866	0.587108
581.196597	0.583388
581.550273	0.578975
581.903895	0.575487
582.257463	0.571222
582.610975	0.568668
582.964434	0.566086
583.317837	0.563592
583.671186	0.561059
584.024481	0.556610
584.377721	0.554829
584.730906	0.551421
585.084037	0.547292
585.437113	0.546072
585.790135	0.540987
586.143103	0.538797
586.496016	0.537604
586.848874	0.531328
587.201679	0.529496
587.554428	0.527499
587.907124	0.523430
588.259765	0.521166
588.612352	0.517413
588.964884	0.518207
589.317362	0.514348
589.669786	0.510229
590.022155	0.507490
590.374470	0.502432
590.726731	0.501756
591.078937	0.501146
591.431090	0.494896
591.783188	0.495982
592.135232	0.492043
592.487222	0.489902
592.839157	0.485272
593.191038	0.484163
593.542866	0.482970
593.894639	0.482978
594.246358	0.478041
594.598022	0.475209
594.949633	0.474823
595.301190	0.472689
595.652692	0.469554
596.004141	0.462823
596.355535	0.467556
596.706876	0.464535
597.058162	0.463471
597.409395	0.459036
597.760573	0.454406
598.111698	0.454893
598.462768	0.451473
598.813785	0.451187
599.164748	0.449208
599.515657	0.447552
599.866511	0.446768
600.217312	0.440972
600.568060	0.442991
600.918753	0.437708
601.269392	0.436428
601.619978	0.436871
601.970510	0.432328
602.320988	0.431124
602.671412	0.426358
603.021783	0.426583
603.372100	0.425736
603.722363	0.422798
604.072572	0.421974
604.422728	0.419431
604.772830	0.419686
605.122878	0.417380
605.472872	0.415992
605.822813	0.412579
606.172701	0.413418
606.522534	0.408918
606.872314	0.407085
607.222041	0.405772
607.571714	0.402581
607.921333	0.402234
608.270899	0.400062
608.620411	0.395633
608.969870	0.397825
609.319276	0.396271
609.668627	0.394700
610.017926	0.391557
610.367171	0.389034
610.716362	0.388401
611.065500	0.386936
611.414585	0.384046
611.763616	0.383913
612.112594	0.382424
612.461518	0.381061
612.810389	0.377773
613.159207	0.378197
613.507971	0.378725
613.856682	0.373479
614.205340	0.373790
614.553945	0.369652
614.902496	0.372162
615.250994	0.369319
615.599439	0.368950
615.947830	0.367069
616.296169	0.366986
616.644454	0.365620
616.992686	0.364881
617.340864	0.361860
617.688990	0.364455
618.037063	0.360670
618.385082	0.361764
618.733048	0.357603
619.080961	0.358846
619.428821	0.357728
619.776628	0.355909
620.124382	0.356947
620.472083	0.356428
620.819731	0.354529
621.167326	0.357375
621.514868	0.356210
621.862357	0.359317
622.209793	0.358169
622.557176	0.358964
622.904506	0.359187
623.251783	0.360840
623.599007	0.362215
623.946179	0.361143
624.293297	0.361911
624.640363	0.364880
624.987376	0.364885
625.334336	0.366503
625.681243	0.367903
626.028097	0.368323
626.374899	0.368285
626.721647	0.367602
627.068343	0.370551
627.414987	0.370830
627.761577	0.372962
628.108115	0.370263
628.454600	0.375003
628.801032	0.371744
629.147412	0.373626
629.493739	0.373283
629.840014	0.375889
630.186236	0.373595
630.532405	0.377936
630.878521	0.375043
631.224585	0.377187
631.570597	0.380135
631.916556	0.378013
632.262462	0.378279
632.608316	0.379813
632.954117	0.380292
633.299866	0.381084
633.645562	0.380630
633.991206	0.384719
634.336797	0.387305
634.682336	0.389308
635.027823	0.390417
635.373257	0.390448
635.718639	0.393094
636.063968	0.392410
636.409245	0.398014
636.754470	0.398000
637.099642	0.399720
637.444762	0.403075
637.789829	0.401830
638.134845	0.404905
638.479808	0.405772
638.824719	0.405540
639.169577	0.409308
639.514383	0.407643
639.859137	0.412067
640.203839	0.411219
640.548489	0.411246
640.893086	0.412868
641.237632	0.413652
641.582125	0.412292
641.926566	0.414045
642.270955	0.413737
642.615292	0.414534
642.959576	0.413203
643.303809	0.413784
643.647990	0.412897
643.992118	0.413271
644.336195	0.416757
644.680219	0.414625
645.024192	0.416075
645.368112	0.408858
645.711981	0.407993
646.055797	0.403432
646.399562	0.405668
646.743274	0.397413
647.086935	0.394965
647.430544	0.395264
647.774101	0.393922
648.117606	0.393663
648.461059	0.393852
648.804460	0.396056
649.147810	0.401180
649.491108	0.402726
649.834354	0.403952
650.177548	0.409404
650.520690	0.414354
650.863781	0.415679
651.206820	0.414729
651.549807	0.419398
651.892742	0.423030
652.235626	0.423078
652.578458	0.424208
652.921238	0.429584
653.263967	0.427022
653.606644	0.431640
653.949269	0.429944
654.291843	0.434939
654.634365	0.431665
654.976836	0.434604
655.319255	0.434592
655.661622	0.436553
656.003938	0.436423
656.346203	0.439122
656.688416	0.437295
657.030577	0.440468
657.372687	0.442082
657.714746	0.442810
658.056753	0.439965
658.398708	0.443738
658.740612	0.444962
659.082465	0.440902
659.424266	0.441563
659.766016	0.440565
660.107715	0.442911
660.449362	0.442438
660.790958	0.443255
661.132503	0.443345
661.473996	0.440865
661.815438	0.442231
662.156829	0.442353
662.498168	0.442682
662.839456	0.444144
663.180693	0.441887
663.521879	0.441950
663.863013	0.442964
664.204097	0.441338
664.545129	0.438002
664.886110	0.438570
665.227040	0.435825
665.567918	0.438312
665.908746	0.435818
666.249522	0.436278
666.590248	0.437078
666.930922	0.434714
667.271545	0.434174
667.612118	0.434234
667.952639	0.435679
668.293109	0.433739
668.633528	0.436813
668.973896	0.436596
669.314213	0.437426
669.654480	0.438761
669.994695	0.439298
670.334859	0.440092
670.674973	0.440206
671.015035	0.440815
671.355047	0.439820
671.695008	0.441448
672.034918	0.443009
672.374777	0.442477
672.714585	0.443523
673.054342	0.443652
673.394049	0.443710
673.733705	0.440892
674.073310	0.442399
674.412864	0.445419
674.752368	0.445721
675.091820	0.445866
675.431223	0.450359
675.770574	0.450067
676.109875	0.453547
676.449125	0.453475
676.788324	0.455483
677.127473	0.460864
677.466571	0.460344
677.805619	0.462097
678.144616	0.463275
678.483562	0.465216
678.822458	0.466843
679.161303	0.468415
679.500098	0.468826
679.838842	0.470623
680.177535	0.470515
680.516179	0.468616
680.854771	0.467387
681.193314	0.461440
681.531805	0.452699
681.870247	0.441002
682.208638	0.433614
682.546978	0.432512
682.885268	0.434072
683.223508	0.440379
683.561697	0.444277
683.899836	0.447066
684.237925	0.449965
684.575963	0.452839
684.913951	0.455545
685.251889	0.451649
685.589776	0.453925
685.927614	0.455511
686.265401	0.450558
686.603137	0.451404
686.940824	0.445707
687.278460	0.443820
687.616046	0.443232
687.953582	0.438406
688.291068	0.439849
688.628504	0.435658
688.965889	0.438022
689.303224	0.441769
689.640510	0.445465
689.977745	0.451255
690.314930	0.458908
690.652065	0.463569
690.989150	0.471070
691.326185	0.477457
691.663170	0.482238
692.000105	0.488911
692.336990	0.496021
692.673825	0.498538
693.010610	0.505521
693.347345	0.511022
693.684030	0.512254
694.020665	0.517428
694.357251	0.525958
694.693786	0.525249
695.030272	0.529959
695.366707	0.533024
695.703093	0.536273
696.039429	0.534491
696.375716	0.535753
696.711952	0.538708
697.048139	0.541094
697.384276	0.542262
697.720363	0.541025
698.056400	0.539612
698.392388	0.545556
698.728326	0.548839
699.064214	0.550723
699.400053	0.551924
699.735842	0.555373
700.071581	0.558494
700.407270	0.561517
700.742910	0.563536
701.078501	0.570233
701.414042	0.570550
701.749533	0.573892
702.084974	0.582585
702.420366	0.575096
702.755709	0.582865
703.091002	0.590342
703.426246	0.583515
703.761440	0.589084
704.096584	0.594146
704.431679	0.591566
704.766725	0.592920
705.101721	0.594722
705.436668	0.590770
705.771565	0.598233
706.106413	0.594862
706.441212	0.590091
706.775961	0.588704
707.110661	0.591873
707.445311	0.588144
707.779913	0.585534
708.114465	0.582886
708.448967	0.581296
708.783421	0.572770
709.117825	0.567109
709.452180	0.567020
709.786485	0.560787
710.120742	0.551309
710.454949	0.553015
710.789107	0.545195
711.123216	0.535930
711.457275	0.536987
711.791286	0.528512
712.125247	0.527992
712.459159	0.539063
712.793023	0.530866
713.126837	0.535230
713.460602	0.535604
713.794318	0.545130
714.127985	0.543865
714.461602	0.554071
714.795171	0.556739
715.128691	0.564688
715.462162	0.571877
715.795584	0.577356
716.128957	0.580580
716.462281	0.587204
716.795556	0.590885
717.128782	0.595165
717.461960	0.605253
717.795088	0.603377
718.128167	0.609660
718.461198	0.618073
718.794180	0.619163
719.127113	0.622360
719.459997	0.624950
719.792833	0.631672
720.125619	0.632826
720.458357	0.638571
720.791046	0.638050
721.123686	0.641687
721.456278	0.648766
721.788821	0.646200
722.121315	0.649578
722.453761	0.654193
722.786158	0.651870
723.118506	0.647829
723.450805	0.657002
723.783056	0.651935
724.115259	0.649323
724.447412	0.649340
724.779518	0.650846
725.111574	0.649915
725.443582	0.645066
725.775542	0.647289
726.107453	0.638816
726.439315	0.639912
726.771129	0.637779
727.102895	0.631404
727.434612	0.624246
727.766281	0.622713
728.097901	0.621825
728.429473	0.621274
728.760996	0.619833
729.092471	0.619271
729.423897	0.623665
729.755276	0.623375
730.086606	0.623005
730.417887	0.617522
730.749120	0.608216
731.080305	0.598894
731.411442	0.594753
731.742530	0.599835
732.073570	0.598938
732.404562	0.591978
732.735506	0.592970
733.066401	0.597429
733.397249	0.607310
733.728048	0.617722
734.058798	0.630198
734.389501	0.640557
734.720156	0.650805
735.050762	0.658467
735.381320	0.659141
735.711831	0.669340
736.042293	0.673447
736.372707	0.669618
736.703073	0.674570
737.033391	0.676766
737.363661	0.673695
737.693883	0.668665
738.024056	0.667203
738.354182	0.668146
738.684260	0.657201
739.014290	0.653349
739.344272	0.653914
739.674207	0.646815
740.004093	0.646630
740.333931	0.647700
740.663722	0.646923
740.993464	0.647835
741.323159	0.651839
741.652806	0.657077
741.982405	0.661455
742.311956	0.666088
742.641460	0.668527
742.970915	0.671931
743.300323	0.680111
743.629683	0.686256
743.958996	0.688340
744.288260	0.692205
744.617477	0.698441
744.946647	0.700301
745.275768	0.705452
745.604842	0.705009
745.933869	0.714976
746.262847	0.715918
746.591778	0.708930
746.920662	0.715476
747.249498	0.721797
747.578286	0.712007
747.907027	0.708800
748.235720	0.709662
748.564365	0.703820
748.892963	0.703801
749.221514	0.706538
749.550017	0.712530
749.878473	0.712001
750.206881	0.717453
750.535242	0.719272
750.863555	0.719642
751.191821	0.720768
751.520039	0.723218
751.848210	0.728566
752.176334	0.720989
752.504411	0.720401
752.832440	0.729084
753.160421	0.731716
753.488356	0.730797
753.816243	0.728251
754.144082	0.736389
754.471875	0.739315
754.799620	0.735014
755.127318	0.737245
755.454969	0.736591
755.782572	0.735991
756.110129	0.740725
756.437638	0.743615
756.765100	0.739348
757.092515	0.738713
757.419882	0.736576
757.747203	0.742366
758.074477	0.741026
758.401703	0.738408
758.728882	0.733704
759.056014	0.732984
759.383099	0.731137
759.710138	0.733456
760.037129	0.729655
760.364073	0.723609
760.690970	0.725616
761.017820	0.731597
761.344623	0.726868
761.671379	0.717960
761.998088	0.707168
762.324751	0.684509
762.651366	0.642837
762.977935	0.576794
763.304456	0.525019
763.630931	0.515384
763.957359	0.554258
764.283740	0.598450
764.610074	0.625513
764.936362	0.655628
765.262602	0.682473
765.588796	0.703548
765.914943	0.721739
766.241044	0.738183
766.567097	0.746139
766.893104	0.754822
767.219064	0.761562
767.544978	0.768431
767.870845	0.781283
768.196665	0.784954
768.522438	0.782930
768.848165	0.784458
769.173846	0.793124
769.499479	0.797770
769.825066	0.800799
770.150607	0.805586
770.476101	0.800466
770.801548	0.802127
771.126949	0.813332
771.452303	0.816761
771.777611	0.817053
772.102872	0.815728
772.428087	0.820620
772.753256	0.824063
773.078378	0.826348
773.403453	0.835446
773.728482	0.839748
774.053465	0.833514
774.378401	0.836696
774.703291	0.845693
775.028135	0.844755
775.352932	0.846679
775.677683	0.848803
776.002388	0.849762
776.327046	0.848740
776.651658	0.852249
776.976224	0.856566
777.300743	0.855040
777.625216	0.858302
777.949643	0.859179
778.274024	0.860894
778.598359	0.861593
778.922647	0.860508
779.246889	0.860708
779.571086	0.864650
779.895236	0.866641
780.219339	0.863997
780.543397	0.861041
780.867409	0.860069
781.191374	0.861610
781.515294	0.862755
781.839167	0.861726
782.162995	0.865022
782.486776	0.862024
782.810511	0.862738
783.134201	0.866274
783.457844	0.864324
783.781441	0.867342
784.104993	0.873233
784.428498	0.873293
784.751958	0.869282
785.075372	0.871560
785.398739	0.876156
785.722061	0.871788
786.045337	0.867797
786.368568	0.872276
786.691752	0.875242
787.014891	0.860164
787.337983	0.851475
787.661030	0.844264
787.984031	0.827099
788.306987	0.814893
788.629897	0.815817
788.952760	0.820391
789.275579	0.824821
789.598351	0.839327
789.921078	0.852589
790.243759	0.855044
790.566395	0.859373
790.888984	0.867682
791.211529	0.871297
791.534027	0.875125
791.856480	0.876510
792.178888	0.882782
792.501249	0.883784
792.823566	0.885841
793.145836	0.885775
793.468062	0.887391
793.790241	0.888289
794.112375	0.886185
794.434464	0.881781
794.756507	0.880142
795.078505	0.881952
795.400457	0.875566
795.722364	0.863386
796.044226	0.856052
796.366042	0.855245
796.687812	0.858962
797.009538	0.855579
797.331218	0.857829
797.652852	0.863349
797.974442	0.867691
798.295986	0.867895
798.617484	0.869674
798.938938	0.873676
799.260346	0.879121
799.581709	0.880462
799.903026	0.882234
800.224299	0.884146
800.545526	0.887024
800.866708	0.892844
801.187845	0.894906
801.508936	0.895452
801.829983	0.892686
802.150984	0.894807
802.471940	0.900730
802.792851	0.899669
803.113717	0.901310
803.434538	0.899004
803.755314	0.901351
804.076045	0.902693
804.396731	0.902631
804.717372	0.902206
805.037967	0.904993
805.358518	0.902008
805.679024	0.900394
805.999485	0.899604
806.319901	0.899046
806.640272	0.901508
806.960598	0.899626
807.280879	0.895570
807.601115	0.895061
807.921306	0.899531
808.241453	0.898786
808.561554	0.896829
808.881611	0.896394
809.201623	0.898774
809.521590	0.899366
809.841513	0.899708
810.161390	0.898917
810.481223	0.900925
810.801011	0.903784
811.120755	0.905063
811.440453	0.905448
811.760107	0.902924
812.079716	0.902960
812.399281	0.906463
812.718801	0.909392
813.038276	0.910005
813.357707	0.910115
813.677093	0.906136
813.996434	0.909726
814.315731	0.912204
814.634983	0.912744
814.954191	0.910674
815.273354	0.908086
815.592473	0.905276
815.911547	0.904238
816.230577	0.901920
816.549562	0.899285
816.868502	0.900843
817.187399	0.896228
817.506250	0.891124
817.825058	0.892715
818.143821	0.890605
818.462539	0.884491
818.781213	0.877319
819.099843	0.866124
819.418429	0.850061
819.736970	0.833611
820.055466	0.815278
820.373919	0.790070
820.692327	0.757096
821.010691	0.722847
821.329011	0.647776
821.647286	0.534696
821.965517	0.422548
822.283704	0.380152
822.601847	0.382451
822.919945	0.417504
823.237999	0.450668
823.556010	0.496139
823.873976	0.551570
824.191897	0.600641
824.509775	0.642455
824.827609	0.687552
825.145398	0.709858
825.463144	0.711380
825.780845	0.694996
826.098502	0.676611
826.416116	0.631283
826.733685	0.588566
827.051210	0.580522
827.368692	0.594830
827.686129	0.630857
828.003522	0.683424
828.320872	0.730465
828.638177	0.772267
828.955439	0.805450
829.272656	0.826024
829.589830	0.843376
829.906960	0.858460
830.224046	0.871670
830.541088	0.880818
830.858086	0.885245
831.175041	0.890893
831.491952	0.890694
831.808819	0.887306
832.125642	0.879836
832.442421	0.865872
832.759157	0.844926
833.075849	0.800372
833.392497	0.736904
833.709101	0.696526
834.025662	0.706414
834.342179	0.737952
834.658653	0.776391
834.975083	0.811611
835.291469	0.837063
835.607811	0.859005
835.924110	0.874457
836.240366	0.891076
836.556578	0.905017
836.872746	0.911429
837.188871	0.918439
837.504952	0.923548
837.820990	0.926507
838.136984	0.930271
838.452935	0.933380
838.768842	0.934412
839.084706	0.927959
839.400526	0.902394
839.716303	0.863442
840.032037	0.841962
840.347727	0.844862
840.663373	0.862768
840.978977	0.884089
841.294537	0.906276
841.610054	0.921292
841.925527	0.929310
842.240957	0.936755
842.556344	0.943135
842.871687	0.949090
843.186987	0.953134
843.502244	0.952711
843.817458	0.954295
844.132629	0.957367
844.447756	0.962276
844.762840	0.963641
845.077881	0.961493
845.392879	0.962208
845.707833	0.964718
846.022745	0.966389
846.337613	0.966847
846.652438	0.968284
846.967221	0.966604
847.281960	0.967687
847.596656	0.968614
847.911309	0.967838
848.225919	0.970424
848.540485	0.970900
848.855009	0.972077
849.169490	0.969979
849.483928	0.972039
849.798323	0.970711
850.112675	0.972844
850.426984	0.971533
850.741251	0.972437
851.055474	0.972813
851.369654	0.971442
851.683792	0.971363
851.997887	0.972198
852.311938	0.972308
852.625947	0.971347
852.939914	0.970633
853.253837	0.970941
853.567718	0.973779
853.881555	0.972065
854.195350	0.970667
854.509103	0.971068
854.822812	0.971810
855.136479	0.972461
855.450103	0.972645
855.763685	0.970971
856.077224	0.970783
856.390720	0.972694
856.704173	0.972017
857.017584	0.971597
857.330953	0.969096
857.644278	0.970971
857.957561	0.969768
858.270802	0.972006
858.584000	0.970416
858.897155	0.968823
859.210268	0.969663
859.523339	0.971120
859.836367	0.972651
860.149352	0.971840
860.462295	0.970728
860.775195	0.971288
861.088054	0.971760
861.400869	0.971552
861.713642	0.973273
862.026373	0.972622
862.339062	0.973375
862.651708	0.970633
862.964312	0.970437
863.276873	0.972426
863.589392	0.970817
863.901869	0.969397
864.214303	0.966512
864.526696	0.965314
864.839045	0.966595
865.151353	0.963880
865.463619	0.964171
865.775842	0.965214
866.088023	0.965072
866.400162	0.965773
866.712258	0.965463
867.024313	0.964743
867.336325	0.965639
867.648296	0.966378
867.960224	0.964128
868.272110	0.964227
868.583954	0.966843
868.895755	0.966417
869.207515	0.964761
869.519233	0.962262
869.830909	0.962368
870.142542	0.966197
870.454134	0.964343
870.765684	0.963336
871.077191	0.962774
871.388657	0.961444
871.700081	0.961553
872.011463	0.962259
872.322803	0.960443
872.634101	0.959624
872.945357	0.957910
873.256571	0.955850
873.567744	0.955378
873.878874	0.955374
874.189963	0.955697
874.501010	0.953211
874.812015	0.952862
875.122979	0.954779
875.433900	0.955362
875.744780	0.956789
876.055618	0.954131
876.366415	0.953359
876.677169	0.952331
876.987882	0.954670
877.298554	0.954851
877.609183	0.950757
877.919771	0.949041
878.230317	0.945920
878.540822	0.943558
878.851285	0.938673
879.161707	0.931420
879.472087	0.919681
879.782425	0.904241
880.092722	0.871873
880.402977	0.821030
880.713191	0.763056
881.023363	0.706454
881.333494	0.673996
881.643583	0.645910
881.953631	0.645607
882.263637	0.673862
882.573602	0.712898
882.883526	0.737990
883.193408	0.759605
883.503248	0.780995
883.813048	0.807738
884.122806	0.836143
884.432522	0.859009
884.742197	0.878112
885.051831	0.887793
885.361424	0.897545
885.670975	0.908342
885.980485	0.918454
886.289954	0.922796
886.599382	0.929704
886.908768	0.933570
887.218113	0.938339
887.527417	0.943477
887.836680	0.946308
888.145901	0.946926
888.455082	0.950100
888.764221	0.953490
889.073319	0.956504
889.382376	0.956796
889.691392	0.956291
890.000366	0.955969
890.309300	0.957904
890.618193	0.956797
890.927044	0.954677
891.235855	0.954373
891.544625	0.955063
891.853353	0.955608
892.162041	0.953181
892.470687	0.946791
892.779293	0.941993
893.087858	0.938489
893.396381	0.931023
893.704864	0.918482
894.013306	0.894950
894.321707	0.868981
894.630068	0.855715
894.938387	0.852896
895.246665	0.853439
895.554903	0.864304
895.863100	0.877935
896.171256	0.893474
896.479371	0.913258
896.787446	0.924392
897.095480	0.930231
897.403473	0.933508
897.711425	0.937370
898.019336	0.945104
898.327207	0.947704
898.635038	0.949747
898.942827	0.948679
899.250576	0.951835
899.558284	0.956060
899.865952	0.958119
900.173579	0.958351
900.481165	0.958056
900.788711	0.963471
901.096216	0.964683
901.403681	0.964033
901.711105	0.966439
902.018489	0.966811
902.325832	0.966248
902.633135	0.964176
902.940397	0.959222
903.247619	0.947955
903.554800	0.923127
903.861941	0.886000
904.169041	0.852739
904.476101	0.837112
904.783121	0.837424
905.090100	0.853053
905.397039	0.872836
905.703938	0.894497
906.010796	0.912047
906.317614	0.928491
906.624391	0.939468
906.931129	0.949042
907.237826	0.955595
907.544483	0.963361
907.851099	0.966074
908.157675	0.971732
908.464211	0.973117
908.770707	0.975620
909.077163	0.976522
909.383578	0.977690
909.689954	0.976167
909.996289	0.978218
910.302584	0.981276
910.608839	0.982584
910.915054	0.980765
911.221229	0.980349
911.527363	0.979956
911.833458	0.980114
912.139513	0.980226
912.445527	0.977144
912.751502	0.976682
913.057436	0.974862
913.363331	0.972109
913.669186	0.969705
913.975000	0.965368
914.280775	0.959868
914.586510	0.952430
914.892205	0.941654
915.197859	0.920145
915.503475	0.894978
915.809050	0.875927
916.114585	0.871643
916.420081	0.869248
916.725536	0.866032
917.030952	0.872822
917.336328	0.885521
917.641665	0.900421
917.946961	0.914195
918.252218	0.925226
918.557435	0.933701
918.862612	0.941682
919.167750	0.947689
919.472848	0.951557
919.777906	0.957073
920.082925	0.962183
920.387904	0.964888
920.692843	0.965869
920.997743	0.967608
921.302603	0.970867
921.607423	0.972068
921.912204	0.976132
922.216946	0.974649
922.521647	0.976045
922.826310	0.977327
923.130932	0.980278
923.435516	0.981349
923.740059	0.983073
924.044564	0.981642
924.349028	0.983722
924.653454	0.985121
924.957840	0.987308
925.262186	0.985816
925.566493	0.986522
925.870761	0.987275
926.174989	0.988789
926.479178	0.989520
926.783328	0.990399
927.087438	0.990250
927.391509	0.989260
927.695541	0.990438
927.999533	0.990751
928.303486	0.991817
928.607400	0.993335
928.911275	0.990726
929.215110	0.992001
929.518906	0.992343
929.822663	0.990909
930.126381	0.993604
930.430060	0.992455
930.733699	0.992479
931.037299	0.991078
931.340861	0.993245
931.644383	0.991581
931.947866	0.990979
932.251309	0.992220
932.554714	0.991548
932.858080	0.991828
933.161407	0.992128
933.464694	0.992206
933.767943	0.991926
934.071153	0.993739
934.374323	0.993253
934.677455	0.992311
934.980548	0.993315
935.283602	0.991878
935.586617	0.991906
935.889593	0.991707
936.192530	0.992521
936.495428	0.993161
936.798287	0.992231
937.101108	0.992654
937.403890	0.991573
937.706632	0.991506
938.009336	0.988044
938.312002	0.987677
938.614628	0.988625
938.917216	0.985643
939.219765	0.985141
939.522275	0.985712
939.824747	0.985055
940.127179	0.986336
940.429573	0.986141
940.731929	0.986726
941.034246	0.986813
941.336524	0.987932
941.638763	0.987792
941.940964	0.988797
942.243126	0.988372
942.545250	0.989392
942.847335	0.989695
943.149381	0.989844
943.451389	0.989180
943.753359	0.990244
944.055290	0.992983
944.357182	0.991719
944.659036	0.990211
944.960851	0.991492
945.262628	0.991149
945.564367	0.992138
945.866067	0.992150
946.167729	0.992001
946.469352	0.991086
946.770937	0.991183
947.072484	0.991968
947.373992	0.992392
947.675462	0.992489
947.976893	0.992568
948.278286	0.992695
948.579641	0.993549
948.880958	0.993459
949.182236	0.991272
949.483476	0.993123
949.784678	0.991636
950.085841	0.992719
950.386967	0.991075
950.688054	0.992389
950.989103	0.992476
951.290114	0.991131
951.591087	0.990513
951.892021	0.991852
952.192917	0.990768
952.493776	0.990125
952.794596	0.990167
953.095378	0.990107
953.396122	0.990396
953.696828	0.988969
953.997496	0.992148
954.298126	0.992355
954.598718	0.992097
954.899272	0.992729
955.199788	0.992818
955.500266	0.993342
955.800706	0.995110
956.101108	0.995033
956.401472	0.994771
956.701798	0.995372
957.002087	0.994772
957.302337	0.995501
957.602550	0.996429
957.902724	0.996632
958.202861	0.997693
958.502960	0.996541
958.803022	0.995750
959.103045	0.997037
959.403031	0.996990
959.702979	0.996795
960.002889	0.997087
960.302762	0.995381
960.602596	0.997881
960.902393	0.996771
961.202153	0.997764
961.501875	0.997702
961.801559	0.997359
962.101205	0.996281
962.400814	0.997278
962.700385	0.998357
962.999918	0.996750
963.299414	0.996919
963.598873	0.997311
963.898293	0.997520
964.197677	0.997639
964.497022	0.996604
964.796331	0.998344
965.095601	0.997567
965.394835	0.998051
965.694030	0.997767
965.993189	0.997657
966.292309	0.997360
966.591393	0.998196
966.890439	0.997792
967.189447	0.999202
967.488419	0.998242
967.787353	0.998174
968.086249	0.997301
968.385108	0.998140
968.683930	0.998398
968.982714	0.998236
969.281462	0.998803
969.580172	0.997952
969.878844	0.999013
970.177480	0.998162
970.476078	0.999206
970.774639	0.997105
971.073162	0.999498
971.371649	0.997081
971.670098	0.997666
971.968510	0.998035
972.266885	0.997092
972.565223	0.997462
972.863524	0.997444
973.161788	0.997545
973.460014	0.999285
973.758204	0.996456
974.056356	0.997587
974.354471	0.996578
974.652550	0.997876
974.950591	0.996793
975.248595	0.997827
975.546563	0.997676
975.844493	0.998290
976.142386	0.998036
976.440243	0.998118
976.738062	0.997363
977.035845	0.998745
977.333590	0.998416
977.631299	0.998841
977.928971	0.997261
978.226606	0.998818
978.524204	0.997529
978.821765	0.999012
979.119290	0.997420
979.416777	0.997734
979.714228	0.997794
980.011642	0.997656
980.309020	0.997830
980.606360	0.997505
980.903664	0.999159
981.200931	0.997134
981.498162	0.996176
981.795356	0.995369
982.092513	0.995642
982.389633	0.995730
982.686717	0.993848
982.983764	0.993487
983.280775	0.991652
983.577749	0.991499
983.874686	0.993674
984.171587	0.992765
984.468451	0.995043
984.765279	0.995595
985.062070	0.996113
985.358824	0.996137
985.655543	0.996131
985.952224	0.996851
986.248869	0.997835
986.545478	0.999069
986.842050	1.000506
987.138586	0.997301
987.435086	0.997737
987.731549	0.999434
988.027975	0.997957
988.324366	0.997836
988.620719	0.998795
988.917037	0.996996
989.213318	0.998467
989.509563	0.999162
989.805772	0.998502
990.101944	1.000145
990.398080	0.998319
990.694180	0.998749
990.990244	0.999649
991.286271	0.999292
991.582262	0.999414
991.878217	0.998559
992.174136	0.999268
992.470019	0.999748
992.765865	0.999688
993.061676	0.999064
993.357450	0.998623
993.653188	0.998117
993.948890	0.997245
994.244556	0.998997
994.540186	0.997328
994.835780	0.996968
995.131337	0.997608
995.426859	0.997483
995.722345	0.998027
996.017795	0.996634
996.313208	0.997729
996.608586	0.996042
996.903928	0.997610
997.199234	0.997631
997.494504	0.997048
997.789738	0.996988
998.084936	0.997646
998.380099	0.998811
998.675225	0.998670
998.970316	0.999674
999.265371	0.999000
999.560390	0.999033
999.855373	0.999028
1000.150320	0.998281
1000.445232	0.999897
1000.740108	0.999052
1001.034948	0.999230
1001.329752	0.999225
1001.624521	0.999304
1001.919254	0.998802
1002.213951	0.998479
1002.508613	0.998542
1002.803239	0.999632
1003.097829	0.999996
1003.392384	1.000046
1003.686903	0.998542
1003.981386	0.998877
1004.275834	0.999767
1004.570246	0.999161
1004.864623	0.999598
1005.158964	1.000714
1005.453270	0.998267
1005.747540	0.998620
1006.041775	0.999467
1006.335974	1.000422
1006.630138	1.000098
1006.924266	0.999695
1007.218359	1.000026
1007.512416	0.999642
1007.806438	0.999719
1008.100425	1.000021
1008.394376	0.999139
1008.688292	0.999822
1008.982172	1.001275
1009.276017	1.000405
1009.569827	0.999623
1009.863602	0.999374
1010.157341	1.000268
1010.451045	0.999389
1010.744714	1.000066
1011.038347	0.999320
1011.331945	0.999131
1011.625508	0.998431
1011.919036	0.999544
1012.212528	0.999921
1012.505986	0.998236
1012.799408	0.999047
1013.092795	1.001121
1013.386147	0.999923
1013.679464	1.000462
1013.972745	0.998268
1014.265992	0.997937
1014.559204	0.999365
1014.852380	0.999337
1015.145521	0.998855
1015.438628	0.999573
1015.731699	0.999565
1016.024736	0.999094
1016.317737	1.000152
1016.610703	0.998409
1016.903635	1.000888
1017.196531	0.999134
1017.489393	1.000444
1017.782219	0.998965
1018.075011	0.999294
1018.367768	0.999658
1018.660490	0.998906
1018.953177	0.998906
1019.245829	0.998906
