Dividing Wavelength (nm)	Counts (n)	Blue Motor Position (mm): 0.000000	Red Motor Position (mm): 4.300000	
326.493990	1.001063
326.888308	1.001063
327.282561	1.001063
327.676750	0.999717
328.070874	0.999427
328.464933	1.000038
328.858929	0.999265
329.252859	0.999963
329.646726	0.999370
330.040528	0.999706
330.434265	1.000060
330.827938	1.001289
331.221547	1.000114
331.615091	0.999814
332.008571	1.000041
332.401986	0.999596
332.795338	1.000304
333.188625	0.997979
333.581847	1.000018
333.975006	1.000402
334.368100	0.999881
334.761129	0.999853
335.154095	1.000898
335.546996	0.997431
335.939833	0.992140
336.332606	0.993863
336.725315	0.992691
337.117960	0.995215
337.510540	0.994148
337.903056	0.993993
338.295508	0.993189
338.687896	0.994154
339.080220	0.993295
339.472480	0.993487
339.864676	0.993651
340.256807	0.994131
340.648875	0.993378
341.040879	0.994669
341.432818	0.993074
341.824694	0.993004
342.216506	0.993914
342.608253	0.993656
342.999937	0.993007
343.391557	0.993623
343.783113	0.992462
344.174605	0.994104
344.566033	0.993659
344.957397	0.991941
345.348697	0.993204
345.739934	0.993202
346.131106	0.993803
346.522215	0.992512
346.913260	0.993781
347.304241	0.992692
347.695159	0.993063
348.086012	0.991778
348.476802	0.991327
348.867528	0.993614
349.258191	0.992110
349.648789	0.993707
350.039324	0.992651
350.429796	0.993816
350.820203	0.992133
351.210548	0.993268
351.600828	0.991991
351.991045	0.993769
352.381198	0.992726
352.771288	0.992591
353.161314	0.990892
353.551276	0.994521
353.941175	0.992586
354.331010	0.991675
354.720782	0.992676
355.110490	0.992687
355.500135	0.993681
355.889717	0.992331
356.279235	0.991843
356.668689	0.991976
357.058080	0.992267
357.447408	0.993377
357.836672	0.993710
358.225873	0.993052
358.615010	0.992223
359.004084	0.994045
359.393095	0.991785
359.782043	0.992273
360.170927	0.992941
360.559748	0.993272
360.948505	0.992556
361.337199	0.992389
361.725830	0.993413
362.114398	0.990924
362.502903	0.993356
362.891344	0.993215
363.279722	0.991564
363.668037	0.992415
364.056289	0.991833
364.444478	0.992515
364.832603	0.992687
365.220665	0.992104
365.608665	0.991431
365.996601	0.991783
366.384474	0.991014
366.772284	0.992072
367.160031	0.989513
367.547715	0.988397
367.935336	0.991065
368.322893	0.988860
368.710388	0.989492
369.097820	0.988621
369.485189	0.987460
369.872495	0.986141
370.259738	0.984016
370.646918	0.983094
371.034035	0.982499
371.421090	0.978820
371.808081	0.975232
372.195010	0.974219
372.581875	0.969869
372.968678	0.965505
373.355418	0.963246
373.742096	0.957428
374.128710	0.953310
374.515262	0.948325
374.901751	0.944066
375.288177	0.940696
375.674540	0.934409
376.060841	0.925760
376.447079	0.920999
376.833254	0.913607
377.219367	0.909071
377.605417	0.898655
377.991404	0.894641
378.377329	0.887488
378.763191	0.882050
379.148991	0.872496
379.534727	0.864661
379.920402	0.856667
380.306013	0.852125
380.691563	0.838552
381.077049	0.831100
381.462474	0.825365
381.847835	0.814617
382.233134	0.809257
382.618371	0.808254
383.003545	0.790336
383.388657	0.787788
383.773706	0.779471
384.158693	0.774442
384.543618	0.767384
384.928480	0.759309
385.313280	0.748229
385.698017	0.748366
386.082692	0.735851
386.467305	0.733959
386.851856	0.726715
387.236344	0.721244
387.620770	0.714411
388.005133	0.709572
388.389435	0.704833
388.773674	0.701381
389.157851	0.692806
389.541965	0.689741
389.926018	0.696647
390.310008	0.683215
390.693936	0.679446
391.077802	0.672906
391.461606	0.674096
391.845348	0.663615
392.229027	0.663346
392.612645	0.660979
392.996200	0.647784
393.379694	0.640905
393.763125	0.630913
394.146494	0.635874
394.529801	0.625919
394.913047	0.618796
395.296230	0.624013
395.679351	0.615145
396.062410	0.611969
396.445408	0.614559
396.828343	0.609450
397.211217	0.605481
397.594028	0.618655
397.976778	0.607786
398.359466	0.603771
398.742092	0.598665
399.124656	0.611707
399.507158	0.600143
399.889598	0.596879
400.271977	0.588168
400.654294	0.592611
401.036549	0.590788
401.418742	0.596547
401.800874	0.580966
402.182944	0.578308
402.564952	0.569463
402.946898	0.572040
403.328783	0.572211
403.710606	0.583574
404.092367	0.558603
404.474067	0.563340
404.855705	0.562087
405.237282	0.571321
405.618797	0.557863
406.000250	0.553722
406.381642	0.543880
406.762972	0.547819
407.144240	0.547522
407.525447	0.547356
407.906593	0.540576
408.287677	0.535632
408.668700	0.543799
409.049661	0.537642
409.430560	0.533386
409.811399	0.541808
410.192176	0.523307
410.572891	0.530483
410.953545	0.518389
411.334138	0.532101
411.714669	0.525125
412.095139	0.536523
412.475547	0.520860
412.855894	0.522796
413.236180	0.522278
413.616405	0.527838
413.996568	0.518286
414.376670	0.523272
414.756711	0.528662
415.136691	0.525502
415.516609	0.516614
415.896466	0.512917
416.276262	0.509006
416.655997	0.511268
417.035670	0.491782
417.415283	0.484556
417.794834	0.488913
418.174324	0.493991
418.553753	0.503598
418.933121	0.486004
419.312428	0.479423
419.691674	0.485500
420.070859	0.473949
420.449983	0.481937
420.829045	0.471972
421.208047	0.480850
421.586988	0.473596
421.965867	0.472784
422.344686	0.461255
422.723444	0.473759
423.102141	0.489813
423.480777	0.463472
423.859352	0.483838
424.237866	0.461076
424.616319	0.461864
424.994712	0.453069
425.373044	0.463664
425.751314	0.451535
426.129524	0.467525
426.507673	0.452015
426.885762	0.444726
427.263789	0.450365
427.641756	0.460115
428.019662	0.450615
428.397508	0.449905
428.775292	0.453731
429.153016	0.446302
429.530679	0.452227
429.908282	0.445576
430.285824	0.455712
430.663305	0.434199
431.040726	0.455193
431.418086	0.455607
431.795385	0.446743
432.172624	0.445329
432.549802	0.446253
432.926920	0.445373
433.303977	0.444194
433.680974	0.441882
434.057910	0.439864
434.434786	0.439919
434.811601	0.442358
435.188355	0.424524
435.565050	0.433518
435.941683	0.435457
436.318257	0.419706
436.694770	0.420065
437.071222	0.418260
437.447614	0.422823
437.823946	0.429525
438.200218	0.418844
438.576429	0.428709
438.952580	0.421556
439.328670	0.417924
439.704700	0.424777
440.080670	0.425422
440.456580	0.406779
440.832429	0.414897
441.208218	0.425399
441.583947	0.415144
441.959616	0.414743
442.335224	0.419768
442.710773	0.410762
443.086261	0.408507
443.461689	0.422635
443.837057	0.412255
444.212365	0.401883
444.587612	0.409157
444.962800	0.399254
445.337927	0.400651
445.712995	0.426936
446.088002	0.389181
446.462949	0.399554
446.837837	0.404213
447.212664	0.393184
447.587431	0.384949
447.962139	0.355108
448.336786	0.314447
448.711374	0.324269
449.085901	0.368642
449.460369	0.373061
449.834776	0.376673
450.209124	0.355677
450.583412	0.348458
450.957640	0.341421
451.331808	0.353277
451.705917	0.376243
452.079965	0.380256
452.453954	0.369045
452.827883	0.375836
453.201752	0.370396
453.575562	0.382108
453.949311	0.370769
454.323001	0.376860
454.696632	0.372247
455.070202	0.364770
455.443713	0.356986
455.817164	0.351881
456.190556	0.347603
456.563888	0.344525
456.937160	0.342291
457.310373	0.359247
457.683526	0.358186
458.056619	0.363916
458.429653	0.364132
458.802628	0.367752
459.175542	0.361891
459.548398	0.344799
459.921194	0.337094
460.293930	0.337169
460.666607	0.315055
461.039224	0.303145
461.411782	0.298576
461.784280	0.297843
462.156719	0.301886
462.529099	0.306425
462.901419	0.322432
463.273680	0.326989
463.645882	0.326366
464.018024	0.332310
464.390106	0.325325
464.762130	0.309730
465.134094	0.293052
465.505999	0.262032
465.877845	0.232567
466.249631	0.219500
466.621358	0.226831
466.993026	0.240699
467.364634	0.246904
467.736184	0.255854
468.107674	0.264336
468.479105	0.263520
468.850477	0.270139
469.221790	0.277028
469.593043	0.287486
469.964238	0.292234
470.335373	0.291615
470.706449	0.289879
471.077467	0.290168
471.448425	0.252359
471.819324	0.228264
472.190164	0.227480
472.560945	0.256284
472.931667	0.278353
473.302330	0.282605
473.672934	0.294423
474.043479	0.282473
474.413965	0.284643
474.784393	0.287685
475.154761	0.282889
475.525070	0.279960
475.895321	0.285794
476.265513	0.279715
476.635645	0.275405
477.005719	0.275485
477.375734	0.271637
477.745691	0.265160
478.115588	0.261763
478.485427	0.255178
478.855207	0.241977
479.224928	0.224573
479.594591	0.212699
479.964194	0.216168
480.333739	0.217387
480.703226	0.218656
481.072653	0.217334
481.442022	0.213105
481.811333	0.209356
482.180584	0.213018
482.549777	0.218213
482.918912	0.221458
483.287988	0.221145
483.657005	0.220787
484.025964	0.227258
484.394864	0.224606
484.763706	0.225415
485.132489	0.230506
485.501213	0.231041
485.869879	0.229368
486.238487	0.232899
486.607036	0.230692
486.975527	0.235077
487.343959	0.230932
487.712333	0.229874
488.080648	0.231397
488.448905	0.230769
488.817104	0.232165
489.185244	0.226589
489.553326	0.223304
489.921350	0.213264
490.289315	0.195834
490.657222	0.190690
491.025070	0.192057
491.392861	0.194251
491.760593	0.199723
492.128267	0.205449
492.495883	0.210929
492.863440	0.217250
493.230939	0.223501
493.598380	0.224883
493.965763	0.226810
494.333088	0.229298
494.700354	0.231024
495.067563	0.229795
495.434713	0.233089
495.801805	0.230961
496.168839	0.232398
496.535815	0.233748
496.902733	0.233774
497.269593	0.235200
497.636395	0.233044
498.003139	0.233390
498.369825	0.236435
498.736453	0.232720
499.103023	0.234433
499.469535	0.233686
499.835989	0.234145
500.202385	0.234973
500.568723	0.238253
500.935003	0.233605
501.301226	0.237390
501.667390	0.231739
502.033497	0.230052
502.399546	0.233086
502.765537	0.234524
503.131470	0.233279
503.497345	0.229727
503.863163	0.238126
504.228923	0.231369
504.594625	0.230174
504.960269	0.235069
505.325856	0.230382
505.691385	0.234730
506.056856	0.231585
506.422270	0.231150
506.787625	0.233535
507.152924	0.230926
507.518164	0.231257
507.883347	0.233037
508.248472	0.234911
508.613540	0.229878
508.978550	0.232473
509.343503	0.232839
509.708398	0.230195
510.073236	0.228061
510.438016	0.227921
510.802738	0.229008
511.167403	0.228125
511.532010	0.230138
511.896561	0.225300
512.261053	0.224004
512.625488	0.226411
512.989866	0.226683
513.354186	0.226843
513.718449	0.228735
514.082655	0.225004
514.446803	0.227186
514.810894	0.224883
515.174927	0.227557
515.538904	0.226973
515.902822	0.223969
516.266684	0.226378
516.630488	0.227582
516.994235	0.226491
517.357925	0.225180
517.721558	0.223589
518.085133	0.222717
518.448651	0.223142
518.812112	0.225250
519.175516	0.224611
519.538863	0.222738
519.902152	0.224103
520.265385	0.220894
520.628560	0.222784
520.991678	0.223144
521.354739	0.222023
521.717743	0.223525
522.080690	0.223754
522.443580	0.221054
522.806413	0.221962
523.169189	0.221097
523.531908	0.220173
523.894569	0.223829
524.257174	0.223552
524.619722	0.221420
524.982213	0.222504
525.344647	0.221295
525.707025	0.222164
526.069345	0.220398
526.431608	0.222224
526.793815	0.219924
527.155964	0.224263
527.518057	0.222916
527.880093	0.224146
528.242072	0.222512
528.603995	0.224245
528.965860	0.226519
529.327669	0.224971
529.689421	0.226135
530.051117	0.226943
530.412755	0.224509
530.774337	0.226856
531.135862	0.227321
531.497331	0.226463
531.858743	0.229360
532.220098	0.226112
532.581396	0.228494
532.942638	0.229411
533.303824	0.230206
533.664953	0.229957
534.026025	0.231701
534.387040	0.229661
534.747999	0.229639
535.108902	0.228647
535.469748	0.233374
535.830537	0.231130
536.191270	0.231751
536.551947	0.231211
536.912567	0.231286
537.273131	0.232976
537.633638	0.232988
537.994089	0.233690
538.354483	0.234637
538.714821	0.231611
539.075103	0.231318
539.435328	0.232060
539.795497	0.235985
540.155609	0.232275
540.515665	0.230541
540.875665	0.236270
541.235609	0.234829
541.595496	0.234654
541.955328	0.230968
542.315102	0.234061
542.674821	0.234916
543.034483	0.235260
543.394090	0.234971
543.753640	0.236498
544.113134	0.231976
544.472571	0.234995
544.831953	0.231820
545.191278	0.236280
545.550548	0.235365
545.909761	0.232469
546.268918	0.232965
546.628019	0.231177
546.987064	0.234075
547.346053	0.235788
547.704986	0.233886
548.063863	0.234132
548.422684	0.234185
548.781449	0.236119
549.140158	0.233609
549.498811	0.236401
549.857408	0.239630
550.215949	0.234529
550.574434	0.237489
550.932864	0.235333
551.291237	0.234039
551.649555	0.235450
552.007817	0.235063
552.366022	0.235858
552.724173	0.236257
553.082267	0.236865
553.440305	0.233513
553.798288	0.237848
554.156215	0.234631
554.514086	0.235107
554.871902	0.238183
555.229661	0.237556
555.587365	0.238101
555.945014	0.240578
556.302606	0.237563
556.660143	0.239968
557.017625	0.236395
557.375050	0.238818
557.732421	0.235728
558.089735	0.237974
558.446994	0.238114
558.804197	0.236960
559.161345	0.237182
559.518437	0.240194
559.875474	0.238306
560.232455	0.237606
560.589381	0.238324
560.946251	0.238957
561.303065	0.236462
561.659825	0.237906
562.016528	0.239295
562.373177	0.242147
562.729770	0.239298
563.086307	0.241513
563.442789	0.239380
563.799216	0.242238
564.155587	0.240886
564.511904	0.242008
564.868164	0.242349
565.224370	0.242042
565.580520	0.243696
565.936615	0.243395
566.292654	0.246358
566.648638	0.243578
567.004567	0.244460
567.360441	0.244995
567.716260	0.247128
568.072023	0.245063
568.427732	0.245594
568.783385	0.248308
569.138982	0.246263
569.494525	0.245839
569.850013	0.248856
570.205445	0.246970
570.560823	0.249903
570.916145	0.251669
571.271412	0.250112
571.626625	0.251309
571.981782	0.251904
572.336884	0.252849
572.691931	0.252233
573.046923	0.253608
573.401860	0.255198
573.756743	0.256388
574.111570	0.255468
574.466342	0.255662
574.821059	0.255001
575.175722	0.258051
575.530330	0.257640
575.884882	0.258090
576.239380	0.259674
576.593823	0.260223
576.948211	0.259999
577.302544	0.263167
577.656823	0.262654
578.011047	0.262761
578.365216	0.263688
578.719330	0.265286
579.073389	0.265310
579.427394	0.266683
579.781344	0.267379
580.135239	0.268926
580.489080	0.268614
580.842866	0.271525
581.196597	0.271428
581.550273	0.269801
581.903895	0.271287
582.257463	0.269103
582.610975	0.272647
582.964434	0.271707
583.317837	0.274315
583.671186	0.274703
584.024481	0.274735
584.377721	0.277318
584.730906	0.277882
585.084037	0.277392
585.437113	0.279234
585.790135	0.278225
586.143103	0.281418
586.496016	0.282794
586.848874	0.279913
587.201679	0.280868
587.554428	0.284208
587.907124	0.283091
588.259765	0.283448
588.612352	0.284083
588.964884	0.287746
589.317362	0.287423
589.669786	0.287541
590.022155	0.285878
590.374470	0.284962
590.726731	0.286960
591.078937	0.291712
591.431090	0.288077
591.783188	0.292392
592.135232	0.292592
592.487222	0.293167
592.839157	0.291028
593.191038	0.293412
593.542866	0.295580
593.894639	0.299157
594.246358	0.296757
594.598022	0.296247
594.949633	0.299990
595.301190	0.300490
595.652692	0.299918
596.004141	0.296054
596.355535	0.304100
596.706876	0.304300
597.058162	0.306901
597.409395	0.304470
597.760573	0.301940
598.111698	0.305087
598.462768	0.305851
598.813785	0.307169
599.164748	0.308193
599.515657	0.308181
599.866511	0.312135
600.217312	0.306975
600.568060	0.312791
600.918753	0.309209
601.269392	0.309842
601.619978	0.313096
601.970510	0.310936
602.320988	0.310980
602.671412	0.308616
603.021783	0.311419
603.372100	0.312416
603.722363	0.312122
604.072572	0.313040
604.422728	0.312939
604.772830	0.314721
605.122878	0.314699
605.472872	0.314989
605.822813	0.313203
606.172701	0.315955
606.522534	0.312997
606.872314	0.313200
607.222041	0.314314
607.571714	0.312436
607.921333	0.313953
608.270899	0.313586
608.620411	0.310380
608.969870	0.314178
609.319276	0.314169
609.668627	0.314222
610.017926	0.312639
610.367171	0.311235
610.716362	0.312063
611.065500	0.312451
611.414585	0.311126
611.763616	0.311394
612.112594	0.312211
612.461518	0.311415
612.810389	0.308970
613.159207	0.311885
613.507971	0.313352
613.856682	0.308967
614.205340	0.310528
614.553945	0.307675
614.902496	0.311257
615.250994	0.309798
615.599439	0.310069
615.947830	0.309498
616.296169	0.310450
616.644454	0.309831
616.992686	0.309618
617.340864	0.307780
617.688990	0.311782
618.037063	0.308346
618.385082	0.309828
618.733048	0.306992
619.080961	0.308963
619.428821	0.308636
619.776628	0.307961
620.124382	0.310290
620.472083	0.310194
620.819731	0.309889
621.167326	0.313617
621.514868	0.313425
621.862357	0.317620
622.209793	0.317146
622.557176	0.319578
622.904506	0.320561
623.251783	0.322875
623.599007	0.325447
623.946179	0.324663
624.293297	0.326705
624.640363	0.330715
624.987376	0.331162
625.334336	0.333779
625.681243	0.335974
626.028097	0.336222
626.374899	0.337775
626.721647	0.337855
627.068343	0.341186
627.414987	0.341999
627.761577	0.344222
628.108115	0.342436
628.454600	0.347636
628.801032	0.345158
629.147412	0.347149
629.493739	0.347344
629.840014	0.350605
630.186236	0.347955
630.532405	0.353079
630.878521	0.350862
631.224585	0.353085
631.570597	0.357290
631.916556	0.355344
632.262462	0.355864
632.608316	0.357275
632.954117	0.358175
633.299866	0.359191
633.645562	0.359580
633.991206	0.363693
634.336797	0.366987
634.682336	0.369593
635.027823	0.370857
635.373257	0.371226
635.718639	0.374755
636.063968	0.373810
636.409245	0.380088
636.754470	0.380179
637.099642	0.383078
637.444762	0.386274
637.789829	0.385235
638.134845	0.388908
638.479808	0.389863
638.824719	0.389411
639.169577	0.393465
639.514383	0.392566
639.859137	0.396487
640.203839	0.396556
640.548489	0.397009
640.893086	0.398332
641.237632	0.400165
641.582125	0.398447
641.926566	0.399701
642.270955	0.400384
642.615292	0.400540
642.959576	0.399387
643.303809	0.399925
643.647990	0.399620
643.992118	0.400282
644.336195	0.404228
644.680219	0.402368
645.024192	0.402283
645.368112	0.396473
645.711981	0.395467
646.055797	0.390519
646.399562	0.393069
646.743274	0.385376
647.086935	0.382290
647.430544	0.382917
647.774101	0.381620
648.117606	0.381195
648.461059	0.382016
648.804460	0.384194
649.147810	0.389760
649.491108	0.391230
649.834354	0.392357
650.177548	0.398645
650.520690	0.403236
650.863781	0.404582
651.206820	0.404069
651.549807	0.408576
651.892742	0.412162
652.235626	0.412182
652.578458	0.413324
652.921238	0.419521
653.263967	0.416917
653.606644	0.420928
653.949269	0.420837
654.291843	0.424317
654.634365	0.421948
654.976836	0.424362
655.319255	0.424418
655.661622	0.425685
656.003938	0.426437
656.346203	0.429402
656.688416	0.427060
657.030577	0.430389
657.372687	0.432489
657.714746	0.433475
658.056753	0.430282
658.398708	0.434121
658.740612	0.435326
659.082465	0.431235
659.424266	0.432174
659.766016	0.431273
660.107715	0.433877
660.449362	0.433543
660.790958	0.434013
661.132503	0.433903
661.473996	0.431557
661.815438	0.432607
662.156829	0.432857
662.498168	0.433452
662.839456	0.434832
663.180693	0.433376
663.521879	0.432742
663.863013	0.433842
664.204097	0.432423
664.545129	0.428793
664.886110	0.429316
665.227040	0.426910
665.567918	0.428858
665.908746	0.427467
666.249522	0.426810
666.590248	0.427870
666.930922	0.425829
667.271545	0.425326
667.612118	0.425352
667.952639	0.426890
668.293109	0.425827
668.633528	0.428126
668.973896	0.427803
669.314213	0.428780
669.654480	0.430147
669.994695	0.430603
670.334859	0.431006
670.674973	0.431447
671.015035	0.431740
671.355047	0.431853
671.695008	0.432761
672.034918	0.434772
672.374777	0.433631
672.714585	0.435231
673.054342	0.435066
673.394049	0.435026
673.733705	0.433297
674.073310	0.434286
674.412864	0.436497
674.752368	0.437371
675.091820	0.437623
675.431223	0.442072
675.770574	0.441750
676.109875	0.444571
676.449125	0.444823
676.788324	0.447405
677.127473	0.452908
677.466571	0.452114
677.805619	0.453915
678.144616	0.455573
678.483562	0.456875
678.822458	0.459323
679.161303	0.460793
679.500098	0.460670
679.838842	0.462560
680.177535	0.462253
680.516179	0.460344
680.854771	0.459816
681.193314	0.452935
681.531805	0.444001
681.870247	0.432421
682.208638	0.425607
682.546978	0.424131
682.885268	0.426186
683.223508	0.432618
683.561697	0.435609
683.899836	0.438979
684.237925	0.442247
684.575963	0.444651
684.913951	0.447715
685.251889	0.443142
685.589776	0.445776
685.927614	0.447965
686.265401	0.442173
686.603137	0.443695
686.940824	0.437601
687.278460	0.436153
687.616046	0.435517
687.953582	0.429768
688.291068	0.431126
688.628504	0.427231
688.965889	0.428860
689.303224	0.433786
689.640510	0.437120
689.977745	0.443020
690.314930	0.451383
690.652065	0.455663
690.989150	0.462952
691.326185	0.469481
691.663170	0.473908
692.000105	0.481420
692.336990	0.488337
692.673825	0.490773
693.010610	0.497710
693.347345	0.503302
693.684030	0.504738
694.020665	0.509712
694.357251	0.518815
694.693786	0.518355
695.030272	0.522298
695.366707	0.525698
695.703093	0.528856
696.039429	0.526316
696.375716	0.528631
696.711952	0.531324
697.048139	0.533662
697.384276	0.535306
697.720363	0.533645
698.056400	0.533106
698.392388	0.538486
698.728326	0.541383
699.064214	0.544250
699.400053	0.544648
699.735842	0.548889
700.071581	0.551228
700.407270	0.554130
700.742910	0.556904
701.078501	0.563248
701.414042	0.563483
701.749533	0.566656
702.084974	0.576048
702.420366	0.567667
702.755709	0.575982
703.091002	0.582948
703.426246	0.576487
703.761440	0.582404
704.096584	0.587004
704.431679	0.584113
704.766725	0.586561
705.101721	0.587750
705.436668	0.584177
705.771565	0.590936
706.106413	0.587972
706.441212	0.583307
706.775961	0.581961
707.110661	0.584625
707.445311	0.581178
707.779913	0.578186
708.114465	0.576365
708.448967	0.573996
708.783421	0.565366
709.117825	0.559922
709.452180	0.560045
709.786485	0.553296
710.120742	0.543152
710.454949	0.545826
710.789107	0.538037
711.123216	0.528411
711.457275	0.530443
711.791286	0.521128
712.125247	0.520121
712.459159	0.531324
712.793023	0.523574
713.126837	0.527933
713.460602	0.528203
713.794318	0.537463
714.127985	0.535778
714.461602	0.546458
714.795171	0.548953
715.128691	0.557768
715.462162	0.565202
715.795584	0.570508
716.128957	0.573379
716.462281	0.580200
716.795556	0.583433
717.128782	0.589019
717.461960	0.598452
717.795088	0.597060
718.128167	0.603169
718.461198	0.612317
718.794180	0.612222
719.127113	0.615072
719.459997	0.618983
719.792833	0.625133
720.125619	0.625874
720.458357	0.632148
720.791046	0.630798
721.123686	0.635591
721.456278	0.642209
721.788821	0.639181
722.121315	0.643392
722.453761	0.647395
722.786158	0.645538
723.118506	0.642080
723.450805	0.649267
723.783056	0.645512
724.115259	0.643882
724.447412	0.643008
724.779518	0.643790
725.111574	0.642980
725.443582	0.637999
725.775542	0.640103
726.107453	0.632838
726.439315	0.632515
726.771129	0.630791
727.102895	0.624104
727.434612	0.617868
727.766281	0.615475
728.097901	0.614382
728.429473	0.613948
728.760996	0.612770
729.092471	0.612906
729.423897	0.616097
729.755276	0.616074
730.086606	0.615174
730.417887	0.610135
730.749120	0.601018
731.080305	0.591005
731.411442	0.588064
731.742530	0.593062
732.073570	0.591239
732.404562	0.584648
732.735506	0.585321
733.066401	0.591011
733.397249	0.598939
733.728048	0.610582
734.058798	0.623785
734.389501	0.633960
734.720156	0.644008
735.050762	0.652456
735.381320	0.652874
735.711831	0.662464
736.042293	0.667404
736.372707	0.662930
736.703073	0.667515
737.033391	0.669908
737.363661	0.666907
737.693883	0.662085
738.024056	0.661328
738.354182	0.661842
738.684260	0.650340
739.014290	0.646658
739.344272	0.647112
739.674207	0.640506
740.004093	0.640021
740.333931	0.640360
740.663722	0.640702
740.993464	0.641179
741.323159	0.645114
741.652806	0.650068
741.982405	0.654503
742.311956	0.659339
742.641460	0.661412
742.970915	0.665349
743.300323	0.673179
743.629683	0.679673
743.958996	0.681093
744.288260	0.685932
744.617477	0.691297
744.946647	0.693338
745.275768	0.698761
745.604842	0.698414
745.933869	0.708027
746.262847	0.709209
746.591778	0.703245
746.920662	0.708592
747.249498	0.714309
747.578286	0.706400
747.907027	0.702206
748.235720	0.702995
748.564365	0.698226
748.892963	0.698130
749.221514	0.700514
749.550017	0.705479
749.878473	0.705678
750.206881	0.711442
750.535242	0.713471
750.863555	0.713458
751.191821	0.715153
751.520039	0.717723
751.848210	0.722058
752.176334	0.714745
752.504411	0.714423
752.832440	0.721834
753.160421	0.726705
753.488356	0.724075
753.816243	0.722538
754.144082	0.730582
754.471875	0.733458
754.799620	0.729381
755.127318	0.729864
755.454969	0.730205
755.782572	0.729069
756.110129	0.734402
756.437638	0.737141
756.765100	0.733769
757.092515	0.731656
757.419882	0.729761
757.747203	0.735963
758.074477	0.735136
758.401703	0.732555
758.728882	0.727305
759.056014	0.726525
759.383099	0.725165
759.710138	0.726516
760.037129	0.722847
760.364073	0.717273
760.690970	0.718897
761.017820	0.724977
761.344623	0.720484
761.671379	0.711032
761.998088	0.698929
762.324751	0.676994
762.651366	0.634539
762.977935	0.568073
763.304456	0.515111
763.630931	0.505411
763.957359	0.544618
764.283740	0.589065
764.610074	0.617530
764.936362	0.649036
765.262602	0.674771
765.588796	0.696683
765.914943	0.714145
766.241044	0.732796
766.567097	0.739034
766.893104	0.748897
767.219064	0.755662
767.544978	0.762172
767.870845	0.775847
768.196665	0.779010
768.522438	0.777756
768.848165	0.779246
769.173846	0.786985
769.499479	0.791609
769.825066	0.795306
770.150607	0.800310
770.476101	0.795760
770.801548	0.797169
771.126949	0.807825
771.452303	0.812607
771.777611	0.811620
772.102872	0.810732
772.428087	0.817038
772.753256	0.819369
773.078378	0.821917
773.403453	0.830605
773.728482	0.834585
774.053465	0.828881
774.378401	0.831158
774.703291	0.839822
775.028135	0.839949
775.352932	0.841765
775.677683	0.843720
776.002388	0.844583
776.327046	0.842844
776.651658	0.847702
776.976224	0.850191
777.300743	0.851578
777.625216	0.853325
777.949643	0.855549
778.274024	0.854887
778.598359	0.856559
778.922647	0.854860
779.246889	0.856105
779.571086	0.860903
779.895236	0.861675
780.219339	0.859225
780.543397	0.856920
780.867409	0.855918
781.191374	0.857983
781.515294	0.858238
781.839167	0.856373
782.162995	0.861458
782.486776	0.857476
782.810511	0.859069
783.134201	0.862210
783.457844	0.859689
783.781441	0.863886
784.104993	0.869164
784.428498	0.869659
784.751958	0.864748
785.075372	0.867032
785.398739	0.870700
785.722061	0.867581
786.045337	0.863251
786.368568	0.867058
786.691752	0.870391
787.014891	0.855039
787.337983	0.847801
787.661030	0.839462
787.984031	0.820823
788.306987	0.808721
788.629897	0.811102
788.952760	0.814857
789.275579	0.819728
789.598351	0.834694
789.921078	0.847569
790.243759	0.849907
790.566395	0.855302
790.888984	0.861380
791.211529	0.866696
791.534027	0.869824
791.856480	0.872856
792.178888	0.877417
792.501249	0.880539
792.823566	0.880541
793.145836	0.881285
793.468062	0.883768
793.790241	0.883533
794.112375	0.881335
794.434464	0.876799
794.756507	0.877074
795.078505	0.875529
795.400457	0.870060
795.722364	0.858247
796.044226	0.851501
796.366042	0.849405
796.687812	0.853701
797.009538	0.849199
797.331218	0.852175
797.652852	0.858339
797.974442	0.863144
798.295986	0.862563
798.617484	0.865282
798.938938	0.869763
799.260346	0.874282
799.581709	0.877136
799.903026	0.877301
800.224299	0.878769
800.545526	0.883004
800.866708	0.886484
801.187845	0.890607
801.508936	0.889680
801.829983	0.887735
802.150984	0.891313
802.471940	0.895449
802.792851	0.896346
803.113717	0.896333
803.434538	0.893900
803.755314	0.897195
804.076045	0.898288
804.396731	0.899085
804.717372	0.898396
805.037967	0.899951
805.358518	0.898887
805.679024	0.896192
805.999485	0.895454
806.319901	0.895607
806.640272	0.897563
806.960598	0.894056
807.280879	0.892012
807.601115	0.890371
807.921306	0.894917
808.241453	0.894668
808.561554	0.892036
808.881611	0.892799
809.201623	0.893983
809.521590	0.894329
809.841513	0.895553
810.161390	0.894818
810.481223	0.896005
810.801011	0.899259
811.120755	0.900847
811.440453	0.899995
811.760107	0.898932
812.079716	0.899680
812.399281	0.901888
812.718801	0.904665
813.038276	0.905377
813.357707	0.905374
813.677093	0.901992
813.996434	0.905457
814.315731	0.907303
814.634983	0.908971
814.954191	0.906424
815.273354	0.903740
815.592473	0.900846
815.911547	0.899864
816.230577	0.896448
816.549562	0.893476
816.868502	0.897408
817.187399	0.891497
817.506250	0.886943
817.825058	0.888676
818.143821	0.884376
818.462539	0.879113
818.781213	0.871356
819.099843	0.860643
819.418429	0.843700
819.736970	0.826869
820.055466	0.807073
820.373919	0.780893
820.692327	0.748648
821.010691	0.712180
821.329011	0.634159
821.647286	0.516433
821.965517	0.401488
822.283704	0.358613
822.601847	0.359292
822.919945	0.394875
823.237999	0.429717
823.556010	0.478080
823.873976	0.533844
824.191897	0.584971
824.509775	0.627497
824.827609	0.674465
825.145398	0.696993
825.463144	0.699357
825.780845	0.683057
826.098502	0.663231
826.416116	0.618152
826.733685	0.572557
827.051210	0.563682
827.368692	0.578380
827.686129	0.616849
828.003522	0.670575
828.320872	0.718888
828.638177	0.762713
828.955439	0.795324
829.272656	0.818787
829.589830	0.835974
829.906960	0.851494
830.224046	0.864253
830.541088	0.875847
830.858086	0.878655
831.175041	0.885980
831.491952	0.884757
831.808819	0.881503
832.125642	0.874513
832.442421	0.860516
832.759157	0.836914
833.075849	0.790644
833.392497	0.725986
833.709101	0.685040
834.025662	0.694177
834.342179	0.726033
834.658653	0.766155
834.975083	0.802055
835.291469	0.828613
835.607811	0.852644
835.924110	0.867557
836.240366	0.885282
836.556578	0.899438
836.872746	0.906475
837.188871	0.913468
837.504952	0.918525
837.820990	0.922884
838.136984	0.925181
838.452935	0.928402
838.768842	0.930474
839.084706	0.922686
839.400526	0.897082
839.716303	0.855879
840.032037	0.833890
840.347727	0.837055
840.663373	0.855541
840.978977	0.877465
841.294537	0.899995
841.610054	0.916905
841.925527	0.925257
842.240957	0.930803
842.556344	0.939353
842.871687	0.944558
843.186987	0.948421
843.502244	0.949404
843.817458	0.951607
844.132629	0.954371
844.447756	0.959727
844.762840	0.960972
845.077881	0.959054
845.392879	0.959015
845.707833	0.962338
846.022745	0.963809
846.337613	0.963897
846.652438	0.964952
846.967221	0.964004
847.281960	0.963328
847.596656	0.966640
847.911309	0.965748
848.225919	0.967084
848.540485	0.967428
848.855009	0.968841
849.169490	0.967231
849.483928	0.967819
849.798323	0.968000
850.112675	0.969828
850.426984	0.968512
850.741251	0.969455
851.055474	0.968527
851.369654	0.967820
851.683792	0.968671
851.997887	0.968117
852.311938	0.970198
852.625947	0.969509
852.939914	0.967847
853.253837	0.967172
853.567718	0.970251
853.881555	0.969303
854.195350	0.967156
854.509103	0.967599
854.822812	0.970123
855.136479	0.970276
855.450103	0.969630
855.763685	0.968257
856.077224	0.967615
856.390720	0.969832
856.704173	0.968492
857.017584	0.967046
857.330953	0.965648
857.644278	0.967674
857.957561	0.967021
858.270802	0.966821
858.584000	0.966542
858.897155	0.965846
859.210268	0.967260
859.523339	0.967184
859.836367	0.968342
860.149352	0.970137
860.462295	0.969283
860.775195	0.969054
861.088054	0.967863
861.400869	0.969207
861.713642	0.969249
862.026373	0.969360
862.339062	0.969703
862.651708	0.967289
862.964312	0.967388
863.276873	0.968838
863.589392	0.966554
863.901869	0.966256
864.214303	0.964173
864.526696	0.962553
864.839045	0.963696
865.151353	0.960874
865.463619	0.961087
865.775842	0.961252
866.088023	0.961546
866.400162	0.961820
866.712258	0.961481
867.024313	0.963188
867.336325	0.962844
867.648296	0.962506
867.960224	0.960860
868.272110	0.961648
868.583954	0.962090
868.895755	0.963363
869.207515	0.960727
869.519233	0.958315
869.830909	0.959779
870.142542	0.961436
870.454134	0.961193
870.765684	0.960393
871.077191	0.957292
871.388657	0.957771
871.700081	0.957137
872.011463	0.957325
872.322803	0.957255
872.634101	0.955946
872.945357	0.953203
873.256571	0.951405
873.567744	0.952092
873.878874	0.952390
874.189963	0.950108
874.501010	0.950246
874.812015	0.948378
875.122979	0.950355
875.433900	0.951871
875.744780	0.952184
876.055618	0.948758
876.366415	0.948456
876.677169	0.947706
876.987882	0.950346
877.298554	0.949264
877.609183	0.946302
877.919771	0.943896
878.230317	0.940927
878.540822	0.937965
878.851285	0.933429
879.161707	0.925325
879.472087	0.912282
879.782425	0.895784
880.092722	0.860741
880.402977	0.807462
880.713191	0.745557
881.023363	0.684788
881.333494	0.649554
881.643583	0.621157
881.953631	0.621645
882.263637	0.650367
882.573602	0.690195
882.883526	0.716270
883.193408	0.741284
883.503248	0.764522
883.813048	0.791816
884.122806	0.822378
884.432522	0.846180
884.742197	0.866273
885.051831	0.878615
885.361424	0.889073
885.670975	0.899826
885.980485	0.911982
886.289954	0.916921
886.599382	0.922066
886.908768	0.925858
887.218113	0.933364
887.527417	0.936748
887.836680	0.940601
888.145901	0.942255
888.455082	0.944682
888.764221	0.948424
889.073319	0.950669
889.382376	0.951334
889.691392	0.951799
890.000366	0.952014
890.309300	0.952770
890.618193	0.952350
890.927044	0.949744
891.235855	0.949728
891.544625	0.949125
891.853353	0.950423
892.162041	0.947143
892.470687	0.941461
892.779293	0.936399
893.087858	0.932017
893.396381	0.924031
893.704864	0.910100
894.013306	0.886521
894.321707	0.859083
894.630068	0.843738
894.938387	0.839252
895.246665	0.839461
895.554903	0.852016
895.863100	0.866416
896.171256	0.883106
896.479371	0.903269
896.787446	0.916325
897.095480	0.922303
897.403473	0.925869
897.711425	0.930410
898.019336	0.937768
898.327207	0.942107
898.635038	0.943606
898.942827	0.943081
899.250576	0.945617
899.558284	0.950686
899.865952	0.953377
900.173579	0.952832
900.481165	0.955169
900.788711	0.958120
901.096216	0.960596
901.403681	0.959302
901.711105	0.960327
902.018489	0.962389
902.325832	0.960997
902.633135	0.959710
902.940397	0.954237
903.247619	0.941674
903.554800	0.915006
903.861941	0.874393
904.169041	0.837303
904.476101	0.819809
904.783121	0.821440
905.090100	0.837252
905.397039	0.858905
905.703938	0.882173
906.010796	0.903292
906.317614	0.919825
906.624391	0.931519
906.931129	0.942214
907.237826	0.949793
907.544483	0.957007
907.851099	0.961246
908.157675	0.965997
908.464211	0.968666
908.770707	0.970263
909.077163	0.973162
909.383578	0.972486
909.689954	0.974731
909.996289	0.974257
910.302584	0.977459
910.608839	0.978493
910.915054	0.978217
911.221229	0.977384
911.527363	0.976600
911.833458	0.976269
912.139513	0.975755
912.445527	0.974492
912.751502	0.973049
913.057436	0.970121
913.363331	0.968848
913.669186	0.965256
913.975000	0.960000
914.280775	0.953579
914.586510	0.945081
914.892205	0.931894
915.197859	0.911167
915.503475	0.881874
915.809050	0.862863
916.114585	0.855778
916.420081	0.852380
916.725536	0.849113
917.030952	0.858136
917.336328	0.872381
917.641665	0.887470
917.946961	0.902617
918.252218	0.914936
918.557435	0.925178
918.862612	0.932335
919.167750	0.939577
919.472848	0.944637
919.777906	0.950071
920.082925	0.956474
920.387904	0.959313
920.692843	0.961365
920.997743	0.962148
921.302603	0.966402
921.607423	0.966845
921.912204	0.970702
922.216946	0.970529
922.521647	0.972393
922.826310	0.974256
923.130932	0.975350
923.435516	0.977449
923.740059	0.977925
924.044564	0.977974
924.349028	0.979993
924.653454	0.981306
924.957840	0.983274
925.262186	0.984079
925.566493	0.982712
925.870761	0.983628
926.174989	0.986861
926.479178	0.987512
926.783328	0.987219
927.087438	0.987136
927.391509	0.987530
927.695541	0.989808
927.999533	0.989149
928.303486	0.989667
928.607400	0.990758
928.911275	0.989700
929.215110	0.989874
929.518906	0.990214
929.822663	0.989100
930.126381	0.991318
930.430060	0.989088
930.733699	0.989367
931.037299	0.988518
931.340861	0.989595
931.644383	0.988278
931.947866	0.988776
932.251309	0.989545
932.554714	0.990326
932.858080	0.990066
933.161407	0.989107
933.464694	0.991534
933.767943	0.989324
934.071153	0.990692
934.374323	0.990662
934.677455	0.989695
934.980548	0.991279
935.283602	0.990101
935.586617	0.990300
935.889593	0.991387
936.192530	0.990265
936.495428	0.991282
936.798287	0.991034
937.101108	0.989532
937.403890	0.988053
937.706632	0.988988
938.009336	0.985422
938.312002	0.984850
938.614628	0.983986
938.917216	0.982929
939.219765	0.981095
939.522275	0.981775
939.824747	0.982912
940.127179	0.981854
940.429573	0.983795
940.731929	0.983812
941.034246	0.983496
941.336524	0.984899
941.638763	0.986118
941.940964	0.986439
942.243126	0.985903
942.545250	0.986942
942.847335	0.987235
943.149381	0.987860
943.451389	0.986753
943.753359	0.987169
944.055290	0.990094
944.357182	0.989437
944.659036	0.987729
944.960851	0.988687
945.262628	0.988856
945.564367	0.990334
945.866067	0.990158
946.167729	0.988477
946.469352	0.988180
946.770937	0.987618
947.072484	0.990676
947.373992	0.989360
947.675462	0.989709
947.976893	0.989047
948.278286	0.989712
948.579641	0.991369
948.880958	0.990457
949.182236	0.990693
949.483476	0.990900
949.784678	0.989948
950.085841	0.992096
950.386967	0.988747
950.688054	0.990089
950.989103	0.990011
951.290114	0.987452
951.591087	0.988318
951.892021	0.988595
952.192917	0.988504
952.493776	0.988009
952.794596	0.987272
953.095378	0.986608
953.396122	0.987274
953.696828	0.986454
953.997496	0.988643
954.298126	0.989476
954.598718	0.990280
954.899272	0.990668
955.199788	0.989628
955.500266	0.990732
955.800706	0.991686
956.101108	0.992826
956.401472	0.993060
956.701798	0.994934
957.002087	0.993094
957.302337	0.993300
957.602550	0.994026
957.902724	0.994772
958.202861	0.994314
958.502960	0.995146
958.803022	0.995074
959.103045	0.995793
959.403031	0.996217
959.702979	0.995365
960.002889	0.995079
960.302762	0.994695
960.602596	0.995959
960.902393	0.994848
961.202153	0.997123
961.501875	0.997236
961.801559	0.996096
962.101205	0.996080
962.400814	0.996424
962.700385	0.996313
962.999918	0.995771
963.299414	0.996085
963.598873	0.995345
963.898293	0.996130
964.197677	0.994969
964.497022	0.996419
964.796331	0.996986
965.095601	0.995353
965.394835	0.995802
965.694030	0.995169
965.993189	0.997139
966.292309	0.996559
966.591393	0.996694
966.890439	0.996286
967.189447	0.996079
967.488419	0.997386
967.787353	0.995929
968.086249	0.997645
968.385108	0.996837
968.683930	0.997024
968.982714	0.996898
969.281462	0.997105
969.580172	0.996259
969.878844	0.996226
970.177480	0.996303
970.476078	0.996917
970.774639	0.996159
971.073162	0.996321
971.371649	0.996675
971.670098	0.995458
971.968510	0.997784
972.266885	0.994981
972.565223	0.996522
972.863524	0.996431
973.161788	0.996094
973.460014	0.996535
973.758204	0.996053
974.056356	0.996034
974.354471	0.994371
974.652550	0.995737
974.950591	0.996420
975.248595	0.996233
975.546563	0.996399
975.844493	0.997284
976.142386	0.996063
976.440243	0.996668
976.738062	0.996288
977.035845	0.997452
977.333590	0.996767
977.631299	0.997632
977.928971	0.996741
978.226606	0.997917
978.524204	0.996487
978.821765	0.997690
979.119290	0.996485
979.416777	0.996749
979.714228	0.997445
980.011642	0.996797
980.309020	0.998023
980.606360	0.996361
980.903664	0.998384
981.200931	0.995568
981.498162	0.995376
981.795356	0.993909
982.092513	0.994644
982.389633	0.994579
982.686717	0.991913
982.983764	0.990346
983.280775	0.990407
983.577749	0.990841
983.874686	0.991077
984.171587	0.991509
984.468451	0.994415
984.765279	0.993311
985.062070	0.994007
985.358824	0.995409
985.655543	0.994307
985.952224	0.995874
986.248869	0.995621
986.545478	0.995750
986.842050	0.997951
987.138586	0.994722
987.435086	0.997021
987.731549	0.998782
988.027975	0.998021
988.324366	0.997180
988.620719	0.997637
988.917037	0.996453
989.213318	0.997381
989.509563	0.999112
989.805772	0.998651
990.101944	0.998758
990.398080	0.997507
990.694180	0.998054
990.990244	0.998349
991.286271	0.997391
991.582262	0.998353
991.878217	0.997461
992.174136	0.998522
992.470019	0.998930
992.765865	0.997055
993.061676	0.998061
993.357450	0.997297
993.653188	0.996034
993.948890	0.997137
994.244556	0.996517
994.540186	0.996800
994.835780	0.997504
995.131337	0.997911
995.426859	0.996026
995.722345	0.997131
996.017795	0.995996
996.313208	0.995694
996.608586	0.995680
996.903928	0.997160
997.199234	0.995264
997.494504	0.997431
997.789738	0.995898
998.084936	0.995702
998.380099	0.996956
998.675225	0.997065
998.970316	0.997606
999.265371	0.998508
999.560390	0.997620
999.855373	0.998265
1000.150320	0.997874
1000.445232	0.997680
1000.740108	0.998144
1001.034948	0.997869
1001.329752	0.999447
1001.624521	0.999887
1001.919254	0.997456
1002.213951	0.999264
1002.508613	0.997584
1002.803239	0.999931
1003.097829	0.998718
1003.392384	0.999428
1003.686903	0.998514
1003.981386	0.997902
1004.275834	0.998432
1004.570246	0.998618
1004.864623	0.998055
1005.158964	0.998971
1005.453270	0.997776
1005.747540	0.997120
1006.041775	0.998716
1006.335974	1.000016
1006.630138	0.999423
1006.924266	1.000052
1007.218359	0.999663
1007.512416	0.998625
1007.806438	0.999606
1008.100425	0.999768
1008.394376	0.998122
1008.688292	0.997570
1008.982172	1.001686
1009.276017	1.000097
1009.569827	0.998222
1009.863602	0.998551
1010.157341	0.998864
1010.451045	0.999960
1010.744714	0.998460
1011.038347	0.999350
1011.331945	0.998021
1011.625508	0.997371
1011.919036	0.998842
1012.212528	0.999591
1012.505986	0.998838
1012.799408	0.998888
1013.092795	0.999013
1013.386147	0.997790
1013.679464	0.999523
1013.972745	0.998679
1014.265992	0.997225
1014.559204	0.999417
1014.852380	0.999281
1015.145521	0.998720
1015.438628	0.999857
1015.731699	0.998207
1016.024736	0.999253
1016.317737	0.998149
1016.610703	0.998888
1016.903635	0.999824
1017.196531	0.998419
1017.489393	1.000139
1017.782219	0.998162
1018.075011	0.998600
1018.367768	0.997812
1018.660490	0.998850
1018.953177	0.998850
1019.245829	0.998850
