Dividing Wavelength (nm)	Counts (n)	Blue Motor Position (mm): 0.000000	Red Motor Position (mm): 39.800000	
326.493990	0.999647
326.888308	0.999647
327.282561	0.999647
327.676750	0.999510
328.070874	0.998560
328.464933	0.999998
328.858929	0.999362
329.252859	0.998646
329.646726	0.999297
330.040528	0.998854
330.434265	0.999832
330.827938	1.000814
331.221547	1.000642
331.615091	0.999441
332.008571	0.999454
332.401986	0.999414
332.795338	1.000878
333.188625	0.998009
333.581847	1.000976
333.975006	0.999152
334.368100	0.998447
334.761129	0.999997
335.154095	1.001048
335.546996	0.998020
335.939833	0.997721
336.332606	0.996163
336.725315	0.997846
337.117960	0.998898
337.510540	0.998285
337.903056	0.998704
338.295508	0.996892
338.687896	0.998136
339.080220	0.997436
339.472480	0.997632
339.864676	0.997722
340.256807	0.997186
340.648875	0.999088
341.040879	0.997829
341.432818	0.996902
341.824694	0.997633
342.216506	0.997349
342.608253	0.997321
342.999937	0.996435
343.391557	0.997321
343.783113	0.997961
344.174605	0.997633
344.566033	0.997789
344.957397	0.996475
345.348697	0.996965
345.739934	0.997139
346.131106	0.996635
346.522215	0.996664
346.913260	0.996898
347.304241	0.996948
347.695159	0.997239
348.086012	0.995838
348.476802	0.998482
348.867528	0.997835
349.258191	0.995941
349.648789	0.997753
350.039324	0.997322
350.429796	0.998041
350.820203	0.997639
351.210548	0.998040
351.600828	0.997741
351.991045	0.997484
352.381198	0.996755
352.771288	0.997252
353.161314	0.998478
353.551276	0.997098
353.941175	0.997106
354.331010	0.997202
354.720782	0.997569
355.110490	0.996355
355.500135	0.997336
355.889717	0.996990
356.279235	0.996405
356.668689	0.996646
357.058080	0.997588
357.447408	0.998247
357.836672	0.998911
358.225873	0.998573
358.615010	0.997813
359.004084	0.998710
359.393095	0.997675
359.782043	0.997230
360.170927	0.998008
360.559748	0.999225
360.948505	0.996969
361.337199	0.997891
361.725830	0.998254
362.114398	0.997294
362.502903	0.998327
362.891344	0.998177
363.279722	0.996994
363.668037	0.998537
364.056289	0.997572
364.444478	0.997337
364.832603	0.998304
365.220665	0.997048
365.608665	0.996507
365.996601	0.998029
366.384474	0.997302
366.772284	0.997748
367.160031	0.995946
367.547715	0.997084
367.935336	0.997626
368.322893	0.997178
368.710388	0.997290
369.097820	0.997798
369.485189	0.997186
369.872495	0.996982
370.259738	0.996465
370.646918	0.998961
371.034035	0.997793
371.421090	0.997146
371.808081	0.996521
372.195010	0.997785
372.581875	0.997880
372.968678	0.998297
373.355418	0.998014
373.742096	0.997225
374.128710	0.999623
374.515262	0.997090
374.901751	0.997111
375.288177	0.996960
375.674540	0.998143
376.060841	0.997192
376.447079	0.998285
376.833254	0.997099
377.219367	0.997663
377.605417	0.998053
377.991404	0.997783
378.377329	0.997405
378.763191	0.997474
379.148991	0.999071
379.534727	0.998657
379.920402	0.998039
380.306013	0.998078
380.691563	0.999041
381.077049	0.998263
381.462474	0.998413
381.847835	0.999252
382.233134	0.998122
382.618371	0.998194
383.003545	0.998505
383.388657	0.997746
383.773706	0.998555
384.158693	0.998822
384.543618	0.998063
384.928480	0.998643
385.313280	0.998753
385.698017	0.999321
386.082692	0.999227
386.467305	0.998202
386.851856	0.998974
387.236344	0.999160
387.620770	0.998255
388.005133	0.998889
388.389435	0.999150
388.773674	0.998506
389.157851	0.999298
389.541965	0.999080
389.926018	0.998210
390.310008	0.999826
390.693936	0.999496
391.077802	0.999257
391.461606	0.998148
391.845348	0.999519
392.229027	0.999840
392.612645	0.999302
392.996200	0.999993
393.379694	0.999001
393.763125	1.000955
394.146494	1.000619
394.529801	0.998711
394.913047	0.999383
395.296230	0.999193
395.679351	0.999097
396.062410	0.998555
396.445408	0.999502
396.828343	0.998632
397.211217	0.999084
397.594028	1.000242
397.976778	0.998691
398.359466	0.999131
398.742092	0.998562
399.124656	0.998578
399.507158	0.998971
399.889598	0.999656
400.271977	0.999346
400.654294	0.998703
401.036549	0.998885
401.418742	0.999883
401.800874	0.998332
402.182944	0.999045
402.564952	0.998086
402.946898	1.000069
403.328783	0.999551
403.710606	0.999116
404.092367	0.999423
404.474067	0.999902
404.855705	0.999615
405.237282	0.999831
405.618797	0.999411
406.000250	0.999336
406.381642	0.999819
406.762972	0.999450
407.144240	1.000682
407.525447	0.999846
407.906593	0.999992
408.287677	0.999734
408.668700	1.000404
409.049661	0.998621
409.430560	0.999529
409.811399	0.999310
410.192176	0.998660
410.572891	0.998870
410.953545	0.998724
411.334138	0.998583
411.714669	1.000323
412.095139	0.999708
412.475547	1.000250
412.855894	0.999290
413.236180	1.000609
413.616405	0.999313
413.996568	1.000441
414.376670	0.999883
414.756711	0.999920
415.136691	0.999927
415.516609	0.999342
415.896466	0.999545
416.276262	0.999051
416.655997	1.000202
417.035670	0.999396
417.415283	0.999897
417.794834	0.999915
418.174324	1.000470
418.553753	0.999751
418.933121	0.999625
419.312428	0.999712
419.691674	0.999829
420.070859	1.000571
420.449983	1.000392
420.829045	0.999609
421.208047	1.000178
421.586988	1.000420
421.965867	1.000107
422.344686	0.999982
422.723444	0.999844
423.102141	1.000263
423.480777	0.999792
423.859352	0.999890
424.237866	0.999418
424.616319	0.999662
424.994712	0.999797
425.373044	1.000127
425.751314	1.000110
426.129524	0.999383
426.507673	1.000422
426.885762	1.001020
427.263789	0.999920
427.641756	1.000426
428.019662	1.000979
428.397508	0.999331
428.775292	0.999925
429.153016	0.999481
429.530679	1.000929
429.908282	1.000196
430.285824	0.999045
430.663305	0.999588
431.040726	0.999925
431.418086	1.000376
431.795385	1.000429
432.172624	0.999876
432.549802	0.999852
432.926920	1.000324
433.303977	0.999426
433.680974	1.000732
434.057910	1.000394
434.434786	1.000567
434.811601	1.000062
435.188355	0.999427
435.565050	0.999409
435.941683	0.999708
436.318257	1.001284
436.694770	0.999395
437.071222	1.001153
437.447614	1.000378
437.823946	1.000486
438.200218	0.999389
438.576429	1.000301
438.952580	1.001242
439.328670	0.999736
439.704700	1.000827
440.080670	1.000517
440.456580	1.000473
440.832429	0.999586
441.208218	1.000667
441.583947	1.000406
441.959616	1.000879
442.335224	1.000224
442.710773	1.001327
443.086261	1.000638
443.461689	0.999595
443.837057	1.000765
444.212365	1.000256
444.587612	0.999996
444.962800	1.000227
445.337927	1.000373
445.712995	1.000133
446.088002	1.000330
446.462949	1.000894
446.837837	1.000479
447.212664	1.000392
447.587431	1.000437
447.962139	1.000143
448.336786	1.000171
448.711374	1.001358
449.085901	0.999945
449.460369	1.001090
449.834776	1.000784
450.209124	1.000615
450.583412	1.000181
450.957640	1.000076
451.331808	0.999797
451.705917	1.000687
452.079965	1.000527
452.453954	1.000210
452.827883	1.000454
453.201752	1.001004
453.575562	1.001090
453.949311	1.000750
454.323001	0.999897
454.696632	1.000433
455.070202	1.000112
455.443713	1.000286
455.817164	1.001308
456.190556	1.000454
456.563888	1.000316
456.937160	1.001846
457.310373	0.999915
457.683526	1.000212
458.056619	0.999956
458.429653	1.000773
458.802628	0.999902
459.175542	1.000076
459.548398	1.000709
459.921194	1.000172
460.293930	1.000527
460.666607	0.999475
461.039224	0.999632
461.411782	1.000183
461.784280	1.000135
462.156719	1.001047
462.529099	1.000413
462.901419	1.000658
463.273680	1.000100
463.645882	1.000580
464.018024	1.000794
464.390106	1.000705
464.762130	1.001587
465.134094	1.000939
465.505999	1.000975
465.877845	1.001028
466.249631	1.000834
466.621358	1.000741
466.993026	1.000827
467.364634	1.000676
467.736184	1.001192
468.107674	1.000463
468.479105	1.000365
468.850477	1.001227
469.221790	1.001253
469.593043	1.001141
469.964238	1.001090
470.335373	1.000529
470.706449	1.000658
471.077467	1.000846
471.448425	1.000735
471.819324	1.001772
472.190164	1.000096
472.560945	1.000750
472.931667	1.000325
473.302330	1.000172
473.672934	1.000893
474.043479	1.000957
474.413965	1.000092
474.784393	1.000618
475.154761	1.000389
475.525070	1.000176
475.895321	1.001210
476.265513	1.000498
476.635645	1.000265
477.005719	1.000850
477.375734	1.000839
477.745691	1.001112
478.115588	1.000908
478.485427	1.001119
478.855207	1.000669
479.224928	1.001543
479.594591	1.001101
479.964194	1.000874
480.333739	1.001020
480.703226	1.000526
481.072653	1.001260
481.442022	1.001525
481.811333	0.999599
482.180584	1.000974
482.549777	1.000601
482.918912	1.000529
483.287988	1.000886
483.657005	1.001141
484.025964	1.001438
484.394864	1.001409
484.763706	1.001070
485.132489	1.000900
485.501213	1.000265
485.869879	1.000671
486.238487	1.001311
486.607036	1.001121
486.975527	1.000101
487.343959	1.000163
487.712333	1.000022
488.080648	1.000602
488.448905	1.000753
488.817104	1.000392
489.185244	1.000506
489.553326	1.000599
489.921350	1.000741
490.289315	1.000983
490.657222	1.000796
491.025070	1.000974
491.392861	1.001178
491.760593	1.001075
492.128267	1.000435
492.495883	1.000938
492.863440	1.000587
493.230939	1.001499
493.598380	1.000918
493.965763	1.000547
494.333088	1.000915
494.700354	0.999683
495.067563	1.000656
495.434713	1.000070
495.801805	1.000850
496.168839	1.000716
496.535815	1.000681
496.902733	1.000399
497.269593	1.000453
497.636395	1.000353
498.003139	1.000182
498.369825	1.001022
498.736453	1.000513
499.103023	1.000325
499.469535	1.000228
499.835989	1.000304
500.202385	1.000551
500.568723	1.000721
500.935003	1.001365
501.301226	1.000524
501.667390	1.000494
502.033497	1.000480
502.399546	1.001065
502.765537	1.000678
503.131470	0.999993
503.497345	1.000147
503.863163	1.001307
504.228923	1.000645
504.594625	1.000906
504.960269	1.000936
505.325856	1.000654
505.691385	1.000592
506.056856	1.000048
506.422270	1.000951
506.787625	1.000335
507.152924	1.000398
507.518164	1.000213
507.883347	1.000623
508.248472	1.000583
508.613540	1.000802
508.978550	1.001190
509.343503	0.999945
509.708398	1.000765
510.073236	1.000534
510.438016	1.000108
510.802738	1.000094
511.167403	1.000489
511.532010	0.999931
511.896561	0.999568
512.261053	1.001286
512.625488	1.000016
512.989866	1.000046
513.354186	1.000237
513.718449	1.000602
514.082655	0.999741
514.446803	1.000650
514.810894	1.000526
515.174927	1.000345
515.538904	1.000507
515.902822	1.000562
516.266684	1.000139
516.630488	1.000199
516.994235	0.999643
517.357925	0.999492
517.721558	1.000385
518.085133	0.999539
518.448651	1.000972
518.812112	0.999860
519.175516	0.999753
519.538863	1.000237
519.902152	0.999830
520.265385	1.000213
520.628560	1.000034
520.991678	0.999684
521.354739	0.999876
521.717743	0.999931
522.080690	1.000295
522.443580	1.000132
522.806413	0.999496
523.169189	0.999645
523.531908	0.999584
523.894569	1.000454
524.257174	0.999928
524.619722	0.999819
524.982213	0.999459
525.344647	1.000490
525.707025	0.998853
526.069345	0.999221
526.431608	0.999848
526.793815	0.999680
527.155964	0.999235
527.518057	1.000192
527.880093	0.998748
528.242072	0.999184
528.603995	0.999277
528.965860	1.000237
529.327669	0.999364
529.689421	0.998877
530.051117	1.000050
530.412755	0.999497
530.774337	0.999557
531.135862	0.999299
531.497331	0.999436
531.858743	0.999686
532.220098	0.999466
532.581396	0.999735
532.942638	0.999278
533.303824	0.998771
533.664953	0.999663
534.026025	0.998910
534.387040	0.998411
534.747999	0.999619
535.108902	0.999340
535.469748	0.999378
535.830537	0.998918
536.191270	0.998904
536.551947	0.999004
536.912567	0.999410
537.273131	0.999418
537.633638	0.998488
537.994089	0.998595
538.354483	0.998812
538.714821	0.999004
539.075103	0.998728
539.435328	0.998801
539.795497	0.998884
540.155609	0.998264
540.515665	0.998693
540.875665	0.998253
541.235609	0.998867
541.595496	0.998404
541.955328	0.997851
542.315102	0.998965
542.674821	0.998531
543.034483	0.998190
543.394090	0.997999
543.753640	0.998737
544.113134	0.998276
544.472571	0.998884
544.831953	0.998826
545.191278	0.998286
545.550548	0.998894
545.909761	0.998283
546.268918	0.998254
546.628019	0.998867
546.987064	0.998506
547.346053	0.998557
547.704986	0.998879
548.063863	0.998069
548.422684	0.998154
548.781449	0.998392
549.140158	0.998039
549.498811	0.998173
549.857408	0.998089
550.215949	0.998337
550.574434	0.998018
550.932864	0.997822
551.291237	0.998153
551.649555	0.997311
552.007817	0.997074
552.366022	0.997311
552.724173	0.997929
553.082267	0.997490
553.440305	0.997210
553.798288	0.997578
554.156215	0.996665
554.514086	0.997164
554.871902	0.997211
555.229661	0.996428
555.587365	0.996662
555.945014	0.997240
556.302606	0.997205
556.660143	0.997245
557.017625	0.996743
557.375050	0.996776
557.732421	0.996433
558.089735	0.996645
558.446994	0.996938
558.804197	0.996701
559.161345	0.996655
559.518437	0.997009
559.875474	0.995565
560.232455	0.995300
560.589381	0.996027
560.946251	0.994699
561.303065	0.994954
561.659825	0.995069
562.016528	0.994439
562.373177	0.994934
562.729770	0.994448
563.086307	0.995196
563.442789	0.994592
563.799216	0.993576
564.155587	0.993659
564.511904	0.993346
564.868164	0.992859
565.224370	0.993424
565.580520	0.992791
565.936615	0.992616
566.292654	0.992005
566.648638	0.992413
567.004567	0.991566
567.360441	0.992241
567.716260	0.991799
568.072023	0.991343
568.427732	0.990749
568.783385	0.990644
569.138982	0.990342
569.494525	0.989683
569.850013	0.989835
570.205445	0.988982
570.560823	0.989111
570.916145	0.988406
571.271412	0.988178
571.626625	0.987361
571.981782	0.986867
572.336884	0.987039
572.691931	0.986625
573.046923	0.985300
573.401860	0.985729
573.756743	0.985029
574.111570	0.984253
574.466342	0.984770
574.821059	0.984448
575.175722	0.983435
575.530330	0.982593
575.884882	0.982092
576.239380	0.981978
576.593823	0.981473
576.948211	0.980642
577.302544	0.979841
577.656823	0.979500
578.011047	0.979307
578.365216	0.977700
578.719330	0.977220
579.073389	0.976562
579.427394	0.975756
579.781344	0.975785
580.135239	0.974855
580.489080	0.973689
580.842866	0.973191
581.196597	0.971315
581.550273	0.970594
581.903895	0.969908
582.257463	0.968919
582.610975	0.967581
582.964434	0.966975
583.317837	0.966883
583.671186	0.965497
584.024481	0.963657
584.377721	0.963505
584.730906	0.962495
585.084037	0.961885
585.437113	0.960685
585.790135	0.958723
586.143103	0.957379
586.496016	0.958132
586.848874	0.955638
587.201679	0.954748
587.554428	0.953790
587.907124	0.951714
588.259765	0.950570
588.612352	0.949804
588.964884	0.948826
589.317362	0.947423
589.669786	0.945165
590.022155	0.944184
590.374470	0.942503
590.726731	0.941761
591.078937	0.939551
591.431090	0.937466
591.783188	0.937273
592.135232	0.935679
592.487222	0.935258
592.839157	0.932703
593.191038	0.931619
593.542866	0.930062
593.894639	0.928800
594.246358	0.926788
594.598022	0.925113
594.949633	0.923940
595.301190	0.922087
595.652692	0.921168
596.004141	0.918668
596.355535	0.917137
596.706876	0.916024
597.058162	0.913586
597.409395	0.911964
597.760573	0.909364
598.111698	0.908559
598.462768	0.906051
598.813785	0.904912
599.164748	0.903010
599.515657	0.901422
599.866511	0.898645
600.217312	0.896975
600.568060	0.895967
600.918753	0.893454
601.269392	0.891552
601.619978	0.889312
601.970510	0.887215
602.320988	0.885812
602.671412	0.882354
603.021783	0.881678
603.372100	0.880991
603.722363	0.876989
604.072572	0.875090
604.422728	0.872886
604.772830	0.870842
605.122878	0.868086
605.472872	0.867516
605.822813	0.863888
606.172701	0.862300
606.522534	0.860562
606.872314	0.857742
607.222041	0.855281
607.571714	0.853925
607.921333	0.851239
608.270899	0.847732
608.620411	0.845962
608.969870	0.843693
609.319276	0.840855
609.668627	0.838302
610.017926	0.835204
610.367171	0.831830
610.716362	0.830457
611.065500	0.827405
611.414585	0.823568
611.763616	0.822749
612.112594	0.819919
612.461518	0.816611
612.810389	0.813970
613.159207	0.812080
613.507971	0.809604
613.856682	0.805842
614.205340	0.804349
614.553945	0.799411
614.902496	0.798356
615.250994	0.794825
615.599439	0.793011
615.947830	0.789299
616.296169	0.787873
616.644454	0.784024
616.992686	0.781755
617.340864	0.778540
617.688990	0.776878
618.037063	0.773464
618.385082	0.771148
618.733048	0.767397
619.080961	0.766221
619.428821	0.763438
619.776628	0.759201
620.124382	0.757979
620.472083	0.754730
620.819731	0.752869
621.167326	0.750891
621.514868	0.748148
621.862357	0.747726
622.209793	0.745655
622.557176	0.742754
622.904506	0.740505
623.251783	0.739087
623.599007	0.737929
623.946179	0.735112
624.293297	0.732372
624.640363	0.732419
624.987376	0.729132
625.334336	0.728661
625.681243	0.726266
626.028097	0.724459
626.374899	0.722809
626.721647	0.719344
627.068343	0.718815
627.414987	0.716452
627.761577	0.715330
628.108115	0.711867
628.454600	0.711645
628.801032	0.706393
629.147412	0.706915
629.493739	0.702977
629.840014	0.702669
630.186236	0.699020
630.532405	0.698809
630.878521	0.695076
631.224585	0.693721
631.570597	0.693473
631.916556	0.689631
632.262462	0.686974
632.608316	0.685798
632.954117	0.683566
633.299866	0.682059
633.645562	0.679545
633.991206	0.679981
634.336797	0.678843
634.682336	0.677519
635.027823	0.675355
635.373257	0.673896
635.718639	0.672832
636.063968	0.670066
636.409245	0.671014
636.754470	0.669182
637.099642	0.668377
637.444762	0.667112
637.789829	0.664428
638.134845	0.663917
638.479808	0.662333
638.824719	0.659948
639.169577	0.659607
639.514383	0.656719
639.859137	0.657163
640.203839	0.655894
640.548489	0.652562
640.893086	0.651873
641.237632	0.650998
641.582125	0.646923
641.926566	0.645687
642.270955	0.643967
642.615292	0.642325
642.959576	0.638892
643.303809	0.637787
643.647990	0.634914
643.992118	0.633576
644.336195	0.634036
644.680219	0.629936
645.024192	0.629484
645.368112	0.623179
645.711981	0.620492
646.055797	0.615386
646.399562	0.616169
646.743274	0.608048
647.086935	0.605517
647.430544	0.603405
647.774101	0.600657
648.117606	0.598964
648.461059	0.597148
648.804460	0.595552
649.147810	0.597980
649.491108	0.596526
649.834354	0.595572
650.177548	0.597157
650.520690	0.598648
650.863781	0.598358
651.206820	0.594873
651.549807	0.596449
651.892742	0.596903
652.235626	0.594744
652.578458	0.593522
652.921238	0.596015
653.263967	0.593148
653.606644	0.594906
653.949269	0.592374
654.291843	0.593860
654.634365	0.588952
654.976836	0.589590
655.319255	0.588553
655.661622	0.588631
656.003938	0.585543
656.346203	0.586787
656.688416	0.583812
657.030577	0.584836
657.372687	0.584480
657.714746	0.583038
658.056753	0.579341
658.398708	0.580882
658.740612	0.580692
659.082465	0.575320
659.424266	0.574987
659.766016	0.572121
660.107715	0.572839
660.449362	0.570532
660.790958	0.568920
661.132503	0.567666
661.473996	0.565183
661.815438	0.564266
662.156829	0.562593
662.498168	0.562198
662.839456	0.562296
663.180693	0.558783
663.521879	0.557219
663.863013	0.556862
664.204097	0.554251
664.545129	0.550708
664.886110	0.549678
665.227040	0.545378
665.567918	0.547795
665.908746	0.545053
666.249522	0.542669
666.590248	0.543113
666.930922	0.540692
667.271545	0.537955
667.612118	0.537473
667.952639	0.537674
668.293109	0.534228
668.633528	0.535810
668.973896	0.534462
669.314213	0.533136
669.654480	0.533510
669.994695	0.532727
670.334859	0.532217
670.674973	0.530890
671.015035	0.530121
671.355047	0.528207
671.695008	0.529291
672.034918	0.529657
672.374777	0.527936
672.714585	0.528188
673.054342	0.526925
673.394049	0.526523
673.733705	0.523298
674.073310	0.522368
674.412864	0.524860
674.752368	0.523642
675.091820	0.522860
675.431223	0.526180
675.770574	0.524203
676.109875	0.525615
676.449125	0.524083
676.788324	0.525466
677.127473	0.529126
677.466571	0.527612
677.805619	0.527873
678.144616	0.527951
678.483562	0.528268
678.822458	0.529324
679.161303	0.530508
679.500098	0.529060
679.838842	0.529973
680.177535	0.528745
680.516179	0.526724
680.854771	0.525580
681.193314	0.519361
681.531805	0.511192
681.870247	0.500726
682.208638	0.493894
682.546978	0.491639
682.885268	0.492490
683.223508	0.497047
683.561697	0.499700
683.899836	0.500899
684.237925	0.503694
684.575963	0.505627
684.913951	0.508209
685.251889	0.503383
685.589776	0.504944
685.927614	0.507181
686.265401	0.500370
686.603137	0.501578
686.940824	0.496302
687.278460	0.494424
687.616046	0.494401
687.953582	0.489337
688.291068	0.490932
688.628504	0.485971
688.965889	0.487203
689.303224	0.490399
689.640510	0.492881
689.977745	0.497360
690.314930	0.503387
690.652065	0.506465
690.989150	0.512960
691.326185	0.517725
691.663170	0.520775
692.000105	0.526541
692.336990	0.532274
692.673825	0.533903
693.010610	0.539809
693.347345	0.544154
693.684030	0.545079
694.020665	0.548913
694.357251	0.556896
694.693786	0.556485
695.030272	0.559764
695.366707	0.561936
695.703093	0.565030
696.039429	0.562164
696.375716	0.563450
696.711952	0.566381
697.048139	0.567189
697.384276	0.569305
697.720363	0.567062
698.056400	0.565777
698.392388	0.570809
698.728326	0.573712
699.064214	0.576127
699.400053	0.576567
699.735842	0.579104
700.071581	0.581350
700.407270	0.583347
700.742910	0.585468
701.078501	0.591164
701.414042	0.591114
701.749533	0.593605
702.084974	0.601731
702.420366	0.594001
702.755709	0.601076
703.091002	0.607438
703.426246	0.601299
703.761440	0.606331
704.096584	0.611075
704.431679	0.607577
704.766725	0.609600
705.101721	0.611080
705.436668	0.606703
705.771565	0.613697
706.106413	0.610163
706.441212	0.606036
706.775961	0.603948
707.110661	0.606576
707.445311	0.603061
707.779913	0.599878
708.114465	0.598218
708.448967	0.594927
708.783421	0.587001
709.117825	0.581928
709.452180	0.581992
709.786485	0.575722
710.120742	0.566611
710.454949	0.567839
710.789107	0.561058
711.123216	0.552645
711.457275	0.554550
711.791286	0.545254
712.125247	0.544467
712.459159	0.555147
712.793023	0.547222
713.126837	0.550637
713.460602	0.550843
713.794318	0.559846
714.127985	0.558071
714.461602	0.567780
714.795171	0.570084
715.128691	0.577103
715.462162	0.583971
715.795584	0.588788
716.128957	0.592012
716.462281	0.597991
716.795556	0.600785
717.128782	0.605889
717.461960	0.614695
717.795088	0.613107
718.128167	0.618912
718.461198	0.627150
718.794180	0.627745
719.127113	0.630318
719.459997	0.633687
719.792833	0.640114
720.125619	0.641407
720.458357	0.646440
720.791046	0.645341
721.123686	0.649226
721.456278	0.655871
721.788821	0.652449
722.121315	0.657050
722.453761	0.661571
722.786158	0.658429
723.118506	0.654532
723.450805	0.663475
723.783056	0.659512
724.115259	0.657227
724.447412	0.655443
724.779518	0.657846
725.111574	0.656163
725.443582	0.651289
725.775542	0.653896
726.107453	0.645639
726.439315	0.645679
726.771129	0.644667
727.102895	0.638178
727.434612	0.631115
727.766281	0.628623
728.097901	0.628050
728.429473	0.628248
728.760996	0.626542
729.092471	0.625929
729.423897	0.629885
729.755276	0.628935
730.086606	0.628516
730.417887	0.622891
730.749120	0.614566
731.080305	0.604884
731.411442	0.601313
731.742530	0.605386
732.073570	0.605193
732.404562	0.597638
732.735506	0.599025
733.066401	0.603054
733.397249	0.612700
733.728048	0.623489
734.058798	0.635202
734.389501	0.645707
734.720156	0.655435
735.050762	0.662456
735.381320	0.663627
735.711831	0.673432
736.042293	0.677782
736.372707	0.673206
736.703073	0.677477
737.033391	0.679812
737.363661	0.676629
737.693883	0.672034
738.024056	0.671521
738.354182	0.671805
738.684260	0.661212
739.014290	0.657300
739.344272	0.658070
739.674207	0.650910
740.004093	0.651171
740.333931	0.651930
740.663722	0.651335
740.993464	0.651864
741.323159	0.655480
741.652806	0.660266
741.982405	0.665562
742.311956	0.669701
742.641460	0.671019
742.970915	0.675671
743.300323	0.682556
743.629683	0.688688
743.958996	0.690581
744.288260	0.695186
744.617477	0.700509
744.946647	0.702527
745.275768	0.707935
745.604842	0.707767
745.933869	0.716995
746.262847	0.717994
746.591778	0.711553
746.920662	0.717551
747.249498	0.723581
747.578286	0.714822
747.907027	0.711560
748.235720	0.712143
748.564365	0.707521
748.892963	0.706256
749.221514	0.709224
749.550017	0.714454
749.878473	0.713715
750.206881	0.721071
750.535242	0.721999
750.863555	0.721203
751.191821	0.722526
751.520039	0.725893
751.848210	0.730771
752.176334	0.723094
752.504411	0.722563
752.832440	0.730048
753.160421	0.733677
753.488356	0.732727
753.816243	0.729897
754.144082	0.738313
754.471875	0.741542
754.799620	0.737317
755.127318	0.738525
755.454969	0.738076
755.782572	0.738409
756.110129	0.742457
756.437638	0.745129
756.765100	0.741870
757.092515	0.740352
757.419882	0.738592
757.747203	0.743628
758.074477	0.743152
758.401703	0.740286
758.728882	0.735771
759.056014	0.735051
759.383099	0.733514
759.710138	0.734482
760.037129	0.731056
760.364073	0.725228
760.690970	0.727218
761.017820	0.733550
761.344623	0.728104
761.671379	0.720557
761.998088	0.708192
762.324751	0.686229
762.651366	0.645318
762.977935	0.580208
763.304456	0.528338
763.630931	0.518139
763.957359	0.557215
764.283740	0.601077
764.610074	0.627508
764.936362	0.658836
765.262602	0.685026
765.588796	0.705066
765.914943	0.722813
766.241044	0.740074
766.567097	0.746431
766.893104	0.756226
767.219064	0.763453
767.544978	0.768690
767.870845	0.782254
768.196665	0.786698
768.522438	0.784157
768.848165	0.785020
769.173846	0.794888
769.499479	0.798870
769.825066	0.802394
770.150607	0.807217
770.476101	0.802385
770.801548	0.803781
771.126949	0.814610
771.452303	0.818461
771.777611	0.818506
772.102872	0.816553
772.428087	0.821552
772.753256	0.826060
773.078378	0.827103
773.403453	0.836462
773.728482	0.840999
774.053465	0.833379
774.378401	0.837196
774.703291	0.845477
775.028135	0.845176
775.352932	0.846458
775.677683	0.850262
776.002388	0.849756
776.327046	0.849920
776.651658	0.853477
776.976224	0.856522
777.300743	0.855777
777.625216	0.859277
777.949643	0.860384
778.274024	0.859606
778.598359	0.861563
778.922647	0.859730
779.246889	0.861184
779.571086	0.864831
779.895236	0.867765
780.219339	0.864048
780.543397	0.860851
780.867409	0.860169
781.191374	0.862280
781.515294	0.863406
781.839167	0.863233
782.162995	0.866801
782.486776	0.863855
782.810511	0.864236
783.134201	0.867344
783.457844	0.865242
783.781441	0.867736
784.104993	0.873426
784.428498	0.873949
784.751958	0.870055
785.075372	0.872126
785.398739	0.876101
785.722061	0.871673
786.045337	0.867900
786.368568	0.873177
786.691752	0.875478
787.014891	0.861380
787.337983	0.852087
787.661030	0.845559
787.984031	0.827561
788.306987	0.815239
788.629897	0.817412
788.952760	0.821113
789.275579	0.825150
789.598351	0.840476
789.921078	0.853887
790.243759	0.855534
790.566395	0.859786
790.888984	0.867589
791.211529	0.872646
791.534027	0.874219
791.856480	0.877862
792.178888	0.882331
792.501249	0.885773
792.823566	0.885293
793.145836	0.886854
793.468062	0.887811
793.790241	0.887717
794.112375	0.886210
794.434464	0.881572
794.756507	0.881577
795.078505	0.881004
795.400457	0.874889
795.722364	0.864219
796.044226	0.857209
796.366042	0.855496
796.687812	0.859902
797.009538	0.855432
797.331218	0.857802
797.652852	0.863884
797.974442	0.868446
798.295986	0.867572
798.617484	0.870552
798.938938	0.875357
799.260346	0.879933
799.581709	0.881746
799.903026	0.884377
800.224299	0.884681
800.545526	0.888231
800.866708	0.892352
801.187845	0.896292
801.508936	0.895451
801.829983	0.892542
802.150984	0.896389
802.471940	0.900993
802.792851	0.900153
803.113717	0.901305
803.434538	0.899181
803.755314	0.901809
804.076045	0.903944
804.396731	0.903187
804.717372	0.902938
805.037967	0.905164
805.358518	0.902963
805.679024	0.899957
805.999485	0.901043
806.319901	0.900591
806.640272	0.901637
806.960598	0.899629
807.280879	0.897128
807.601115	0.896026
807.921306	0.899373
808.241453	0.900660
808.561554	0.896597
808.881611	0.897111
809.201623	0.899948
809.521590	0.899372
809.841513	0.900954
810.161390	0.899256
810.481223	0.901860
810.801011	0.904552
811.120755	0.906196
811.440453	0.905159
811.760107	0.903772
812.079716	0.903645
812.399281	0.908394
812.718801	0.909103
813.038276	0.910901
813.357707	0.909585
813.677093	0.906477
813.996434	0.909999
814.315731	0.912042
814.634983	0.913250
814.954191	0.911237
815.273354	0.909016
815.592473	0.904705
815.911547	0.904863
816.230577	0.902141
816.549562	0.900408
816.868502	0.901660
817.187399	0.896364
817.506250	0.891842
817.825058	0.893649
818.143821	0.889874
818.462539	0.885984
818.781213	0.877232
819.099843	0.866823
819.418429	0.852380
819.736970	0.834520
820.055466	0.814782
820.373919	0.791055
820.692327	0.758732
821.010691	0.724805
821.329011	0.649698
821.647286	0.537327
821.965517	0.424976
822.283704	0.383289
822.601847	0.385189
822.919945	0.420683
823.237999	0.452657
823.556010	0.498446
823.873976	0.552746
824.191897	0.602526
824.509775	0.644128
824.827609	0.688487
825.145398	0.711073
825.463144	0.712711
825.780845	0.696718
826.098502	0.677342
826.416116	0.633286
826.733685	0.590496
827.051210	0.582519
827.368692	0.596730
827.686129	0.633211
828.003522	0.685466
828.320872	0.730849
828.638177	0.774389
828.955439	0.805582
829.272656	0.827781
829.589830	0.844242
829.906960	0.859568
830.224046	0.871666
830.541088	0.881844
830.858086	0.885865
831.175041	0.891314
831.491952	0.891904
831.808819	0.887697
832.125642	0.880870
832.442421	0.867297
832.759157	0.846146
833.075849	0.800953
833.392497	0.738741
833.709101	0.697641
834.025662	0.708217
834.342179	0.738726
834.658653	0.777481
834.975083	0.811397
835.291469	0.838025
835.607811	0.859936
835.924110	0.874841
836.240366	0.892800
836.556578	0.905224
836.872746	0.912873
837.188871	0.919259
837.504952	0.924292
837.820990	0.928133
838.136984	0.930577
838.452935	0.933842
838.768842	0.934478
839.084706	0.928937
839.400526	0.902931
839.716303	0.863655
840.032037	0.843331
840.347727	0.845526
840.663373	0.863718
840.978977	0.883832
841.294537	0.906103
841.610054	0.921462
841.925527	0.930150
842.240957	0.935531
842.556344	0.942881
842.871687	0.949740
843.186987	0.953595
843.502244	0.954418
843.817458	0.955273
844.132629	0.958446
844.447756	0.964287
844.762840	0.962464
845.077881	0.961917
845.392879	0.962686
845.707833	0.965499
846.022745	0.968005
846.337613	0.967896
846.652438	0.969667
846.967221	0.966684
847.281960	0.967421
847.596656	0.971224
847.911309	0.968206
848.225919	0.969864
848.540485	0.970934
848.855009	0.971501
849.169490	0.971981
849.483928	0.971990
849.798323	0.971252
850.112675	0.972317
850.426984	0.972642
850.741251	0.972461
851.055474	0.973001
851.369654	0.969158
851.683792	0.972062
851.997887	0.971669
852.311938	0.972431
852.625947	0.972141
852.939914	0.970106
853.253837	0.970913
853.567718	0.974359
853.881555	0.973154
854.195350	0.970004
854.509103	0.972297
854.822812	0.972792
855.136479	0.971909
855.450103	0.972484
855.763685	0.971444
856.077224	0.970484
856.390720	0.973303
856.704173	0.973082
857.017584	0.971047
857.330953	0.969984
857.644278	0.970208
857.957561	0.971583
858.270802	0.970756
858.584000	0.970070
858.897155	0.969668
859.210268	0.970335
859.523339	0.971275
859.836367	0.973246
860.149352	0.973809
860.462295	0.970725
860.775195	0.972747
861.088054	0.972602
861.400869	0.972148
861.713642	0.972973
862.026373	0.972421
862.339062	0.973282
862.651708	0.970275
862.964312	0.970993
863.276873	0.972361
863.589392	0.972226
863.901869	0.968534
864.214303	0.968080
864.526696	0.966851
864.839045	0.966236
865.151353	0.965388
865.463619	0.964540
865.775842	0.966084
866.088023	0.965185
866.400162	0.965482
866.712258	0.965128
867.024313	0.966260
867.336325	0.966880
867.648296	0.966956
867.960224	0.965363
868.272110	0.965052
868.583954	0.967320
868.895755	0.967686
869.207515	0.964787
869.519233	0.963946
869.830909	0.963763
870.142542	0.965047
870.454134	0.964239
870.765684	0.963926
871.077191	0.961627
871.388657	0.961490
871.700081	0.961442
872.011463	0.962075
872.322803	0.961160
872.634101	0.959888
872.945357	0.957700
873.256571	0.958019
873.567744	0.956260
873.878874	0.956592
874.189963	0.956021
874.501010	0.954952
874.812015	0.953200
875.122979	0.955578
875.433900	0.956971
875.744780	0.957740
876.055618	0.954915
876.366415	0.954167
876.677169	0.952577
876.987882	0.955030
877.298554	0.955534
877.609183	0.950566
877.919771	0.949572
878.230317	0.946727
878.540822	0.944064
878.851285	0.939091
879.161707	0.933225
879.472087	0.921162
879.782425	0.905764
880.092722	0.873401
880.402977	0.822420
880.713191	0.765229
881.023363	0.708032
881.333494	0.676157
881.643583	0.648799
881.953631	0.647906
882.263637	0.676006
882.573602	0.714651
882.883526	0.739590
883.193408	0.761647
883.503248	0.783494
883.813048	0.809134
884.122806	0.837822
884.432522	0.860253
884.742197	0.878922
885.051831	0.889090
885.361424	0.898673
885.670975	0.909691
885.980485	0.919700
886.289954	0.924967
886.599382	0.930723
886.908768	0.934054
887.218113	0.939916
887.527417	0.943255
887.836680	0.946756
888.145901	0.947507
888.455082	0.951321
888.764221	0.955085
889.073319	0.955907
889.382376	0.957895
889.691392	0.957719
890.000366	0.956026
890.309300	0.957931
890.618193	0.957213
890.927044	0.955407
891.235855	0.955356
891.544625	0.955255
891.853353	0.956888
892.162041	0.953900
892.470687	0.947726
892.779293	0.942705
893.087858	0.938212
893.396381	0.931935
893.704864	0.918614
894.013306	0.897236
894.321707	0.870935
894.630068	0.857679
894.938387	0.853543
895.246665	0.855724
895.554903	0.866783
895.863100	0.878267
896.171256	0.894545
896.479371	0.913815
896.787446	0.925457
897.095480	0.931722
897.403473	0.933518
897.711425	0.937580
898.019336	0.944709
898.327207	0.946771
898.635038	0.949653
898.942827	0.950487
899.250576	0.953027
899.558284	0.955824
899.865952	0.957705
900.173579	0.959998
900.481165	0.958680
900.788711	0.962882
901.096216	0.965711
901.403681	0.964813
901.711105	0.966458
902.018489	0.966751
902.325832	0.965210
902.633135	0.965828
902.940397	0.960236
903.247619	0.948658
903.554800	0.925198
903.861941	0.887331
904.169041	0.854127
904.476101	0.837978
904.783121	0.839279
905.090100	0.854186
905.397039	0.874190
905.703938	0.895215
906.010796	0.913768
906.317614	0.929016
906.624391	0.940674
906.931129	0.948775
907.237826	0.956365
907.544483	0.962704
907.851099	0.965846
908.157675	0.971915
908.464211	0.974169
908.770707	0.977511
909.077163	0.977584
909.383578	0.977959
909.689954	0.978710
909.996289	0.978145
910.302584	0.981473
910.608839	0.983383
910.915054	0.981652
911.221229	0.979632
911.527363	0.979551
911.833458	0.980687
912.139513	0.980167
912.445527	0.978581
912.751502	0.976994
913.057436	0.975591
913.363331	0.973194
913.669186	0.969573
913.975000	0.965604
914.280775	0.959698
914.586510	0.954432
914.892205	0.941965
915.197859	0.921291
915.503475	0.895376
915.809050	0.877557
916.114585	0.874055
916.420081	0.871347
916.725536	0.867508
917.030952	0.875032
917.336328	0.887307
917.641665	0.900538
917.946961	0.915536
918.252218	0.926552
918.557435	0.934499
918.862612	0.943114
919.167750	0.947624
919.472848	0.951467
919.777906	0.958791
920.082925	0.963025
920.387904	0.966334
920.692843	0.967818
920.997743	0.967219
921.302603	0.970791
921.607423	0.973660
921.912204	0.975128
922.216946	0.974626
922.521647	0.977589
922.826310	0.979189
923.130932	0.979529
923.435516	0.980829
923.740059	0.981429
924.044564	0.981217
924.349028	0.982232
924.653454	0.985379
924.957840	0.987616
925.262186	0.986935
925.566493	0.986626
925.870761	0.987375
926.174989	0.989296
926.479178	0.990408
926.783328	0.990494
927.087438	0.990477
927.391509	0.989682
927.695541	0.993054
927.999533	0.991720
928.303486	0.991334
928.607400	0.993475
928.911275	0.992399
929.215110	0.992044
929.518906	0.992393
929.822663	0.991943
930.126381	0.993231
930.430060	0.992925
930.733699	0.992118
931.037299	0.991588
931.340861	0.993282
931.644383	0.991950
931.947866	0.991517
932.251309	0.993449
932.554714	0.993403
932.858080	0.992474
933.161407	0.992420
933.464694	0.993030
933.767943	0.992185
934.071153	0.992926
934.374323	0.994631
934.677455	0.992885
934.980548	0.992618
935.283602	0.992545
935.586617	0.993516
935.889593	0.992597
936.192530	0.992536
936.495428	0.993471
936.798287	0.992732
937.101108	0.993105
937.403890	0.990404
937.706632	0.991025
938.009336	0.990467
938.312002	0.987867
938.614628	0.987738
938.917216	0.986289
939.219765	0.984257
939.522275	0.985633
939.824747	0.986417
940.127179	0.985889
940.429573	0.987896
940.731929	0.986319
941.034246	0.987291
941.336524	0.988160
941.638763	0.987437
941.940964	0.988740
942.243126	0.989046
942.545250	0.990244
942.847335	0.990921
943.149381	0.990873
943.451389	0.991113
943.753359	0.990613
944.055290	0.993558
944.357182	0.991870
944.659036	0.990664
944.960851	0.991078
945.262628	0.991195
945.564367	0.993355
945.866067	0.992201
946.167729	0.992075
946.469352	0.992091
946.770937	0.990651
947.072484	0.993538
947.373992	0.992682
947.675462	0.992827
947.976893	0.992266
948.278286	0.991225
948.579641	0.993972
948.880958	0.994194
949.182236	0.992700
949.483476	0.992250
949.784678	0.992069
950.085841	0.993067
950.386967	0.993770
950.688054	0.992495
950.989103	0.993484
951.290114	0.991691
951.591087	0.991319
951.892021	0.992209
952.192917	0.992825
952.493776	0.989719
952.794596	0.991129
953.095378	0.990179
953.396122	0.989780
953.696828	0.990157
953.997496	0.991476
954.298126	0.993161
954.598718	0.992168
954.899272	0.992610
955.199788	0.992087
955.500266	0.994777
955.800706	0.994833
956.101108	0.994885
956.401472	0.995357
956.701798	0.995384
957.002087	0.994838
957.302337	0.995692
957.602550	0.994844
957.902724	0.997064
958.202861	0.996119
958.502960	0.996560
958.803022	0.995060
959.103045	0.997371
959.403031	0.997450
959.702979	0.996489
960.002889	0.998132
960.302762	0.996874
960.602596	0.997423
960.902393	0.996215
961.202153	0.998939
961.501875	0.997395
961.801559	0.995987
962.101205	0.997631
962.400814	0.996966
962.700385	0.998054
962.999918	0.997671
963.299414	0.998590
963.598873	0.996645
963.898293	0.996367
964.197677	0.997034
964.497022	0.997646
964.796331	0.999115
965.095601	0.997913
965.394835	0.999090
965.694030	0.998412
965.993189	0.999338
966.292309	0.997841
966.591393	0.998503
966.890439	0.999850
967.189447	0.998466
967.488419	0.998061
967.787353	0.997731
968.086249	0.998160
968.385108	0.998142
968.683930	0.999019
968.982714	0.999091
969.281462	0.997817
969.580172	0.998291
969.878844	0.996926
970.177480	0.997651
970.476078	0.999139
970.774639	0.998152
971.073162	0.999569
971.371649	0.998091
971.670098	0.997639
971.968510	0.998578
972.266885	0.996294
972.565223	0.997942
972.863524	0.997095
973.161788	0.997795
973.460014	0.997941
973.758204	0.996931
974.056356	0.998444
974.354471	0.996742
974.652550	0.997506
974.950591	0.997850
975.248595	0.996613
975.546563	0.997625
975.844493	0.998607
976.142386	0.997147
976.440243	0.997985
976.738062	0.997990
977.035845	0.998871
977.333590	0.997725
977.631299	0.998153
977.928971	0.997202
978.226606	0.998469
978.524204	0.996501
978.821765	0.999512
979.119290	0.998239
979.416777	0.997329
979.714228	0.998085
980.011642	0.997347
980.309020	0.998820
980.606360	0.997816
980.903664	0.997915
981.200931	0.998180
981.498162	0.996629
981.795356	0.996464
982.092513	0.994925
982.389633	0.995844
982.686717	0.992926
982.983764	0.993295
983.280775	0.992282
983.577749	0.992235
983.874686	0.992796
984.171587	0.992113
984.468451	0.995875
984.765279	0.996121
985.062070	0.994720
985.358824	0.996518
985.655543	0.995945
985.952224	0.998352
986.248869	0.996321
986.545478	0.997697
986.842050	0.999582
987.138586	0.996157
987.435086	0.998566
987.731549	0.998523
988.027975	0.999126
988.324366	0.998335
988.620719	0.998523
988.917037	0.996460
989.213318	0.999035
989.509563	0.999666
989.805772	0.997896
990.101944	0.998336
990.398080	0.998327
990.694180	0.997593
990.990244	0.998578
991.286271	0.999121
991.582262	0.999162
991.878217	0.997995
992.174136	0.999480
992.470019	0.998902
992.765865	0.997943
993.061676	0.998857
993.357450	0.998718
993.653188	0.997444
993.948890	0.997809
994.244556	0.998022
994.540186	0.998318
994.835780	0.997981
995.131337	0.998348
995.426859	0.998422
995.722345	0.998266
996.017795	0.998564
996.313208	0.997250
996.608586	0.996500
996.903928	0.998682
997.199234	0.998189
997.494504	0.998428
997.789738	0.996642
998.084936	0.999357
998.380099	0.999425
998.675225	0.998076
998.970316	0.999442
999.265371	0.998829
999.560390	0.997326
999.855373	0.998946
1000.150320	0.998494
1000.445232	0.999080
1000.740108	0.997081
1001.034948	0.999391
1001.329752	0.999997
1001.624521	0.999832
1001.919254	0.997971
1002.213951	0.999283
1002.508613	0.998090
1002.803239	0.999807
1003.097829	0.999791
1003.392384	1.000035
1003.686903	0.998544
1003.981386	0.998938
1004.275834	1.000116
1004.570246	0.998722
1004.864623	0.999866
1005.158964	1.000123
1005.453270	0.999509
1005.747540	0.998671
1006.041775	0.998660
1006.335974	0.999759
1006.630138	0.999290
1006.924266	0.999551
1007.218359	1.000804
1007.512416	1.000334
1007.806438	1.000671
1008.100425	0.999661
1008.394376	0.998769
1008.688292	0.999827
1008.982172	1.001763
1009.276017	0.999648
1009.569827	0.998411
1009.863602	0.998872
1010.157341	1.000420
1010.451045	0.998928
1010.744714	0.999804
1011.038347	0.999847
1011.331945	0.998905
1011.625508	0.998986
1011.919036	0.998684
1012.212528	0.999096
1012.505986	0.999141
1012.799408	0.999042
1013.092795	0.999405
1013.386147	0.999389
1013.679464	0.999072
1013.972745	0.998477
1014.265992	0.997636
1014.559204	0.999764
1014.852380	1.000626
1015.145521	0.999592
1015.438628	0.999950
1015.731699	0.998465
1016.024736	0.999224
1016.317737	0.998389
1016.610703	0.998659
1016.903635	1.000768
1017.196531	0.999025
1017.489393	0.999521
1017.782219	0.999721
1018.075011	0.999773
1018.367768	1.000176
1018.660490	1.000270
1018.953177	1.000270
1019.245829	1.000270
