Dividing Wavelength (nm)	Counts (n)	Blue Motor Position (mm): 0.000000	Red Motor Position (mm): 23.300000	
326.493990	1.001123
326.888308	1.001123
327.282561	1.001123
327.676750	0.999515
328.070874	0.999222
328.464933	1.000415
328.858929	0.998917
329.252859	0.999092
329.646726	0.999584
330.040528	1.000341
330.434265	0.998689
330.827938	1.000581
331.221547	1.000554
331.615091	0.999243
332.008571	1.001341
332.401986	1.000004
332.795338	1.000480
333.188625	0.998293
333.581847	1.000452
333.975006	0.999033
334.368100	0.999509
334.761129	1.000442
335.154095	1.000857
335.546996	0.998633
335.939833	0.993044
336.332606	0.995225
336.725315	0.994228
337.117960	0.996557
337.510540	0.994671
337.903056	0.995410
338.295508	0.993810
338.687896	0.994634
339.080220	0.995077
339.472480	0.995431
339.864676	0.993831
340.256807	0.995481
340.648875	0.995539
341.040879	0.995133
341.432818	0.995304
341.824694	0.995007
342.216506	0.995220
342.608253	0.994920
342.999937	0.993025
343.391557	0.995893
343.783113	0.995001
344.174605	0.994458
344.566033	0.995202
344.957397	0.995410
345.348697	0.995131
345.739934	0.995231
346.131106	0.995768
346.522215	0.994651
346.913260	0.993714
347.304241	0.994886
347.695159	0.994250
348.086012	0.993942
348.476802	0.994268
348.867528	0.995577
349.258191	0.993020
349.648789	0.994843
350.039324	0.996204
350.429796	0.995609
350.820203	0.994792
351.210548	0.994387
351.600828	0.993879
351.991045	0.993152
352.381198	0.992808
352.771288	0.994306
353.161314	0.994289
353.551276	0.994864
353.941175	0.993201
354.331010	0.993757
354.720782	0.994703
355.110490	0.993651
355.500135	0.995210
355.889717	0.993818
356.279235	0.994325
356.668689	0.994031
357.058080	0.994771
357.447408	0.994981
357.836672	0.995196
358.225873	0.995071
358.615010	0.994231
359.004084	0.995698
359.393095	0.993835
359.782043	0.994198
360.170927	0.994953
360.559748	0.996132
360.948505	0.994864
361.337199	0.994987
361.725830	0.994223
362.114398	0.994429
362.502903	0.994594
362.891344	0.996241
363.279722	0.993987
363.668037	0.994473
364.056289	0.995075
364.444478	0.995189
364.832603	0.995204
365.220665	0.993939
365.608665	0.994430
365.996601	0.993899
366.384474	0.993908
366.772284	0.994509
367.160031	0.993684
367.547715	0.993908
367.935336	0.994902
368.322893	0.993962
368.710388	0.993955
369.097820	0.994793
369.485189	0.993360
369.872495	0.993861
370.259738	0.992764
370.646918	0.995420
371.034035	0.995669
371.421090	0.994634
371.808081	0.994122
372.195010	0.995083
372.581875	0.994631
372.968678	0.995547
373.355418	0.993566
373.742096	0.994772
374.128710	0.995493
374.515262	0.993858
374.901751	0.995702
375.288177	0.995493
375.674540	0.995579
376.060841	0.995331
376.447079	0.995514
376.833254	0.995518
377.219367	0.996004
377.605417	0.995869
377.991404	0.996094
378.377329	0.994563
378.763191	0.995587
379.148991	0.996267
379.534727	0.995592
379.920402	0.995692
380.306013	0.996268
380.691563	0.995676
381.077049	0.995292
381.462474	0.996381
381.847835	0.995402
382.233134	0.995465
382.618371	0.996751
383.003545	0.994907
383.388657	0.996410
383.773706	0.996030
384.158693	0.996080
384.543618	0.995686
384.928480	0.996071
385.313280	0.996543
385.698017	0.996776
386.082692	0.996317
386.467305	0.996863
386.851856	0.995911
387.236344	0.995807
387.620770	0.996039
388.005133	0.996264
388.389435	0.996784
388.773674	0.996290
389.157851	0.996246
389.541965	0.996668
389.926018	0.995806
390.310008	0.997392
390.693936	0.997243
391.077802	0.996991
391.461606	0.997324
391.845348	0.996487
392.229027	0.997623
392.612645	0.996748
392.996200	0.997230
393.379694	0.996765
393.763125	0.997705
394.146494	0.997379
394.529801	0.996437
394.913047	0.997065
395.296230	0.996993
395.679351	0.997092
396.062410	0.996239
396.445408	0.997011
396.828343	0.996391
397.211217	0.997191
397.594028	0.996730
397.976778	0.996632
398.359466	0.995979
398.742092	0.996935
399.124656	0.996866
399.507158	0.996889
399.889598	0.997000
400.271977	0.997740
400.654294	0.996810
401.036549	0.996762
401.418742	0.997477
401.800874	0.996307
402.182944	0.997355
402.564952	0.996365
402.946898	0.997507
403.328783	0.996910
403.710606	0.996365
404.092367	0.996721
404.474067	0.996020
404.855705	0.997342
405.237282	0.996658
405.618797	0.996981
406.000250	0.996513
406.381642	0.996941
406.762972	0.997096
407.144240	0.997027
407.525447	0.996546
407.906593	0.996905
408.287677	0.997021
408.668700	0.997286
409.049661	0.996171
409.430560	0.996777
409.811399	0.996371
410.192176	0.996413
410.572891	0.996287
410.953545	0.996631
411.334138	0.995654
411.714669	0.997240
412.095139	0.996657
412.475547	0.996375
412.855894	0.997061
413.236180	0.996930
413.616405	0.996729
413.996568	0.998441
414.376670	0.996786
414.756711	0.996277
415.136691	0.996687
415.516609	0.996015
415.896466	0.996491
416.276262	0.995717
416.655997	0.997171
417.035670	0.996105
417.415283	0.996571
417.794834	0.996677
418.174324	0.995946
418.553753	0.996829
418.933121	0.995895
419.312428	0.996676
419.691674	0.995609
420.070859	0.996465
420.449983	0.996525
420.829045	0.995788
421.208047	0.997030
421.586988	0.997103
421.965867	0.996223
422.344686	0.996650
422.723444	0.996089
423.102141	0.994516
423.480777	0.995751
423.859352	0.994170
424.237866	0.994882
424.616319	0.993761
424.994712	0.993049
425.373044	0.993844
425.751314	0.992599
426.129524	0.991267
426.507673	0.990146
426.885762	0.989189
427.263789	0.987833
427.641756	0.987574
428.019662	0.985405
428.397508	0.983235
428.775292	0.981086
429.153016	0.980270
429.530679	0.979192
429.908282	0.976801
430.285824	0.974310
430.663305	0.970966
431.040726	0.969696
431.418086	0.968471
431.795385	0.965700
432.172624	0.961805
432.549802	0.959763
432.926920	0.956466
433.303977	0.952521
433.680974	0.949500
434.057910	0.945097
434.434786	0.941804
434.811601	0.938044
435.188355	0.931205
435.565050	0.928539
435.941683	0.925150
436.318257	0.919052
436.694770	0.912795
437.071222	0.908313
437.447614	0.903514
437.823946	0.900117
438.200218	0.892379
438.576429	0.888697
438.952580	0.880824
439.328670	0.873881
439.704700	0.869609
440.080670	0.863478
440.456580	0.851826
440.832429	0.846576
441.208218	0.843080
441.583947	0.833401
441.959616	0.826250
442.335224	0.819975
442.710773	0.810624
443.086261	0.800681
443.461689	0.798755
443.837057	0.787014
444.212365	0.775530
444.587612	0.771034
444.962800	0.758459
445.337927	0.751249
445.712995	0.753877
446.088002	0.729014
446.462949	0.725909
446.837837	0.718597
447.212664	0.707162
447.587431	0.692841
447.962139	0.668907
448.336786	0.639237
448.711374	0.637100
449.085901	0.651706
449.460369	0.644920
449.834776	0.637349
450.209124	0.617758
450.583412	0.603044
450.957640	0.593572
451.331808	0.590623
451.705917	0.596793
452.079965	0.592073
452.453954	0.576082
452.827883	0.573393
453.201752	0.562392
453.575562	0.563108
453.949311	0.546724
454.323001	0.545405
454.696632	0.535353
455.070202	0.522562
455.443713	0.510402
455.817164	0.499716
456.190556	0.489275
456.563888	0.480622
456.937160	0.473493
457.310373	0.480633
457.683526	0.473375
458.056619	0.472087
458.429653	0.467469
458.802628	0.464798
459.175542	0.455698
459.548398	0.436157
459.921194	0.424753
460.293930	0.421090
460.666607	0.397575
461.039224	0.383884
461.411782	0.375778
461.784280	0.369848
462.156719	0.368950
462.529099	0.368190
462.901419	0.378507
463.273680	0.379070
463.645882	0.375278
464.018024	0.377282
464.390106	0.367802
464.762130	0.351053
465.134094	0.333359
465.505999	0.303842
465.877845	0.274128
466.249631	0.258316
466.621358	0.261771
466.993026	0.271754
467.364634	0.275859
467.736184	0.281843
468.107674	0.289104
468.479105	0.286224
468.850477	0.291698
469.221790	0.296658
469.593043	0.305698
469.964238	0.308858
470.335373	0.307077
470.706449	0.304463
471.077467	0.304934
471.448425	0.266533
471.819324	0.241749
472.190164	0.240504
472.560945	0.268521
472.931667	0.289935
473.302330	0.293646
473.672934	0.304666
474.043479	0.292509
474.413965	0.293857
474.784393	0.297202
475.154761	0.292034
475.525070	0.288653
475.895321	0.294263
476.265513	0.288241
476.635645	0.283224
477.005719	0.283263
477.375734	0.279273
477.745691	0.272655
478.115588	0.269101
478.485427	0.262754
478.855207	0.249433
479.224928	0.232008
479.594591	0.219994
479.964194	0.223182
480.333739	0.224304
480.703226	0.225973
481.072653	0.224350
481.442022	0.219747
481.811333	0.216236
482.180584	0.219685
482.549777	0.224854
482.918912	0.227971
483.287988	0.227666
483.657005	0.227182
484.025964	0.233589
484.394864	0.230847
484.763706	0.231476
485.132489	0.236350
485.501213	0.236999
485.869879	0.235288
486.238487	0.238665
486.607036	0.236468
486.975527	0.240912
487.343959	0.236742
487.712333	0.235661
488.080648	0.237121
488.448905	0.236344
488.817104	0.237655
489.185244	0.232079
489.553326	0.229217
489.921350	0.218685
490.289315	0.201449
490.657222	0.196604
491.025070	0.197739
491.392861	0.199719
491.760593	0.205513
492.128267	0.210744
492.495883	0.216385
492.863440	0.222692
493.230939	0.228934
493.598380	0.230159
493.965763	0.232315
494.333088	0.234723
494.700354	0.236231
495.067563	0.235022
495.434713	0.238359
495.801805	0.236383
496.168839	0.237674
496.535815	0.238754
496.902733	0.239118
497.269593	0.240677
497.636395	0.238074
498.003139	0.238499
498.369825	0.241294
498.736453	0.237705
499.103023	0.239400
499.469535	0.238719
499.835989	0.239128
500.202385	0.239673
500.568723	0.242950
500.935003	0.238181
501.301226	0.242307
501.667390	0.236776
502.033497	0.234929
502.399546	0.237764
502.765537	0.239340
503.131470	0.238197
503.497345	0.234063
503.863163	0.243180
504.228923	0.235873
504.594625	0.234905
504.960269	0.239987
505.325856	0.235149
505.691385	0.239554
506.056856	0.236450
506.422270	0.235616
506.787625	0.238341
507.152924	0.235809
507.518164	0.236196
507.883347	0.237907
508.248472	0.239419
508.613540	0.234617
508.978550	0.236996
509.343503	0.237325
509.708398	0.235265
510.073236	0.232748
510.438016	0.232878
510.802738	0.233688
511.167403	0.232474
511.532010	0.234523
511.896561	0.229941
512.261053	0.228859
512.625488	0.231048
512.989866	0.231235
513.354186	0.231607
513.718449	0.233282
514.082655	0.229908
514.446803	0.231764
514.810894	0.229297
515.174927	0.232490
515.538904	0.231663
515.902822	0.228524
516.266684	0.231002
516.630488	0.232304
516.994235	0.230849
517.357925	0.229877
517.721558	0.228020
518.085133	0.227613
518.448651	0.227801
518.812112	0.229793
519.175516	0.229376
519.538863	0.227382
519.902152	0.228760
520.265385	0.225667
520.628560	0.227487
520.991678	0.227733
521.354739	0.226825
521.717743	0.227924
522.080690	0.228449
522.443580	0.225903
522.806413	0.226640
523.169189	0.225809
523.531908	0.225044
523.894569	0.228339
524.257174	0.228349
524.619722	0.226237
524.982213	0.227108
525.344647	0.226314
525.707025	0.226862
526.069345	0.225186
526.431608	0.227045
526.793815	0.224764
527.155964	0.228865
527.518057	0.227756
527.880093	0.228806
528.242072	0.227467
528.603995	0.229328
528.965860	0.230770
529.327669	0.229833
529.689421	0.230762
530.051117	0.231669
530.412755	0.229008
530.774337	0.231698
531.135862	0.232011
531.497331	0.231063
531.858743	0.234193
532.220098	0.230891
532.581396	0.233523
532.942638	0.233961
533.303824	0.234797
533.664953	0.234614
534.026025	0.236331
534.387040	0.234433
534.747999	0.234205
535.108902	0.233247
535.469748	0.238259
535.830537	0.235918
536.191270	0.236449
536.551947	0.235995
536.912567	0.235859
537.273131	0.237620
537.633638	0.237767
537.994089	0.238402
538.354483	0.239504
538.714821	0.236469
539.075103	0.236111
539.435328	0.236922
539.795497	0.240514
540.155609	0.237016
540.515665	0.235503
540.875665	0.241111
541.235609	0.239377
541.595496	0.239757
541.955328	0.236205
542.315102	0.238822
542.674821	0.239907
543.034483	0.239872
543.394090	0.239645
543.753640	0.241516
544.113134	0.236575
544.472571	0.239682
544.831953	0.236608
545.191278	0.240752
545.550548	0.240340
545.909761	0.237424
546.268918	0.237855
546.628019	0.236052
546.987064	0.238898
547.346053	0.240445
547.704986	0.238349
548.063863	0.238653
548.422684	0.238882
548.781449	0.240823
549.140158	0.238508
549.498811	0.241506
549.857408	0.244392
550.215949	0.239068
550.574434	0.242428
550.932864	0.240094
551.291237	0.238837
551.649555	0.240424
552.007817	0.240311
552.366022	0.240829
552.724173	0.241136
553.082267	0.241598
553.440305	0.238256
553.798288	0.242758
554.156215	0.239371
554.514086	0.240055
554.871902	0.243254
555.229661	0.242419
555.587365	0.242881
555.945014	0.245475
556.302606	0.242337
556.660143	0.244892
557.017625	0.241288
557.375050	0.243623
557.732421	0.240479
558.089735	0.242763
558.446994	0.242779
558.804197	0.242208
559.161345	0.241975
559.518437	0.245321
559.875474	0.243187
560.232455	0.242638
560.589381	0.243536
560.946251	0.243629
561.303065	0.241392
561.659825	0.242862
562.016528	0.244345
562.373177	0.247300
562.729770	0.244540
563.086307	0.246726
563.442789	0.244122
563.799216	0.247295
564.155587	0.245683
564.511904	0.246896
564.868164	0.247071
565.224370	0.247044
565.580520	0.248676
565.936615	0.248676
566.292654	0.251555
566.648638	0.248472
567.004567	0.249454
567.360441	0.250162
567.716260	0.252126
568.072023	0.249908
568.427732	0.250660
568.783385	0.253045
569.138982	0.251117
569.494525	0.250784
569.850013	0.253609
570.205445	0.252058
570.560823	0.254665
570.916145	0.256555
571.271412	0.254534
571.626625	0.256325
571.981782	0.256757
572.336884	0.257739
572.691931	0.257431
573.046923	0.258786
573.401860	0.259689
573.756743	0.261493
574.111570	0.260297
574.466342	0.261005
574.821059	0.259871
575.175722	0.262839
575.530330	0.262466
575.884882	0.262643
576.239380	0.264972
576.593823	0.265518
576.948211	0.264760
577.302544	0.267840
577.656823	0.267525
578.011047	0.267742
578.365216	0.268352
578.719330	0.270336
579.073389	0.270116
579.427394	0.271674
579.781344	0.272450
580.135239	0.273575
580.489080	0.273782
580.842866	0.276272
581.196597	0.276278
581.550273	0.275134
581.903895	0.275918
582.257463	0.273949
582.610975	0.277370
582.964434	0.276946
583.317837	0.279282
583.671186	0.279799
584.024481	0.279787
584.377721	0.282161
584.730906	0.282979
585.084037	0.281838
585.437113	0.283636
585.790135	0.283520
586.143103	0.286411
586.496016	0.287162
586.848874	0.284941
587.201679	0.285659
587.554428	0.289009
587.907124	0.287437
588.259765	0.288331
588.612352	0.288599
588.964884	0.292490
589.317362	0.292220
589.669786	0.292037
590.022155	0.290299
590.374470	0.289970
590.726731	0.292064
591.078937	0.296749
591.431090	0.293006
591.783188	0.297295
592.135232	0.297713
592.487222	0.297938
592.839157	0.295947
593.191038	0.298128
593.542866	0.300161
593.894639	0.303510
594.246358	0.301656
594.598022	0.300858
594.949633	0.305083
595.301190	0.305398
595.652692	0.304786
596.004141	0.300998
596.355535	0.308854
596.706876	0.309141
597.058162	0.311473
597.409395	0.309199
597.760573	0.306635
598.111698	0.310141
598.462768	0.310501
598.813785	0.311843
599.164748	0.312865
599.515657	0.313241
599.866511	0.316600
600.217312	0.311955
600.568060	0.317436
600.918753	0.313595
601.269392	0.314678
601.619978	0.318074
601.970510	0.315390
602.320988	0.315794
602.671412	0.313183
603.021783	0.315976
603.372100	0.317324
603.722363	0.316944
604.072572	0.317952
604.422728	0.317248
604.772830	0.319450
605.122878	0.319237
605.472872	0.319634
605.822813	0.318225
606.172701	0.320245
606.522534	0.317898
606.872314	0.318006
607.222041	0.318713
607.571714	0.317038
607.921333	0.318633
608.270899	0.318242
608.620411	0.315019
608.969870	0.318625
609.319276	0.318969
609.668627	0.319106
610.017926	0.317256
610.367171	0.316069
610.716362	0.316299
611.065500	0.316802
611.414585	0.315646
611.763616	0.316205
612.112594	0.316961
612.461518	0.316521
612.810389	0.313702
613.159207	0.316471
613.507971	0.318001
613.856682	0.313832
614.205340	0.315213
614.553945	0.312051
614.902496	0.315944
615.250994	0.313747
615.599439	0.314728
615.947830	0.314002
616.296169	0.315305
616.644454	0.314463
616.992686	0.314599
617.340864	0.312520
617.688990	0.315827
618.037063	0.312660
618.385082	0.314609
618.733048	0.311576
619.080961	0.313908
619.428821	0.313267
619.776628	0.312888
620.124382	0.314695
620.472083	0.315155
620.819731	0.314742
621.167326	0.318130
621.514868	0.318245
621.862357	0.322109
622.209793	0.322111
622.557176	0.323856
622.904506	0.325076
623.251783	0.327333
623.599007	0.329600
623.946179	0.329420
624.293297	0.331250
624.640363	0.335025
624.987376	0.335724
625.334336	0.338254
625.681243	0.340231
626.028097	0.341005
626.374899	0.342340
626.721647	0.342387
627.068343	0.345654
627.414987	0.346524
627.761577	0.349001
628.108115	0.346665
628.454600	0.351954
628.801032	0.349201
629.147412	0.351543
629.493739	0.351631
629.840014	0.355158
630.186236	0.352366
630.532405	0.358085
630.878521	0.355496
631.224585	0.357432
631.570597	0.360941
631.916556	0.359362
632.262462	0.360302
632.608316	0.361780
632.954117	0.362818
633.299866	0.363405
633.645562	0.364102
633.991206	0.368515
634.336797	0.371011
634.682336	0.373347
635.027823	0.374859
635.373257	0.375708
635.718639	0.378944
636.063968	0.378127
636.409245	0.383991
636.754470	0.384477
637.099642	0.386982
637.444762	0.390110
637.789829	0.389312
638.134845	0.393077
638.479808	0.393864
638.824719	0.393945
639.169577	0.397887
639.514383	0.396196
639.859137	0.401005
640.203839	0.400331
640.548489	0.401418
640.893086	0.402484
641.237632	0.403982
641.582125	0.402840
641.926566	0.404363
642.270955	0.403914
642.615292	0.404473
642.959576	0.403893
643.303809	0.404483
643.647990	0.403469
643.992118	0.404099
644.336195	0.408379
644.680219	0.406294
645.024192	0.407116
645.368112	0.400300
645.711981	0.399692
646.055797	0.395141
646.399562	0.397493
646.743274	0.389408
647.086935	0.386888
647.430544	0.387148
647.774101	0.385734
648.117606	0.385023
648.461059	0.385416
648.804460	0.388662
649.147810	0.393828
649.491108	0.395509
649.834354	0.396548
650.177548	0.402351
650.520690	0.407591
650.863781	0.408096
651.206820	0.407781
651.549807	0.412106
651.892742	0.416719
652.235626	0.416146
652.578458	0.416906
652.921238	0.423136
653.263967	0.420940
653.606644	0.425121
653.949269	0.424637
654.291843	0.428333
654.634365	0.424964
654.976836	0.428381
655.319255	0.428228
655.661622	0.430421
656.003938	0.430224
656.346203	0.433131
656.688416	0.431081
657.030577	0.434538
657.372687	0.436272
657.714746	0.437140
658.056753	0.433969
658.398708	0.438060
658.740612	0.439050
659.082465	0.435589
659.424266	0.435667
659.766016	0.435234
660.107715	0.438015
660.449362	0.436745
660.790958	0.437744
661.132503	0.437954
661.473996	0.435766
661.815438	0.436658
662.156829	0.436733
662.498168	0.437454
662.839456	0.439179
663.180693	0.436291
663.521879	0.436507
663.863013	0.437795
664.204097	0.435898
664.545129	0.433106
664.886110	0.433700
665.227040	0.430649
665.567918	0.433014
665.908746	0.431142
666.249522	0.430647
666.590248	0.432175
666.930922	0.429700
667.271545	0.429035
667.612118	0.428812
667.952639	0.430351
668.293109	0.429162
668.633528	0.432199
668.973896	0.432735
669.314213	0.432386
669.654480	0.434064
669.994695	0.434055
670.334859	0.434940
670.674973	0.435537
671.015035	0.435495
671.355047	0.435833
671.695008	0.436343
672.034918	0.438618
672.374777	0.437661
672.714585	0.438598
673.054342	0.438948
673.394049	0.438988
673.733705	0.436281
674.073310	0.437617
674.412864	0.441207
674.752368	0.440996
675.091820	0.441572
675.431223	0.445665
675.770574	0.445738
676.109875	0.448663
676.449125	0.448885
676.788324	0.451107
677.127473	0.456189
677.466571	0.455945
677.805619	0.457329
678.144616	0.459051
678.483562	0.460851
678.822458	0.463171
679.161303	0.464314
679.500098	0.464413
679.838842	0.466272
680.177535	0.465804
680.516179	0.464626
680.854771	0.462817
681.193314	0.457092
681.531805	0.448197
681.870247	0.436961
682.208638	0.429239
682.546978	0.427833
682.885268	0.430216
683.223508	0.436039
683.561697	0.439744
683.899836	0.442865
684.237925	0.446184
684.575963	0.448421
684.913951	0.451375
685.251889	0.447119
685.589776	0.449048
685.927614	0.451962
686.265401	0.446277
686.603137	0.447514
686.940824	0.441188
687.278460	0.440083
687.616046	0.439178
687.953582	0.433778
688.291068	0.434888
688.628504	0.431242
688.965889	0.432908
689.303224	0.437748
689.640510	0.441508
689.977745	0.446746
690.314930	0.454500
690.652065	0.459645
690.989150	0.466776
691.326185	0.473201
691.663170	0.478053
692.000105	0.485094
692.336990	0.491878
692.673825	0.494229
693.010610	0.501167
693.347345	0.507070
693.684030	0.508603
694.020665	0.513483
694.357251	0.522016
694.693786	0.521044
695.030272	0.525743
695.366707	0.529276
695.703093	0.532180
696.039429	0.530629
696.375716	0.531681
696.711952	0.534410
697.048139	0.536899
697.384276	0.539286
697.720363	0.536675
698.056400	0.536415
698.392388	0.541908
698.728326	0.544969
699.064214	0.547739
699.400053	0.548172
699.735842	0.551797
700.071581	0.554460
700.407270	0.558138
700.742910	0.559650
701.078501	0.566901
701.414042	0.567292
701.749533	0.569670
702.084974	0.578873
702.420366	0.570610
702.755709	0.578734
703.091002	0.586021
703.426246	0.579744
703.761440	0.585592
704.096584	0.590528
704.431679	0.587160
704.766725	0.589218
705.101721	0.591310
705.436668	0.587893
705.771565	0.594076
706.106413	0.591002
706.441212	0.586312
706.775961	0.585045
707.110661	0.587899
707.445311	0.584309
707.779913	0.581260
708.114465	0.579942
708.448967	0.576468
708.783421	0.568476
709.117825	0.563052
709.452180	0.563266
709.786485	0.557846
710.120742	0.547231
710.454949	0.548893
710.789107	0.541617
711.123216	0.531719
711.457275	0.533742
711.791286	0.524789
712.125247	0.523614
712.459159	0.534981
712.793023	0.527464
713.126837	0.531188
713.460602	0.531799
713.794318	0.541022
714.127985	0.539948
714.461602	0.549969
714.795171	0.553163
715.128691	0.561007
715.462162	0.568344
715.795584	0.573876
716.128957	0.576640
716.462281	0.583872
716.795556	0.587275
717.128782	0.591479
717.461960	0.601697
717.795088	0.599270
718.128167	0.606051
718.461198	0.614549
718.794180	0.615252
719.127113	0.618182
719.459997	0.621133
719.792833	0.627976
720.125619	0.629875
720.458357	0.635338
720.791046	0.634231
721.123686	0.637829
721.456278	0.645010
721.788821	0.642710
722.121315	0.646646
722.453761	0.650646
722.786158	0.649220
723.118506	0.644923
723.450805	0.653215
723.783056	0.648908
724.115259	0.646062
724.447412	0.646419
724.779518	0.646816
725.111574	0.646292
725.443582	0.641743
725.775542	0.643368
726.107453	0.636118
726.439315	0.635507
726.771129	0.634638
727.102895	0.627599
727.434612	0.620712
727.766281	0.617796
728.097901	0.618255
728.429473	0.617147
728.760996	0.616117
729.092471	0.615918
729.423897	0.619566
729.755276	0.618645
730.086606	0.619033
730.417887	0.613053
730.749120	0.604699
731.080305	0.594918
731.411442	0.590768
731.742530	0.596446
732.073570	0.594647
732.404562	0.587786
732.735506	0.589164
733.066401	0.593664
733.397249	0.603799
733.728048	0.614064
734.058798	0.626663
734.389501	0.637824
734.720156	0.646916
735.050762	0.655311
735.381320	0.656040
735.711831	0.665337
736.042293	0.671034
736.372707	0.666260
736.703073	0.669888
737.033391	0.672925
737.363661	0.669722
737.693883	0.664507
738.024056	0.663966
738.354182	0.664829
738.684260	0.653613
739.014290	0.649932
739.344272	0.650203
739.674207	0.644325
740.004093	0.643539
740.333931	0.643251
740.663722	0.643825
740.993464	0.643668
741.323159	0.648303
741.652806	0.654184
741.982405	0.657272
742.311956	0.663181
742.641460	0.664558
742.970915	0.669036
743.300323	0.675860
743.629683	0.682362
743.958996	0.683692
744.288260	0.688380
744.617477	0.694465
744.946647	0.696123
745.275768	0.700980
745.604842	0.701621
745.933869	0.710562
746.262847	0.712042
746.591778	0.704694
746.920662	0.711832
747.249498	0.718013
747.578286	0.709213
747.907027	0.704317
748.235720	0.706357
748.564365	0.701186
748.892963	0.700338
749.221514	0.703574
749.550017	0.708842
749.878473	0.708191
750.206881	0.714961
750.535242	0.716317
750.863555	0.714755
751.191821	0.717094
751.520039	0.720752
751.848210	0.724958
752.176334	0.717498
752.504411	0.717357
752.832440	0.724182
753.160421	0.728917
753.488356	0.726732
753.816243	0.724101
754.144082	0.732882
754.471875	0.736621
754.799620	0.731734
755.127318	0.733373
755.454969	0.732273
755.782572	0.732669
756.110129	0.737455
756.437638	0.739564
756.765100	0.736452
757.092515	0.734805
757.419882	0.733367
757.747203	0.738852
758.074477	0.737044
758.401703	0.735476
758.728882	0.731135
759.056014	0.728956
759.383099	0.728309
759.710138	0.729078
760.037129	0.726753
760.364073	0.719473
760.690970	0.722110
761.017820	0.727849
761.344623	0.723526
761.671379	0.713878
761.998088	0.703397
762.324751	0.679998
762.651366	0.638803
762.977935	0.571700
763.304456	0.519725
763.630931	0.510141
763.957359	0.549659
764.283740	0.593272
764.610074	0.620556
764.936362	0.651970
765.262602	0.679178
765.588796	0.700511
765.914943	0.717368
766.241044	0.735700
766.567097	0.741488
766.893104	0.751932
767.219064	0.757590
767.544978	0.764033
767.870845	0.777529
768.196665	0.781842
768.522438	0.779454
768.848165	0.780947
769.173846	0.790508
769.499479	0.794497
769.825066	0.797625
770.150607	0.803010
770.476101	0.798627
770.801548	0.799043
771.126949	0.810732
771.452303	0.814125
771.777611	0.813283
772.102872	0.813174
772.428087	0.818913
772.753256	0.821322
773.078378	0.824598
773.403453	0.831404
773.728482	0.837089
774.053465	0.830018
774.378401	0.834122
774.703291	0.841398
775.028135	0.841183
775.352932	0.844181
775.677683	0.845868
776.002388	0.845781
776.327046	0.845352
776.651658	0.849243
776.976224	0.852594
777.300743	0.853324
777.625216	0.855569
777.949643	0.857981
778.274024	0.857243
778.598359	0.858648
778.922647	0.856840
779.246889	0.856975
779.571086	0.861327
779.895236	0.864874
780.219339	0.861725
780.543397	0.858682
780.867409	0.856837
781.191374	0.858936
781.515294	0.860718
781.839167	0.859189
782.162995	0.862432
782.486776	0.860266
782.810511	0.860091
783.134201	0.864607
783.457844	0.861311
783.781441	0.863519
784.104993	0.870793
784.428498	0.870520
784.751958	0.867170
785.075372	0.869404
785.398739	0.873326
785.722061	0.869857
786.045337	0.864298
786.368568	0.869711
786.691752	0.872478
787.014891	0.857206
787.337983	0.848975
787.661030	0.841304
787.984031	0.823359
788.306987	0.811291
788.629897	0.813386
788.952760	0.817173
789.275579	0.822159
789.598351	0.836869
789.921078	0.849530
790.243759	0.852134
790.566395	0.857402
790.888984	0.863728
791.211529	0.869070
791.534027	0.871990
791.856480	0.873563
792.178888	0.879601
792.501249	0.881664
792.823566	0.883447
793.145836	0.882654
793.468062	0.885509
793.790241	0.885322
794.112375	0.883467
794.434464	0.878277
794.756507	0.878038
795.078505	0.878686
795.400457	0.872454
795.722364	0.860325
796.044226	0.853518
796.366042	0.853221
796.687812	0.855287
797.009538	0.851307
797.331218	0.855829
797.652852	0.859819
797.974442	0.864684
798.295986	0.863368
798.617484	0.866324
798.938938	0.871697
799.260346	0.876619
799.581709	0.877884
799.903026	0.880294
800.224299	0.880670
800.545526	0.884671
800.866708	0.889344
801.187845	0.893124
801.508936	0.892614
801.829983	0.890219
802.150984	0.892236
802.471940	0.898308
802.792851	0.896461
803.113717	0.898718
803.434538	0.896163
803.755314	0.898391
804.076045	0.900669
804.396731	0.899679
804.717372	0.899945
805.037967	0.902079
805.358518	0.900392
805.679024	0.896282
805.999485	0.896671
806.319901	0.897250
806.640272	0.898154
806.960598	0.896317
807.280879	0.893860
807.601115	0.891989
807.921306	0.895359
808.241453	0.896311
808.561554	0.893824
808.881611	0.894606
809.201623	0.896118
809.521590	0.896066
809.841513	0.897198
810.161390	0.895597
810.481223	0.897886
810.801011	0.902540
811.120755	0.902374
811.440453	0.902010
811.760107	0.901166
812.079716	0.901122
812.399281	0.903688
812.718801	0.906585
813.038276	0.908446
813.357707	0.906451
813.677093	0.904662
813.996434	0.907281
814.315731	0.909056
814.634983	0.909532
814.954191	0.908112
815.273354	0.905645
815.592473	0.902133
815.911547	0.900859
816.230577	0.898800
816.549562	0.895022
816.868502	0.898270
817.187399	0.893441
817.506250	0.887475
817.825058	0.890077
818.143821	0.886585
818.462539	0.881893
818.781213	0.873825
819.099843	0.862352
819.418429	0.846583
819.736970	0.830994
820.055466	0.810987
820.373919	0.785305
820.692327	0.752603
821.010691	0.717570
821.329011	0.640962
821.647286	0.526182
821.965517	0.412110
822.283704	0.369354
822.601847	0.371221
822.919945	0.406942
823.237999	0.440293
823.556010	0.487138
823.873976	0.542030
824.191897	0.592764
824.509775	0.635387
824.827609	0.680846
825.145398	0.702348
825.463144	0.705991
825.780845	0.687595
826.098502	0.669609
826.416116	0.624601
826.733685	0.580518
827.051210	0.572274
827.368692	0.586845
827.686129	0.623707
828.003522	0.676534
828.320872	0.724174
828.638177	0.767150
828.955439	0.801028
829.272656	0.822574
829.589830	0.838987
829.906960	0.854914
830.224046	0.867220
830.541088	0.877757
830.858086	0.882000
831.175041	0.887815
831.491952	0.887998
831.808819	0.884465
832.125642	0.877705
832.442421	0.863249
832.759157	0.839674
833.075849	0.794360
833.392497	0.731214
833.709101	0.691032
834.025662	0.700525
834.342179	0.732026
834.658653	0.771240
834.975083	0.806699
835.291469	0.832763
835.607811	0.855591
835.924110	0.870900
836.240366	0.888479
836.556578	0.902236
836.872746	0.908993
837.188871	0.915734
837.504952	0.920490
837.820990	0.923694
838.136984	0.927808
838.452935	0.930674
838.768842	0.931071
839.084706	0.925304
839.400526	0.900185
839.716303	0.859836
840.032037	0.837031
840.347727	0.841296
840.663373	0.858787
840.978977	0.880335
841.294537	0.901407
841.610054	0.918190
841.925527	0.926330
842.240957	0.933369
842.556344	0.940096
842.871687	0.945846
843.186987	0.950630
843.502244	0.950601
843.817458	0.952676
844.132629	0.956231
844.447756	0.960097
844.762840	0.960791
845.077881	0.959745
845.392879	0.961226
845.707833	0.962772
846.022745	0.965580
846.337613	0.965253
846.652438	0.965895
846.967221	0.965223
847.281960	0.965071
847.596656	0.967008
847.911309	0.965482
848.225919	0.967849
848.540485	0.968563
848.855009	0.969559
849.169490	0.968606
849.483928	0.969367
849.798323	0.969502
850.112675	0.971106
850.426984	0.970288
850.741251	0.969760
851.055474	0.970195
851.369654	0.967124
851.683792	0.969405
851.997887	0.970039
852.311938	0.971028
852.625947	0.970685
852.939914	0.967891
853.253837	0.969959
853.567718	0.972036
853.881555	0.970633
854.195350	0.967674
854.509103	0.969998
854.822812	0.970045
855.136479	0.971023
855.450103	0.970104
855.763685	0.968475
856.077224	0.969090
856.390720	0.971764
856.704173	0.970856
857.017584	0.968235
857.330953	0.967341
857.644278	0.967708
857.957561	0.969109
858.270802	0.968104
858.584000	0.967768
858.897155	0.967578
859.210268	0.967673
859.523339	0.967859
859.836367	0.970290
860.149352	0.970477
860.462295	0.969381
860.775195	0.969553
861.088054	0.969214
861.400869	0.970378
861.713642	0.970126
862.026373	0.969810
862.339062	0.971244
862.651708	0.968101
862.964312	0.967627
863.276873	0.969051
863.589392	0.969040
863.901869	0.967033
864.214303	0.965377
864.526696	0.964477
864.839045	0.963697
865.151353	0.962466
865.463619	0.961859
865.775842	0.963836
866.088023	0.963266
866.400162	0.961874
866.712258	0.962963
867.024313	0.962966
867.336325	0.964232
867.648296	0.963758
867.960224	0.962279
868.272110	0.962607
868.583954	0.964581
868.895755	0.964467
869.207515	0.962035
869.519233	0.960885
869.830909	0.960872
870.142542	0.962083
870.454134	0.961559
870.765684	0.962218
871.077191	0.958745
871.388657	0.958952
871.700081	0.958852
872.011463	0.959128
872.322803	0.957962
872.634101	0.957099
872.945357	0.954512
873.256571	0.954087
873.567744	0.953062
873.878874	0.954079
874.189963	0.952720
874.501010	0.950964
874.812015	0.950409
875.122979	0.951720
875.433900	0.954230
875.744780	0.954530
876.055618	0.951227
876.366415	0.949804
876.677169	0.950608
876.987882	0.951504
877.298554	0.951669
877.609183	0.947947
877.919771	0.944863
878.230317	0.943595
878.540822	0.941288
878.851285	0.936358
879.161707	0.927936
879.472087	0.915778
879.782425	0.900481
880.092722	0.866570
880.402977	0.813694
880.713191	0.753781
881.023363	0.695813
881.333494	0.662295
881.643583	0.634212
881.953631	0.633743
882.263637	0.662518
882.573602	0.701564
882.883526	0.726943
883.193408	0.750101
883.503248	0.772606
883.813048	0.800299
884.122806	0.828293
884.432522	0.852387
884.742197	0.871290
885.051831	0.881166
885.361424	0.892798
885.670975	0.904553
885.980485	0.914809
886.289954	0.921131
886.599382	0.924903
886.908768	0.929597
887.218113	0.935513
887.527417	0.939504
887.836680	0.942328
888.145901	0.945211
888.455082	0.945441
888.764221	0.951261
889.073319	0.952616
889.382376	0.953398
889.691392	0.953619
890.000366	0.953357
890.309300	0.954665
890.618193	0.953561
890.927044	0.951861
891.235855	0.951489
891.544625	0.951686
891.853353	0.952385
892.162041	0.949965
892.470687	0.942913
892.779293	0.939572
893.087858	0.935302
893.396381	0.927012
893.704864	0.914312
894.013306	0.889799
894.321707	0.863105
894.630068	0.849948
894.938387	0.844477
895.246665	0.845952
895.554903	0.857540
895.863100	0.871941
896.171256	0.888887
896.479371	0.908430
896.787446	0.919942
897.095480	0.926567
897.403473	0.928642
897.711425	0.932776
898.019336	0.940858
898.327207	0.943403
898.635038	0.946687
898.942827	0.945828
899.250576	0.949259
899.558284	0.953078
899.865952	0.954219
900.173579	0.956115
900.481165	0.955789
900.788711	0.959707
901.096216	0.961450
901.403681	0.962578
901.711105	0.963388
902.018489	0.964711
902.325832	0.961790
902.633135	0.962830
902.940397	0.955911
903.247619	0.943527
903.554800	0.918706
903.861941	0.879705
904.169041	0.845526
904.476101	0.827415
904.783121	0.829730
905.090100	0.844793
905.397039	0.866365
905.703938	0.887350
906.010796	0.907132
906.317614	0.923481
906.624391	0.935493
906.931129	0.944916
907.237826	0.952543
907.544483	0.959315
907.851099	0.963294
908.157675	0.967462
908.464211	0.969561
908.770707	0.972785
909.077163	0.974370
909.383578	0.975172
909.689954	0.976004
909.996289	0.976451
910.302584	0.978639
910.608839	0.980580
910.915054	0.979081
911.221229	0.979148
911.527363	0.977535
911.833458	0.977893
912.139513	0.976909
912.445527	0.976178
912.751502	0.974540
913.057436	0.973192
913.363331	0.969393
913.669186	0.966961
913.975000	0.962358
914.280775	0.955891
914.586510	0.949301
914.892205	0.935678
915.197859	0.915340
915.503475	0.887465
915.809050	0.869298
916.114585	0.863392
916.420081	0.860552
916.725536	0.857283
917.030952	0.866143
917.336328	0.878374
917.641665	0.893547
917.946961	0.910308
918.252218	0.920895
918.557435	0.928131
918.862612	0.937831
919.167750	0.943736
919.472848	0.947665
919.777906	0.952903
920.082925	0.959257
920.387904	0.962277
920.692843	0.964161
920.997743	0.964092
921.302603	0.968036
921.607423	0.970912
921.912204	0.971601
922.216946	0.972338
922.521647	0.973924
922.826310	0.975201
923.130932	0.977514
923.435516	0.979020
923.740059	0.980293
924.044564	0.979356
924.349028	0.980774
924.653454	0.984038
924.957840	0.984702
925.262186	0.983650
925.566493	0.983836
925.870761	0.985011
926.174989	0.986416
926.479178	0.987987
926.783328	0.988586
927.087438	0.987767
927.391509	0.987406
927.695541	0.990497
927.999533	0.990409
928.303486	0.988751
928.607400	0.991608
928.911275	0.990746
929.215110	0.990221
929.518906	0.992542
929.822663	0.988924
930.126381	0.991793
930.430060	0.989960
930.733699	0.990769
931.037299	0.988952
931.340861	0.990177
931.644383	0.990327
931.947866	0.989345
932.251309	0.991240
932.554714	0.990321
932.858080	0.991256
933.161407	0.989760
933.464694	0.990688
933.767943	0.990221
934.071153	0.991617
934.374323	0.992058
934.677455	0.991614
934.980548	0.991588
935.283602	0.990863
935.586617	0.991637
935.889593	0.992311
936.192530	0.990562
936.495428	0.991750
936.798287	0.991833
937.101108	0.991706
937.403890	0.989706
937.706632	0.989324
938.009336	0.987814
938.312002	0.985174
938.614628	0.984952
938.917216	0.983458
939.219765	0.983598
939.522275	0.984589
939.824747	0.983618
940.127179	0.984413
940.429573	0.984255
940.731929	0.985495
941.034246	0.984621
941.336524	0.985951
941.638763	0.987214
941.940964	0.986662
942.243126	0.985842
942.545250	0.988607
942.847335	0.988441
943.149381	0.987520
943.451389	0.988040
943.753359	0.989224
944.055290	0.991860
944.357182	0.990228
944.659036	0.988443
944.960851	0.989755
945.262628	0.989849
945.564367	0.990670
945.866067	0.991112
946.167729	0.989661
946.469352	0.989827
946.770937	0.989637
947.072484	0.991996
947.373992	0.989792
947.675462	0.991299
947.976893	0.990398
948.278286	0.989232
948.579641	0.991693
948.880958	0.991149
949.182236	0.991212
949.483476	0.991304
949.784678	0.989673
950.085841	0.991571
950.386967	0.990418
950.688054	0.992210
950.989103	0.991332
951.290114	0.990190
951.591087	0.989693
951.892021	0.990217
952.192917	0.989902
952.493776	0.987956
952.794596	0.988186
953.095378	0.987692
953.396122	0.987652
953.696828	0.987636
953.997496	0.989550
954.298126	0.990938
954.598718	0.991172
954.899272	0.991517
955.199788	0.990717
955.500266	0.992366
955.800706	0.992999
956.101108	0.994001
956.401472	0.993678
956.701798	0.993745
957.002087	0.993203
957.302337	0.993735
957.602550	0.995712
957.902724	0.995515
958.202861	0.996453
958.502960	0.996203
958.803022	0.993746
959.103045	0.996202
959.403031	0.996942
959.702979	0.995399
960.002889	0.995676
960.302762	0.994041
960.602596	0.996347
960.902393	0.995294
961.202153	0.995905
961.501875	0.997724
961.801559	0.995333
962.101205	0.996074
962.400814	0.996218
962.700385	0.996611
962.999918	0.996067
963.299414	0.995852
963.598873	0.995318
963.898293	0.996179
964.197677	0.995588
964.497022	0.995977
964.796331	0.997902
965.095601	0.996970
965.394835	0.996556
965.694030	0.997062
965.993189	0.997798
966.292309	0.996276
966.591393	0.998747
966.890439	0.996591
967.189447	0.996992
967.488419	0.997658
967.787353	0.996235
968.086249	0.996675
968.385108	0.996425
968.683930	0.997497
968.982714	0.997841
969.281462	0.998177
969.580172	0.996754
969.878844	0.997464
970.177480	0.996241
970.476078	0.997594
970.774639	0.996649
971.073162	0.997288
971.371649	0.996579
971.670098	0.995595
971.968510	0.996747
972.266885	0.995953
972.565223	0.996385
972.863524	0.995995
973.161788	0.995772
973.460014	0.997807
973.758204	0.995321
974.056356	0.996858
974.354471	0.993948
974.652550	0.997217
974.950591	0.996725
975.248595	0.996015
975.546563	0.997745
975.844493	0.998167
976.142386	0.997140
976.440243	0.997894
976.738062	0.996664
977.035845	0.998048
977.333590	0.997059
977.631299	0.997880
977.928971	0.997268
978.226606	0.996444
978.524204	0.996076
978.821765	0.998512
979.119290	0.995818
979.416777	0.995605
979.714228	0.996296
980.011642	0.995640
980.309020	0.997367
980.606360	0.996652
980.903664	0.998407
981.200931	0.996596
981.498162	0.995542
981.795356	0.995729
982.092513	0.993577
982.389633	0.994834
982.686717	0.993395
982.983764	0.991528
983.280775	0.990731
983.577749	0.989928
983.874686	0.991617
984.171587	0.992323
984.468451	0.994738
984.765279	0.994911
985.062070	0.994545
985.358824	0.995276
985.655543	0.995358
985.952224	0.995828
986.248869	0.996798
986.545478	0.996399
986.842050	0.998961
987.138586	0.996416
987.435086	0.996787
987.731549	0.998659
988.027975	0.997598
988.324366	0.997083
988.620719	0.997769
988.917037	0.996972
989.213318	0.998036
989.509563	0.997316
989.805772	0.998403
990.101944	0.998624
990.398080	0.997136
990.694180	0.998137
990.990244	0.997798
991.286271	0.997206
991.582262	0.998365
991.878217	0.996906
992.174136	0.998560
992.470019	0.998426
992.765865	0.998455
993.061676	0.998623
993.357450	0.998710
993.653188	0.997678
993.948890	0.996743
994.244556	0.997958
994.540186	0.996651
994.835780	0.996218
995.131337	0.997288
995.426859	0.996953
995.722345	0.997122
996.017795	0.995483
996.313208	0.995032
996.608586	0.995847
996.903928	0.996403
997.199234	0.996172
997.494504	0.996474
997.789738	0.996823
998.084936	0.996624
998.380099	0.997719
998.675225	0.997569
998.970316	0.998411
999.265371	0.998407
999.560390	0.997375
999.855373	0.998978
1000.150320	0.997502
1000.445232	0.999452
1000.740108	0.997565
1001.034948	0.997051
1001.329752	0.999871
1001.624521	0.998973
1001.919254	0.997261
1002.213951	0.997836
1002.508613	0.998454
1002.803239	0.998844
1003.097829	0.999110
1003.392384	1.000744
1003.686903	0.998190
1003.981386	0.999360
1004.275834	0.998728
1004.570246	0.999093
1004.864623	0.998864
1005.158964	0.999387
1005.453270	0.999684
1005.747540	0.996282
1006.041775	0.997562
1006.335974	0.998762
1006.630138	0.999753
1006.924266	0.999083
1007.218359	1.000716
1007.512416	1.000163
1007.806438	1.000404
1008.100425	1.000034
1008.394376	0.998734
1008.688292	0.998541
1008.982172	1.000438
1009.276017	0.999087
1009.569827	0.998918
1009.863602	0.999014
1010.157341	1.000178
1010.451045	0.999662
1010.744714	0.998399
1011.038347	0.999996
1011.331945	0.998065
1011.625508	0.998072
1011.919036	0.998999
1012.212528	0.998571
1012.505986	0.998667
1012.799408	0.999058
1013.092795	0.998258
1013.386147	0.999754
1013.679464	0.999568
1013.972745	0.997094
1014.265992	0.998092
1014.559204	0.999893
1014.852380	0.999229
1015.145521	0.999849
1015.438628	0.998755
1015.731699	0.999306
1016.024736	0.997856
1016.317737	0.998480
1016.610703	0.999526
1016.903635	0.999522
1017.196531	0.998213
1017.489393	0.998572
1017.782219	0.999623
1018.075011	0.998890
1018.367768	0.999220
1018.660490	0.999700
1018.953177	0.999700
1019.245829	0.999700
