Dividing Wavelength (nm)	Counts (n)	Blue Motor Position (mm): 0.000000	Red Motor Position (mm): 41.000000	
326.493990	1.001129
326.888308	1.001129
327.282561	1.001129
327.676750	1.000419
328.070874	0.999219
328.464933	1.001203
328.858929	0.999280
329.252859	0.999592
329.646726	0.999993
330.040528	1.000413
330.434265	0.999203
330.827938	1.000290
331.221547	1.000677
331.615091	0.999086
332.008571	1.000433
332.401986	0.999583
332.795338	1.000287
333.188625	0.998601
333.581847	1.000435
333.975006	1.000038
334.368100	0.998750
334.761129	0.999834
335.154095	1.001705
335.546996	0.999632
335.939833	0.996303
336.332606	0.997323
336.725315	0.998850
337.117960	0.999240
337.510540	0.998271
337.903056	0.997569
338.295508	0.997445
338.687896	0.997443
339.080220	0.998766
339.472480	0.998659
339.864676	0.996751
340.256807	0.998568
340.648875	0.999191
341.040879	0.998238
341.432818	0.997660
341.824694	0.997280
342.216506	0.997627
342.608253	0.998526
342.999937	0.997189
343.391557	0.997971
343.783113	0.996056
344.174605	0.999052
344.566033	0.997818
344.957397	0.997273
345.348697	0.997352
345.739934	0.998000
346.131106	0.996987
346.522215	0.997657
346.913260	0.997248
347.304241	0.998614
347.695159	0.998887
348.086012	0.995998
348.476802	0.997925
348.867528	0.998569
349.258191	0.996859
349.648789	0.998683
350.039324	0.997262
350.429796	0.998816
350.820203	0.997844
351.210548	0.998608
351.600828	0.996706
351.991045	0.998042
352.381198	0.996624
352.771288	0.997742
353.161314	0.996719
353.551276	0.998544
353.941175	0.998090
354.331010	0.997407
354.720782	0.998930
355.110490	0.997442
355.500135	0.998796
355.889717	0.996794
356.279235	0.998347
356.668689	0.997169
357.058080	0.998036
357.447408	0.998565
357.836672	0.998912
358.225873	0.998401
358.615010	0.999120
359.004084	0.998712
359.393095	0.998471
359.782043	0.997586
360.170927	0.999661
360.559748	0.999729
360.948505	0.997849
361.337199	0.997782
361.725830	0.999841
362.114398	0.997213
362.502903	0.998904
362.891344	0.998564
363.279722	0.997111
363.668037	0.998305
364.056289	0.997624
364.444478	0.998956
364.832603	0.998339
365.220665	0.998324
365.608665	0.997725
365.996601	0.997720
366.384474	0.998223
366.772284	0.997881
367.160031	0.996737
367.547715	0.997453
367.935336	0.998534
368.322893	0.998517
368.710388	0.997670
369.097820	0.997677
369.485189	0.998054
369.872495	0.997602
370.259738	0.997246
370.646918	0.999379
371.034035	0.998593
371.421090	0.998030
371.808081	0.997506
372.195010	0.999710
372.581875	0.998679
372.968678	0.998375
373.355418	0.997965
373.742096	0.998065
374.128710	0.998628
374.515262	0.997652
374.901751	0.997898
375.288177	0.997722
375.674540	0.998278
376.060841	0.996756
376.447079	0.998298
376.833254	0.998670
377.219367	0.997843
377.605417	0.998496
377.991404	0.998392
378.377329	0.997735
378.763191	0.998135
379.148991	0.998903
379.534727	0.998909
379.920402	0.998963
380.306013	0.999048
380.691563	0.998744
381.077049	0.997626
381.462474	0.999506
381.847835	0.998723
382.233134	0.998564
382.618371	0.998703
383.003545	0.998441
383.388657	0.998013
383.773706	0.998413
384.158693	0.998344
384.543618	0.998211
384.928480	0.998506
385.313280	0.999155
385.698017	0.999147
386.082692	0.999250
386.467305	0.998970
386.851856	0.998741
387.236344	0.997883
387.620770	0.997974
388.005133	1.000363
388.389435	0.999690
388.773674	0.998622
389.157851	0.999890
389.541965	0.999317
389.926018	0.999027
390.310008	0.999876
390.693936	0.999347
391.077802	0.998370
391.461606	0.999232
391.845348	0.998790
392.229027	1.000424
392.612645	0.999581
392.996200	0.999338
393.379694	0.998653
393.763125	0.999419
394.146494	0.999822
394.529801	0.999352
394.913047	0.999730
395.296230	0.998993
395.679351	0.999045
396.062410	0.999050
396.445408	0.999266
396.828343	0.998860
397.211217	0.998747
397.594028	0.999175
397.976778	0.998664
398.359466	0.999322
398.742092	0.998644
399.124656	0.998816
399.507158	0.998889
399.889598	0.998748
400.271977	0.999666
400.654294	0.999958
401.036549	0.999595
401.418742	0.999496
401.800874	0.998728
402.182944	0.998879
402.564952	0.998154
402.946898	0.998978
403.328783	0.998824
403.710606	0.999015
404.092367	0.999925
404.474067	0.999907
404.855705	0.999448
405.237282	0.999310
405.618797	0.998989
406.000250	0.998240
406.381642	0.999922
406.762972	0.999916
407.144240	0.999768
407.525447	0.999607
407.906593	0.999579
408.287677	0.999651
408.668700	1.000113
409.049661	0.998552
409.430560	0.999819
409.811399	0.999780
410.192176	0.998604
410.572891	0.999016
410.953545	0.998874
411.334138	0.998522
411.714669	0.999443
412.095139	0.998734
412.475547	0.999613
412.855894	0.999945
413.236180	1.000153
413.616405	0.999282
413.996568	0.999950
414.376670	0.999898
414.756711	0.998616
415.136691	0.998448
415.516609	0.999663
415.896466	0.999248
416.276262	0.998034
416.655997	1.000141
417.035670	0.999303
417.415283	0.999702
417.794834	0.999674
418.174324	0.999509
418.553753	0.999814
418.933121	0.998977
419.312428	0.999455
419.691674	0.999378
420.070859	0.999218
420.449983	0.998942
420.829045	0.999325
421.208047	0.999014
421.586988	1.000558
421.965867	0.999310
422.344686	0.999672
422.723444	0.999604
423.102141	0.999765
423.480777	1.000009
423.859352	0.999923
424.237866	0.999048
424.616319	0.999586
424.994712	0.999756
425.373044	0.999793
425.751314	0.999731
426.129524	0.999484
426.507673	0.999682
426.885762	1.000165
427.263789	0.998916
427.641756	0.998671
428.019662	1.000047
428.397508	0.998683
428.775292	0.998349
429.153016	0.999080
429.530679	1.000048
429.908282	1.000547
430.285824	0.998845
430.663305	0.998948
431.040726	0.999254
431.418086	1.000901
431.795385	0.999919
432.172624	0.999237
432.549802	1.000074
432.926920	1.000295
433.303977	0.998179
433.680974	0.999885
434.057910	0.999592
434.434786	0.999750
434.811601	0.998902
435.188355	0.999198
435.565050	0.998751
435.941683	0.999618
436.318257	1.000295
436.694770	0.999457
437.071222	0.999826
437.447614	1.000429
437.823946	0.999917
438.200218	0.999933
438.576429	0.999945
438.952580	1.000371
439.328670	0.999529
439.704700	0.999816
440.080670	1.000459
440.456580	0.999131
440.832429	0.998711
441.208218	1.000458
441.583947	0.999312
441.959616	0.999978
442.335224	0.998787
442.710773	1.000139
443.086261	0.999051
443.461689	0.999586
443.837057	0.999036
444.212365	1.000207
444.587612	0.999112
444.962800	0.998754
445.337927	0.999584
445.712995	1.000247
446.088002	1.000162
446.462949	1.000610
446.837837	0.999908
447.212664	0.999961
447.587431	1.000428
447.962139	1.000105
448.336786	0.999440
448.711374	0.999734
449.085901	0.998889
449.460369	1.000501
449.834776	0.999311
450.209124	0.999517
450.583412	0.999111
450.957640	0.999873
451.331808	0.999593
451.705917	0.999721
452.079965	0.999758
452.453954	0.999332
452.827883	0.999814
453.201752	0.999838
453.575562	1.000079
453.949311	1.000190
454.323001	1.000076
454.696632	0.999820
455.070202	0.999957
455.443713	0.999482
455.817164	0.999689
456.190556	0.999889
456.563888	1.000184
456.937160	0.999971
457.310373	0.998777
457.683526	0.999272
458.056619	0.999387
458.429653	0.999733
458.802628	0.999467
459.175542	0.999173
459.548398	0.999874
459.921194	0.999992
460.293930	0.999556
460.666607	0.999132
461.039224	0.998540
461.411782	0.999315
461.784280	0.999596
462.156719	0.999888
462.529099	0.999898
462.901419	1.000476
463.273680	1.000137
463.645882	0.999968
464.018024	0.999570
464.390106	0.999572
464.762130	1.000857
465.134094	1.000185
465.505999	1.000157
465.877845	0.999811
466.249631	1.000769
466.621358	0.999928
466.993026	0.999918
467.364634	0.999706
467.736184	0.999633
468.107674	0.999322
468.479105	0.999358
468.850477	0.999700
469.221790	0.999928
469.593043	0.999696
469.964238	1.000279
470.335373	1.000074
470.706449	0.999546
471.077467	0.999313
471.448425	0.999106
471.819324	1.000659
472.190164	0.999535
472.560945	1.000699
472.931667	0.999692
473.302330	0.999365
473.672934	0.999742
474.043479	0.999545
474.413965	0.999559
474.784393	0.999901
475.154761	0.999609
475.525070	0.999051
475.895321	0.999680
476.265513	0.999655
476.635645	0.999491
477.005719	0.999770
477.375734	0.999950
477.745691	0.999419
478.115588	0.999945
478.485427	1.000550
478.855207	0.999742
479.224928	0.999699
479.594591	1.000235
479.964194	1.000196
480.333739	0.999752
480.703226	0.999445
481.072653	1.000306
481.442022	1.000349
481.811333	0.999361
482.180584	1.000418
482.549777	0.999650
482.918912	1.000091
483.287988	0.999907
483.657005	0.998981
484.025964	1.000405
484.394864	1.000051
484.763706	1.000544
485.132489	1.000222
485.501213	0.999864
485.869879	0.999767
486.238487	0.999913
486.607036	1.000688
486.975527	0.999584
487.343959	0.999390
487.712333	0.999784
488.080648	0.999831
488.448905	0.999450
488.817104	0.999947
489.185244	1.000580
489.553326	0.999844
489.921350	0.999582
490.289315	0.999488
490.657222	1.000675
491.025070	1.000224
491.392861	1.000547
491.760593	1.000543
492.128267	1.000278
492.495883	1.000208
492.863440	1.000335
493.230939	1.000134
493.598380	1.000288
493.965763	1.000086
494.333088	0.999917
494.700354	0.999352
495.067563	0.999654
495.434713	0.999634
495.801805	1.000106
496.168839	1.000124
496.535815	0.999248
496.902733	0.999174
497.269593	0.999913
497.636395	1.000122
498.003139	0.999814
498.369825	1.000429
498.736453	0.999756
499.103023	0.999106
499.469535	0.999155
499.835989	0.999573
500.202385	0.999604
500.568723	1.000010
500.935003	0.999793
501.301226	1.000169
501.667390	0.999783
502.033497	1.000464
502.399546	0.999920
502.765537	0.999467
503.131470	0.999777
503.497345	1.000155
503.863163	1.000891
504.228923	0.999498
504.594625	1.000003
504.960269	1.000348
505.325856	1.000006
505.691385	0.999190
506.056856	1.000035
506.422270	0.999872
506.787625	1.000166
507.152924	0.999854
507.518164	0.999178
507.883347	0.999834
508.248472	0.999770
508.613540	0.999231
508.978550	1.000098
509.343503	0.999321
509.708398	0.999743
510.073236	0.999707
510.438016	1.000366
510.802738	1.000074
511.167403	1.000354
511.532010	0.999427
511.896561	0.999207
512.261053	1.000781
512.625488	0.999918
512.989866	1.000007
513.354186	0.999630
513.718449	0.999376
514.082655	0.999217
514.446803	0.999600
514.810894	1.000099
515.174927	0.999363
515.538904	0.999236
515.902822	0.999364
516.266684	0.999726
516.630488	1.000186
516.994235	0.999393
517.357925	0.999685
517.721558	0.999405
518.085133	0.998717
518.448651	1.000509
518.812112	0.999480
519.175516	0.999379
519.538863	0.999169
519.902152	0.999195
520.265385	0.999149
520.628560	0.999538
520.991678	0.999588
521.354739	0.999757
521.717743	0.999436
522.080690	1.000068
522.443580	0.999057
522.806413	0.999340
523.169189	0.998612
523.531908	0.998866
523.894569	0.999037
524.257174	0.999825
524.619722	0.999457
524.982213	0.999358
525.344647	0.999303
525.707025	0.998100
526.069345	0.998614
526.431608	0.998854
526.793815	0.999468
527.155964	0.998853
527.518057	0.999351
527.880093	0.999203
528.242072	0.998209
528.603995	0.998506
528.965860	0.999594
529.327669	0.998408
529.689421	0.998187
530.051117	0.999218
530.412755	0.998977
530.774337	0.999377
531.135862	0.998600
531.497331	0.998590
531.858743	0.998673
532.220098	0.999047
532.581396	0.998425
532.942638	0.998899
533.303824	0.998657
533.664953	0.999124
534.026025	0.998616
534.387040	0.998257
534.747999	0.998604
535.108902	0.998998
535.469748	0.997973
535.830537	0.998104
536.191270	0.998595
536.551947	0.998004
536.912567	0.998256
537.273131	0.999031
537.633638	0.998186
537.994089	0.998059
538.354483	0.998628
538.714821	0.998532
539.075103	0.998088
539.435328	0.998084
539.795497	0.997685
540.155609	0.997888
540.515665	0.998156
540.875665	0.998215
541.235609	0.998499
541.595496	0.997469
541.955328	0.997543
542.315102	0.998825
542.674821	0.998289
543.034483	0.997410
543.394090	0.997795
543.753640	0.998720
544.113134	0.998205
544.472571	0.998274
544.831953	0.997717
545.191278	0.997313
545.550548	0.998134
545.909761	0.996837
546.268918	0.998312
546.628019	0.997960
546.987064	0.997417
547.346053	0.997722
547.704986	0.998200
548.063863	0.997893
548.422684	0.998153
548.781449	0.998241
549.140158	0.997397
549.498811	0.997612
549.857408	0.998009
550.215949	0.997816
550.574434	0.997212
550.932864	0.997808
551.291237	0.998277
551.649555	0.997675
552.007817	0.997768
552.366022	0.997382
552.724173	0.998355
553.082267	0.997991
553.440305	0.997892
553.798288	0.998081
554.156215	0.997786
554.514086	0.997879
554.871902	0.997457
555.229661	0.997960
555.587365	0.997358
555.945014	0.998640
556.302606	0.997456
556.660143	0.997612
557.017625	0.997458
557.375050	0.997225
557.732421	0.997713
558.089735	0.997867
558.446994	0.998331
558.804197	0.998350
559.161345	0.998498
559.518437	0.998325
559.875474	0.996843
560.232455	0.997459
560.589381	0.998414
560.946251	0.997125
561.303065	0.996879
561.659825	0.997791
562.016528	0.996972
562.373177	0.997128
562.729770	0.996889
563.086307	0.997157
563.442789	0.997524
563.799216	0.997040
564.155587	0.996915
564.511904	0.996745
564.868164	0.997187
565.224370	0.997262
565.580520	0.997045
565.936615	0.997270
566.292654	0.997164
566.648638	0.997506
567.004567	0.996625
567.360441	0.997541
567.716260	0.997499
568.072023	0.997464
568.427732	0.997349
568.783385	0.996705
569.138982	0.996903
569.494525	0.996590
569.850013	0.996512
570.205445	0.996776
570.560823	0.996652
570.916145	0.996618
571.271412	0.997047
571.626625	0.996993
571.981782	0.995923
572.336884	0.996919
572.691931	0.996735
573.046923	0.995675
573.401860	0.996570
573.756743	0.996583
574.111570	0.996332
574.466342	0.997159
574.821059	0.996337
575.175722	0.996411
575.530330	0.996192
575.884882	0.995522
576.239380	0.996465
576.593823	0.996101
576.948211	0.995193
577.302544	0.995334
577.656823	0.995498
578.011047	0.995257
578.365216	0.995526
578.719330	0.994408
579.073389	0.995491
579.427394	0.995363
579.781344	0.995756
580.135239	0.995010
580.489080	0.994128
580.842866	0.994583
581.196597	0.993974
581.550273	0.993399
581.903895	0.993978
582.257463	0.993810
582.610975	0.993398
582.964434	0.993378
583.317837	0.994403
583.671186	0.993180
584.024481	0.992412
584.377721	0.992318
584.730906	0.992375
585.084037	0.991728
585.437113	0.992364
585.790135	0.991480
586.143103	0.990455
586.496016	0.992205
586.848874	0.990463
587.201679	0.991065
587.554428	0.989716
587.907124	0.989653
588.259765	0.990020
588.612352	0.989670
588.964884	0.989878
589.317362	0.989394
589.669786	0.988347
590.022155	0.987934
590.374470	0.986746
590.726731	0.987264
591.078937	0.986389
591.431090	0.986253
591.783188	0.986795
592.135232	0.986576
592.487222	0.986510
592.839157	0.985126
593.191038	0.985384
593.542866	0.985381
593.894639	0.985038
594.246358	0.983703
594.598022	0.982651
594.949633	0.983739
595.301190	0.981711
595.652692	0.982459
596.004141	0.982361
596.355535	0.981405
596.706876	0.980999
597.058162	0.980378
597.409395	0.979806
597.760573	0.979013
598.111698	0.978506
598.462768	0.977819
598.813785	0.977113
599.164748	0.976904
599.515657	0.975925
599.866511	0.975651
600.217312	0.974710
600.568060	0.974453
600.918753	0.973993
601.269392	0.973790
601.619978	0.972560
601.970510	0.971825
602.320988	0.971070
602.671412	0.969739
603.021783	0.969392
603.372100	0.969607
603.722363	0.967891
604.072572	0.966884
604.422728	0.966609
604.772830	0.964508
605.122878	0.963953
605.472872	0.963931
605.822813	0.962549
606.172701	0.961267
606.522534	0.961927
606.872314	0.959628
607.222041	0.958039
607.571714	0.957711
607.921333	0.955655
608.270899	0.954204
608.620411	0.954003
608.969870	0.953255
609.319276	0.951686
609.668627	0.951212
610.017926	0.949129
610.367171	0.947632
610.716362	0.946018
611.065500	0.944316
611.414585	0.942992
611.763616	0.943444
612.112594	0.940817
612.461518	0.939571
612.810389	0.938531
613.159207	0.936909
613.507971	0.935088
613.856682	0.933644
614.205340	0.932738
614.553945	0.930218
614.902496	0.929101
615.250994	0.926732
615.599439	0.926322
615.947830	0.924565
616.296169	0.922478
616.644454	0.920232
616.992686	0.918951
617.340864	0.916182
617.688990	0.915385
618.037063	0.913305
618.385082	0.911024
618.733048	0.909006
619.080961	0.907882
619.428821	0.906392
619.776628	0.903880
620.124382	0.901661
620.472083	0.899634
620.819731	0.899681
621.167326	0.897532
621.514868	0.896106
621.862357	0.895903
622.209793	0.894758
622.557176	0.891749
622.904506	0.892035
623.251783	0.890540
623.599007	0.889341
623.946179	0.887653
624.293297	0.886506
624.640363	0.885744
624.987376	0.883486
625.334336	0.883264
625.681243	0.880427
626.028097	0.880363
626.374899	0.877955
626.721647	0.876454
627.068343	0.875233
627.414987	0.873244
627.761577	0.871676
628.108115	0.869194
628.454600	0.868436
628.801032	0.865549
629.147412	0.864769
629.493739	0.861837
629.840014	0.860896
630.186236	0.858079
630.532405	0.857092
630.878521	0.854319
631.224585	0.853313
631.570597	0.852360
631.916556	0.848785
632.262462	0.847427
632.608316	0.845966
632.954117	0.843759
633.299866	0.842365
633.645562	0.839384
633.991206	0.839915
634.336797	0.838663
634.682336	0.836646
635.027823	0.834970
635.373257	0.834014
635.718639	0.832723
636.063968	0.829982
636.409245	0.830174
636.754470	0.828632
637.099642	0.827530
637.444762	0.825612
637.789829	0.823086
638.134845	0.822219
638.479808	0.820593
638.824719	0.818830
639.169577	0.818658
639.514383	0.814958
639.859137	0.814577
640.203839	0.813968
640.548489	0.810400
640.893086	0.809856
641.237632	0.808762
641.582125	0.805825
641.926566	0.803880
642.270955	0.802976
642.615292	0.800964
642.959576	0.798239
643.303809	0.796851
643.647990	0.794217
643.992118	0.792503
644.336195	0.792353
644.680219	0.788479
645.024192	0.788876
645.368112	0.782518
645.711981	0.781131
646.055797	0.777127
646.399562	0.775135
646.743274	0.768956
647.086935	0.766980
647.430544	0.764266
647.774101	0.761502
648.117606	0.760667
648.461059	0.757953
648.804460	0.756689
649.147810	0.757723
649.491108	0.756419
649.834354	0.755176
650.177548	0.755233
650.520690	0.755482
650.863781	0.754035
651.206820	0.751423
651.549807	0.752615
651.892742	0.751228
652.235626	0.749459
652.578458	0.748090
652.921238	0.748424
653.263967	0.746622
653.606644	0.747072
653.949269	0.743223
654.291843	0.744041
654.634365	0.739559
654.976836	0.738655
655.319255	0.737977
655.661622	0.736304
656.003938	0.733521
656.346203	0.734780
656.688416	0.730532
657.030577	0.731399
657.372687	0.730227
657.714746	0.728503
658.056753	0.724867
658.398708	0.724396
658.740612	0.724671
659.082465	0.719845
659.424266	0.719127
659.766016	0.716274
660.107715	0.714869
660.449362	0.712598
660.790958	0.711916
661.132503	0.709185
661.473996	0.706459
661.815438	0.706260
662.156829	0.704479
662.498168	0.702268
662.839456	0.703256
663.180693	0.699365
663.521879	0.698509
663.863013	0.697152
664.204097	0.693576
664.545129	0.690596
664.886110	0.688284
665.227040	0.684515
665.567918	0.685540
665.908746	0.683067
666.249522	0.681019
666.590248	0.680465
666.930922	0.677744
667.271545	0.674319
667.612118	0.673398
667.952639	0.673177
668.293109	0.669301
668.633528	0.669862
668.973896	0.667922
669.314213	0.666676
669.654480	0.665653
669.994695	0.664749
670.334859	0.663368
670.674973	0.661381
671.015035	0.660437
671.355047	0.658501
671.695008	0.657468
672.034918	0.658094
672.374777	0.655935
672.714585	0.654909
673.054342	0.653739
673.394049	0.651725
673.733705	0.648265
674.073310	0.646726
674.412864	0.648623
674.752368	0.646639
675.091820	0.646001
675.431223	0.646692
675.770574	0.644569
676.109875	0.645098
676.449125	0.642397
676.788324	0.642773
677.127473	0.645050
677.466571	0.643420
677.805619	0.642248
678.144616	0.641468
678.483562	0.640390
678.822458	0.640889
679.161303	0.640803
679.500098	0.639186
679.838842	0.640274
680.177535	0.637738
680.516179	0.635332
680.854771	0.633176
681.193314	0.627929
681.531805	0.621439
681.870247	0.611224
682.208638	0.605655
682.546978	0.603568
682.885268	0.602545
683.223508	0.605442
683.561697	0.606454
683.899836	0.607226
684.237925	0.609325
684.575963	0.609538
684.913951	0.611727
685.251889	0.605943
685.589776	0.607439
685.927614	0.608863
686.265401	0.602860
686.603137	0.603852
686.940824	0.597726
687.278460	0.596386
687.616046	0.595082
687.953582	0.591194
688.291068	0.591612
688.628504	0.587018
688.965889	0.588053
689.303224	0.589768
689.640510	0.590867
689.977745	0.594145
690.314930	0.597607
690.652065	0.599473
690.989150	0.603797
691.326185	0.605968
691.663170	0.607900
692.000105	0.611631
692.336990	0.616370
692.673825	0.615668
693.010610	0.620251
693.347345	0.623357
693.684030	0.622164
694.020665	0.625488
694.357251	0.632246
694.693786	0.630458
695.030272	0.632833
695.366707	0.633617
695.703093	0.635345
696.039429	0.632666
696.375716	0.633241
696.711952	0.634207
697.048139	0.635390
697.384276	0.636766
697.720363	0.634071
698.056400	0.633097
698.392388	0.636859
698.728326	0.638745
699.064214	0.639846
699.400053	0.639563
699.735842	0.640800
700.071581	0.641737
700.407270	0.643215
700.742910	0.644527
701.078501	0.649170
701.414042	0.647778
701.749533	0.649308
702.084974	0.655730
702.420366	0.648182
702.755709	0.654030
703.091002	0.660781
703.426246	0.652101
703.761440	0.657905
704.096584	0.661113
704.431679	0.657488
704.766725	0.657701
705.101721	0.658882
705.436668	0.654473
705.771565	0.660349
706.106413	0.656789
706.441212	0.651982
706.775961	0.649809
707.110661	0.652623
707.445311	0.649208
707.779913	0.645222
708.114465	0.643801
708.448967	0.641285
708.783421	0.633902
709.117825	0.628657
709.452180	0.629386
709.786485	0.624098
710.120742	0.614950
710.454949	0.617144
710.789107	0.610872
711.123216	0.602597
711.457275	0.604643
711.791286	0.596984
712.125247	0.595669
712.459159	0.605038
712.793023	0.599002
713.126837	0.600602
713.460602	0.599813
713.794318	0.607056
714.127985	0.603825
714.461602	0.611396
714.795171	0.613358
715.128691	0.618880
715.462162	0.623823
715.795584	0.627703
716.128957	0.629794
716.462281	0.634605
716.795556	0.636560
717.128782	0.640820
717.461960	0.648484
717.795088	0.646840
718.128167	0.651529
718.461198	0.658744
718.794180	0.658366
719.127113	0.660261
719.459997	0.663568
719.792833	0.668695
720.125619	0.669500
720.458357	0.674059
720.791046	0.673512
721.123686	0.676398
721.456278	0.682121
721.788821	0.679228
722.121315	0.682726
722.453761	0.686502
722.786158	0.684591
723.118506	0.680054
723.450805	0.687984
723.783056	0.684131
724.115259	0.680509
724.447412	0.680057
724.779518	0.681574
725.111574	0.680193
725.443582	0.676090
725.775542	0.677493
726.107453	0.670040
726.439315	0.670245
726.771129	0.668569
727.102895	0.663223
727.434612	0.655536
727.766281	0.654452
728.097901	0.654051
728.429473	0.653995
728.760996	0.651413
729.092471	0.651253
729.423897	0.653854
729.755276	0.652147
730.086606	0.652189
730.417887	0.647417
730.749120	0.637928
731.080305	0.629041
731.411442	0.625156
731.742530	0.629732
732.073570	0.627922
732.404562	0.620752
732.735506	0.622744
733.066401	0.626517
733.397249	0.633348
733.728048	0.643621
734.058798	0.654115
734.389501	0.664083
734.720156	0.673096
735.050762	0.679377
735.381320	0.680289
735.711831	0.689427
736.042293	0.693715
736.372707	0.688887
736.703073	0.693300
737.033391	0.696022
737.363661	0.691898
737.693883	0.688028
738.024056	0.687095
738.354182	0.687714
738.684260	0.677825
739.014290	0.673546
739.344272	0.674909
739.674207	0.668809
740.004093	0.667914
740.333931	0.668879
740.663722	0.667575
740.993464	0.668460
741.323159	0.671809
741.652806	0.676055
741.982405	0.679782
742.311956	0.683607
742.641460	0.685268
742.970915	0.688831
743.300323	0.695448
743.629683	0.701869
743.958996	0.703111
744.288260	0.706831
744.617477	0.712045
744.946647	0.713364
745.275768	0.717862
745.604842	0.717804
745.933869	0.727325
746.262847	0.727164
746.591778	0.721542
746.920662	0.727807
747.249498	0.733887
747.578286	0.724805
747.907027	0.720628
748.235720	0.722007
748.564365	0.716468
748.892963	0.716479
749.221514	0.719113
749.550017	0.724517
749.878473	0.723375
750.206881	0.730146
750.535242	0.731551
750.863555	0.730758
751.191821	0.730954
751.520039	0.734501
751.848210	0.739031
752.176334	0.732894
752.504411	0.730725
752.832440	0.738671
753.160421	0.742797
753.488356	0.740851
753.816243	0.737291
754.144082	0.746541
754.471875	0.749149
754.799620	0.744583
755.127318	0.745349
755.454969	0.745984
755.782572	0.744467
756.110129	0.749279
756.437638	0.752598
756.765100	0.748473
757.092515	0.747311
757.419882	0.745996
757.747203	0.750244
758.074477	0.750398
758.401703	0.747227
758.728882	0.743117
759.056014	0.741890
759.383099	0.740906
759.710138	0.742185
760.037129	0.738537
760.364073	0.732769
760.690970	0.734446
761.017820	0.740106
761.344623	0.736289
761.671379	0.727303
761.998088	0.715149
762.324751	0.694741
762.651366	0.654658
762.977935	0.590423
763.304456	0.539878
763.630931	0.530068
763.957359	0.567347
764.283740	0.610281
764.610074	0.636066
764.936362	0.666079
765.262602	0.691235
765.588796	0.712444
765.914943	0.729505
766.241044	0.746002
766.567097	0.752782
766.893104	0.761344
767.219064	0.768477
767.544978	0.773783
767.870845	0.787540
768.196665	0.790548
768.522438	0.789332
768.848165	0.790143
769.173846	0.799009
769.499479	0.803308
769.825066	0.805370
770.150607	0.811245
770.476101	0.805979
770.801548	0.807174
771.126949	0.819338
771.452303	0.822177
771.777611	0.821558
772.102872	0.819813
772.428087	0.825603
772.753256	0.829648
773.078378	0.829146
773.403453	0.838683
773.728482	0.844223
774.053465	0.836728
774.378401	0.840122
774.703291	0.848107
775.028135	0.847227
775.352932	0.849859
775.677683	0.852494
776.002388	0.852901
776.327046	0.851310
776.651658	0.854421
776.976224	0.858103
777.300743	0.858782
777.625216	0.861618
777.949643	0.862957
778.274024	0.862784
778.598359	0.864466
778.922647	0.863224
779.246889	0.863293
779.571086	0.866801
779.895236	0.870343
780.219339	0.867001
780.543397	0.864031
780.867409	0.862852
781.191374	0.864797
781.515294	0.865608
781.839167	0.865658
782.162995	0.868561
782.486776	0.865430
782.810511	0.866269
783.134201	0.869340
783.457844	0.866738
783.781441	0.870582
784.104993	0.876006
784.428498	0.875932
784.751958	0.871748
785.075372	0.874041
785.398739	0.878424
785.722061	0.873799
786.045337	0.870089
786.368568	0.875330
786.691752	0.876836
787.014891	0.863628
787.337983	0.854480
787.661030	0.848398
787.984031	0.831097
788.306987	0.817823
788.629897	0.820393
788.952760	0.824129
789.275579	0.827514
789.598351	0.842993
789.921078	0.855366
790.243759	0.857047
790.566395	0.862145
790.888984	0.870012
791.211529	0.874158
791.534027	0.878004
791.856480	0.878988
792.178888	0.885457
792.501249	0.886002
792.823566	0.887285
793.145836	0.887810
793.468062	0.890401
793.790241	0.889315
794.112375	0.887642
794.434464	0.882078
794.756507	0.883407
795.078505	0.882787
795.400457	0.877109
795.722364	0.865855
796.044226	0.858691
796.366042	0.857670
796.687812	0.861417
797.009538	0.856958
797.331218	0.860152
797.652852	0.865648
797.974442	0.868563
798.295986	0.869780
798.617484	0.871582
798.938938	0.875494
799.260346	0.880493
799.581709	0.882859
799.903026	0.884629
800.224299	0.885582
800.545526	0.888956
800.866708	0.892395
801.187845	0.896901
801.508936	0.896293
801.829983	0.894870
802.150984	0.897455
802.471940	0.902745
802.792851	0.901872
803.113717	0.902618
803.434538	0.900519
803.755314	0.902781
804.076045	0.904626
804.396731	0.905008
804.717372	0.904871
805.037967	0.905803
805.358518	0.904038
805.679024	0.902371
805.999485	0.901477
806.319901	0.901804
806.640272	0.902373
806.960598	0.901210
807.280879	0.898887
807.601115	0.897567
807.921306	0.900758
808.241453	0.899721
808.561554	0.897937
808.881611	0.899137
809.201623	0.900797
809.521590	0.901053
809.841513	0.902685
810.161390	0.901189
810.481223	0.902312
810.801011	0.906463
811.120755	0.907397
811.440453	0.905866
811.760107	0.904699
812.079716	0.904375
812.399281	0.908046
812.718801	0.911139
813.038276	0.911891
813.357707	0.910235
813.677093	0.908900
813.996434	0.911547
814.315731	0.912189
814.634983	0.914118
814.954191	0.912207
815.273354	0.909259
815.592473	0.905272
815.911547	0.906146
816.230577	0.903126
816.549562	0.900799
816.868502	0.901968
817.187399	0.897784
817.506250	0.892693
817.825058	0.895127
818.143821	0.891262
818.462539	0.885621
818.781213	0.879593
819.099843	0.867477
819.418429	0.853668
819.736970	0.836823
820.055466	0.818128
820.373919	0.792107
820.692327	0.759461
821.010691	0.726787
821.329011	0.653037
821.647286	0.541312
821.965517	0.430301
822.283704	0.389544
822.601847	0.391269
822.919945	0.426152
823.237999	0.457586
823.556010	0.502673
823.873976	0.556794
824.191897	0.606307
824.509775	0.647263
824.827609	0.691597
825.145398	0.713467
825.463144	0.715671
825.780845	0.698689
826.098502	0.680223
826.416116	0.636536
826.733685	0.593870
827.051210	0.586014
827.368692	0.600137
827.686129	0.635506
828.003522	0.687455
828.320872	0.732915
828.638177	0.776666
828.955439	0.808651
829.272656	0.828763
829.589830	0.845948
829.906960	0.859344
830.224046	0.873213
830.541088	0.883203
830.858086	0.887219
831.175041	0.892862
831.491952	0.892271
831.808819	0.888742
832.125642	0.882288
832.442421	0.867874
832.759157	0.847428
833.075849	0.803146
833.392497	0.741293
833.709101	0.700700
834.025662	0.709568
834.342179	0.741491
834.658653	0.778971
834.975083	0.814166
835.291469	0.839721
835.607811	0.859993
835.924110	0.876151
836.240366	0.893087
836.556578	0.906784
836.872746	0.913618
837.188871	0.919806
837.504952	0.924683
837.820990	0.928006
838.136984	0.932931
838.452935	0.934202
838.768842	0.935838
839.084706	0.930048
839.400526	0.903888
839.716303	0.865048
840.032037	0.843076
840.347727	0.847036
840.663373	0.864917
840.978977	0.884949
841.294537	0.907111
841.610054	0.922244
841.925527	0.929862
842.240957	0.937087
842.556344	0.944542
842.871687	0.949401
843.186987	0.954245
843.502244	0.953237
843.817458	0.955214
844.132629	0.959378
844.447756	0.964153
844.762840	0.963696
845.077881	0.963169
845.392879	0.964515
845.707833	0.965868
846.022745	0.968896
846.337613	0.966911
846.652438	0.970419
846.967221	0.967252
847.281960	0.969105
847.596656	0.971553
847.911309	0.969367
848.225919	0.971926
848.540485	0.971149
848.855009	0.971402
849.169490	0.970949
849.483928	0.972300
849.798323	0.972318
850.112675	0.972767
850.426984	0.972084
850.741251	0.973033
851.055474	0.973697
851.369654	0.971590
851.683792	0.972067
851.997887	0.973026
852.311938	0.972759
852.625947	0.972778
852.939914	0.971171
853.253837	0.972263
853.567718	0.974034
853.881555	0.973453
854.195350	0.970814
854.509103	0.972879
854.822812	0.972217
855.136479	0.972699
855.450103	0.972732
855.763685	0.971575
856.077224	0.971079
856.390720	0.974084
856.704173	0.973084
857.017584	0.971601
857.330953	0.969846
857.644278	0.971733
857.957561	0.972321
858.270802	0.972830
858.584000	0.970557
858.897155	0.969648
859.210268	0.971058
859.523339	0.971868
859.836367	0.972768
860.149352	0.974103
860.462295	0.972521
860.775195	0.972374
861.088054	0.972807
861.400869	0.971767
861.713642	0.973458
862.026373	0.973237
862.339062	0.974581
862.651708	0.970829
862.964312	0.972028
863.276873	0.973492
863.589392	0.971455
863.901869	0.969485
864.214303	0.968641
864.526696	0.967117
864.839045	0.967032
865.151353	0.965881
865.463619	0.966144
865.775842	0.966417
866.088023	0.965927
866.400162	0.965059
866.712258	0.965952
867.024313	0.965917
867.336325	0.967471
867.648296	0.967024
867.960224	0.965520
868.272110	0.964819
868.583954	0.967307
868.895755	0.967167
869.207515	0.965189
869.519233	0.962632
869.830909	0.965705
870.142542	0.966154
870.454134	0.964984
870.765684	0.963725
871.077191	0.962477
871.388657	0.962801
871.700081	0.962182
872.011463	0.963110
872.322803	0.962574
872.634101	0.960735
872.945357	0.958631
873.256571	0.957094
873.567744	0.957212
873.878874	0.958272
874.189963	0.956301
874.501010	0.955696
874.812015	0.953300
875.122979	0.955049
875.433900	0.958386
875.744780	0.958308
876.055618	0.956588
876.366415	0.953999
876.677169	0.954739
876.987882	0.955809
877.298554	0.956437
877.609183	0.952089
877.919771	0.949574
878.230317	0.948000
878.540822	0.945433
878.851285	0.939905
879.161707	0.932330
879.472087	0.921970
879.782425	0.905975
880.092722	0.872738
880.402977	0.824023
880.713191	0.766518
881.023363	0.711171
881.333494	0.678352
881.643583	0.651254
881.953631	0.650156
882.263637	0.679121
882.573602	0.717463
882.883526	0.741555
883.193408	0.763946
883.503248	0.785121
883.813048	0.811020
884.122806	0.839548
884.432522	0.860654
884.742197	0.880582
885.051831	0.890083
885.361424	0.899538
885.670975	0.910562
885.980485	0.920567
886.289954	0.926493
886.599382	0.931804
886.908768	0.934892
887.218113	0.941888
887.527417	0.943679
887.836680	0.948056
888.145901	0.948872
888.455082	0.951368
888.764221	0.955839
889.073319	0.956597
889.382376	0.956740
889.691392	0.957699
890.000366	0.957594
890.309300	0.958710
890.618193	0.957955
890.927044	0.956209
891.235855	0.956698
891.544625	0.955337
891.853353	0.956800
892.162041	0.953586
892.470687	0.947917
892.779293	0.943447
893.087858	0.940277
893.396381	0.933229
893.704864	0.920794
894.013306	0.897316
894.321707	0.872388
894.630068	0.859566
894.938387	0.855478
895.246665	0.856206
895.554903	0.867345
895.863100	0.880248
896.171256	0.896845
896.479371	0.914794
896.787446	0.926962
897.095480	0.933042
897.403473	0.934415
897.711425	0.938244
898.019336	0.946906
898.327207	0.948526
898.635038	0.950073
898.942827	0.950920
899.250576	0.953340
899.558284	0.957158
899.865952	0.959333
900.173579	0.960327
900.481165	0.959755
900.788711	0.964217
901.096216	0.966165
901.403681	0.965768
901.711105	0.967544
902.018489	0.967317
902.325832	0.967257
902.633135	0.967097
902.940397	0.959993
903.247619	0.949155
903.554800	0.925491
903.861941	0.888444
904.169041	0.855213
904.476101	0.840742
904.783121	0.840630
905.090100	0.855020
905.397039	0.875923
905.703938	0.895695
906.010796	0.914648
906.317614	0.930139
906.624391	0.940874
906.931129	0.949017
907.237826	0.957221
907.544483	0.964685
907.851099	0.966761
908.157675	0.972189
908.464211	0.974193
908.770707	0.976602
909.077163	0.977955
909.383578	0.978014
909.689954	0.978951
909.996289	0.979310
910.302584	0.981519
910.608839	0.983107
910.915054	0.982147
911.221229	0.980829
911.527363	0.979921
911.833458	0.980894
912.139513	0.980550
912.445527	0.979421
912.751502	0.978460
913.057436	0.975167
913.363331	0.974062
913.669186	0.971917
913.975000	0.966315
914.280775	0.961388
914.586510	0.954980
914.892205	0.942603
915.197859	0.922340
915.503475	0.896920
915.809050	0.879217
916.114585	0.874575
916.420081	0.872381
916.725536	0.868531
917.030952	0.876442
917.336328	0.887850
917.641665	0.900802
917.946961	0.917241
918.252218	0.928152
918.557435	0.935268
918.862612	0.944484
919.167750	0.949630
919.472848	0.953298
919.777906	0.958235
920.082925	0.962977
920.387904	0.967056
920.692843	0.967401
920.997743	0.968940
921.302603	0.971357
921.607423	0.973804
921.912204	0.976879
922.216946	0.975630
922.521647	0.977650
922.826310	0.978244
923.130932	0.980413
923.435516	0.981742
923.740059	0.983426
924.044564	0.981697
924.349028	0.984177
924.653454	0.986324
924.957840	0.987728
925.262186	0.988032
925.566493	0.987119
925.870761	0.988033
926.174989	0.988140
926.479178	0.992299
926.783328	0.991330
927.087438	0.992397
927.391509	0.992692
927.695541	0.992643
927.999533	0.993110
928.303486	0.991240
928.607400	0.993190
928.911275	0.992742
929.215110	0.993587
929.518906	0.994015
929.822663	0.992994
930.126381	0.993495
930.430060	0.993195
930.733699	0.993246
931.037299	0.991586
931.340861	0.994018
931.644383	0.992660
931.947866	0.992777
932.251309	0.992909
932.554714	0.993814
932.858080	0.992897
933.161407	0.992829
933.464694	0.993991
933.767943	0.993426
934.071153	0.993808
934.374323	0.994247
934.677455	0.992665
934.980548	0.995227
935.283602	0.993931
935.586617	0.993902
935.889593	0.993535
936.192530	0.993639
936.495428	0.992969
936.798287	0.993735
937.101108	0.993419
937.403890	0.992149
937.706632	0.992969
938.009336	0.990193
938.312002	0.989459
938.614628	0.986910
938.917216	0.986260
939.219765	0.984926
939.522275	0.985348
939.824747	0.987536
940.127179	0.986808
940.429573	0.987863
940.731929	0.987907
941.034246	0.987188
941.336524	0.988958
941.638763	0.988672
941.940964	0.990399
942.243126	0.989306
942.545250	0.989716
942.847335	0.990857
943.149381	0.992225
943.451389	0.991650
943.753359	0.991033
944.055290	0.993166
944.357182	0.992117
944.659036	0.991223
944.960851	0.992342
945.262628	0.993194
945.564367	0.994056
945.866067	0.991490
946.167729	0.993562
946.469352	0.993140
946.770937	0.991407
947.072484	0.992675
947.373992	0.992109
947.675462	0.993614
947.976893	0.992914
948.278286	0.993459
948.579641	0.995099
948.880958	0.993339
949.182236	0.993594
949.483476	0.994150
949.784678	0.992266
950.085841	0.994251
950.386967	0.993778
950.688054	0.993773
950.989103	0.993207
951.290114	0.991124
951.591087	0.992545
951.892021	0.993460
952.192917	0.991975
952.493776	0.991244
952.794596	0.989903
953.095378	0.990755
953.396122	0.990429
953.696828	0.990003
953.997496	0.992362
954.298126	0.993715
954.598718	0.992322
954.899272	0.993916
955.199788	0.993309
955.500266	0.993881
955.800706	0.994550
956.101108	0.995441
956.401472	0.996225
956.701798	0.995978
957.002087	0.995550
957.302337	0.996606
957.602550	0.997771
957.902724	0.996813
958.202861	0.997556
958.502960	0.998384
958.803022	0.996503
959.103045	0.998521
959.403031	0.997991
959.702979	0.996476
960.002889	0.998001
960.302762	0.996527
960.602596	0.998312
960.902393	0.996547
961.202153	0.999400
961.501875	0.998869
961.801559	0.997617
962.101205	0.997992
962.400814	0.997844
962.700385	0.997898
962.999918	0.998580
963.299414	0.997474
963.598873	0.998326
963.898293	0.998402
964.197677	0.997441
964.497022	0.997440
964.796331	0.999727
965.095601	0.998285
965.394835	0.998516
965.694030	0.998292
965.993189	0.999486
966.292309	0.998620
966.591393	0.998926
966.890439	0.998568
967.189447	0.998236
967.488419	0.999195
967.787353	0.998038
968.086249	0.999342
968.385108	0.999123
968.683930	0.998188
968.982714	0.999049
969.281462	0.999084
969.580172	0.997986
969.878844	0.998540
970.177480	0.997257
970.476078	0.998675
970.774639	0.997262
971.073162	0.999121
971.371649	0.998468
971.670098	0.997803
971.968510	0.998271
972.266885	0.997061
972.565223	0.997734
972.863524	0.997150
973.161788	0.997840
973.460014	0.999340
973.758204	0.996847
974.056356	0.998747
974.354471	0.996149
974.652550	0.998115
974.950591	0.996933
975.248595	0.999093
975.546563	0.997877
975.844493	0.999569
976.142386	0.998227
976.440243	0.999481
976.738062	0.998725
977.035845	0.999355
977.333590	0.999249
977.631299	1.000274
977.928971	0.998336
978.226606	0.998736
978.524204	0.997402
978.821765	0.999540
979.119290	0.998344
979.416777	0.997443
979.714228	0.998412
980.011642	0.997249
980.309020	0.999444
980.606360	0.998545
980.903664	1.000279
981.200931	0.997686
981.498162	0.997284
981.795356	0.996295
982.092513	0.995165
982.389633	0.996436
982.686717	0.994159
982.983764	0.993509
983.280775	0.992992
983.577749	0.992545
983.874686	0.993342
984.171587	0.994150
984.468451	0.995525
984.765279	0.996791
985.062070	0.995507
985.358824	0.997685
985.655543	0.995932
985.952224	0.997343
986.248869	0.997592
986.545478	0.999351
986.842050	0.999750
987.138586	0.996901
987.435086	0.998262
987.731549	1.000211
988.027975	0.998140
988.324366	0.999022
988.620719	0.998383
988.917037	0.996938
989.213318	0.999627
989.509563	0.998883
989.805772	0.999597
990.101944	0.998899
990.398080	0.998554
990.694180	0.998743
990.990244	0.998406
991.286271	0.999816
991.582262	1.000406
991.878217	0.999343
992.174136	0.999577
992.470019	0.999987
992.765865	0.998949
993.061676	1.000050
993.357450	0.999679
993.653188	0.999018
993.948890	0.998565
994.244556	0.999403
994.540186	0.999421
994.835780	0.996941
995.131337	0.999457
995.426859	0.998170
995.722345	0.998404
996.017795	0.996869
996.313208	0.997442
996.608586	0.997014
996.903928	0.998481
997.199234	0.997264
997.494504	0.997692
997.789738	0.997537
998.084936	0.997042
998.380099	0.999227
998.675225	0.998420
998.970316	1.000250
999.265371	0.999614
999.560390	0.999075
999.855373	0.999914
1000.150320	0.999278
1000.445232	0.999371
1000.740108	0.997583
1001.034948	0.999334
1001.329752	0.999206
1001.624521	0.999550
1001.919254	1.000093
1002.213951	0.998818
1002.508613	0.999222
1002.803239	1.000519
1003.097829	0.999342
1003.392384	0.999535
1003.686903	0.999924
1003.981386	0.999288
1004.275834	1.000443
1004.570246	0.998798
1004.864623	0.999610
1005.158964	0.999805
1005.453270	0.999646
1005.747540	0.998117
1006.041775	0.998084
1006.335974	0.999570
1006.630138	0.999750
1006.924266	0.999672
1007.218359	1.002023
1007.512416	0.999954
1007.806438	0.999373
1008.100425	1.000543
1008.394376	0.999133
1008.688292	0.999290
1008.982172	1.002207
1009.276017	1.000599
1009.569827	0.998811
1009.863602	1.000024
1010.157341	1.000126
1010.451045	1.000371
1010.744714	0.999298
1011.038347	1.000192
1011.331945	1.000263
1011.625508	0.997042
1011.919036	0.999992
1012.212528	0.999112
1012.505986	0.998684
1012.799408	0.999972
1013.092795	1.000218
1013.386147	1.000696
1013.679464	1.000457
1013.972745	0.999061
1014.265992	0.998152
1014.559204	0.998784
1014.852380	0.999505
1015.145521	0.999235
1015.438628	0.999816
1015.731699	1.000581
1016.024736	0.999825
1016.317737	1.000407
1016.610703	0.999636
1016.903635	1.000856
1017.196531	0.999906
1017.489393	1.001237
1017.782219	0.999119
1018.075011	0.999186
1018.367768	0.999887
1018.660490	1.000029
1018.953177	1.000029
1019.245829	1.000029
