Dividing Wavelength (nm)	Counts (n)	Blue Motor Position (mm): 0.000000	Red Motor Position (mm): 28.400000	
326.493990	1.001503
326.888308	1.001503
327.282561	1.001503
327.676750	0.999489
328.070874	0.999533
328.464933	1.001306
328.858929	0.998905
329.252859	0.999726
329.646726	0.999959
330.040528	1.000656
330.434265	0.999753
330.827938	1.001632
331.221547	1.000494
331.615091	1.000123
332.008571	1.000872
332.401986	1.000525
332.795338	1.002872
333.188625	0.998810
333.581847	1.000581
333.975006	0.999603
334.368100	1.000140
334.761129	1.000576
335.154095	1.000787
335.546996	0.998181
335.939833	0.993602
336.332606	0.994797
336.725315	0.996879
337.117960	0.997346
337.510540	0.995331
337.903056	0.996959
338.295508	0.994727
338.687896	0.996470
339.080220	0.995306
339.472480	0.995675
339.864676	0.995582
340.256807	0.996464
340.648875	0.997305
341.040879	0.995942
341.432818	0.995287
341.824694	0.995745
342.216506	0.997091
342.608253	0.996092
342.999937	0.994809
343.391557	0.995703
343.783113	0.995817
344.174605	0.996774
344.566033	0.995970
344.957397	0.994311
345.348697	0.994933
345.739934	0.995323
346.131106	0.996021
346.522215	0.993902
346.913260	0.995374
347.304241	0.995274
347.695159	0.995602
348.086012	0.994196
348.476802	0.995283
348.867528	0.996020
349.258191	0.994433
349.648789	0.996129
350.039324	0.994578
350.429796	0.996329
350.820203	0.994913
351.210548	0.995087
351.600828	0.994695
351.991045	0.994634
352.381198	0.996215
352.771288	0.995454
353.161314	0.995995
353.551276	0.997257
353.941175	0.995941
354.331010	0.994890
354.720782	0.995925
355.110490	0.996305
355.500135	0.995957
355.889717	0.996025
356.279235	0.996228
356.668689	0.994592
357.058080	0.995329
357.447408	0.996965
357.836672	0.994826
358.225873	0.996571
358.615010	0.996026
359.004084	0.996115
359.393095	0.996712
359.782043	0.995579
360.170927	0.998103
360.559748	0.995546
360.948505	0.994710
361.337199	0.995796
361.725830	0.995495
362.114398	0.994967
362.502903	0.996066
362.891344	0.996034
363.279722	0.996089
363.668037	0.995066
364.056289	0.996231
364.444478	0.996506
364.832603	0.995897
365.220665	0.995323
365.608665	0.995445
365.996601	0.996044
366.384474	0.995640
366.772284	0.996223
367.160031	0.994866
367.547715	0.995250
367.935336	0.995195
368.322893	0.997523
368.710388	0.994548
369.097820	0.996674
369.485189	0.995469
369.872495	0.994244
370.259738	0.994319
370.646918	0.996156
371.034035	0.995417
371.421090	0.995934
371.808081	0.995842
372.195010	0.995587
372.581875	0.995572
372.968678	0.996441
373.355418	0.995886
373.742096	0.995461
374.128710	0.996903
374.515262	0.994767
374.901751	0.996809
375.288177	0.996736
375.674540	0.996451
376.060841	0.995308
376.447079	0.996648
376.833254	0.996435
377.219367	0.995994
377.605417	0.996431
377.991404	0.996893
378.377329	0.995850
378.763191	0.995895
379.148991	0.997328
379.534727	0.997263
379.920402	0.996269
380.306013	0.996824
380.691563	0.996848
381.077049	0.995620
381.462474	0.996801
381.847835	0.997184
382.233134	0.996804
382.618371	0.997015
383.003545	0.997154
383.388657	0.995941
383.773706	0.997163
384.158693	0.997238
384.543618	0.996703
384.928480	0.997797
385.313280	0.996214
385.698017	0.997363
386.082692	0.998020
386.467305	0.997123
386.851856	0.996586
387.236344	0.997205
387.620770	0.996004
388.005133	0.997374
388.389435	0.997524
388.773674	0.996792
389.157851	0.998055
389.541965	0.997339
389.926018	0.997140
390.310008	0.998609
390.693936	0.997049
391.077802	0.997237
391.461606	0.998031
391.845348	0.997869
392.229027	0.997748
392.612645	0.997560
392.996200	0.997770
393.379694	0.997289
393.763125	0.998050
394.146494	0.997609
394.529801	0.997496
394.913047	0.998835
395.296230	0.998465
395.679351	0.997520
396.062410	0.997617
396.445408	0.998114
396.828343	0.997838
397.211217	0.997290
397.594028	0.997769
397.976778	0.998058
398.359466	0.997570
398.742092	0.997280
399.124656	0.997338
399.507158	0.997284
399.889598	0.998088
400.271977	0.997257
400.654294	0.998686
401.036549	0.997675
401.418742	0.998793
401.800874	0.998029
402.182944	0.997267
402.564952	0.996625
402.946898	0.997851
403.328783	0.998092
403.710606	0.997838
404.092367	0.997576
404.474067	0.997536
404.855705	0.998360
405.237282	0.998081
405.618797	0.997927
406.000250	0.997025
406.381642	0.998381
406.762972	0.996998
407.144240	0.997467
407.525447	0.998284
407.906593	0.998016
408.287677	0.997751
408.668700	0.998577
409.049661	0.996833
409.430560	0.998280
409.811399	0.996732
410.192176	0.997558
410.572891	0.998184
410.953545	0.997992
411.334138	0.996884
411.714669	0.997662
412.095139	0.997501
412.475547	0.998401
412.855894	0.997493
413.236180	0.998269
413.616405	0.998013
413.996568	0.998276
414.376670	0.997692
414.756711	0.997187
415.136691	0.998036
415.516609	0.998087
415.896466	0.997736
416.276262	0.996430
416.655997	0.998060
417.035670	0.996888
417.415283	0.997437
417.794834	0.997655
418.174324	0.997689
418.553753	0.997747
418.933121	0.997675
419.312428	0.997944
419.691674	0.998012
420.070859	0.997537
420.449983	0.998193
420.829045	0.998261
421.208047	0.998726
421.586988	0.999245
421.965867	0.997964
422.344686	0.997970
422.723444	0.997540
423.102141	0.997667
423.480777	0.997820
423.859352	0.997584
424.237866	0.997655
424.616319	0.997713
424.994712	0.998283
425.373044	0.998437
425.751314	0.998059
426.129524	0.997541
426.507673	0.998503
426.885762	0.998337
427.263789	0.997916
427.641756	0.998539
428.019662	0.998985
428.397508	0.996917
428.775292	0.997271
429.153016	0.997494
429.530679	0.997937
429.908282	0.998721
430.285824	0.996631
430.663305	0.997571
431.040726	0.997040
431.418086	0.998628
431.795385	0.998366
432.172624	0.997112
432.549802	0.998970
432.926920	0.997889
433.303977	0.996898
433.680974	0.998292
434.057910	0.997119
434.434786	0.998100
434.811601	0.997536
435.188355	0.997288
435.565050	0.997748
435.941683	0.997667
436.318257	0.998187
436.694770	0.997789
437.071222	0.998061
437.447614	0.997645
437.823946	0.997634
438.200218	0.998199
438.576429	0.997640
438.952580	0.998248
439.328670	0.997694
439.704700	0.997914
440.080670	0.998348
440.456580	0.997664
440.832429	0.997073
441.208218	0.998343
441.583947	0.996798
441.959616	0.997591
442.335224	0.996828
442.710773	0.998686
443.086261	0.997702
443.461689	0.996821
443.837057	0.996811
444.212365	0.997159
444.587612	0.997069
444.962800	0.997116
445.337927	0.997300
445.712995	0.997373
446.088002	0.998003
446.462949	0.997723
446.837837	0.997782
447.212664	0.997480
447.587431	0.997873
447.962139	0.997154
448.336786	0.997226
448.711374	0.997560
449.085901	0.996353
449.460369	0.996771
449.834776	0.996738
450.209124	0.996086
450.583412	0.996083
450.957640	0.995299
451.331808	0.995667
451.705917	0.995147
452.079965	0.994401
452.453954	0.995050
452.827883	0.994003
453.201752	0.993536
453.575562	0.993709
453.949311	0.993156
454.323001	0.992294
454.696632	0.991083
455.070202	0.990225
455.443713	0.988438
455.817164	0.988926
456.190556	0.987467
456.563888	0.986318
456.937160	0.985739
457.310373	0.984358
457.683526	0.983545
458.056619	0.982636
458.429653	0.981926
458.802628	0.980241
459.175542	0.978950
459.548398	0.976173
459.921194	0.974624
460.293930	0.973565
460.666607	0.968675
461.039224	0.965417
461.411782	0.964461
461.784280	0.962269
462.156719	0.961801
462.529099	0.959839
462.901419	0.957495
463.273680	0.955620
463.645882	0.954018
464.018024	0.950995
464.390106	0.948248
464.762130	0.945512
465.134094	0.938749
465.505999	0.930683
465.877845	0.921790
466.249631	0.918971
466.621358	0.917555
466.993026	0.916596
467.364634	0.914322
467.736184	0.911616
468.107674	0.907785
468.479105	0.901605
468.850477	0.900126
469.221790	0.896239
469.593043	0.893434
469.964238	0.889087
470.335373	0.883616
470.706449	0.878102
471.077467	0.872793
471.448425	0.859390
471.819324	0.847923
472.190164	0.843444
472.560945	0.845287
472.931667	0.842465
473.302330	0.837009
473.672934	0.833897
474.043479	0.825000
474.413965	0.818594
474.784393	0.812548
475.154761	0.805001
475.525070	0.796974
475.895321	0.793160
476.265513	0.783986
476.635645	0.776738
477.005719	0.768141
477.375734	0.760428
477.745691	0.751091
478.115588	0.742658
478.485427	0.732184
478.855207	0.719626
479.224928	0.703966
479.594591	0.692774
479.964194	0.686393
480.333739	0.679864
480.703226	0.670488
481.072653	0.662422
481.442022	0.651435
481.811333	0.642565
482.180584	0.635695
482.549777	0.628667
482.918912	0.623269
483.287988	0.614003
483.657005	0.607107
484.025964	0.602388
484.394864	0.591889
484.763706	0.584425
485.132489	0.579594
485.501213	0.571341
485.869879	0.563443
486.238487	0.556070
486.607036	0.548740
486.975527	0.542132
487.343959	0.532970
487.712333	0.524376
488.080648	0.517925
488.448905	0.509527
488.817104	0.503333
489.185244	0.492861
489.553326	0.482532
489.921350	0.469584
490.289315	0.450252
490.657222	0.441212
491.025070	0.434340
491.392861	0.429177
491.760593	0.426353
492.128267	0.422421
492.495883	0.419182
492.863440	0.417260
493.230939	0.415417
493.598380	0.409853
493.965763	0.405111
494.333088	0.401917
494.700354	0.396261
495.067563	0.391064
495.434713	0.387311
495.801805	0.380624
496.168839	0.376286
496.535815	0.371731
496.902733	0.367330
497.269593	0.363334
497.636395	0.357300
498.003139	0.352014
498.369825	0.350923
498.736453	0.343330
499.103023	0.339987
499.469535	0.335169
499.835989	0.331620
500.202385	0.328093
500.568723	0.327183
500.935003	0.319871
501.301226	0.319435
501.667390	0.311096
502.033497	0.306104
502.399546	0.305513
502.765537	0.303681
503.131470	0.299322
503.497345	0.292659
503.863163	0.298453
504.228923	0.288831
504.594625	0.285312
504.960269	0.287846
505.325856	0.280839
505.691385	0.282749
506.056856	0.277242
506.422270	0.274363
506.787625	0.275438
507.152924	0.270582
507.518164	0.268960
507.883347	0.268965
508.248472	0.269239
508.613540	0.262915
508.978550	0.263520
509.343503	0.262324
509.708398	0.259037
510.073236	0.255377
510.438016	0.253937
510.802738	0.253870
511.167403	0.251824
511.532010	0.252738
511.896561	0.247145
512.261053	0.245013
512.625488	0.246222
512.989866	0.245638
513.354186	0.245152
513.718449	0.246442
514.082655	0.242198
514.446803	0.243491
514.810894	0.240679
515.174927	0.242562
515.538904	0.241663
515.902822	0.238312
516.266684	0.239977
516.630488	0.240924
516.994235	0.239121
517.357925	0.237539
517.721558	0.235448
518.085133	0.234750
518.448651	0.234572
518.812112	0.236332
519.175516	0.235746
519.538863	0.233273
519.902152	0.234558
520.265385	0.231016
520.628560	0.232871
520.991678	0.233190
521.354739	0.231948
521.717743	0.233108
522.080690	0.233040
522.443580	0.230045
522.806413	0.230970
523.169189	0.230358
523.531908	0.228961
523.894569	0.232459
524.257174	0.232613
524.619722	0.229845
524.982213	0.231024
525.344647	0.229799
525.707025	0.230705
526.069345	0.228750
526.431608	0.230168
526.793815	0.228056
527.155964	0.231833
527.518057	0.230966
527.880093	0.231861
528.242072	0.230100
528.603995	0.232347
528.965860	0.233805
529.327669	0.232530
529.689421	0.233597
530.051117	0.234479
530.412755	0.231816
530.774337	0.234444
531.135862	0.234225
531.497331	0.233791
531.858743	0.236549
532.220098	0.233325
532.581396	0.235754
532.942638	0.236371
533.303824	0.237141
533.664953	0.236636
534.026025	0.238613
534.387040	0.236346
534.747999	0.236342
535.108902	0.235407
535.469748	0.240509
535.830537	0.238082
536.191270	0.238371
536.551947	0.237960
536.912567	0.238122
537.273131	0.239764
537.633638	0.240074
537.994089	0.240164
538.354483	0.241013
538.714821	0.238111
539.075103	0.237991
539.435328	0.238800
539.795497	0.242316
540.155609	0.239010
540.515665	0.237208
540.875665	0.242807
541.235609	0.241122
541.595496	0.241599
541.955328	0.237745
542.315102	0.240538
542.674821	0.241336
543.034483	0.241510
543.394090	0.241246
543.753640	0.243139
544.113134	0.238282
544.472571	0.241387
544.831953	0.238178
545.191278	0.242554
545.550548	0.241927
545.909761	0.238588
546.268918	0.239246
546.628019	0.237621
546.987064	0.240588
547.346053	0.242217
547.704986	0.239961
548.063863	0.240180
548.422684	0.240630
548.781449	0.242496
549.140158	0.239847
549.498811	0.242848
549.857408	0.245854
550.215949	0.240572
550.574434	0.243683
550.932864	0.241908
551.291237	0.240333
551.649555	0.241904
552.007817	0.241830
552.366022	0.242399
552.724173	0.242665
553.082267	0.242981
553.440305	0.240059
553.798288	0.244266
554.156215	0.240744
554.514086	0.241583
554.871902	0.244384
555.229661	0.244035
555.587365	0.244546
555.945014	0.246955
556.302606	0.243819
556.660143	0.246412
557.017625	0.242808
557.375050	0.245180
557.732421	0.242198
558.089735	0.244247
558.446994	0.244087
558.804197	0.243441
559.161345	0.243320
559.518437	0.246770
559.875474	0.244374
560.232455	0.243948
560.589381	0.245136
560.946251	0.245225
561.303065	0.242789
561.659825	0.244297
562.016528	0.245494
562.373177	0.248562
562.729770	0.245704
563.086307	0.247990
563.442789	0.245683
563.799216	0.248659
564.155587	0.247207
564.511904	0.248184
564.868164	0.248429
565.224370	0.248266
565.580520	0.250297
565.936615	0.250004
566.292654	0.252964
566.648638	0.249941
567.004567	0.251080
567.360441	0.251692
567.716260	0.253676
568.072023	0.251255
568.427732	0.251936
568.783385	0.254405
569.138982	0.252678
569.494525	0.252202
569.850013	0.254903
570.205445	0.253501
570.560823	0.256073
570.916145	0.257997
571.271412	0.256394
571.626625	0.257576
571.981782	0.258049
572.336884	0.259136
572.691931	0.258923
573.046923	0.259939
573.401860	0.261018
573.756743	0.263124
574.111570	0.261863
574.466342	0.262202
574.821059	0.261345
575.175722	0.264464
575.530330	0.264103
575.884882	0.264013
576.239380	0.266256
576.593823	0.266904
576.948211	0.266074
577.302544	0.269485
577.656823	0.269146
578.011047	0.269411
578.365216	0.269849
578.719330	0.271855
579.073389	0.271609
579.427394	0.272840
579.781344	0.273713
580.135239	0.275633
580.489080	0.275032
580.842866	0.277801
581.196597	0.277832
581.550273	0.276247
581.903895	0.277678
582.257463	0.275630
582.610975	0.278788
582.964434	0.278221
583.317837	0.280651
583.671186	0.281211
584.024481	0.281113
584.377721	0.283683
584.730906	0.284357
585.084037	0.283412
585.437113	0.285689
585.790135	0.284666
586.143103	0.287673
586.496016	0.288773
586.848874	0.286189
587.201679	0.286841
587.554428	0.290469
587.907124	0.288907
588.259765	0.289367
588.612352	0.290292
588.964884	0.294127
589.317362	0.293792
589.669786	0.293540
590.022155	0.291937
590.374470	0.291324
590.726731	0.293609
591.078937	0.298142
591.431090	0.294490
591.783188	0.298833
592.135232	0.298900
592.487222	0.299190
592.839157	0.297539
593.191038	0.299701
593.542866	0.301317
593.894639	0.305738
594.246358	0.303025
594.598022	0.302698
594.949633	0.306351
595.301190	0.306712
595.652692	0.306324
596.004141	0.302111
596.355535	0.310161
596.706876	0.310828
597.058162	0.313232
597.409395	0.310662
597.760573	0.308278
598.111698	0.311341
598.462768	0.311888
598.813785	0.313095
599.164748	0.314320
599.515657	0.314693
599.866511	0.317801
600.217312	0.313316
600.568060	0.318777
600.918753	0.315213
601.269392	0.316157
601.619978	0.319402
601.970510	0.317215
602.320988	0.317124
602.671412	0.314861
603.021783	0.317370
603.372100	0.318776
603.722363	0.318165
604.072572	0.319322
604.422728	0.318947
604.772830	0.321034
605.122878	0.320837
605.472872	0.320991
605.822813	0.319503
606.172701	0.322323
606.522534	0.319617
606.872314	0.319515
607.222041	0.320743
607.571714	0.318569
607.921333	0.320161
608.270899	0.319477
608.620411	0.316743
608.969870	0.320659
609.319276	0.319985
609.668627	0.320613
610.017926	0.319210
610.367171	0.317656
610.716362	0.318146
611.065500	0.318533
611.414585	0.317225
611.763616	0.317917
612.112594	0.318181
612.461518	0.317482
612.810389	0.315045
613.159207	0.317561
613.507971	0.319409
613.856682	0.315230
614.205340	0.316885
614.553945	0.313621
614.902496	0.317447
615.250994	0.315641
615.599439	0.316476
615.947830	0.315750
616.296169	0.316942
616.644454	0.316042
616.992686	0.316242
617.340864	0.313825
617.688990	0.317769
618.037063	0.314325
618.385082	0.316329
618.733048	0.312621
619.080961	0.315288
619.428821	0.315087
619.776628	0.314302
620.124382	0.316401
620.472083	0.316606
620.819731	0.316224
621.167326	0.319841
621.514868	0.319614
621.862357	0.323706
622.209793	0.323154
622.557176	0.325577
622.904506	0.326611
623.251783	0.329182
623.599007	0.331492
623.946179	0.331202
624.293297	0.332823
624.640363	0.336742
624.987376	0.337020
625.334336	0.339732
625.681243	0.342087
626.028097	0.342423
626.374899	0.343689
626.721647	0.344062
627.068343	0.346883
627.414987	0.348317
627.761577	0.350379
628.108115	0.348537
628.454600	0.353577
628.801032	0.351265
629.147412	0.353333
629.493739	0.353432
629.840014	0.356762
630.186236	0.353971
630.532405	0.359823
630.878521	0.357099
631.224585	0.359293
631.570597	0.362601
631.916556	0.360949
632.262462	0.361403
632.608316	0.363534
632.954117	0.364498
633.299866	0.365629
633.645562	0.365809
633.991206	0.370131
634.336797	0.373014
634.682336	0.375043
635.027823	0.376722
635.373257	0.377467
635.718639	0.381054
636.063968	0.380566
636.409245	0.385605
636.754470	0.385903
637.099642	0.388921
637.444762	0.391931
637.789829	0.390941
638.134845	0.394726
638.479808	0.395866
638.824719	0.395543
639.169577	0.399669
639.514383	0.398307
639.859137	0.402581
640.203839	0.402310
640.548489	0.402605
640.893086	0.404128
641.237632	0.405747
641.582125	0.404610
641.926566	0.405272
642.270955	0.405508
642.615292	0.406524
642.959576	0.405570
643.303809	0.405838
643.647990	0.405588
643.992118	0.405832
644.336195	0.409821
644.680219	0.408142
645.024192	0.408558
645.368112	0.402301
645.711981	0.401361
646.055797	0.396451
646.399562	0.398686
646.743274	0.390756
647.086935	0.388885
647.430544	0.388781
647.774101	0.387612
648.117606	0.387354
648.461059	0.387649
648.804460	0.390080
649.147810	0.395409
649.491108	0.396959
649.834354	0.398613
650.177548	0.403965
650.520690	0.409384
650.863781	0.410169
651.206820	0.409635
651.549807	0.414541
651.892742	0.417942
652.235626	0.417983
652.578458	0.418897
652.921238	0.424551
653.263967	0.422873
653.606644	0.426780
653.949269	0.426150
654.291843	0.430626
654.634365	0.427009
654.976836	0.430338
655.319255	0.430336
655.661622	0.431685
656.003938	0.431999
656.346203	0.435090
656.688416	0.432885
657.030577	0.436177
657.372687	0.437845
657.714746	0.438657
658.056753	0.435532
658.398708	0.439772
658.740612	0.440278
659.082465	0.436922
659.424266	0.437738
659.766016	0.437316
660.107715	0.439756
660.449362	0.438597
660.790958	0.439292
661.132503	0.439860
661.473996	0.437415
661.815438	0.438148
662.156829	0.438544
662.498168	0.439300
662.839456	0.440958
663.180693	0.438346
663.521879	0.438635
663.863013	0.439243
664.204097	0.437660
664.545129	0.435281
664.886110	0.435181
665.227040	0.432279
665.567918	0.434701
665.908746	0.433053
666.249522	0.432891
666.590248	0.433989
666.930922	0.431631
667.271545	0.430952
667.612118	0.431010
667.952639	0.432622
668.293109	0.431209
668.633528	0.433870
668.973896	0.433988
669.314213	0.433580
669.654480	0.435911
669.994695	0.436563
670.334859	0.436832
670.674973	0.437214
671.015035	0.437026
671.355047	0.437171
671.695008	0.438533
672.034918	0.440213
672.374777	0.439761
672.714585	0.440637
673.054342	0.441166
673.394049	0.441468
673.733705	0.438472
674.073310	0.439738
674.412864	0.442960
674.752368	0.443642
675.091820	0.443169
675.431223	0.447745
675.770574	0.447751
676.109875	0.450843
676.449125	0.450619
676.788324	0.453203
677.127473	0.458070
677.466571	0.458144
677.805619	0.459820
678.144616	0.460608
678.483562	0.462440
678.822458	0.465038
679.161303	0.466016
679.500098	0.466425
679.838842	0.467806
680.177535	0.467396
680.516179	0.466021
680.854771	0.464890
681.193314	0.458454
681.531805	0.449891
681.870247	0.438762
682.208638	0.430861
682.546978	0.429586
682.885268	0.431515
683.223508	0.438289
683.561697	0.441567
683.899836	0.444324
684.237925	0.447786
684.575963	0.450709
684.913951	0.453344
685.251889	0.449257
685.589776	0.450882
685.927614	0.453226
686.265401	0.447726
686.603137	0.448882
686.940824	0.443514
687.278460	0.441454
687.616046	0.440866
687.953582	0.435663
688.291068	0.437650
688.628504	0.432886
688.965889	0.434897
689.303224	0.439573
689.640510	0.443112
689.977745	0.448720
690.314930	0.456270
690.652065	0.461505
690.989150	0.469291
691.326185	0.474891
691.663170	0.480015
692.000105	0.487184
692.336990	0.493847
692.673825	0.496359
693.010610	0.503448
693.347345	0.508606
693.684030	0.510241
694.020665	0.515423
694.357251	0.523685
694.693786	0.523747
695.030272	0.527835
695.366707	0.531077
695.703093	0.534788
696.039429	0.531899
696.375716	0.534064
696.711952	0.536608
697.048139	0.538738
697.384276	0.540670
697.720363	0.538942
698.056400	0.538180
698.392388	0.543026
698.728326	0.545977
699.064214	0.548953
699.400053	0.549908
699.735842	0.553395
700.071581	0.555978
700.407270	0.559859
700.742910	0.561751
701.078501	0.568034
701.414042	0.569020
701.749533	0.570972
702.084974	0.580176
702.420366	0.572385
702.755709	0.580749
703.091002	0.588504
703.426246	0.581301
703.761440	0.586952
704.096584	0.591988
704.431679	0.589199
704.766725	0.590877
705.101721	0.592331
705.436668	0.588956
705.771565	0.595729
706.106413	0.592939
706.441212	0.588206
706.775961	0.586507
707.110661	0.589614
707.445311	0.586388
707.779913	0.582962
708.114465	0.581690
708.448967	0.578280
708.783421	0.570397
709.117825	0.565124
709.452180	0.565149
709.786485	0.558901
710.120742	0.549370
710.454949	0.551529
710.789107	0.543120
711.123216	0.534530
711.457275	0.536141
711.791286	0.527309
712.125247	0.525693
712.459159	0.536393
712.793023	0.529194
713.126837	0.533339
713.460602	0.533683
713.794318	0.542860
714.127985	0.540951
714.461602	0.551724
714.795171	0.554784
715.128691	0.562715
715.462162	0.570746
715.795584	0.575792
716.128957	0.578882
716.462281	0.585541
716.795556	0.588493
717.128782	0.593422
717.461960	0.603847
717.795088	0.600849
718.128167	0.607992
718.461198	0.616835
718.794180	0.617180
719.127113	0.619261
719.459997	0.623256
719.792833	0.629993
720.125619	0.630696
720.458357	0.636646
720.791046	0.635856
721.123686	0.639344
721.456278	0.646991
721.788821	0.644054
722.121315	0.648658
722.453761	0.651767
722.786158	0.650447
723.118506	0.647326
723.450805	0.654246
723.783056	0.650965
724.115259	0.648190
724.447412	0.647378
724.779518	0.648162
725.111574	0.648049
725.443582	0.642705
725.775542	0.644533
726.107453	0.637577
726.439315	0.637323
726.771129	0.635279
727.102895	0.629480
727.434612	0.621855
727.766281	0.619558
728.097901	0.619962
728.429473	0.619295
728.760996	0.617740
729.092471	0.617683
729.423897	0.621426
729.755276	0.620980
730.086606	0.620704
730.417887	0.615329
730.749120	0.606731
731.080305	0.597254
731.411442	0.593683
731.742530	0.598397
732.073570	0.596802
732.404562	0.589467
732.735506	0.590608
733.066401	0.595307
733.397249	0.604243
733.728048	0.616059
734.058798	0.628458
734.389501	0.639514
734.720156	0.649429
735.050762	0.657137
735.381320	0.657339
735.711831	0.667174
736.042293	0.671805
736.372707	0.666963
736.703073	0.672526
737.033391	0.674544
737.363661	0.670842
737.693883	0.666256
738.024056	0.665821
738.354182	0.666179
738.684260	0.654862
739.014290	0.651193
739.344272	0.652562
739.674207	0.645841
740.004093	0.645312
740.333931	0.645683
740.663722	0.645580
740.993464	0.645379
741.323159	0.650212
741.652806	0.654921
741.982405	0.660062
742.311956	0.664294
742.641460	0.666632
742.970915	0.669733
743.300323	0.677741
743.629683	0.684153
743.958996	0.685736
744.288260	0.689694
744.617477	0.696396
744.946647	0.697662
745.275768	0.702681
745.604842	0.703700
745.933869	0.712739
746.262847	0.713547
746.591778	0.707730
746.920662	0.712676
747.249498	0.719163
747.578286	0.710871
747.907027	0.706827
748.235720	0.707411
748.564365	0.702099
748.892963	0.702384
749.221514	0.704822
749.550017	0.710181
749.878473	0.709707
750.206881	0.716945
750.535242	0.717560
750.863555	0.717814
751.191821	0.719263
751.520039	0.722513
751.848210	0.726383
752.176334	0.718895
752.504411	0.718195
752.832440	0.726560
753.160421	0.730446
753.488356	0.728256
753.816243	0.725771
754.144082	0.733793
754.471875	0.738111
754.799620	0.733130
755.127318	0.734462
755.454969	0.734167
755.782572	0.733846
756.110129	0.739295
756.437638	0.740789
756.765100	0.738373
757.092515	0.735323
757.419882	0.734699
757.747203	0.739801
758.074477	0.739120
758.401703	0.736998
758.728882	0.732180
759.056014	0.731502
759.383099	0.730228
759.710138	0.731483
760.037129	0.727296
760.364073	0.721385
760.690970	0.723847
761.017820	0.729981
761.344623	0.725315
761.671379	0.715591
761.998088	0.704739
762.324751	0.682000
762.651366	0.641243
762.977935	0.574540
763.304456	0.522278
763.630931	0.512463
763.957359	0.551950
764.283740	0.596310
764.610074	0.622878
764.936362	0.653948
765.262602	0.680612
765.588796	0.701228
765.914943	0.719920
766.241044	0.738350
766.567097	0.743454
766.893104	0.753476
767.219064	0.759708
767.544978	0.766220
767.870845	0.780427
768.196665	0.783573
768.522438	0.781282
768.848165	0.782718
769.173846	0.791482
769.499479	0.796067
769.825066	0.799029
770.150607	0.804405
770.476101	0.800703
770.801548	0.800111
771.126949	0.812118
771.452303	0.816121
771.777611	0.814346
772.102872	0.815611
772.428087	0.819666
772.753256	0.823368
773.078378	0.824676
773.403453	0.834253
773.728482	0.837525
774.053465	0.832214
774.378401	0.834017
774.703291	0.844057
775.028135	0.842499
775.352932	0.844638
775.677683	0.847483
776.002388	0.847769
776.327046	0.847709
776.651658	0.850864
776.976224	0.853243
777.300743	0.854420
777.625216	0.857170
777.949643	0.858637
778.274024	0.857840
778.598359	0.860317
778.922647	0.858795
779.246889	0.859686
779.571086	0.862703
779.895236	0.865227
780.219339	0.862783
780.543397	0.860277
780.867409	0.858390
781.191374	0.859862
781.515294	0.861469
781.839167	0.860588
782.162995	0.863856
782.486776	0.861036
782.810511	0.861609
783.134201	0.865863
783.457844	0.863626
783.781441	0.865570
784.104993	0.872428
784.428498	0.872087
784.751958	0.867890
785.075372	0.869727
785.398739	0.874223
785.722061	0.870452
786.045337	0.866275
786.368568	0.870851
786.691752	0.873711
787.014891	0.858967
787.337983	0.849800
787.661030	0.842877
787.984031	0.824942
788.306987	0.812478
788.629897	0.814472
788.952760	0.818297
789.275579	0.822427
789.598351	0.838671
789.921078	0.851403
790.243759	0.852603
790.566395	0.858537
790.888984	0.865107
791.211529	0.870346
791.534027	0.873932
791.856480	0.875307
792.178888	0.879920
792.501249	0.882525
792.823566	0.884576
793.145836	0.884372
793.468062	0.887357
793.790241	0.886019
794.112375	0.884302
794.434464	0.879545
794.756507	0.879447
795.078505	0.879944
795.400457	0.873302
795.722364	0.861416
796.044226	0.854522
796.366042	0.854482
796.687812	0.856972
797.009538	0.854225
797.331218	0.855982
797.652852	0.860778
797.974442	0.866160
798.295986	0.865024
798.617484	0.868453
798.938938	0.872002
799.260346	0.877414
799.581709	0.879875
799.903026	0.881856
800.224299	0.882176
800.545526	0.885872
800.866708	0.889843
801.187845	0.893649
801.508936	0.893111
801.829983	0.890536
802.150984	0.893946
802.471940	0.898445
802.792851	0.898094
803.113717	0.899487
803.434538	0.897341
803.755314	0.899745
804.076045	0.900265
804.396731	0.901711
804.717372	0.901910
805.037967	0.903221
805.358518	0.901205
805.679024	0.898036
805.999485	0.897894
806.319901	0.897908
806.640272	0.900332
806.960598	0.897682
807.280879	0.893838
807.601115	0.894110
807.921306	0.897689
808.241453	0.899632
808.561554	0.895863
808.881611	0.896044
809.201623	0.897957
809.521590	0.897620
809.841513	0.898830
810.161390	0.897343
810.481223	0.899605
810.801011	0.902286
811.120755	0.904447
811.440453	0.903099
811.760107	0.902598
812.079716	0.901015
812.399281	0.905567
812.718801	0.907604
813.038276	0.908750
813.357707	0.908013
813.677093	0.905278
813.996434	0.907721
814.315731	0.909729
814.634983	0.910991
814.954191	0.909321
815.273354	0.907103
815.592473	0.903656
815.911547	0.903039
816.230577	0.900985
816.549562	0.896996
816.868502	0.898779
817.187399	0.894260
817.506250	0.889838
817.825058	0.890946
818.143821	0.887764
818.462539	0.883075
818.781213	0.874749
819.099843	0.863716
819.418429	0.849084
819.736970	0.832444
820.055466	0.812927
820.373919	0.786929
820.692327	0.754494
821.010691	0.720457
821.329011	0.643923
821.647286	0.530220
821.965517	0.417275
822.283704	0.374759
822.601847	0.376376
822.919945	0.411706
823.237999	0.444658
823.556010	0.491328
823.873976	0.546542
824.191897	0.596467
824.509775	0.638606
824.827609	0.683803
825.145398	0.705409
825.463144	0.708268
825.780845	0.691149
826.098502	0.673289
826.416116	0.627891
826.733685	0.584069
827.051210	0.576142
827.368692	0.590789
827.686129	0.626944
828.003522	0.679926
828.320872	0.726460
828.638177	0.770420
828.955439	0.802759
829.272656	0.824783
829.589830	0.841374
829.906960	0.856624
830.224046	0.869727
830.541088	0.878668
830.858086	0.884286
831.175041	0.889718
831.491952	0.888235
831.808819	0.884980
832.125642	0.879094
832.442421	0.863614
832.759157	0.842371
833.075849	0.797472
833.392497	0.734008
833.709101	0.693090
834.025662	0.702502
834.342179	0.733840
834.658653	0.772127
834.975083	0.809048
835.291469	0.834403
835.607811	0.856678
835.924110	0.872691
836.240366	0.888872
836.556578	0.903034
836.872746	0.910373
837.188871	0.916808
837.504952	0.921639
837.820990	0.924774
838.136984	0.928867
838.452935	0.930296
838.768842	0.932826
839.084706	0.926845
839.400526	0.901029
839.716303	0.861709
840.032037	0.838769
840.347727	0.842949
840.663373	0.861189
840.978977	0.881475
841.294537	0.902962
841.610054	0.919289
841.925527	0.927551
842.240957	0.933364
842.556344	0.941040
842.871687	0.947325
843.186987	0.951027
843.502244	0.951662
843.817458	0.953543
844.132629	0.956617
844.447756	0.961781
844.762840	0.961855
845.077881	0.961274
845.392879	0.960682
845.707833	0.964435
846.022745	0.965443
846.337613	0.964666
846.652438	0.966384
846.967221	0.965811
847.281960	0.965590
847.596656	0.968033
847.911309	0.966635
848.225919	0.968290
848.540485	0.968207
848.855009	0.970547
849.169490	0.970343
849.483928	0.970168
849.798323	0.969592
850.112675	0.970028
850.426984	0.970530
850.741251	0.971861
851.055474	0.970146
851.369654	0.968808
851.683792	0.970317
851.997887	0.970375
852.311938	0.970885
852.625947	0.971377
852.939914	0.968902
853.253837	0.969782
853.567718	0.971843
853.881555	0.970932
854.195350	0.969428
854.509103	0.970353
854.822812	0.971631
855.136479	0.971655
855.450103	0.969942
855.763685	0.968852
856.077224	0.969667
856.390720	0.971854
856.704173	0.971983
857.017584	0.968960
857.330953	0.967674
857.644278	0.969102
857.957561	0.969905
858.270802	0.970070
858.584000	0.968346
858.897155	0.968228
859.210268	0.968123
859.523339	0.969810
859.836367	0.972500
860.149352	0.971949
860.462295	0.969966
860.775195	0.971251
861.088054	0.970434
861.400869	0.969965
861.713642	0.971627
862.026373	0.970990
862.339062	0.970115
862.651708	0.969416
862.964312	0.968354
863.276873	0.970187
863.589392	0.969463
863.901869	0.967893
864.214303	0.965631
864.526696	0.964042
864.839045	0.965049
865.151353	0.962691
865.463619	0.963780
865.775842	0.963707
866.088023	0.962923
866.400162	0.962581
866.712258	0.963863
867.024313	0.963882
867.336325	0.964592
867.648296	0.963890
867.960224	0.963297
868.272110	0.963501
868.583954	0.965271
868.895755	0.964137
869.207515	0.962626
869.519233	0.959472
869.830909	0.962222
870.142542	0.963917
870.454134	0.963089
870.765684	0.960778
871.077191	0.958720
871.388657	0.959168
871.700081	0.959056
872.011463	0.959681
872.322803	0.959674
872.634101	0.957601
872.945357	0.955769
873.256571	0.953831
873.567744	0.954625
873.878874	0.955720
874.189963	0.953844
874.501010	0.952343
874.812015	0.951086
875.122979	0.953004
875.433900	0.953618
875.744780	0.955387
876.055618	0.952031
876.366415	0.951945
876.677169	0.951444
876.987882	0.953760
877.298554	0.951591
877.609183	0.949206
877.919771	0.946544
878.230317	0.944497
878.540822	0.942905
878.851285	0.937204
879.161707	0.929855
879.472087	0.918134
879.782425	0.901732
880.092722	0.867781
880.402977	0.816564
880.713191	0.758402
881.023363	0.700043
881.333494	0.667348
881.643583	0.638725
881.953631	0.638162
882.263637	0.667543
882.573602	0.705924
882.883526	0.731874
883.193408	0.754181
883.503248	0.776466
883.813048	0.803873
884.122806	0.831789
884.432522	0.854996
884.742197	0.873723
885.051831	0.884294
885.361424	0.894404
885.670975	0.905449
885.980485	0.915578
886.289954	0.921077
886.599382	0.927605
886.908768	0.930309
887.218113	0.936379
887.527417	0.940222
887.836680	0.944386
888.145901	0.945296
888.455082	0.948259
888.764221	0.952436
889.073319	0.953974
889.382376	0.954333
889.691392	0.955424
890.000366	0.953414
890.309300	0.955627
890.618193	0.954835
890.927044	0.953089
891.235855	0.952426
891.544625	0.953048
891.853353	0.953294
892.162041	0.951696
892.470687	0.944969
892.779293	0.940060
893.087858	0.936955
893.396381	0.929321
893.704864	0.915860
894.013306	0.892717
894.321707	0.865451
894.630068	0.852172
894.938387	0.848194
895.246665	0.849120
895.554903	0.861426
895.863100	0.873997
896.171256	0.889476
896.479371	0.909843
896.787446	0.922027
897.095480	0.927627
897.403473	0.930980
897.711425	0.934561
898.019336	0.942893
898.327207	0.945507
898.635038	0.947465
898.942827	0.947575
899.250576	0.950915
899.558284	0.954045
899.865952	0.955312
900.173579	0.957061
900.481165	0.956529
900.788711	0.961586
901.096216	0.963440
901.403681	0.963023
901.711105	0.963837
902.018489	0.965545
902.325832	0.963826
902.633135	0.962360
902.940397	0.958148
903.247619	0.945469
903.554800	0.921367
903.861941	0.882493
904.169041	0.848496
904.476101	0.831698
904.783121	0.832191
905.090100	0.848906
905.397039	0.869055
905.703938	0.890120
906.010796	0.908718
906.317614	0.924654
906.624391	0.936202
906.931129	0.946460
907.237826	0.953318
907.544483	0.961056
907.851099	0.964084
908.157675	0.969040
908.464211	0.971475
908.770707	0.973790
909.077163	0.976008
909.383578	0.975176
909.689954	0.975480
909.996289	0.977363
910.302584	0.979057
910.608839	0.980577
910.915054	0.978833
911.221229	0.979004
911.527363	0.978292
911.833458	0.977615
912.139513	0.977649
912.445527	0.976677
912.751502	0.974696
913.057436	0.974020
913.363331	0.972405
913.669186	0.968325
913.975000	0.962779
914.280775	0.957710
914.586510	0.951585
914.892205	0.938828
915.197859	0.918068
915.503475	0.890905
915.809050	0.872259
916.114585	0.866776
916.420081	0.865309
916.725536	0.861712
917.030952	0.868281
917.336328	0.880990
917.641665	0.896037
917.946961	0.911787
918.252218	0.922538
918.557435	0.931140
918.862612	0.939244
919.167750	0.944744
919.472848	0.949156
919.777906	0.955050
920.082925	0.960369
920.387904	0.963800
920.692843	0.964564
920.997743	0.964670
921.302603	0.969818
921.607423	0.970328
921.912204	0.973088
922.216946	0.973018
922.521647	0.974085
922.826310	0.976001
923.130932	0.978251
923.435516	0.979867
923.740059	0.980409
924.044564	0.979359
924.349028	0.981048
924.653454	0.984248
924.957840	0.985869
925.262186	0.985279
925.566493	0.984724
925.870761	0.985664
926.174989	0.988472
926.479178	0.989296
926.783328	0.989693
927.087438	0.988581
927.391509	0.989164
927.695541	0.991338
927.999533	0.990012
928.303486	0.990807
928.607400	0.990842
928.911275	0.990059
929.215110	0.991939
929.518906	0.991938
929.822663	0.990152
930.126381	0.992498
930.430060	0.990913
930.733699	0.991273
931.037299	0.990325
931.340861	0.990521
931.644383	0.991160
931.947866	0.991096
932.251309	0.991806
932.554714	0.991361
932.858080	0.990973
933.161407	0.991740
933.464694	0.992587
933.767943	0.989698
934.071153	0.992096
934.374323	0.990899
934.677455	0.992334
934.980548	0.992744
935.283602	0.991185
935.586617	0.992022
935.889593	0.991157
936.192530	0.991767
936.495428	0.991447
936.798287	0.990642
937.101108	0.992313
937.403890	0.990175
937.706632	0.990584
938.009336	0.987926
938.312002	0.986660
938.614628	0.986047
938.917216	0.984876
939.219765	0.982931
939.522275	0.985323
939.824747	0.984322
940.127179	0.983657
940.429573	0.984839
940.731929	0.985260
941.034246	0.985108
941.336524	0.986445
941.638763	0.987246
941.940964	0.987403
942.243126	0.988039
942.545250	0.987955
942.847335	0.988951
943.149381	0.987853
943.451389	0.989250
943.753359	0.989784
944.055290	0.991663
944.357182	0.990271
944.659036	0.988988
944.960851	0.990418
945.262628	0.990192
945.564367	0.991341
945.866067	0.990807
946.167729	0.991774
946.469352	0.989847
946.770937	0.989912
947.072484	0.991152
947.373992	0.991535
947.675462	0.991099
947.976893	0.991177
948.278286	0.991872
948.579641	0.992742
948.880958	0.990788
949.182236	0.991145
949.483476	0.991132
949.784678	0.991000
950.085841	0.991961
950.386967	0.990743
950.688054	0.992574
950.989103	0.991588
951.290114	0.990338
951.591087	0.990572
951.892021	0.991304
952.192917	0.989804
952.493776	0.988480
952.794596	0.989898
953.095378	0.988656
953.396122	0.987873
953.696828	0.988340
953.997496	0.989868
954.298126	0.991867
954.598718	0.991248
954.899272	0.991490
955.199788	0.991514
955.500266	0.993475
955.800706	0.992319
956.101108	0.994587
956.401472	0.994250
956.701798	0.995146
957.002087	0.994158
957.302337	0.993643
957.602550	0.995640
957.902724	0.996302
958.202861	0.994988
958.502960	0.996139
958.803022	0.993618
959.103045	0.996201
959.403031	0.997278
959.702979	0.994923
960.002889	0.996812
960.302762	0.994750
960.602596	0.996109
960.902393	0.994873
961.202153	0.997271
961.501875	0.997071
961.801559	0.996427
962.101205	0.996377
962.400814	0.997299
962.700385	0.997156
962.999918	0.997495
963.299414	0.997259
963.598873	0.996241
963.898293	0.996533
964.197677	0.995136
964.497022	0.996476
964.796331	0.998067
965.095601	0.997382
965.394835	0.996629
965.694030	0.997315
965.993189	0.997425
966.292309	0.997685
966.591393	0.998629
966.890439	0.996994
967.189447	0.998233
967.488419	0.997194
967.787353	0.997107
968.086249	0.996573
968.385108	0.997667
968.683930	0.996489
968.982714	0.997434
969.281462	0.998996
969.580172	0.997472
969.878844	0.996783
970.177480	0.996670
970.476078	0.997808
970.774639	0.997620
971.073162	0.998267
971.371649	0.996390
971.670098	0.996376
971.968510	0.997749
972.266885	0.995963
972.565223	0.996873
972.863524	0.995847
973.161788	0.996893
973.460014	0.998088
973.758204	0.995679
974.056356	0.997147
974.354471	0.995542
974.652550	0.996758
974.950591	0.996578
975.248595	0.996128
975.546563	0.996632
975.844493	0.998280
976.142386	0.997234
976.440243	0.997572
976.738062	0.997159
977.035845	0.997766
977.333590	0.997806
977.631299	0.997185
977.928971	0.997426
978.226606	0.996798
978.524204	0.997160
978.821765	0.998151
979.119290	0.996544
979.416777	0.996970
979.714228	0.997262
980.011642	0.997221
980.309020	0.997441
980.606360	0.998112
980.903664	0.998075
981.200931	0.996369
981.498162	0.995357
981.795356	0.995570
982.092513	0.994163
982.389633	0.995040
982.686717	0.992169
982.983764	0.991891
983.280775	0.990908
983.577749	0.991895
983.874686	0.992602
984.171587	0.992236
984.468451	0.994790
984.765279	0.995383
985.062070	0.994478
985.358824	0.995421
985.655543	0.995614
985.952224	0.996286
986.248869	0.996477
986.545478	0.997521
986.842050	0.999360
987.138586	0.995789
987.435086	0.998445
987.731549	0.998409
988.027975	0.997718
988.324366	0.997782
988.620719	0.998019
988.917037	0.997587
989.213318	0.998562
989.509563	0.999400
989.805772	0.999168
990.101944	0.998075
990.398080	0.998379
990.694180	0.997907
990.990244	0.997754
991.286271	0.997898
991.582262	0.999632
991.878217	0.998681
992.174136	0.998462
992.470019	0.999752
992.765865	0.998124
993.061676	0.998853
993.357450	0.998611
993.653188	0.997920
993.948890	0.996901
994.244556	0.998301
994.540186	0.997850
994.835780	0.996583
995.131337	0.997340
995.426859	0.997230
995.722345	0.997788
996.017795	0.997213
996.313208	0.996076
996.608586	0.995519
996.903928	0.998114
997.199234	0.996163
997.494504	0.996704
997.789738	0.996934
998.084936	0.996460
998.380099	0.998455
998.675225	0.997945
998.970316	0.998436
999.265371	0.998117
999.560390	0.999687
999.855373	0.998865
1000.150320	0.998621
1000.445232	0.999123
1000.740108	0.998931
1001.034948	0.998901
1001.329752	1.000092
1001.624521	0.999503
1001.919254	0.999070
1002.213951	0.998264
1002.508613	0.999252
1002.803239	0.998909
1003.097829	0.999093
1003.392384	1.000618
1003.686903	0.998604
1003.981386	0.999818
1004.275834	0.998627
1004.570246	0.998854
1004.864623	0.998916
1005.158964	0.999716
1005.453270	0.999262
1005.747540	0.997664
1006.041775	0.998835
1006.335974	0.999846
1006.630138	1.000299
1006.924266	0.999295
1007.218359	0.999889
1007.512416	0.999805
1007.806438	0.999443
1008.100425	0.998782
1008.394376	0.999200
1008.688292	0.998243
1008.982172	1.001756
1009.276017	1.000114
1009.569827	0.999190
1009.863602	0.998948
1010.157341	1.000955
1010.451045	1.000065
1010.744714	0.999070
1011.038347	0.999394
1011.331945	0.999545
1011.625508	0.997603
1011.919036	0.999115
1012.212528	0.999631
1012.505986	0.997307
1012.799408	0.998701
1013.092795	1.000198
1013.386147	0.999210
1013.679464	0.999361
1013.972745	0.999478
1014.265992	0.998656
1014.559204	0.998810
1014.852380	1.000214
1015.145521	0.998935
1015.438628	0.999882
1015.731699	0.998945
1016.024736	0.999200
1016.317737	0.999501
1016.610703	0.999425
1016.903635	1.000206
1017.196531	0.999779
1017.489393	1.000404
1017.782219	0.998996
1018.075011	0.998822
1018.367768	0.999755
1018.660490	1.000080
1018.953177	1.000080
1019.245829	1.000080
