Dividing Wavelength (nm)	Counts (n)	Blue Motor Position (mm): 0.000000	Red Motor Position (mm): 39.700000	
326.493990	1.000836
326.888308	1.000836
327.282561	1.000836
327.676750	0.999810
328.070874	0.998409
328.464933	0.999728
328.858929	0.998959
329.252859	0.999088
329.646726	0.998540
330.040528	0.999725
330.434265	0.998909
330.827938	1.000669
331.221547	0.999189
331.615091	0.999653
332.008571	0.999851
332.401986	1.000428
332.795338	1.000179
333.188625	0.998567
333.581847	1.000209
333.975006	0.999033
334.368100	0.999376
334.761129	0.999644
335.154095	1.000494
335.546996	0.998784
335.939833	0.997474
336.332606	0.996863
336.725315	0.996930
337.117960	0.998166
337.510540	0.996493
337.903056	0.998357
338.295508	0.997092
338.687896	0.998333
339.080220	0.997521
339.472480	0.997501
339.864676	0.996448
340.256807	0.998252
340.648875	0.998696
341.040879	0.997034
341.432818	0.995996
341.824694	0.996670
342.216506	0.998925
342.608253	0.996988
342.999937	0.997018
343.391557	0.997992
343.783113	0.997396
344.174605	0.997119
344.566033	0.997371
344.957397	0.997265
345.348697	0.998199
345.739934	0.996535
346.131106	0.997422
346.522215	0.996949
346.913260	0.996543
347.304241	0.997440
347.695159	0.997463
348.086012	0.995787
348.476802	0.996861
348.867528	0.996861
349.258191	0.995488
349.648789	0.998581
350.039324	0.997701
350.429796	0.998424
350.820203	0.997238
351.210548	0.998635
351.600828	0.996988
351.991045	0.998012
352.381198	0.996525
352.771288	0.997958
353.161314	0.995704
353.551276	0.998053
353.941175	0.997613
354.331010	0.996489
354.720782	0.997895
355.110490	0.996913
355.500135	0.998098
355.889717	0.997651
356.279235	0.998207
356.668689	0.997046
357.058080	0.997002
357.447408	0.998327
357.836672	0.997905
358.225873	0.998010
358.615010	0.997800
359.004084	0.999285
359.393095	0.997340
359.782043	0.997076
360.170927	0.998604
360.559748	0.997484
360.948505	0.995963
361.337199	0.997111
361.725830	0.997165
362.114398	0.996624
362.502903	0.997319
362.891344	0.997947
363.279722	0.997934
363.668037	0.998188
364.056289	0.997445
364.444478	0.997841
364.832603	0.997916
365.220665	0.997310
365.608665	0.997150
365.996601	0.997578
366.384474	0.998043
366.772284	0.998492
367.160031	0.996308
367.547715	0.996663
367.935336	0.997649
368.322893	0.996936
368.710388	0.997458
369.097820	0.997757
369.485189	0.997143
369.872495	0.997091
370.259738	0.995767
370.646918	0.999184
371.034035	0.998706
371.421090	0.996383
371.808081	0.997302
372.195010	0.997498
372.581875	0.998142
372.968678	0.997319
373.355418	0.997497
373.742096	0.996859
374.128710	0.998491
374.515262	0.997022
374.901751	0.997962
375.288177	0.998019
375.674540	0.998831
376.060841	0.997192
376.447079	0.997450
376.833254	0.997627
377.219367	0.997444
377.605417	0.998049
377.991404	0.997658
378.377329	0.997410
378.763191	0.997999
379.148991	0.998718
379.534727	0.998234
379.920402	0.998036
380.306013	0.998014
380.691563	0.999212
381.077049	0.997642
381.462474	0.997472
381.847835	0.998558
382.233134	0.998111
382.618371	0.998714
383.003545	0.998353
383.388657	0.997532
383.773706	0.999418
384.158693	0.997868
384.543618	0.998563
384.928480	0.999214
385.313280	0.998516
385.698017	0.997990
386.082692	0.998658
386.467305	0.998324
386.851856	0.998419
387.236344	0.997639
387.620770	0.997343
388.005133	0.998707
388.389435	0.999240
388.773674	0.998346
389.157851	0.998400
389.541965	0.998321
389.926018	0.997683
390.310008	0.999816
390.693936	0.997726
391.077802	0.998040
391.461606	0.998365
391.845348	0.998612
392.229027	0.999381
392.612645	0.999199
392.996200	0.999900
393.379694	0.998760
393.763125	1.000091
394.146494	0.999297
394.529801	0.998630
394.913047	1.000210
395.296230	0.999319
395.679351	0.998337
396.062410	0.998343
396.445408	0.998380
396.828343	0.998885
397.211217	0.999262
397.594028	0.999370
397.976778	0.998445
398.359466	0.997836
398.742092	0.998559
399.124656	0.998354
399.507158	0.999085
399.889598	0.999045
400.271977	0.999300
400.654294	0.998425
401.036549	0.999180
401.418742	0.999402
401.800874	0.998080
402.182944	0.998293
402.564952	0.998954
402.946898	0.999934
403.328783	0.998771
403.710606	0.998268
404.092367	0.999571
404.474067	0.998988
404.855705	0.998940
405.237282	0.999446
405.618797	0.998943
406.000250	0.998363
406.381642	0.999712
406.762972	0.999348
407.144240	0.999551
407.525447	0.999251
407.906593	0.999000
408.287677	0.999647
408.668700	0.999939
409.049661	0.998359
409.430560	0.999797
409.811399	0.998939
410.192176	0.998595
410.572891	0.998571
410.953545	0.999506
411.334138	0.998446
411.714669	0.999605
412.095139	0.998574
412.475547	0.999706
412.855894	0.999039
413.236180	1.000002
413.616405	0.999022
413.996568	0.999244
414.376670	0.999974
414.756711	0.998622
415.136691	0.999021
415.516609	0.999553
415.896466	0.998353
416.276262	0.998554
416.655997	0.999371
417.035670	0.999737
417.415283	0.999217
417.794834	0.998220
418.174324	0.999288
418.553753	1.000046
418.933121	0.998599
419.312428	0.998464
419.691674	0.998673
420.070859	0.999921
420.449983	0.999127
420.829045	0.999671
421.208047	0.999670
421.586988	1.000065
421.965867	0.999958
422.344686	0.999606
422.723444	0.999049
423.102141	1.000288
423.480777	0.999879
423.859352	0.999036
424.237866	0.999290
424.616319	0.999681
424.994712	0.999274
425.373044	1.000239
425.751314	0.998928
426.129524	0.998831
426.507673	0.999416
426.885762	1.000102
427.263789	0.999652
427.641756	0.999332
428.019662	0.999561
428.397508	0.998102
428.775292	0.998494
429.153016	0.999832
429.530679	1.000162
429.908282	0.999476
430.285824	0.998737
430.663305	0.999756
431.040726	0.999203
431.418086	1.001184
431.795385	1.000313
432.172624	0.999202
432.549802	0.999623
432.926920	1.000145
433.303977	0.999978
433.680974	0.999778
434.057910	0.999333
434.434786	1.000087
434.811601	0.999231
435.188355	0.999232
435.565050	0.999211
435.941683	0.999391
436.318257	1.000377
436.694770	0.998553
437.071222	0.999898
437.447614	1.000071
437.823946	0.999553
438.200218	1.000235
438.576429	0.999450
438.952580	0.999931
439.328670	0.999316
439.704700	0.999025
440.080670	0.999275
440.456580	0.999804
440.832429	0.999155
441.208218	0.999490
441.583947	0.999694
441.959616	1.000208
442.335224	0.999029
442.710773	1.000024
443.086261	0.998931
443.461689	0.999578
443.837057	0.999225
444.212365	0.999359
444.587612	0.998843
444.962800	0.999113
445.337927	1.000001
445.712995	0.999778
446.088002	0.999761
446.462949	0.999743
446.837837	0.999888
447.212664	1.000196
447.587431	0.999283
447.962139	0.999955
448.336786	0.999783
448.711374	0.999485
449.085901	0.999364
449.460369	0.999707
449.834776	0.999657
450.209124	1.000342
450.583412	1.000078
450.957640	0.999802
451.331808	0.999698
451.705917	0.999850
452.079965	0.999156
452.453954	0.999957
452.827883	0.999773
453.201752	1.000212
453.575562	0.999712
453.949311	1.000822
454.323001	0.999921
454.696632	0.999873
455.070202	0.999739
455.443713	0.999689
455.817164	1.000128
456.190556	1.000141
456.563888	0.999327
456.937160	1.000342
457.310373	0.999445
457.683526	0.999099
458.056619	0.999845
458.429653	1.000311
458.802628	0.999399
459.175542	0.999822
459.548398	1.000342
459.921194	0.999662
460.293930	1.000338
460.666607	1.000390
461.039224	0.998499
461.411782	0.999351
461.784280	0.999474
462.156719	1.001259
462.529099	0.999249
462.901419	0.999115
463.273680	0.999888
463.645882	1.000159
464.018024	1.000402
464.390106	0.999992
464.762130	1.000396
465.134094	1.000091
465.505999	1.000372
465.877845	1.000062
466.249631	1.000339
466.621358	1.000472
466.993026	0.999771
467.364634	0.999974
467.736184	1.000579
468.107674	0.999906
468.479105	0.999815
468.850477	1.000937
469.221790	1.000324
469.593043	1.000103
469.964238	1.000242
470.335373	1.000052
470.706449	1.000248
471.077467	1.000474
471.448425	1.000094
471.819324	1.000452
472.190164	0.999375
472.560945	1.000230
472.931667	1.000542
473.302330	0.999765
473.672934	1.000264
474.043479	0.999975
474.413965	0.999636
474.784393	1.000035
475.154761	0.999907
475.525070	0.999096
475.895321	1.000464
476.265513	0.999732
476.635645	0.999468
477.005719	1.000401
477.375734	1.000152
477.745691	0.999892
478.115588	1.000399
478.485427	0.999546
478.855207	0.999822
479.224928	0.999700
479.594591	0.999876
479.964194	1.000106
480.333739	1.000112
480.703226	1.000440
481.072653	1.000355
481.442022	1.000535
481.811333	0.998984
482.180584	1.000313
482.549777	0.999628
482.918912	0.999734
483.287988	1.000042
483.657005	0.999969
484.025964	1.000481
484.394864	1.000245
484.763706	1.000656
485.132489	1.000195
485.501213	0.999436
485.869879	1.000262
486.238487	0.999465
486.607036	1.000142
486.975527	1.000006
487.343959	0.999400
487.712333	0.999078
488.080648	0.999509
488.448905	0.999841
488.817104	1.000116
489.185244	0.999866
489.553326	1.000374
489.921350	0.999650
490.289315	1.000037
490.657222	1.000534
491.025070	0.999836
491.392861	1.000238
491.760593	1.000508
492.128267	0.999351
492.495883	0.999753
492.863440	1.000324
493.230939	1.000326
493.598380	0.999179
493.965763	0.999736
494.333088	0.999495
494.700354	0.999360
495.067563	0.999374
495.434713	0.998964
495.801805	1.000475
496.168839	1.000257
496.535815	0.999953
496.902733	0.999934
497.269593	0.999548
497.636395	1.000219
498.003139	0.999598
498.369825	1.000100
498.736453	0.999450
499.103023	0.999212
499.469535	0.999587
499.835989	0.999461
500.202385	1.000020
500.568723	1.000122
500.935003	1.000322
501.301226	1.000176
501.667390	0.999942
502.033497	1.000557
502.399546	1.000563
502.765537	0.999764
503.131470	0.999455
503.497345	0.999109
503.863163	1.000983
504.228923	0.999368
504.594625	0.999892
504.960269	0.999617
505.325856	0.999640
505.691385	0.999658
506.056856	0.999715
506.422270	0.999668
506.787625	0.999618
507.152924	0.999670
507.518164	0.999806
507.883347	1.000084
508.248472	0.999810
508.613540	0.999934
508.978550	1.000083
509.343503	0.999108
509.708398	1.000373
510.073236	0.999047
510.438016	0.999865
510.802738	1.000078
511.167403	0.999729
511.532010	0.999539
511.896561	0.999512
512.261053	0.999764
512.625488	0.999595
512.989866	0.999305
513.354186	0.999041
513.718449	0.999273
514.082655	0.999291
514.446803	0.999543
514.810894	0.999607
515.174927	0.998772
515.538904	0.999334
515.902822	0.999187
516.266684	0.999985
516.630488	0.999449
516.994235	0.999510
517.357925	0.999024
517.721558	0.999855
518.085133	0.998610
518.448651	0.999954
518.812112	1.000248
519.175516	0.998730
519.538863	0.999326
519.902152	0.999388
520.265385	0.998806
520.628560	0.998015
520.991678	0.999381
521.354739	0.998899
521.717743	0.999022
522.080690	0.999633
522.443580	0.998777
522.806413	0.999061
523.169189	0.998971
523.531908	0.998619
523.894569	0.999332
524.257174	0.999665
524.619722	0.999186
524.982213	0.999675
525.344647	0.998987
525.707025	0.997973
526.069345	0.997975
526.431608	0.998695
526.793815	0.999393
527.155964	0.998015
527.518057	0.998325
527.880093	0.998731
528.242072	0.998276
528.603995	0.997765
528.965860	0.998877
529.327669	0.998206
529.689421	0.998385
530.051117	0.999379
530.412755	0.999090
530.774337	0.999179
531.135862	0.998997
531.497331	0.998879
531.858743	0.998465
532.220098	0.998699
532.581396	0.999009
532.942638	0.998775
533.303824	0.998139
533.664953	0.999465
534.026025	0.998164
534.387040	0.998260
534.747999	0.998327
535.108902	0.998601
535.469748	0.997641
535.830537	0.997954
536.191270	0.998335
536.551947	0.997922
536.912567	0.998369
537.273131	0.998273
537.633638	0.997178
537.994089	0.997797
538.354483	0.998341
538.714821	0.997776
539.075103	0.997403
539.435328	0.998362
539.795497	0.997938
540.155609	0.997079
540.515665	0.997343
540.875665	0.997485
541.235609	0.998275
541.595496	0.997247
541.955328	0.997307
542.315102	0.997532
542.674821	0.997420
543.034483	0.997434
543.394090	0.997069
543.753640	0.998365
544.113134	0.997357
544.472571	0.997483
544.831953	0.997957
545.191278	0.997438
545.550548	0.997829
545.909761	0.996424
546.268918	0.997313
546.628019	0.997507
546.987064	0.997073
547.346053	0.997019
547.704986	0.997884
548.063863	0.997212
548.422684	0.997616
548.781449	0.998049
549.140158	0.996566
549.498811	0.997379
549.857408	0.996847
550.215949	0.997267
550.574434	0.996394
550.932864	0.996632
551.291237	0.996681
551.649555	0.996603
552.007817	0.996836
552.366022	0.996548
552.724173	0.996674
553.082267	0.996738
553.440305	0.995681
553.798288	0.996464
554.156215	0.996446
554.514086	0.996396
554.871902	0.995946
555.229661	0.995862
555.587365	0.995820
555.945014	0.996458
556.302606	0.995006
556.660143	0.995446
557.017625	0.995334
557.375050	0.995824
557.732421	0.995192
558.089735	0.994928
558.446994	0.995717
558.804197	0.994898
559.161345	0.995218
559.518437	0.995145
559.875474	0.993467
560.232455	0.994369
560.589381	0.994633
560.946251	0.993997
561.303065	0.993703
561.659825	0.993785
562.016528	0.993511
562.373177	0.993357
562.729770	0.992550
563.086307	0.993179
563.442789	0.992495
563.799216	0.992639
564.155587	0.991781
564.511904	0.991435
564.868164	0.991420
565.224370	0.991134
565.580520	0.991141
565.936615	0.990740
566.292654	0.990271
566.648638	0.990870
567.004567	0.989275
567.360441	0.990047
567.716260	0.989694
568.072023	0.989706
568.427732	0.987920
568.783385	0.988745
569.138982	0.987622
569.494525	0.987954
569.850013	0.987453
570.205445	0.986716
570.560823	0.986640
570.916145	0.985724
571.271412	0.985636
571.626625	0.984406
571.981782	0.984763
572.336884	0.984637
572.691931	0.983917
573.046923	0.982222
573.401860	0.982661
573.756743	0.981734
574.111570	0.981421
574.466342	0.981578
574.821059	0.979856
575.175722	0.980314
575.530330	0.978846
575.884882	0.978415
576.239380	0.978990
576.593823	0.977894
576.948211	0.977183
577.302544	0.975858
577.656823	0.974935
578.011047	0.974852
578.365216	0.974463
578.719330	0.972845
579.073389	0.972815
579.427394	0.971697
579.781344	0.971196
580.135239	0.969552
580.489080	0.969265
580.842866	0.968529
581.196597	0.966260
581.550273	0.965813
581.903895	0.964563
582.257463	0.964127
582.610975	0.962669
582.964434	0.961742
583.317837	0.961180
583.671186	0.960003
584.024481	0.958603
584.377721	0.957952
584.730906	0.957007
585.084037	0.955368
585.437113	0.954477
585.790135	0.953658
586.143103	0.951518
586.496016	0.950961
586.848874	0.949038
587.201679	0.947569
587.554428	0.947042
587.907124	0.945267
588.259765	0.944280
588.612352	0.942675
588.964884	0.941208
589.317362	0.939644
589.669786	0.937862
590.022155	0.936040
590.374470	0.934574
590.726731	0.933635
591.078937	0.931635
591.431090	0.929567
591.783188	0.928615
592.135232	0.927165
592.487222	0.926798
592.839157	0.923811
593.191038	0.922923
593.542866	0.921307
593.894639	0.919712
594.246358	0.917251
594.598022	0.915785
594.949633	0.914448
595.301190	0.912321
595.652692	0.911002
596.004141	0.908570
596.355535	0.907320
596.706876	0.905190
597.058162	0.903565
597.409395	0.901197
597.760573	0.898622
598.111698	0.897602
598.462768	0.895173
598.813785	0.893557
599.164748	0.891438
599.515657	0.890575
599.866511	0.887493
600.217312	0.885583
600.568060	0.884661
600.918753	0.881898
601.269392	0.879558
601.619978	0.878416
601.970510	0.875556
602.320988	0.873634
602.671412	0.870078
603.021783	0.869570
603.372100	0.868186
603.722363	0.864521
604.072572	0.862723
604.422728	0.861137
604.772830	0.858638
605.122878	0.855708
605.472872	0.855516
605.822813	0.850960
606.172701	0.850580
606.522534	0.847478
606.872314	0.844550
607.222041	0.841583
607.571714	0.838964
607.921333	0.836918
608.270899	0.834055
608.620411	0.831590
608.969870	0.829559
609.319276	0.826126
609.668627	0.824635
610.017926	0.821036
610.367171	0.817533
610.716362	0.815482
611.065500	0.813120
611.414585	0.809476
611.763616	0.808416
612.112594	0.804253
612.461518	0.801898
612.810389	0.798899
613.159207	0.797225
613.507971	0.794503
613.856682	0.790318
614.205340	0.788996
614.553945	0.784630
614.902496	0.783527
615.250994	0.780062
615.599439	0.778684
615.947830	0.775226
616.296169	0.772063
616.644454	0.769641
616.992686	0.766721
617.340864	0.763215
617.688990	0.761898
618.037063	0.758002
618.385082	0.755430
618.733048	0.750919
619.080961	0.750385
619.428821	0.747338
619.776628	0.743414
620.124382	0.741650
620.472083	0.737925
620.819731	0.736610
621.167326	0.734925
621.514868	0.731866
621.862357	0.731192
622.209793	0.728842
622.557176	0.726301
622.904506	0.724472
623.251783	0.723039
623.599007	0.721066
623.946179	0.719136
624.293297	0.716421
624.640363	0.715903
624.987376	0.712905
625.334336	0.712720
625.681243	0.710388
626.028097	0.708232
626.374899	0.706976
626.721647	0.703219
627.068343	0.702917
627.414987	0.700111
627.761577	0.699244
628.108115	0.695625
628.454600	0.695864
628.801032	0.690881
629.147412	0.690344
629.493739	0.686400
629.840014	0.686273
630.186236	0.682932
630.532405	0.683281
630.878521	0.679504
631.224585	0.677531
631.570597	0.677773
631.916556	0.673336
632.262462	0.671954
632.608316	0.670044
632.954117	0.668063
633.299866	0.667058
633.645562	0.664094
633.991206	0.664415
634.336797	0.663335
634.682336	0.661787
635.027823	0.660132
635.373257	0.657989
635.718639	0.657570
636.063968	0.654015
636.409245	0.656488
636.754470	0.653249
637.099642	0.653251
637.444762	0.652895
637.789829	0.649260
638.134845	0.649039
638.479808	0.646869
638.824719	0.645081
639.169577	0.645593
639.514383	0.641197
639.859137	0.642971
640.203839	0.641424
640.548489	0.637727
640.893086	0.637738
641.237632	0.636292
641.582125	0.632623
641.926566	0.631045
642.270955	0.629838
642.615292	0.627492
642.959576	0.624155
643.303809	0.623387
643.647990	0.620599
643.992118	0.619234
644.336195	0.619642
644.680219	0.616016
645.024192	0.615001
645.368112	0.609101
645.711981	0.606169
646.055797	0.601558
646.399562	0.601482
646.743274	0.593206
647.086935	0.591145
647.430544	0.590134
647.774101	0.586629
648.117606	0.585256
648.461059	0.583274
648.804460	0.582391
649.147810	0.583966
649.491108	0.583740
649.834354	0.582192
650.177548	0.584102
650.520690	0.585420
650.863781	0.584771
651.206820	0.581783
651.549807	0.583440
651.892742	0.584594
652.235626	0.582226
652.578458	0.580905
652.921238	0.583310
653.263967	0.580704
653.606644	0.582178
653.949269	0.579658
654.291843	0.581321
654.634365	0.576465
654.976836	0.577764
655.319255	0.576367
655.661622	0.576291
656.003938	0.573640
656.346203	0.574990
656.688416	0.571650
657.030577	0.572364
657.372687	0.572780
657.714746	0.571529
658.056753	0.567541
658.398708	0.568690
658.740612	0.568244
659.082465	0.563810
659.424266	0.563135
659.766016	0.560462
660.107715	0.561023
660.449362	0.558693
660.790958	0.557657
661.132503	0.556710
661.473996	0.554046
661.815438	0.553194
662.156829	0.552426
662.498168	0.551619
662.839456	0.551828
663.180693	0.548547
663.521879	0.547521
663.863013	0.547018
664.204097	0.543781
664.545129	0.540235
664.886110	0.539218
665.227040	0.535718
665.567918	0.537910
665.908746	0.534471
666.249522	0.532878
666.590248	0.533226
666.930922	0.530779
667.271545	0.528669
667.612118	0.527544
667.952639	0.527992
668.293109	0.524971
668.633528	0.526283
668.973896	0.525309
669.314213	0.524155
669.654480	0.524595
669.994695	0.523546
670.334859	0.523157
670.674973	0.522198
671.015035	0.521734
671.355047	0.519930
671.695008	0.519958
672.034918	0.521083
672.374777	0.519199
672.714585	0.519285
673.054342	0.518564
673.394049	0.517198
673.733705	0.514302
674.073310	0.514022
674.412864	0.516204
674.752368	0.515456
675.091820	0.514272
675.431223	0.517540
675.770574	0.515509
676.109875	0.517488
676.449125	0.515900
676.788324	0.517595
677.127473	0.521552
677.466571	0.520328
677.805619	0.520606
678.144616	0.520733
678.483562	0.521161
678.822458	0.522479
679.161303	0.523072
679.500098	0.522228
679.838842	0.523499
680.177535	0.522112
680.516179	0.519891
680.854771	0.518361
681.193314	0.511971
681.531805	0.503918
681.870247	0.494252
682.208638	0.486746
682.546978	0.484976
682.885268	0.485756
683.223508	0.490471
683.561697	0.492979
683.899836	0.494821
684.237925	0.497441
684.575963	0.499658
684.913951	0.501865
685.251889	0.497412
685.589776	0.498571
685.927614	0.500694
686.265401	0.495099
686.603137	0.496206
686.940824	0.490150
687.278460	0.488867
687.616046	0.487975
687.953582	0.483038
688.291068	0.484304
688.628504	0.479552
688.965889	0.481358
689.303224	0.484659
689.640510	0.486968
689.977745	0.491316
690.314930	0.497553
690.652065	0.500800
690.989150	0.507444
691.326185	0.512361
691.663170	0.515748
692.000105	0.522368
692.336990	0.528180
692.673825	0.529457
693.010610	0.535154
693.347345	0.540319
693.684030	0.540784
694.020665	0.545257
694.357251	0.552801
694.693786	0.551984
695.030272	0.555454
695.366707	0.558112
695.703093	0.561279
696.039429	0.558976
696.375716	0.560000
696.711952	0.562127
697.048139	0.563726
697.384276	0.565577
697.720363	0.563897
698.056400	0.562286
698.392388	0.567818
698.728326	0.570354
699.064214	0.572478
699.400053	0.573150
699.735842	0.575064
700.071581	0.577635
700.407270	0.580139
700.742910	0.581866
701.078501	0.588305
701.414042	0.588811
701.749533	0.590294
702.084974	0.599237
702.420366	0.590894
702.755709	0.598460
703.091002	0.605521
703.426246	0.598672
703.761440	0.604192
704.096584	0.608784
704.431679	0.605455
704.766725	0.606784
705.101721	0.608152
705.436668	0.605291
705.771565	0.611080
706.106413	0.607883
706.441212	0.602995
706.775961	0.601784
707.110661	0.604122
707.445311	0.600490
707.779913	0.597334
708.114465	0.596167
708.448967	0.592919
708.783421	0.585447
709.117825	0.580117
709.452180	0.579270
709.786485	0.573513
710.120742	0.564218
710.454949	0.566246
710.789107	0.558854
711.123216	0.550358
711.457275	0.551821
711.791286	0.542840
712.125247	0.541650
712.459159	0.552214
712.793023	0.545197
713.126837	0.548923
713.460602	0.549002
713.794318	0.558202
714.127985	0.555780
714.461602	0.564887
714.795171	0.568129
715.128691	0.575295
715.462162	0.581829
715.795584	0.587151
716.128957	0.590047
716.462281	0.596255
716.795556	0.599510
717.128782	0.604074
717.461960	0.613218
717.795088	0.611650
718.128167	0.617909
718.461198	0.625578
718.794180	0.626888
719.127113	0.628875
719.459997	0.632013
719.792833	0.638120
720.125619	0.639268
720.458357	0.644497
720.791046	0.644165
721.123686	0.648538
721.456278	0.654442
721.788821	0.651838
722.121315	0.655388
722.453761	0.659578
722.786158	0.657504
723.118506	0.653731
723.450805	0.661939
723.783056	0.657765
724.115259	0.655231
724.447412	0.653900
724.779518	0.656581
725.111574	0.654602
725.443582	0.650364
725.775542	0.651989
726.107453	0.644628
726.439315	0.644696
726.771129	0.642642
727.102895	0.636214
727.434612	0.629845
727.766281	0.627335
728.097901	0.627135
728.429473	0.627479
728.760996	0.625384
729.092471	0.624594
729.423897	0.628869
729.755276	0.627872
730.086606	0.628082
730.417887	0.622910
730.749120	0.613364
731.080305	0.603283
731.411442	0.600257
731.742530	0.605441
732.073570	0.604076
732.404562	0.596476
732.735506	0.597780
733.066401	0.601836
733.397249	0.610651
733.728048	0.622869
734.058798	0.634553
734.389501	0.645353
734.720156	0.654043
735.050762	0.662420
735.381320	0.663233
735.711831	0.672698
736.042293	0.677695
736.372707	0.673042
736.703073	0.677318
737.033391	0.679850
737.363661	0.676130
737.693883	0.671486
738.024056	0.670879
738.354182	0.671742
738.684260	0.661587
739.014290	0.656597
739.344272	0.657070
739.674207	0.651022
740.004093	0.651125
740.333931	0.650720
740.663722	0.650669
740.993464	0.651278
741.323159	0.655124
741.652806	0.659706
741.982405	0.664501
742.311956	0.668736
742.641460	0.671742
742.970915	0.673936
743.300323	0.682182
743.629683	0.688404
743.958996	0.690051
744.288260	0.694741
744.617477	0.700135
744.946647	0.702559
745.275768	0.706758
745.604842	0.707374
745.933869	0.717139
746.262847	0.717665
746.591778	0.711464
746.920662	0.716965
747.249498	0.723722
747.578286	0.714099
747.907027	0.710883
748.235720	0.712052
748.564365	0.706469
748.892963	0.706489
749.221514	0.708718
749.550017	0.714351
749.878473	0.713750
750.206881	0.720347
750.535242	0.721026
750.863555	0.720516
751.191821	0.722698
751.520039	0.725823
751.848210	0.730761
752.176334	0.722955
752.504411	0.722109
752.832440	0.729803
753.160421	0.734732
753.488356	0.731070
753.816243	0.729770
754.144082	0.737227
754.471875	0.742095
754.799620	0.736143
755.127318	0.737801
755.454969	0.737322
755.782572	0.737862
756.110129	0.742257
756.437638	0.745033
756.765100	0.741248
757.092515	0.739600
757.419882	0.738594
757.747203	0.744158
758.074477	0.742940
758.401703	0.740482
758.728882	0.734829
759.056014	0.734543
759.383099	0.733387
759.710138	0.733381
760.037129	0.731196
760.364073	0.725390
760.690970	0.727467
761.017820	0.732767
761.344623	0.728566
761.671379	0.719655
761.998088	0.708869
762.324751	0.684863
762.651366	0.645262
762.977935	0.578645
763.304456	0.527950
763.630931	0.518256
763.957359	0.556393
764.283740	0.600747
764.610074	0.627174
764.936362	0.656840
765.262602	0.683884
765.588796	0.705853
765.914943	0.723235
766.241044	0.740450
766.567097	0.746869
766.893104	0.756494
767.219064	0.762829
767.544978	0.769229
767.870845	0.782881
768.196665	0.786420
768.522438	0.783666
768.848165	0.785582
769.173846	0.793934
769.499479	0.798212
769.825066	0.801649
770.150607	0.807181
770.476101	0.801355
770.801548	0.803489
771.126949	0.813985
771.452303	0.818803
771.777611	0.817296
772.102872	0.817062
772.428087	0.821567
772.753256	0.825672
773.078378	0.826433
773.403453	0.836438
773.728482	0.840780
774.053465	0.833273
774.378401	0.837114
774.703291	0.846291
775.028135	0.844203
775.352932	0.846448
775.677683	0.849171
776.002388	0.849613
776.327046	0.849425
776.651658	0.852335
776.976224	0.856695
777.300743	0.856378
777.625216	0.858652
777.949643	0.860189
778.274024	0.859531
778.598359	0.861723
778.922647	0.860181
779.246889	0.861195
779.571086	0.864693
779.895236	0.868607
780.219339	0.865378
780.543397	0.862004
780.867409	0.860500
781.191374	0.862512
781.515294	0.864069
781.839167	0.862525
782.162995	0.865813
782.486776	0.862121
782.810511	0.864448
783.134201	0.867052
783.457844	0.864487
783.781441	0.867941
784.104993	0.874604
784.428498	0.873850
784.751958	0.869578
785.075372	0.872198
785.398739	0.875130
785.722061	0.872699
786.045337	0.867405
786.368568	0.873860
786.691752	0.874878
787.014891	0.860685
787.337983	0.852580
787.661030	0.845081
787.984031	0.827959
788.306987	0.814813
788.629897	0.817072
788.952760	0.821285
789.275579	0.825162
789.598351	0.841108
789.921078	0.853007
790.243759	0.855951
790.566395	0.860597
790.888984	0.868022
791.211529	0.872827
791.534027	0.875246
791.856480	0.877278
792.178888	0.882512
792.501249	0.884633
792.823566	0.886438
793.145836	0.886078
793.468062	0.888248
793.790241	0.887792
794.112375	0.886528
794.434464	0.882522
794.756507	0.880607
795.078505	0.880890
795.400457	0.875930
795.722364	0.863858
796.044226	0.857226
796.366042	0.855486
796.687812	0.859099
797.009538	0.855360
797.331218	0.858131
797.652852	0.864372
797.974442	0.866893
798.295986	0.867500
798.617484	0.870469
798.938938	0.874802
799.260346	0.878540
799.581709	0.881614
799.903026	0.883806
800.224299	0.883837
800.545526	0.888367
800.866708	0.892536
801.187845	0.894918
801.508936	0.895452
801.829983	0.893276
802.150984	0.895627
802.471940	0.901291
802.792851	0.899953
803.113717	0.901966
803.434538	0.898654
803.755314	0.901044
804.076045	0.902968
804.396731	0.904165
804.717372	0.903671
805.037967	0.905367
805.358518	0.902405
805.679024	0.900794
805.999485	0.900350
806.319901	0.899210
806.640272	0.900663
806.960598	0.900034
807.280879	0.896953
807.601115	0.895223
807.921306	0.899661
808.241453	0.899085
808.561554	0.897499
808.881611	0.898280
809.201623	0.899165
809.521590	0.899827
809.841513	0.900012
810.161390	0.899201
810.481223	0.900308
810.801011	0.905550
811.120755	0.905365
811.440453	0.904589
811.760107	0.903505
812.079716	0.904032
812.399281	0.906547
812.718801	0.909966
813.038276	0.909913
813.357707	0.911002
813.677093	0.907042
813.996434	0.910290
814.315731	0.912188
814.634983	0.912518
814.954191	0.910340
815.273354	0.908508
815.592473	0.904404
815.911547	0.905283
816.230577	0.902252
816.549562	0.899562
816.868502	0.901379
817.187399	0.896741
817.506250	0.892106
817.825058	0.893703
818.143821	0.889126
818.462539	0.885401
818.781213	0.878351
819.099843	0.865755
819.418429	0.851667
819.736970	0.834735
820.055466	0.816007
820.373919	0.791139
820.692327	0.757471
821.010691	0.724397
821.329011	0.649104
821.647286	0.536447
821.965517	0.425269
822.283704	0.382810
822.601847	0.385279
822.919945	0.420395
823.237999	0.452470
823.556010	0.498523
823.873976	0.553047
824.191897	0.602771
824.509775	0.644265
824.827609	0.688685
825.145398	0.710408
825.463144	0.713159
825.780845	0.696034
826.098502	0.678209
826.416116	0.633541
826.733685	0.590674
827.051210	0.582634
827.368692	0.596656
827.686129	0.633440
828.003522	0.684421
828.320872	0.731237
828.638177	0.773795
828.955439	0.805110
829.272656	0.827616
829.589830	0.843075
829.906960	0.859432
830.224046	0.871104
830.541088	0.882622
830.858086	0.885698
831.175041	0.891732
831.491952	0.890891
831.808819	0.886707
832.125642	0.882055
832.442421	0.866790
832.759157	0.846006
833.075849	0.801588
833.392497	0.738482
833.709101	0.698078
834.025662	0.708169
834.342179	0.739419
834.658653	0.777371
834.975083	0.812463
835.291469	0.837868
835.607811	0.859318
835.924110	0.875169
836.240366	0.891441
836.556578	0.905258
836.872746	0.912525
837.188871	0.918631
837.504952	0.923534
837.820990	0.926789
838.136984	0.929392
838.452935	0.932914
838.768842	0.936757
839.084706	0.928117
839.400526	0.904724
839.716303	0.864133
840.032037	0.841977
840.347727	0.846025
840.663373	0.863407
840.978977	0.883811
841.294537	0.906451
841.610054	0.921747
841.925527	0.928779
842.240957	0.935397
842.556344	0.943828
842.871687	0.948648
843.186987	0.953283
843.502244	0.953801
843.817458	0.954581
844.132629	0.958571
844.447756	0.962877
844.762840	0.964027
845.077881	0.962515
845.392879	0.962454
845.707833	0.965000
846.022745	0.967254
846.337613	0.967664
846.652438	0.968822
846.967221	0.966827
847.281960	0.966469
847.596656	0.969201
847.911309	0.967986
848.225919	0.969763
848.540485	0.971076
848.855009	0.971107
849.169490	0.971166
849.483928	0.970857
849.798323	0.971026
850.112675	0.972687
850.426984	0.971397
850.741251	0.973826
851.055474	0.971341
851.369654	0.969684
851.683792	0.972448
851.997887	0.972039
852.311938	0.972683
852.625947	0.972057
852.939914	0.969838
853.253837	0.972009
853.567718	0.972756
853.881555	0.972569
854.195350	0.971007
854.509103	0.972516
854.822812	0.972358
855.136479	0.971947
855.450103	0.972343
855.763685	0.970292
856.077224	0.970952
856.390720	0.972936
856.704173	0.973077
857.017584	0.970618
857.330953	0.969013
857.644278	0.970040
857.957561	0.970728
858.270802	0.971628
858.584000	0.970706
858.897155	0.969392
859.210268	0.969708
859.523339	0.971068
859.836367	0.972740
860.149352	0.973550
860.462295	0.971647
860.775195	0.972350
861.088054	0.972679
861.400869	0.973346
861.713642	0.972420
862.026373	0.972760
862.339062	0.973556
862.651708	0.970311
862.964312	0.970077
863.276873	0.972144
863.589392	0.971338
863.901869	0.968777
864.214303	0.968729
864.526696	0.966420
864.839045	0.965892
865.151353	0.964129
865.463619	0.965541
865.775842	0.965586
866.088023	0.965022
866.400162	0.965539
866.712258	0.964732
867.024313	0.965912
867.336325	0.965753
867.648296	0.966349
867.960224	0.965479
868.272110	0.964051
868.583954	0.967255
868.895755	0.965945
869.207515	0.964719
869.519233	0.962689
869.830909	0.964984
870.142542	0.964605
870.454134	0.964251
870.765684	0.964154
871.077191	0.961072
871.388657	0.961910
871.700081	0.961052
872.011463	0.961812
872.322803	0.960766
872.634101	0.960430
872.945357	0.958104
873.256571	0.956992
873.567744	0.956166
873.878874	0.956902
874.189963	0.956190
874.501010	0.955190
874.812015	0.953825
875.122979	0.955051
875.433900	0.956499
875.744780	0.957617
876.055618	0.954933
876.366415	0.953654
876.677169	0.953773
876.987882	0.954393
877.298554	0.954146
877.609183	0.950691
877.919771	0.948399
878.230317	0.946337
878.540822	0.944442
878.851285	0.938870
879.161707	0.931946
879.472087	0.920699
879.782425	0.905050
880.092722	0.872879
880.402977	0.822659
880.713191	0.764458
881.023363	0.708353
881.333494	0.675854
881.643583	0.648392
881.953631	0.647645
882.263637	0.676246
882.573602	0.715031
882.883526	0.738763
883.193408	0.761259
883.503248	0.783688
883.813048	0.809436
884.122806	0.838366
884.432522	0.860294
884.742197	0.878388
885.051831	0.888126
885.361424	0.898570
885.670975	0.909838
885.980485	0.919431
886.289954	0.924418
886.599382	0.929907
886.908768	0.933306
887.218113	0.939548
887.527417	0.943553
887.836680	0.946250
888.145901	0.947294
888.455082	0.949528
888.764221	0.954921
889.073319	0.956027
889.382376	0.957571
889.691392	0.956688
890.000366	0.956512
890.309300	0.958531
890.618193	0.956849
890.927044	0.955354
891.235855	0.954654
891.544625	0.955659
891.853353	0.955869
892.162041	0.953268
892.470687	0.947257
892.779293	0.942349
893.087858	0.939406
893.396381	0.931307
893.704864	0.919837
894.013306	0.896985
894.321707	0.871041
894.630068	0.857142
894.938387	0.853497
895.246665	0.853956
895.554903	0.866680
895.863100	0.878724
896.171256	0.894362
896.479371	0.912699
896.787446	0.925904
897.095480	0.930681
897.403473	0.934241
897.711425	0.936408
898.019336	0.945704
898.327207	0.947267
898.635038	0.949825
898.942827	0.949810
899.250576	0.952432
899.558284	0.955304
899.865952	0.957274
900.173579	0.959226
900.481165	0.959252
900.788711	0.962883
901.096216	0.964489
901.403681	0.965310
901.711105	0.967199
902.018489	0.968121
902.325832	0.966648
902.633135	0.964948
902.940397	0.959929
903.247619	0.949568
903.554800	0.924285
903.861941	0.887318
904.169041	0.854551
904.476101	0.838054
904.783121	0.838974
905.090100	0.854900
905.397039	0.874219
905.703938	0.894727
906.010796	0.913303
906.317614	0.928197
906.624391	0.939310
906.931129	0.948781
907.237826	0.956214
907.544483	0.963185
907.851099	0.966472
908.157675	0.971534
908.464211	0.972831
908.770707	0.976135
909.077163	0.977219
909.383578	0.976719
909.689954	0.977728
909.996289	0.978175
910.302584	0.979791
910.608839	0.981926
910.915054	0.981075
911.221229	0.981175
911.527363	0.979218
911.833458	0.978828
912.139513	0.981075
912.445527	0.978402
912.751502	0.977166
913.057436	0.974887
913.363331	0.973989
913.669186	0.969588
913.975000	0.965193
914.280775	0.959768
914.586510	0.952886
914.892205	0.941568
915.197859	0.922066
915.503475	0.895400
915.809050	0.877390
916.114585	0.873614
916.420081	0.871466
916.725536	0.867581
917.030952	0.875037
917.336328	0.886868
917.641665	0.900302
917.946961	0.915341
918.252218	0.926918
918.557435	0.934002
918.862612	0.942459
919.167750	0.947838
919.472848	0.952152
919.777906	0.957651
920.082925	0.963001
920.387904	0.965775
920.692843	0.967625
920.997743	0.967707
921.302603	0.970607
921.607423	0.972886
921.912204	0.975340
922.216946	0.974694
922.521647	0.976931
922.826310	0.978202
923.130932	0.979736
923.435516	0.981631
923.740059	0.982362
924.044564	0.980988
924.349028	0.982576
924.653454	0.985418
924.957840	0.987327
925.262186	0.987166
925.566493	0.986250
925.870761	0.987718
926.174989	0.988475
926.479178	0.990086
926.783328	0.991310
927.087438	0.991287
927.391509	0.989971
927.695541	0.993464
927.999533	0.992326
928.303486	0.991154
928.607400	0.993871
928.911275	0.992306
929.215110	0.991659
929.518906	0.993211
929.822663	0.993498
930.126381	0.993655
930.430060	0.992682
930.733699	0.991139
931.037299	0.991520
931.340861	0.992888
931.644383	0.991465
931.947866	0.991415
932.251309	0.992192
932.554714	0.993041
932.858080	0.992255
933.161407	0.992636
933.464694	0.993743
933.767943	0.991633
934.071153	0.992900
934.374323	0.993122
934.677455	0.993277
934.980548	0.992711
935.283602	0.992849
935.586617	0.993832
935.889593	0.992136
936.192530	0.992916
936.495428	0.993482
936.798287	0.993068
937.101108	0.992333
937.403890	0.990791
937.706632	0.991124
938.009336	0.989425
938.312002	0.988297
938.614628	0.986470
938.917216	0.986651
939.219765	0.983512
939.522275	0.986390
939.824747	0.985924
940.127179	0.986574
940.429573	0.988538
940.731929	0.986304
941.034246	0.986621
941.336524	0.987999
941.638763	0.989145
941.940964	0.989239
942.243126	0.988957
942.545250	0.989261
942.847335	0.990934
943.149381	0.989649
943.451389	0.990517
943.753359	0.989840
944.055290	0.991545
944.357182	0.990810
944.659036	0.990826
944.960851	0.992340
945.262628	0.992260
945.564367	0.991557
945.866067	0.990993
946.167729	0.992402
946.469352	0.991983
946.770937	0.990118
947.072484	0.994039
947.373992	0.990938
947.675462	0.993677
947.976893	0.993203
948.278286	0.993903
948.579641	0.993683
948.880958	0.992272
949.182236	0.992403
949.483476	0.992686
949.784678	0.992036
950.085841	0.992856
950.386967	0.992607
950.688054	0.992146
950.989103	0.993243
951.290114	0.990886
951.591087	0.991742
951.892021	0.991497
952.192917	0.990471
952.493776	0.991146
952.794596	0.990504
953.095378	0.990589
953.396122	0.989648
953.696828	0.988837
953.997496	0.991918
954.298126	0.992060
954.598718	0.992057
954.899272	0.992526
955.199788	0.992470
955.500266	0.993463
955.800706	0.995004
956.101108	0.995555
956.401472	0.994550
956.701798	0.995164
957.002087	0.994882
957.302337	0.995078
957.602550	0.996297
957.902724	0.995123
958.202861	0.997100
958.502960	0.996597
958.803022	0.996057
959.103045	0.996963
959.403031	0.996928
959.702979	0.996710
960.002889	0.996697
960.302762	0.996585
960.602596	0.996692
960.902393	0.996140
961.202153	0.997578
961.501875	0.997054
961.801559	0.996782
962.101205	0.997253
962.400814	0.997597
962.700385	0.998414
962.999918	0.996446
963.299414	0.997464
963.598873	0.996905
963.898293	0.997810
964.197677	0.997536
964.497022	0.998089
964.796331	0.997814
965.095601	0.997814
965.394835	0.997960
965.694030	0.997993
965.993189	0.998521
966.292309	0.997863
966.591393	0.998206
966.890439	0.997834
967.189447	0.998113
967.488419	0.998174
967.787353	0.997991
968.086249	0.997422
968.385108	0.997803
968.683930	0.998579
968.982714	0.998454
969.281462	0.998477
969.580172	0.997436
969.878844	0.997465
970.177480	0.997397
970.476078	0.997338
970.774639	0.997828
971.073162	0.998520
971.371649	0.998070
971.670098	0.997142
971.968510	0.999179
972.266885	0.995413
972.565223	0.998204
972.863524	0.997281
973.161788	0.997441
973.460014	0.998397
973.758204	0.996109
974.056356	0.997316
974.354471	0.995165
974.652550	0.995955
974.950591	0.996532
975.248595	0.998246
975.546563	0.997473
975.844493	0.999734
976.142386	0.997160
976.440243	0.997850
976.738062	0.997090
977.035845	0.999232
977.333590	0.998063
977.631299	0.998767
977.928971	0.997308
978.226606	0.997780
978.524204	0.996418
978.821765	0.998181
979.119290	0.997574
979.416777	0.997817
979.714228	0.999146
980.011642	0.997383
980.309020	0.998411
980.606360	0.997936
980.903664	0.998409
981.200931	0.997056
981.498162	0.994916
981.795356	0.995808
982.092513	0.995158
982.389633	0.996158
982.686717	0.993766
982.983764	0.992893
983.280775	0.992494
983.577749	0.991535
983.874686	0.993703
984.171587	0.992716
984.468451	0.996179
984.765279	0.996713
985.062070	0.994819
985.358824	0.995440
985.655543	0.996098
985.952224	0.996038
986.248869	0.997728
986.545478	0.997682
986.842050	0.998692
987.138586	0.997286
987.435086	0.998386
987.731549	0.998586
988.027975	0.998300
988.324366	0.998628
988.620719	0.998091
988.917037	0.996996
989.213318	0.998963
989.509563	0.998638
989.805772	0.999526
990.101944	0.999132
990.398080	0.996320
990.694180	0.998992
990.990244	0.997959
991.286271	0.997831
991.582262	0.998415
991.878217	0.997173
992.174136	0.998861
992.470019	1.000532
992.765865	0.998894
993.061676	0.997916
993.357450	0.998928
993.653188	0.997368
993.948890	0.998057
994.244556	0.998183
994.540186	0.996825
994.835780	0.997377
995.131337	0.998246
995.426859	0.998230
995.722345	0.998913
996.017795	0.997637
996.313208	0.995680
996.608586	0.996701
996.903928	0.998201
997.199234	0.996572
997.494504	0.996884
997.789738	0.997018
998.084936	0.996559
998.380099	0.999213
998.675225	0.998146
998.970316	0.998182
999.265371	0.998962
999.560390	0.999811
999.855373	0.998937
1000.150320	0.998671
1000.445232	0.998444
1000.740108	0.998773
1001.034948	0.999717
1001.329752	0.999351
1001.624521	0.999703
1001.919254	0.998466
1002.213951	0.998682
1002.508613	0.999214
1002.803239	0.999763
1003.097829	0.999516
1003.392384	0.999811
1003.686903	0.998615
1003.981386	0.999977
1004.275834	0.999150
1004.570246	0.998988
1004.864623	0.998712
1005.158964	0.999349
1005.453270	0.997933
1005.747540	0.998429
1006.041775	0.999232
1006.335974	0.999867
1006.630138	0.999217
1006.924266	0.999908
1007.218359	1.001145
1007.512416	0.999598
1007.806438	0.999215
1008.100425	0.999743
1008.394376	0.999284
1008.688292	0.999066
1008.982172	1.000719
1009.276017	0.999031
1009.569827	0.998466
1009.863602	0.998767
1010.157341	1.000239
1010.451045	0.999615
1010.744714	0.999891
1011.038347	0.999898
1011.331945	1.000619
1011.625508	0.998051
1011.919036	0.997887
1012.212528	0.997921
1012.505986	0.998257
1012.799408	0.998787
1013.092795	1.000063
1013.386147	0.999098
1013.679464	0.999184
1013.972745	0.998651
1014.265992	0.997978
1014.559204	0.998564
1014.852380	0.999975
1015.145521	0.999101
1015.438628	0.999689
1015.731699	0.999446
1016.024736	0.999356
1016.317737	0.998417
1016.610703	0.998928
1016.903635	1.000460
1017.196531	0.998135
1017.489393	1.000240
1017.782219	0.998709
1018.075011	0.999225
1018.367768	0.999647
1018.660490	1.000290
1018.953177	1.000290
1019.245829	1.000290
