Dividing Wavelength (nm)	Counts (n)	Blue Motor Position (mm): 0.000000	Red Motor Position (mm): 29.200000	
326.493990	1.001014
326.888308	1.001014
327.282561	1.001014
327.676750	1.000600
328.070874	0.999453
328.464933	0.999537
328.858929	0.998877
329.252859	1.000588
329.646726	1.000532
330.040528	1.000079
330.434265	0.999138
330.827938	1.001727
331.221547	1.000795
331.615091	1.000399
332.008571	0.999916
332.401986	0.999704
332.795338	0.999542
333.188625	1.000138
333.581847	1.000195
333.975006	0.999689
334.368100	0.999083
334.761129	1.000479
335.154095	1.000495
335.546996	0.998022
335.939833	0.995069
336.332606	0.994477
336.725315	0.996266
337.117960	0.996947
337.510540	0.995829
337.903056	0.996034
338.295508	0.995086
338.687896	0.995475
339.080220	0.996495
339.472480	0.995801
339.864676	0.994945
340.256807	0.995732
340.648875	0.995664
341.040879	0.995220
341.432818	0.995844
341.824694	0.995523
342.216506	0.996294
342.608253	0.994714
342.999937	0.994013
343.391557	0.995378
343.783113	0.995262
344.174605	0.996176
344.566033	0.995590
344.957397	0.994860
345.348697	0.994764
345.739934	0.996887
346.131106	0.995198
346.522215	0.994064
346.913260	0.996302
347.304241	0.995961
347.695159	0.994992
348.086012	0.994727
348.476802	0.994804
348.867528	0.996823
349.258191	0.994895
349.648789	0.995200
350.039324	0.995180
350.429796	0.996192
350.820203	0.996069
351.210548	0.995659
351.600828	0.995757
351.991045	0.995428
352.381198	0.995593
352.771288	0.996128
353.161314	0.994994
353.551276	0.996667
353.941175	0.994501
354.331010	0.995469
354.720782	0.995601
355.110490	0.995666
355.500135	0.996291
355.889717	0.995756
356.279235	0.995236
356.668689	0.995365
357.058080	0.994970
357.447408	0.996203
357.836672	0.995831
358.225873	0.996181
358.615010	0.996075
359.004084	0.996645
359.393095	0.995054
359.782043	0.995911
360.170927	0.996587
360.559748	0.995440
360.948505	0.995179
361.337199	0.995879
361.725830	0.995792
362.114398	0.993985
362.502903	0.995123
362.891344	0.996664
363.279722	0.993705
363.668037	0.996636
364.056289	0.996034
364.444478	0.996797
364.832603	0.996242
365.220665	0.994812
365.608665	0.995875
365.996601	0.995397
366.384474	0.996293
366.772284	0.994218
367.160031	0.993902
367.547715	0.994753
367.935336	0.995742
368.322893	0.995069
368.710388	0.995429
369.097820	0.996361
369.485189	0.994422
369.872495	0.996061
370.259738	0.993673
370.646918	0.996333
371.034035	0.996025
371.421090	0.995439
371.808081	0.996484
372.195010	0.996661
372.581875	0.995741
372.968678	0.996085
373.355418	0.995559
373.742096	0.996351
374.128710	0.996860
374.515262	0.995217
374.901751	0.996494
375.288177	0.996339
375.674540	0.997688
376.060841	0.996321
376.447079	0.996567
376.833254	0.996024
377.219367	0.996649
377.605417	0.996571
377.991404	0.996399
378.377329	0.996542
378.763191	0.996229
379.148991	0.997097
379.534727	0.997359
379.920402	0.997045
380.306013	0.996889
380.691563	0.997341
381.077049	0.995432
381.462474	0.996978
381.847835	0.996963
382.233134	0.996638
382.618371	0.997437
383.003545	0.996373
383.388657	0.995765
383.773706	0.997355
384.158693	0.997140
384.543618	0.997275
384.928480	0.998676
385.313280	0.998085
385.698017	0.997401
386.082692	0.998107
386.467305	0.997430
386.851856	0.996984
387.236344	0.996447
387.620770	0.995977
388.005133	0.997366
388.389435	0.998743
388.773674	0.996671
389.157851	0.998384
389.541965	0.997787
389.926018	0.997327
390.310008	0.998691
390.693936	0.996793
391.077802	0.998067
391.461606	0.997918
391.845348	0.997529
392.229027	0.998352
392.612645	0.997348
392.996200	0.999035
393.379694	0.997294
393.763125	0.997944
394.146494	0.998013
394.529801	0.997973
394.913047	0.997750
395.296230	0.997624
395.679351	0.997425
396.062410	0.997465
396.445408	0.998495
396.828343	0.998448
397.211217	0.998081
397.594028	0.998298
397.976778	0.997187
398.359466	0.997816
398.742092	0.997504
399.124656	0.997972
399.507158	0.997996
399.889598	0.997599
400.271977	0.998304
400.654294	0.997548
401.036549	0.997538
401.418742	0.998278
401.800874	0.997202
402.182944	0.998638
402.564952	0.997103
402.946898	0.997744
403.328783	0.997804
403.710606	0.998034
404.092367	0.998775
404.474067	0.998463
404.855705	0.997830
405.237282	0.997880
405.618797	0.998086
406.000250	0.998077
406.381642	0.997935
406.762972	0.997752
407.144240	0.999237
407.525447	0.998045
407.906593	0.998439
408.287677	0.998227
408.668700	0.999013
409.049661	0.996985
409.430560	0.998692
409.811399	0.997376
410.192176	0.997541
410.572891	0.998097
410.953545	0.997271
411.334138	0.997362
411.714669	0.998143
412.095139	0.997845
412.475547	0.998259
412.855894	0.998378
413.236180	0.999100
413.616405	0.998150
413.996568	0.997866
414.376670	0.998289
414.756711	0.997989
415.136691	0.998608
415.516609	0.997884
415.896466	0.997251
416.276262	0.998096
416.655997	0.999105
417.035670	0.997416
417.415283	0.998518
417.794834	0.997718
418.174324	0.998053
418.553753	0.998949
418.933121	0.998079
419.312428	0.997770
419.691674	0.998033
420.070859	0.998210
420.449983	0.998643
420.829045	0.997585
421.208047	0.998525
421.586988	0.999014
421.965867	0.998456
422.344686	0.998357
422.723444	0.998487
423.102141	0.998588
423.480777	0.998013
423.859352	0.998209
424.237866	0.997750
424.616319	0.998275
424.994712	0.998328
425.373044	0.998822
425.751314	0.998242
426.129524	0.998289
426.507673	0.998380
426.885762	0.998742
427.263789	0.999104
427.641756	0.998801
428.019662	0.999817
428.397508	0.998327
428.775292	0.997360
429.153016	0.997918
429.530679	0.998896
429.908282	0.999219
430.285824	0.998753
430.663305	0.998137
431.040726	0.998350
431.418086	0.999577
431.795385	0.999289
432.172624	0.998344
432.549802	0.999387
432.926920	0.999074
433.303977	0.997769
433.680974	0.998806
434.057910	0.998193
434.434786	0.999996
434.811601	0.998500
435.188355	0.997835
435.565050	0.997791
435.941683	0.999286
436.318257	0.999244
436.694770	0.996984
437.071222	0.998494
437.447614	0.998338
437.823946	0.998550
438.200218	0.998749
438.576429	0.999278
438.952580	0.998864
439.328670	0.998384
439.704700	0.998820
440.080670	0.998700
440.456580	0.998331
440.832429	0.998360
441.208218	0.998645
441.583947	0.998307
441.959616	0.998992
442.335224	0.997290
442.710773	0.999003
443.086261	0.997901
443.461689	0.997704
443.837057	0.998151
444.212365	0.997891
444.587612	0.998094
444.962800	0.998439
445.337927	0.997951
445.712995	0.998187
446.088002	0.998618
446.462949	0.998222
446.837837	0.997840
447.212664	0.998575
447.587431	0.998676
447.962139	0.998558
448.336786	0.998524
448.711374	0.998194
449.085901	0.998152
449.460369	0.998794
449.834776	0.997508
450.209124	0.998479
450.583412	0.997469
450.957640	0.998291
451.331808	0.998284
451.705917	0.997650
452.079965	0.997253
452.453954	0.998726
452.827883	0.997145
453.201752	0.997842
453.575562	0.998516
453.949311	0.998320
454.323001	0.997850
454.696632	0.996876
455.070202	0.996449
455.443713	0.996192
455.817164	0.996642
456.190556	0.996219
456.563888	0.995639
456.937160	0.995483
457.310373	0.995075
457.683526	0.994994
458.056619	0.994951
458.429653	0.994067
458.802628	0.992854
459.175542	0.992675
459.548398	0.992332
459.921194	0.991199
460.293930	0.991652
460.666607	0.988832
461.039224	0.987912
461.411782	0.988010
461.784280	0.986593
462.156719	0.987196
462.529099	0.986529
462.901419	0.985553
463.273680	0.983668
463.645882	0.982900
464.018024	0.982138
464.390106	0.980305
464.762130	0.979981
465.134094	0.976037
465.505999	0.972163
465.877845	0.967646
466.249631	0.967107
466.621358	0.965396
466.993026	0.965503
467.364634	0.964353
467.736184	0.963328
468.107674	0.960627
468.479105	0.957782
468.850477	0.957317
469.221790	0.955196
469.593043	0.952933
469.964238	0.951615
470.335373	0.947705
470.706449	0.945695
471.077467	0.942362
471.448425	0.933673
471.819324	0.928727
472.190164	0.925767
472.560945	0.926398
472.931667	0.923658
473.302330	0.920996
473.672934	0.919243
474.043479	0.914184
474.413965	0.909150
474.784393	0.904842
475.154761	0.900566
475.525070	0.895144
475.895321	0.892899
476.265513	0.886680
476.635645	0.881194
477.005719	0.875451
477.375734	0.869520
477.745691	0.863968
478.115588	0.857408
478.485427	0.850781
478.855207	0.841093
479.224928	0.829146
479.594591	0.820902
479.964194	0.816561
480.333739	0.812401
480.703226	0.805052
481.072653	0.798514
481.442022	0.789084
481.811333	0.780896
482.180584	0.776095
482.549777	0.769618
482.918912	0.764476
483.287988	0.756902
483.657005	0.749517
484.025964	0.745295
484.394864	0.736509
484.763706	0.729660
485.132489	0.724763
485.501213	0.716838
485.869879	0.709573
486.238487	0.701330
486.607036	0.694679
486.975527	0.686927
487.343959	0.678291
487.712333	0.669407
488.080648	0.663282
488.448905	0.654462
488.817104	0.647720
489.185244	0.637614
489.553326	0.627656
489.921350	0.615321
490.289315	0.597700
490.657222	0.589177
491.025070	0.580521
491.392861	0.574378
491.760593	0.570257
492.128267	0.565188
492.495883	0.560665
492.863440	0.556556
493.230939	0.551785
493.598380	0.545041
493.965763	0.538401
494.333088	0.533965
494.700354	0.526124
495.067563	0.519656
495.434713	0.513292
495.801805	0.505564
496.168839	0.499866
496.535815	0.493088
496.902733	0.486998
497.269593	0.480276
497.636395	0.473425
498.003139	0.465971
498.369825	0.462527
498.736453	0.452919
499.103023	0.448196
499.469535	0.440999
499.835989	0.435451
500.202385	0.429933
500.568723	0.426427
500.935003	0.418101
501.301226	0.414460
501.667390	0.405522
502.033497	0.398454
502.399546	0.395468
502.765537	0.391436
503.131470	0.384385
503.497345	0.376172
503.863163	0.379524
504.228923	0.368403
504.594625	0.362577
504.960269	0.362490
505.325856	0.353420
505.691385	0.353019
506.056856	0.346089
506.422270	0.341158
506.787625	0.339849
507.152924	0.332915
507.518164	0.329765
507.883347	0.327378
508.248472	0.325549
508.613540	0.317660
508.978550	0.316293
509.343503	0.313368
509.708398	0.308053
510.073236	0.302816
510.438016	0.299634
510.802738	0.297544
511.167403	0.293956
511.532010	0.292922
511.896561	0.286295
512.261053	0.282481
512.625488	0.281896
512.989866	0.279760
513.354186	0.277663
513.718449	0.277234
514.082655	0.271656
514.446803	0.271690
514.810894	0.267784
515.174927	0.268146
515.538904	0.266177
515.902822	0.261237
516.266684	0.261920
516.630488	0.261505
516.994235	0.258845
517.357925	0.256052
517.721558	0.253366
518.085133	0.251346
518.448651	0.250228
518.812112	0.251211
519.175516	0.249656
519.538863	0.246370
519.902152	0.247035
520.265385	0.243124
520.628560	0.243966
520.991678	0.243449
521.354739	0.241729
521.717743	0.242026
522.080690	0.241872
522.443580	0.238477
522.806413	0.238820
523.169189	0.237518
523.531908	0.235860
523.894569	0.238751
524.257174	0.238220
524.619722	0.235681
524.982213	0.236375
525.344647	0.234931
525.707025	0.235351
526.069345	0.233149
526.431608	0.234475
526.793815	0.232319
527.155964	0.235913
527.518057	0.234988
527.880093	0.235658
528.242072	0.233546
528.603995	0.235464
528.965860	0.236980
529.327669	0.235474
529.689421	0.236492
530.051117	0.237039
530.412755	0.234532
530.774337	0.236731
531.135862	0.236924
531.497331	0.236159
531.858743	0.238844
532.220098	0.235450
532.581396	0.237872
532.942638	0.238083
533.303824	0.239155
533.664953	0.238873
534.026025	0.240363
534.387040	0.238254
534.747999	0.238005
535.108902	0.236950
535.469748	0.241710
535.830537	0.239432
536.191270	0.239623
536.551947	0.239306
536.912567	0.239384
537.273131	0.240975
537.633638	0.241065
537.994089	0.241553
538.354483	0.242620
538.714821	0.239299
539.075103	0.238941
539.435328	0.239814
539.795497	0.243577
540.155609	0.239787
540.515665	0.238026
540.875665	0.243699
541.235609	0.241902
541.595496	0.242258
541.955328	0.238928
542.315102	0.241143
542.674821	0.242427
543.034483	0.242006
543.394090	0.241862
543.753640	0.243756
544.113134	0.238722
544.472571	0.242283
544.831953	0.238725
545.191278	0.243111
545.550548	0.242550
545.909761	0.239401
546.268918	0.239643
546.628019	0.238438
546.987064	0.240860
547.346053	0.242804
547.704986	0.240561
548.063863	0.240810
548.422684	0.240992
548.781449	0.242957
549.140158	0.240249
549.498811	0.243250
549.857408	0.246305
550.215949	0.241165
550.574434	0.244224
550.932864	0.242196
551.291237	0.240780
551.649555	0.242260
552.007817	0.241931
552.366022	0.242883
552.724173	0.242824
553.082267	0.243337
553.440305	0.240193
553.798288	0.244386
554.156215	0.241299
554.514086	0.241934
554.871902	0.244898
555.229661	0.244459
555.587365	0.244562
555.945014	0.247195
556.302606	0.244295
556.660143	0.246696
557.017625	0.243148
557.375050	0.245364
557.732421	0.242328
558.089735	0.244555
558.446994	0.244430
558.804197	0.243749
559.161345	0.243571
559.518437	0.247186
559.875474	0.244531
560.232455	0.244243
560.589381	0.245385
560.946251	0.245330
561.303065	0.242999
561.659825	0.244391
562.016528	0.245978
562.373177	0.248922
562.729770	0.246075
563.086307	0.248080
563.442789	0.245989
563.799216	0.248690
564.155587	0.247507
564.511904	0.248532
564.868164	0.248674
565.224370	0.248612
565.580520	0.250259
565.936615	0.250147
566.292654	0.253370
566.648638	0.250176
567.004567	0.251069
567.360441	0.251519
567.716260	0.253681
568.072023	0.251394
568.427732	0.252243
568.783385	0.254478
569.138982	0.252626
569.494525	0.252431
569.850013	0.255353
570.205445	0.253642
570.560823	0.256215
570.916145	0.258254
571.271412	0.256352
571.626625	0.257891
571.981782	0.258457
572.336884	0.259241
572.691931	0.259379
573.046923	0.260475
573.401860	0.261438
573.756743	0.262882
574.111570	0.261870
574.466342	0.262533
574.821059	0.261496
575.175722	0.264323
575.530330	0.264218
575.884882	0.264589
576.239380	0.266471
576.593823	0.266871
576.948211	0.266214
577.302544	0.269509
577.656823	0.269299
578.011047	0.269449
578.365216	0.270062
578.719330	0.271933
579.073389	0.271908
579.427394	0.273107
579.781344	0.273833
580.135239	0.275546
580.489080	0.275106
580.842866	0.278142
581.196597	0.277862
581.550273	0.276544
581.903895	0.277452
582.257463	0.275763
582.610975	0.279352
582.964434	0.278433
583.317837	0.280994
583.671186	0.281249
584.024481	0.281502
584.377721	0.283748
584.730906	0.284231
585.084037	0.283761
585.437113	0.285507
585.790135	0.285052
586.143103	0.287841
586.496016	0.289027
586.848874	0.286755
587.201679	0.287282
587.554428	0.290344
587.907124	0.289128
588.259765	0.290131
588.612352	0.290421
588.964884	0.294333
589.317362	0.294161
589.669786	0.293853
590.022155	0.292455
590.374470	0.291445
590.726731	0.293654
591.078937	0.298199
591.431090	0.295111
591.783188	0.298869
592.135232	0.299234
592.487222	0.299198
592.839157	0.297699
593.191038	0.299757
593.542866	0.301370
593.894639	0.305156
594.246358	0.303134
594.598022	0.302731
594.949633	0.306292
595.301190	0.307120
595.652692	0.306390
596.004141	0.302392
596.355535	0.310539
596.706876	0.310684
597.058162	0.313420
597.409395	0.310679
597.760573	0.308660
598.111698	0.311855
598.462768	0.312119
598.813785	0.313733
599.164748	0.314700
599.515657	0.314753
599.866511	0.318212
600.217312	0.313584
600.568060	0.318994
600.918753	0.315450
601.269392	0.316107
601.619978	0.319672
601.970510	0.317066
602.320988	0.317175
602.671412	0.314945
603.021783	0.316957
603.372100	0.318506
603.722363	0.318676
604.072572	0.319129
604.422728	0.319251
604.772830	0.321481
605.122878	0.320752
605.472872	0.321390
605.822813	0.319939
606.172701	0.322194
606.522534	0.319894
606.872314	0.320065
607.222041	0.320434
607.571714	0.318655
607.921333	0.320067
608.270899	0.319791
608.620411	0.316527
608.969870	0.320771
609.319276	0.320713
609.668627	0.320308
610.017926	0.319028
610.367171	0.317895
610.716362	0.318514
611.065500	0.318751
611.414585	0.317166
611.763616	0.318067
612.112594	0.318438
612.461518	0.317670
612.810389	0.315187
613.159207	0.318120
613.507971	0.319729
613.856682	0.315469
614.205340	0.316916
614.553945	0.313521
614.902496	0.317671
615.250994	0.315801
615.599439	0.316264
615.947830	0.315743
616.296169	0.316651
616.644454	0.316539
616.992686	0.316672
617.340864	0.314312
617.688990	0.317876
618.037063	0.314574
618.385082	0.316435
618.733048	0.313159
619.080961	0.315481
619.428821	0.314812
619.776628	0.314661
620.124382	0.316396
620.472083	0.317079
620.819731	0.316061
621.167326	0.320056
621.514868	0.319806
621.862357	0.324169
622.209793	0.323542
622.557176	0.325542
622.904506	0.326950
623.251783	0.329007
623.599007	0.331254
623.946179	0.331401
624.293297	0.333025
624.640363	0.336841
624.987376	0.337500
625.334336	0.340147
625.681243	0.342007
626.028097	0.342673
626.374899	0.343575
626.721647	0.343825
627.068343	0.347610
627.414987	0.348035
627.761577	0.350817
628.108115	0.349131
628.454600	0.353685
628.801032	0.351263
629.147412	0.353570
629.493739	0.353531
629.840014	0.356679
630.186236	0.354699
630.532405	0.360049
630.878521	0.357074
631.224585	0.359631
631.570597	0.362819
631.916556	0.361257
632.262462	0.361817
632.608316	0.363571
632.954117	0.364548
633.299866	0.365573
633.645562	0.365688
633.991206	0.370134
634.336797	0.372870
634.682336	0.375103
635.027823	0.376927
635.373257	0.377357
635.718639	0.381107
636.063968	0.379823
636.409245	0.385974
636.754470	0.386933
637.099642	0.388687
637.444762	0.392091
637.789829	0.391688
638.134845	0.394851
638.479808	0.395844
638.824719	0.395279
639.169577	0.399719
639.514383	0.398406
639.859137	0.402435
640.203839	0.402601
640.548489	0.402688
640.893086	0.403926
641.237632	0.405681
641.582125	0.404402
641.926566	0.405813
642.270955	0.406070
642.615292	0.406670
642.959576	0.405675
643.303809	0.406111
643.647990	0.405918
643.992118	0.406207
644.336195	0.409705
644.680219	0.407886
645.024192	0.408624
645.368112	0.402364
645.711981	0.401283
646.055797	0.396433
646.399562	0.399284
646.743274	0.391146
647.086935	0.388545
647.430544	0.388806
647.774101	0.387527
648.117606	0.387304
648.461059	0.387899
648.804460	0.389880
649.147810	0.395742
649.491108	0.397329
649.834354	0.398540
650.177548	0.404098
650.520690	0.409453
650.863781	0.410493
651.206820	0.409775
651.549807	0.414446
651.892742	0.418544
652.235626	0.417874
652.578458	0.419406
652.921238	0.424584
653.263967	0.422646
653.606644	0.426637
653.949269	0.426642
654.291843	0.430668
654.634365	0.426871
654.976836	0.430135
655.319255	0.430279
655.661622	0.432195
656.003938	0.432185
656.346203	0.434982
656.688416	0.432831
657.030577	0.436318
657.372687	0.438348
657.714746	0.438983
658.056753	0.435814
658.398708	0.439768
658.740612	0.440799
659.082465	0.437405
659.424266	0.437640
659.766016	0.437104
660.107715	0.439658
660.449362	0.438724
660.790958	0.439219
661.132503	0.439840
661.473996	0.437645
661.815438	0.438777
662.156829	0.438717
662.498168	0.438946
662.839456	0.440963
663.180693	0.438431
663.521879	0.438563
663.863013	0.439434
664.204097	0.437850
664.545129	0.435093
664.886110	0.435288
665.227040	0.432527
665.567918	0.435176
665.908746	0.433080
666.249522	0.432773
666.590248	0.434148
666.930922	0.431946
667.271545	0.430711
667.612118	0.430872
667.952639	0.432506
668.293109	0.430956
668.633528	0.434347
668.973896	0.433757
669.314213	0.434598
669.654480	0.436389
669.994695	0.436318
670.334859	0.436713
670.674973	0.437388
671.015035	0.437812
671.355047	0.437464
671.695008	0.439269
672.034918	0.440454
672.374777	0.439858
672.714585	0.441101
673.054342	0.440955
673.394049	0.441009
673.733705	0.438920
674.073310	0.439310
674.412864	0.443139
674.752368	0.443636
675.091820	0.443456
675.431223	0.448085
675.770574	0.447468
676.109875	0.450776
676.449125	0.450807
676.788324	0.452609
677.127473	0.458599
677.466571	0.458295
677.805619	0.460447
678.144616	0.460167
678.483562	0.462256
678.822458	0.465501
679.161303	0.466153
679.500098	0.466551
679.838842	0.467667
680.177535	0.467536
680.516179	0.466517
680.854771	0.465063
681.193314	0.458778
681.531805	0.450487
681.870247	0.438596
682.208638	0.431383
682.546978	0.430098
682.885268	0.431669
683.223508	0.438385
683.561697	0.441644
683.899836	0.444566
684.237925	0.448137
684.575963	0.450102
684.913951	0.453895
685.251889	0.449217
685.589776	0.451511
685.927614	0.453987
686.265401	0.447851
686.603137	0.449181
686.940824	0.443400
687.278460	0.441893
687.616046	0.441341
687.953582	0.435738
688.291068	0.437161
688.628504	0.433167
688.965889	0.435307
689.303224	0.439345
689.640510	0.442920
689.977745	0.449278
690.314930	0.456928
690.652065	0.461100
690.989150	0.468836
691.326185	0.475316
691.663170	0.479953
692.000105	0.486972
692.336990	0.493920
692.673825	0.496225
693.010610	0.503584
693.347345	0.508741
693.684030	0.510426
694.020665	0.515016
694.357251	0.524132
694.693786	0.523659
695.030272	0.527733
695.366707	0.531290
695.703093	0.534818
696.039429	0.532217
696.375716	0.533939
696.711952	0.537013
697.048139	0.538372
697.384276	0.540593
697.720363	0.539027
698.056400	0.538412
698.392388	0.543431
698.728326	0.547001
699.064214	0.549925
699.400053	0.550231
699.735842	0.553203
700.071581	0.556511
700.407270	0.558325
700.742910	0.561506
701.078501	0.567719
701.414042	0.568713
701.749533	0.570974
702.084974	0.580823
702.420366	0.572387
702.755709	0.580536
703.091002	0.588001
703.426246	0.581478
703.761440	0.587705
704.096584	0.592719
704.431679	0.589965
704.766725	0.591223
705.101721	0.592735
705.436668	0.589207
705.771565	0.596265
706.106413	0.593127
706.441212	0.588256
706.775961	0.586871
707.110661	0.589181
707.445311	0.586362
707.779913	0.582885
708.114465	0.582017
708.448967	0.579011
708.783421	0.571032
709.117825	0.565345
709.452180	0.565356
709.786485	0.559243
710.120742	0.549188
710.454949	0.550777
710.789107	0.543471
711.123216	0.534413
711.457275	0.536000
711.791286	0.526781
712.125247	0.525843
712.459159	0.536564
712.793023	0.529718
713.126837	0.533019
713.460602	0.533418
713.794318	0.542634
714.127985	0.542154
714.461602	0.552123
714.795171	0.555266
715.128691	0.562444
715.462162	0.570540
715.795584	0.576446
716.128957	0.578621
716.462281	0.585296
716.795556	0.588949
717.128782	0.593794
717.461960	0.602894
717.795088	0.601757
718.128167	0.608415
718.461198	0.616622
718.794180	0.617021
719.127113	0.620392
719.459997	0.623425
719.792833	0.629350
720.125619	0.631078
720.458357	0.637223
720.791046	0.636693
721.123686	0.639843
721.456278	0.646392
721.788821	0.643904
722.121315	0.648360
722.453761	0.652184
722.786158	0.650049
723.118506	0.646876
723.450805	0.654286
723.783056	0.650588
724.115259	0.648453
724.447412	0.647010
724.779518	0.649044
725.111574	0.648745
725.443582	0.643817
725.775542	0.645491
726.107453	0.637454
726.439315	0.637477
726.771129	0.635884
727.102895	0.629378
727.434612	0.622109
727.766281	0.620278
728.097901	0.620222
728.429473	0.619270
728.760996	0.618377
729.092471	0.617218
729.423897	0.622030
729.755276	0.621041
730.086606	0.621157
730.417887	0.615009
730.749120	0.606574
731.080305	0.596866
731.411442	0.593329
731.742530	0.598558
732.073570	0.597536
732.404562	0.589700
732.735506	0.590905
733.066401	0.596150
733.397249	0.604668
733.728048	0.615920
734.058798	0.628384
734.389501	0.639143
734.720156	0.648351
735.050762	0.656810
735.381320	0.657351
735.711831	0.666962
736.042293	0.671193
736.372707	0.667725
736.703073	0.672222
737.033391	0.674723
737.363661	0.670964
737.693883	0.666799
738.024056	0.666208
738.354182	0.667328
738.684260	0.655610
739.014290	0.651825
739.344272	0.652579
739.674207	0.646012
740.004093	0.644677
740.333931	0.645250
740.663722	0.646375
740.993464	0.645314
741.323159	0.650275
741.652806	0.655382
741.982405	0.659748
742.311956	0.663768
742.641460	0.666240
742.970915	0.669694
743.300323	0.678595
743.629683	0.684082
743.958996	0.686016
744.288260	0.691960
744.617477	0.696859
744.946647	0.697117
745.275768	0.703028
745.604842	0.703558
745.933869	0.713266
746.262847	0.714129
746.591778	0.707435
746.920662	0.712783
747.249498	0.719175
747.578286	0.711035
747.907027	0.707769
748.235720	0.708331
748.564365	0.703160
748.892963	0.702358
749.221514	0.705539
749.550017	0.710485
749.878473	0.709789
750.206881	0.717050
750.535242	0.718005
750.863555	0.718333
751.191821	0.718966
751.520039	0.722642
751.848210	0.726767
752.176334	0.718991
752.504411	0.718328
752.832440	0.726632
753.160421	0.730774
753.488356	0.728903
753.816243	0.725299
754.144082	0.734357
754.471875	0.738105
754.799620	0.733919
755.127318	0.734886
755.454969	0.735285
755.782572	0.733873
756.110129	0.739070
756.437638	0.741755
756.765100	0.737828
757.092515	0.736110
757.419882	0.734968
757.747203	0.740692
758.074477	0.739410
758.401703	0.737017
758.728882	0.731736
759.056014	0.730551
759.383099	0.729834
759.710138	0.731446
760.037129	0.727940
760.364073	0.721720
760.690970	0.724756
761.017820	0.730319
761.344623	0.725921
761.671379	0.716012
761.998088	0.704891
762.324751	0.681762
762.651366	0.640712
762.977935	0.574629
763.304456	0.522298
763.630931	0.513480
763.957359	0.551701
764.283740	0.596103
764.610074	0.623483
764.936362	0.654251
765.262602	0.680201
765.588796	0.701331
765.914943	0.719178
766.241044	0.737185
766.567097	0.743690
766.893104	0.753033
767.219064	0.760052
767.544978	0.766265
767.870845	0.780741
768.196665	0.783179
768.522438	0.781188
768.848165	0.783088
769.173846	0.791706
769.499479	0.796572
769.825066	0.799439
770.150607	0.803542
770.476101	0.799471
770.801548	0.800687
771.126949	0.811459
771.452303	0.815958
771.777611	0.815446
772.102872	0.814026
772.428087	0.819804
772.753256	0.822855
773.078378	0.825219
773.403453	0.834583
773.728482	0.838539
774.053465	0.831951
774.378401	0.834880
774.703291	0.843534
775.028135	0.843179
775.352932	0.844912
775.677683	0.847197
776.002388	0.847888
776.327046	0.847607
776.651658	0.850208
776.976224	0.853292
777.300743	0.853952
777.625216	0.856846
777.949643	0.857231
778.274024	0.858972
778.598359	0.859975
778.922647	0.858200
779.246889	0.859397
779.571086	0.863374
779.895236	0.866226
780.219339	0.862433
780.543397	0.859913
780.867409	0.859057
781.191374	0.860907
781.515294	0.862571
781.839167	0.859956
782.162995	0.864259
782.486776	0.860546
782.810511	0.861729
783.134201	0.865302
783.457844	0.862265
783.781441	0.865847
784.104993	0.871990
784.428498	0.871687
784.751958	0.867285
785.075372	0.870217
785.398739	0.873331
785.722061	0.871204
786.045337	0.865486
786.368568	0.870903
786.691752	0.873552
787.014891	0.858971
787.337983	0.850007
787.661030	0.842802
787.984031	0.825233
788.306987	0.812598
788.629897	0.815252
788.952760	0.818975
789.275579	0.822888
789.598351	0.837963
789.921078	0.851304
790.243759	0.853341
790.566395	0.856861
790.888984	0.865343
791.211529	0.870319
791.534027	0.872301
791.856480	0.875268
792.178888	0.881692
792.501249	0.884725
792.823566	0.884060
793.145836	0.883925
793.468062	0.885602
793.790241	0.886391
794.112375	0.884463
794.434464	0.879588
794.756507	0.879550
795.078505	0.878845
795.400457	0.873106
795.722364	0.861603
796.044226	0.854217
796.366042	0.854105
796.687812	0.857590
797.009538	0.853355
797.331218	0.856565
797.652852	0.860687
797.974442	0.866363
798.295986	0.865753
798.617484	0.868602
798.938938	0.872602
799.260346	0.877122
799.581709	0.879778
799.903026	0.881594
800.224299	0.881881
800.545526	0.886287
800.866708	0.890352
801.187845	0.893955
801.508936	0.894520
801.829983	0.891807
802.150984	0.893622
802.471940	0.899079
802.792851	0.899133
803.113717	0.900009
803.434538	0.897050
803.755314	0.898422
804.076045	0.901433
804.396731	0.901126
804.717372	0.900436
805.037967	0.903627
805.358518	0.900697
805.679024	0.898549
805.999485	0.898308
806.319901	0.898332
806.640272	0.900530
806.960598	0.898161
807.280879	0.895087
807.601115	0.893625
807.921306	0.897412
808.241453	0.897726
808.561554	0.894729
808.881611	0.895223
809.201623	0.898022
809.521590	0.897037
809.841513	0.898260
810.161390	0.898311
810.481223	0.899286
810.801011	0.902493
811.120755	0.904322
811.440453	0.902969
811.760107	0.901551
812.079716	0.901564
812.399281	0.905355
812.718801	0.907864
813.038276	0.908065
813.357707	0.908015
813.677093	0.905075
813.996434	0.908641
814.315731	0.909905
814.634983	0.910304
814.954191	0.908989
815.273354	0.906706
815.592473	0.902171
815.911547	0.902557
816.230577	0.900717
816.549562	0.896911
816.868502	0.899108
817.187399	0.895077
817.506250	0.889408
817.825058	0.891628
818.143821	0.888108
818.462539	0.882830
818.781213	0.874703
819.099843	0.863642
819.418429	0.848227
819.736970	0.832176
820.055466	0.812644
820.373919	0.787186
820.692327	0.754995
821.010691	0.720186
821.329011	0.643853
821.647286	0.530392
821.965517	0.417590
822.283704	0.375584
822.601847	0.377120
822.919945	0.412811
823.237999	0.445775
823.556010	0.491904
823.873976	0.547063
824.191897	0.596551
824.509775	0.638913
824.827609	0.683583
825.145398	0.706574
825.463144	0.708349
825.780845	0.691943
826.098502	0.673917
826.416116	0.627860
826.733685	0.584225
827.051210	0.576359
827.368692	0.591580
827.686129	0.627083
828.003522	0.679824
828.320872	0.727584
828.638177	0.770688
828.955439	0.802799
829.272656	0.825155
829.589830	0.841520
829.906960	0.855961
830.224046	0.868851
830.541088	0.879458
830.858086	0.882905
831.175041	0.888796
831.491952	0.888218
831.808819	0.885468
832.125642	0.878919
832.442421	0.863786
832.759157	0.843516
833.075849	0.796696
833.392497	0.734378
833.709101	0.693616
834.025662	0.703618
834.342179	0.734221
834.658653	0.773084
834.975083	0.808774
835.291469	0.834291
835.607811	0.856824
835.924110	0.872630
836.240366	0.889791
836.556578	0.903242
836.872746	0.910889
837.188871	0.916625
837.504952	0.921265
837.820990	0.925756
838.136984	0.927981
838.452935	0.930536
838.768842	0.933704
839.084706	0.926895
839.400526	0.901351
839.716303	0.861583
840.032037	0.840000
840.347727	0.843332
840.663373	0.860429
840.978977	0.882110
841.294537	0.903856
841.610054	0.919547
841.925527	0.928152
842.240957	0.935320
842.556344	0.941960
842.871687	0.947227
843.186987	0.951535
843.502244	0.951502
843.817458	0.952923
844.132629	0.955763
844.447756	0.962151
844.762840	0.961826
845.077881	0.960714
845.392879	0.961360
845.707833	0.963630
846.022745	0.965238
846.337613	0.964816
846.652438	0.967060
846.967221	0.965417
847.281960	0.966581
847.596656	0.969004
847.911309	0.966260
848.225919	0.968198
848.540485	0.969732
848.855009	0.970002
849.169490	0.969998
849.483928	0.970228
849.798323	0.970084
850.112675	0.971731
850.426984	0.971359
850.741251	0.970163
851.055474	0.970732
851.369654	0.969492
851.683792	0.970633
851.997887	0.969587
852.311938	0.971797
852.625947	0.971121
852.939914	0.969186
853.253837	0.970728
853.567718	0.972059
853.881555	0.972019
854.195350	0.969254
854.509103	0.970332
854.822812	0.971052
855.136479	0.970350
855.450103	0.970517
855.763685	0.969161
856.077224	0.969077
856.390720	0.971797
856.704173	0.971234
857.017584	0.969377
857.330953	0.966853
857.644278	0.968262
857.957561	0.969809
858.270802	0.969791
858.584000	0.969533
858.897155	0.966832
859.210268	0.967819
859.523339	0.968812
859.836367	0.970031
860.149352	0.971310
860.462295	0.969878
860.775195	0.969138
861.088054	0.970408
861.400869	0.969557
861.713642	0.972034
862.026373	0.971258
862.339062	0.971264
862.651708	0.968142
862.964312	0.968588
863.276873	0.970072
863.589392	0.969787
863.901869	0.968741
864.214303	0.965873
864.526696	0.964266
864.839045	0.963951
865.151353	0.962816
865.463619	0.963951
865.775842	0.963294
866.088023	0.962138
866.400162	0.962767
866.712258	0.963975
867.024313	0.964326
867.336325	0.964125
867.648296	0.963317
867.960224	0.963178
868.272110	0.962225
868.583954	0.964707
868.895755	0.964948
869.207515	0.963991
869.519233	0.961452
869.830909	0.962341
870.142542	0.964130
870.454134	0.962989
870.765684	0.962440
871.077191	0.959393
871.388657	0.960057
871.700081	0.958951
872.011463	0.959583
872.322803	0.960161
872.634101	0.957685
872.945357	0.956266
873.256571	0.954843
873.567744	0.954581
873.878874	0.953697
874.189963	0.953328
874.501010	0.952949
874.812015	0.951221
875.122979	0.952620
875.433900	0.954155
875.744780	0.953620
876.055618	0.952872
876.366415	0.950733
876.677169	0.952355
876.987882	0.953408
877.298554	0.952522
877.609183	0.948627
877.919771	0.947007
878.230317	0.945637
878.540822	0.943144
878.851285	0.937625
879.161707	0.929271
879.472087	0.917828
879.782425	0.901967
880.092722	0.868459
880.402977	0.818303
880.713191	0.758183
881.023363	0.700955
881.333494	0.667892
881.643583	0.638913
881.953631	0.639412
882.263637	0.667701
882.573602	0.706474
882.883526	0.732485
883.193408	0.755068
883.503248	0.776731
883.813048	0.803556
884.122806	0.832304
884.432522	0.855470
884.742197	0.873413
885.051831	0.884960
885.361424	0.894531
885.670975	0.906380
885.980485	0.916052
886.289954	0.921707
886.599382	0.926648
886.908768	0.931106
887.218113	0.936355
887.527417	0.940505
887.836680	0.943244
888.145901	0.946087
888.455082	0.948530
888.764221	0.953413
889.073319	0.954312
889.382376	0.954875
889.691392	0.954220
890.000366	0.953673
890.309300	0.956273
890.618193	0.954596
890.927044	0.953237
891.235855	0.953839
891.544625	0.953974
891.853353	0.954806
892.162041	0.950935
892.470687	0.944744
892.779293	0.939574
893.087858	0.936669
893.396381	0.928609
893.704864	0.915744
894.013306	0.892115
894.321707	0.866352
894.630068	0.852607
894.938387	0.848938
895.246665	0.850684
895.554903	0.861111
895.863100	0.874334
896.171256	0.890289
896.479371	0.909794
896.787446	0.922274
897.095480	0.927288
897.403473	0.930526
897.711425	0.935109
898.019336	0.942505
898.327207	0.944808
898.635038	0.947540
898.942827	0.946786
899.250576	0.949866
899.558284	0.953896
899.865952	0.955006
900.173579	0.956473
900.481165	0.957719
900.788711	0.962178
901.096216	0.962870
901.403681	0.962049
901.711105	0.964601
902.018489	0.965542
902.325832	0.964894
902.633135	0.962693
902.940397	0.958071
903.247619	0.945684
903.554800	0.920946
903.861941	0.883529
904.169041	0.848603
904.476101	0.832586
904.783121	0.832591
905.090100	0.848431
905.397039	0.869055
905.703938	0.889850
906.010796	0.909184
906.317614	0.927213
906.624391	0.936945
906.931129	0.946580
907.237826	0.954475
907.544483	0.960348
907.851099	0.963831
908.157675	0.969743
908.464211	0.970978
908.770707	0.973564
909.077163	0.975196
909.383578	0.976314
909.689954	0.975474
909.996289	0.976599
910.302584	0.978650
910.608839	0.979849
910.915054	0.979796
911.221229	0.978885
911.527363	0.978661
911.833458	0.978852
912.139513	0.977669
912.445527	0.976896
912.751502	0.975753
913.057436	0.973850
913.363331	0.971700
913.669186	0.967504
913.975000	0.963311
914.280775	0.956643
914.586510	0.950608
914.892205	0.937716
915.197859	0.917969
915.503475	0.891471
915.809050	0.872663
916.114585	0.867902
916.420081	0.865697
916.725536	0.861851
917.030952	0.869194
917.336328	0.882325
917.641665	0.896681
917.946961	0.912608
918.252218	0.922642
918.557435	0.930738
918.862612	0.939239
919.167750	0.943999
919.472848	0.949204
919.777906	0.955005
920.082925	0.959614
920.387904	0.963762
920.692843	0.964634
920.997743	0.966342
921.302603	0.969385
921.607423	0.971051
921.912204	0.973494
922.216946	0.973513
922.521647	0.974639
922.826310	0.976307
923.130932	0.978600
923.435516	0.979490
923.740059	0.981434
924.044564	0.979666
924.349028	0.981833
924.653454	0.984118
924.957840	0.985672
925.262186	0.985865
925.566493	0.984676
925.870761	0.986992
926.174989	0.988062
926.479178	0.989916
926.783328	0.988728
927.087438	0.989089
927.391509	0.989262
927.695541	0.991644
927.999533	0.989689
928.303486	0.990432
928.607400	0.991976
928.911275	0.990272
929.215110	0.990232
929.518906	0.991284
929.822663	0.990464
930.126381	0.991302
930.430060	0.991335
930.733699	0.990854
931.037299	0.990394
931.340861	0.991830
931.644383	0.989854
931.947866	0.989985
932.251309	0.992080
932.554714	0.990844
932.858080	0.990382
933.161407	0.991338
933.464694	0.990425
933.767943	0.990556
934.071153	0.992227
934.374323	0.992065
934.677455	0.991074
934.980548	0.992100
935.283602	0.991383
935.586617	0.991921
935.889593	0.991725
936.192530	0.991638
936.495428	0.992183
936.798287	0.990978
937.101108	0.991898
937.403890	0.988740
937.706632	0.989791
938.009336	0.987281
938.312002	0.987437
938.614628	0.986995
938.917216	0.985125
939.219765	0.982545
939.522275	0.983209
939.824747	0.984103
940.127179	0.983495
940.429573	0.985360
940.731929	0.985771
941.034246	0.985683
941.336524	0.986360
941.638763	0.987242
941.940964	0.987291
942.243126	0.987168
942.545250	0.988108
942.847335	0.989533
943.149381	0.988882
943.451389	0.988644
943.753359	0.988045
944.055290	0.992410
944.357182	0.990503
944.659036	0.988488
944.960851	0.989656
945.262628	0.991607
945.564367	0.991793
945.866067	0.990141
946.167729	0.991228
946.469352	0.989933
946.770937	0.989869
947.072484	0.992297
947.373992	0.990461
947.675462	0.990125
947.976893	0.990511
948.278286	0.991012
948.579641	0.992667
948.880958	0.991358
949.182236	0.992008
949.483476	0.991767
949.784678	0.991017
950.085841	0.991140
950.386967	0.989816
950.688054	0.990850
950.989103	0.991551
951.290114	0.990257
951.591087	0.991049
951.892021	0.990231
952.192917	0.989653
952.493776	0.989660
952.794596	0.988895
953.095378	0.988919
953.396122	0.988702
953.696828	0.987622
953.997496	0.991874
954.298126	0.991012
954.598718	0.990588
954.899272	0.992287
955.199788	0.990512
955.500266	0.993109
955.800706	0.992279
956.101108	0.993467
956.401472	0.994258
956.701798	0.995359
957.002087	0.992853
957.302337	0.993658
957.602550	0.995004
957.902724	0.995467
958.202861	0.994801
958.502960	0.994382
958.803022	0.994074
959.103045	0.996330
959.403031	0.995958
959.702979	0.996138
960.002889	0.995440
960.302762	0.996489
960.602596	0.995438
960.902393	0.996131
961.202153	0.997198
961.501875	0.996427
961.801559	0.996269
962.101205	0.996842
962.400814	0.996248
962.700385	0.996323
962.999918	0.997012
963.299414	0.997115
963.598873	0.996216
963.898293	0.996796
964.197677	0.996726
964.497022	0.995807
964.796331	0.997744
965.095601	0.997212
965.394835	0.997053
965.694030	0.998263
965.993189	0.996984
966.292309	0.997765
966.591393	0.998532
966.890439	0.997117
967.189447	0.996828
967.488419	0.997804
967.787353	0.996610
968.086249	0.996016
968.385108	0.997041
968.683930	0.997740
968.982714	0.997603
969.281462	0.997071
969.580172	0.995756
969.878844	0.997538
970.177480	0.997086
970.476078	0.996926
970.774639	0.997512
971.073162	0.997686
971.371649	0.997019
971.670098	0.996820
971.968510	0.998179
972.266885	0.996061
972.565223	0.996131
972.863524	0.996465
973.161788	0.996595
973.460014	0.998427
973.758204	0.995701
974.056356	0.997296
974.354471	0.994110
974.652550	0.997483
974.950591	0.997086
975.248595	0.996634
975.546563	0.996598
975.844493	0.999130
976.142386	0.997353
976.440243	0.997185
976.738062	0.997020
977.035845	0.998412
977.333590	0.997278
977.631299	0.997033
977.928971	0.997507
978.226606	0.996672
978.524204	0.996042
978.821765	0.998164
979.119290	0.996727
979.416777	0.996668
979.714228	0.997834
980.011642	0.996268
980.309020	0.997805
980.606360	0.998592
980.903664	0.999388
981.200931	0.996110
981.498162	0.994836
981.795356	0.995754
982.092513	0.993291
982.389633	0.995727
982.686717	0.992165
982.983764	0.992596
983.280775	0.991726
983.577749	0.991504
983.874686	0.992305
984.171587	0.991550
984.468451	0.994762
984.765279	0.994338
985.062070	0.994743
985.358824	0.995749
985.655543	0.995751
985.952224	0.997550
986.248869	0.996159
986.545478	0.997425
986.842050	0.998200
987.138586	0.995685
987.435086	0.998011
987.731549	0.998566
988.027975	0.998004
988.324366	0.998774
988.620719	0.997786
988.917037	0.995975
989.213318	0.998072
989.509563	0.998543
989.805772	0.998339
990.101944	0.998318
990.398080	0.998040
990.694180	0.997456
990.990244	0.997426
991.286271	0.998369
991.582262	0.998514
991.878217	0.998056
992.174136	0.999152
992.470019	0.998669
992.765865	0.998511
993.061676	0.998633
993.357450	0.997826
993.653188	0.997213
993.948890	0.997522
994.244556	0.997856
994.540186	0.997836
994.835780	0.996943
995.131337	0.997425
995.426859	0.997299
995.722345	0.997960
996.017795	0.996516
996.313208	0.996464
996.608586	0.996097
996.903928	0.998355
997.199234	0.996678
997.494504	0.997712
997.789738	0.996924
998.084936	0.996465
998.380099	0.998682
998.675225	0.997173
998.970316	0.998084
999.265371	0.998276
999.560390	0.998945
999.855373	1.000207
1000.150320	0.997980
1000.445232	0.999298
1000.740108	0.997308
1001.034948	0.999367
1001.329752	0.998673
1001.624521	0.998746
1001.919254	0.998762
1002.213951	0.998977
1002.508613	0.997813
1002.803239	0.998580
1003.097829	0.999796
1003.392384	0.998177
1003.686903	0.998047
1003.981386	0.999078
1004.275834	0.998640
1004.570246	0.998235
1004.864623	0.999622
1005.158964	0.999510
1005.453270	0.998610
1005.747540	0.998446
1006.041775	0.999413
1006.335974	1.000662
1006.630138	0.998719
1006.924266	0.999993
1007.218359	1.000554
1007.512416	0.999868
1007.806438	0.999868
1008.100425	0.998642
1008.394376	0.998259
1008.688292	0.998803
1008.982172	1.000637
1009.276017	0.999782
1009.569827	0.999647
1009.863602	0.998904
1010.157341	1.000084
1010.451045	0.999103
1010.744714	0.999213
1011.038347	0.999097
1011.331945	0.999052
1011.625508	0.997066
1011.919036	0.999357
1012.212528	0.997881
1012.505986	0.998372
1012.799408	0.998532
1013.092795	0.999487
1013.386147	0.999278
1013.679464	0.999756
1013.972745	0.998845
1014.265992	0.998139
1014.559204	0.999274
1014.852380	0.999289
1015.145521	0.999222
1015.438628	0.999270
1015.731699	0.998407
1016.024736	0.999261
1016.317737	0.999436
1016.610703	0.998807
1016.903635	0.999503
1017.196531	0.998759
1017.489393	0.999660
1017.782219	0.998196
1018.075011	0.998790
1018.367768	0.999068
1018.660490	0.999877
1018.953177	0.999877
1019.245829	0.999877
