Dividing Wavelength (nm)	Counts (n)	Blue Motor Position (mm): 0.000000	Red Motor Position (mm): 21.200000	
326.493990	1.001172
326.888308	1.001172
327.282561	1.001172
327.676750	1.001306
328.070874	0.999574
328.464933	1.001255
328.858929	1.000172
329.252859	1.000685
329.646726	0.999000
330.040528	1.001078
330.434265	0.999438
330.827938	1.000864
331.221547	1.001365
331.615091	0.999488
332.008571	1.000692
332.401986	1.000192
332.795338	0.999724
333.188625	0.998307
333.581847	1.001136
333.975006	0.999521
334.368100	0.999361
334.761129	1.001234
335.154095	1.001800
335.546996	0.997888
335.939833	0.993478
336.332606	0.994154
336.725315	0.994980
337.117960	0.995858
337.510540	0.994482
337.903056	0.995221
338.295508	0.993128
338.687896	0.994003
339.080220	0.995235
339.472480	0.994643
339.864676	0.994357
340.256807	0.995430
340.648875	0.995212
341.040879	0.996089
341.432818	0.994436
341.824694	0.994874
342.216506	0.994064
342.608253	0.994796
342.999937	0.994226
343.391557	0.994856
343.783113	0.994927
344.174605	0.994212
344.566033	0.996077
344.957397	0.994247
345.348697	0.994332
345.739934	0.994428
346.131106	0.994375
346.522215	0.994682
346.913260	0.994951
347.304241	0.994049
347.695159	0.994088
348.086012	0.992251
348.476802	0.993649
348.867528	0.993309
349.258191	0.994197
349.648789	0.994654
350.039324	0.993911
350.429796	0.995676
350.820203	0.995116
351.210548	0.995742
351.600828	0.994161
351.991045	0.993902
352.381198	0.993444
352.771288	0.993850
353.161314	0.993949
353.551276	0.995938
353.941175	0.994848
354.331010	0.994486
354.720782	0.995232
355.110490	0.993408
355.500135	0.995684
355.889717	0.993191
356.279235	0.994765
356.668689	0.993470
357.058080	0.994981
357.447408	0.995761
357.836672	0.995178
358.225873	0.995770
358.615010	0.995137
359.004084	0.995345
359.393095	0.995331
359.782043	0.993851
360.170927	0.995913
360.559748	0.995000
360.948505	0.993972
361.337199	0.994936
361.725830	0.994419
362.114398	0.994060
362.502903	0.995141
362.891344	0.994561
363.279722	0.994371
363.668037	0.995370
364.056289	0.994280
364.444478	0.995196
364.832603	0.995461
365.220665	0.994779
365.608665	0.994531
365.996601	0.993638
366.384474	0.995494
366.772284	0.994459
367.160031	0.993929
367.547715	0.993378
367.935336	0.994745
368.322893	0.993959
368.710388	0.992890
369.097820	0.994226
369.485189	0.993214
369.872495	0.993822
370.259738	0.992985
370.646918	0.995366
371.034035	0.996203
371.421090	0.994722
371.808081	0.993948
372.195010	0.994839
372.581875	0.994737
372.968678	0.994816
373.355418	0.995186
373.742096	0.994278
374.128710	0.994723
374.515262	0.993053
374.901751	0.994706
375.288177	0.994505
375.674540	0.995665
376.060841	0.994371
376.447079	0.994705
376.833254	0.995750
377.219367	0.995074
377.605417	0.995230
377.991404	0.995991
378.377329	0.994192
378.763191	0.995188
379.148991	0.995959
379.534727	0.996502
379.920402	0.995549
380.306013	0.995105
380.691563	0.995733
381.077049	0.994613
381.462474	0.995912
381.847835	0.996053
382.233134	0.995061
382.618371	0.996054
383.003545	0.996547
383.388657	0.995511
383.773706	0.996651
384.158693	0.995457
384.543618	0.995465
384.928480	0.996938
385.313280	0.995979
385.698017	0.996201
386.082692	0.995944
386.467305	0.996194
386.851856	0.996256
387.236344	0.994834
387.620770	0.994737
388.005133	0.995853
388.389435	0.996787
388.773674	0.995442
389.157851	0.997014
389.541965	0.996627
389.926018	0.995625
390.310008	0.997207
390.693936	0.995730
391.077802	0.996582
391.461606	0.996311
391.845348	0.996515
392.229027	0.998025
392.612645	0.996862
392.996200	0.997669
393.379694	0.995520
393.763125	0.996888
394.146494	0.996573
394.529801	0.995759
394.913047	0.996020
395.296230	0.996774
395.679351	0.996771
396.062410	0.996263
396.445408	0.996516
396.828343	0.996308
397.211217	0.996601
397.594028	0.996963
397.976778	0.995963
398.359466	0.995987
398.742092	0.996224
399.124656	0.996067
399.507158	0.996444
399.889598	0.995995
400.271977	0.996920
400.654294	0.996434
401.036549	0.997275
401.418742	0.996911
401.800874	0.995756
402.182944	0.995961
402.564952	0.995283
402.946898	0.996633
403.328783	0.996940
403.710606	0.995325
404.092367	0.996517
404.474067	0.996099
404.855705	0.995842
405.237282	0.996714
405.618797	0.996194
406.000250	0.994920
406.381642	0.996257
406.762972	0.995902
407.144240	0.997066
407.525447	0.996401
407.906593	0.996086
408.287677	0.996286
408.668700	0.996504
409.049661	0.995575
409.430560	0.995754
409.811399	0.994678
410.192176	0.994889
410.572891	0.995247
410.953545	0.994636
411.334138	0.994910
411.714669	0.995119
412.095139	0.995720
412.475547	0.995951
412.855894	0.995048
413.236180	0.994546
413.616405	0.995362
413.996568	0.994552
414.376670	0.994676
414.756711	0.992953
415.136691	0.993151
415.516609	0.992465
415.896466	0.992370
416.276262	0.989448
416.655997	0.989752
417.035670	0.988317
417.415283	0.987774
417.794834	0.985531
418.174324	0.984834
418.553753	0.984208
418.933121	0.981061
419.312428	0.979005
419.691674	0.977713
420.070859	0.974710
420.449983	0.973380
420.829045	0.969894
421.208047	0.968708
421.586988	0.964584
421.965867	0.961496
422.344686	0.957722
422.723444	0.955224
423.102141	0.953249
423.480777	0.947202
423.859352	0.944728
424.237866	0.938103
424.616319	0.934090
424.994712	0.929338
425.373044	0.925068
425.751314	0.918524
426.129524	0.915835
426.507673	0.908811
426.885762	0.902680
427.263789	0.896823
427.641756	0.894331
428.019662	0.885333
428.397508	0.878391
428.775292	0.871015
429.153016	0.863257
429.530679	0.859074
429.908282	0.849411
430.285824	0.844898
430.663305	0.831043
431.040726	0.828949
431.418086	0.823358
431.795385	0.812657
432.172624	0.803024
432.549802	0.795984
432.926920	0.786839
433.303977	0.778503
433.680974	0.769877
434.057910	0.759724
434.434786	0.751371
434.811601	0.744224
435.188355	0.726871
435.565050	0.723121
435.941683	0.714965
436.318257	0.698638
436.694770	0.689390
437.071222	0.680048
437.447614	0.673701
437.823946	0.669152
438.200218	0.654250
438.576429	0.651744
438.952580	0.638200
439.328670	0.628192
439.704700	0.625933
440.080670	0.618141
440.456580	0.596247
440.832429	0.593281
441.208218	0.594308
441.583947	0.578946
441.959616	0.571598
442.335224	0.568444
442.710773	0.554508
443.086261	0.544780
443.461689	0.549754
443.837057	0.535198
444.212365	0.520831
444.587612	0.520639
444.962800	0.505895
445.337927	0.501596
445.712995	0.518480
446.088002	0.480513
446.462949	0.484610
446.837837	0.482896
447.212664	0.469177
447.587431	0.456566
447.962139	0.426303
448.336786	0.385594
448.711374	0.391023
449.085901	0.426200
449.460369	0.425978
449.834776	0.424940
450.209124	0.402927
450.583412	0.392658
450.957640	0.383848
451.331808	0.390924
451.705917	0.410506
452.079965	0.412085
452.453954	0.398893
452.827883	0.403023
453.201752	0.396262
453.575562	0.405501
453.949311	0.392158
454.323001	0.396798
454.696632	0.391423
455.070202	0.382895
455.443713	0.373750
455.817164	0.367603
456.190556	0.362505
456.563888	0.358238
456.937160	0.354967
457.310373	0.370750
457.683526	0.369273
458.056619	0.373759
458.429653	0.374074
458.802628	0.376236
459.175542	0.370595
459.548398	0.352481
459.921194	0.345186
460.293930	0.344772
460.666607	0.321950
461.039224	0.310495
461.411782	0.305919
461.784280	0.304729
462.156719	0.308639
462.529099	0.312873
462.901419	0.328567
463.273680	0.332823
463.645882	0.331886
464.018024	0.337753
464.390106	0.330378
464.762130	0.315520
465.134094	0.298307
465.505999	0.267570
465.877845	0.238348
466.249631	0.225328
466.621358	0.232282
466.993026	0.246051
467.364634	0.252256
467.736184	0.261008
468.107674	0.269520
468.479105	0.268436
468.850477	0.275462
469.221790	0.281960
469.593043	0.292427
469.964238	0.297137
470.335373	0.296278
470.706449	0.294350
471.077467	0.295066
471.448425	0.257234
471.819324	0.233275
472.190164	0.232482
472.560945	0.261182
472.931667	0.283295
473.302330	0.287119
473.672934	0.299156
474.043479	0.287200
474.413965	0.289173
474.784393	0.292521
475.154761	0.287918
475.525070	0.284564
475.895321	0.290953
476.265513	0.284808
476.635645	0.280059
477.005719	0.280141
477.375734	0.276585
477.745691	0.270177
478.115588	0.266336
478.485427	0.260101
478.855207	0.246800
479.224928	0.229491
479.594591	0.217645
479.964194	0.221166
480.333739	0.222132
480.703226	0.223882
481.072653	0.222218
481.442022	0.217829
481.811333	0.214389
482.180584	0.217871
482.549777	0.223012
482.918912	0.226585
483.287988	0.225909
483.657005	0.225775
484.025964	0.232189
484.394864	0.229527
484.763706	0.230148
485.132489	0.235028
485.501213	0.235674
485.869879	0.234205
486.238487	0.237565
486.607036	0.235354
486.975527	0.239880
487.343959	0.235915
487.712333	0.234801
488.080648	0.236098
488.448905	0.235501
488.817104	0.236863
489.185244	0.231174
489.553326	0.228056
489.921350	0.217952
490.289315	0.200445
490.657222	0.195467
491.025070	0.196719
491.392861	0.198797
491.760593	0.204272
492.128267	0.210041
492.495883	0.215554
492.863440	0.221543
493.230939	0.228018
493.598380	0.229459
493.965763	0.231756
494.333088	0.233824
494.700354	0.235154
495.067563	0.234167
495.434713	0.237430
495.801805	0.235182
496.168839	0.236806
496.535815	0.237706
496.902733	0.238036
497.269593	0.239664
497.636395	0.237321
498.003139	0.237512
498.369825	0.240480
498.736453	0.237032
499.103023	0.238317
499.469535	0.238057
499.835989	0.238249
500.202385	0.239016
500.568723	0.242476
500.935003	0.237451
501.301226	0.241915
501.667390	0.235842
502.033497	0.234070
502.399546	0.237214
502.765537	0.238728
503.131470	0.237406
503.497345	0.233548
503.863163	0.242353
504.228923	0.235252
504.594625	0.233826
504.960269	0.239290
505.325856	0.234659
505.691385	0.238940
506.056856	0.235590
506.422270	0.235213
506.787625	0.237662
507.152924	0.234978
507.518164	0.235418
507.883347	0.236958
508.248472	0.238804
508.613540	0.233928
508.978550	0.236362
509.343503	0.236926
509.708398	0.234748
510.073236	0.232308
510.438016	0.232274
510.802738	0.233280
511.167403	0.232058
511.532010	0.234219
511.896561	0.229450
512.261053	0.228433
512.625488	0.230438
512.989866	0.230818
513.354186	0.231004
513.718449	0.232848
514.082655	0.229281
514.446803	0.231490
514.810894	0.229284
515.174927	0.231640
515.538904	0.231408
515.902822	0.228131
516.266684	0.230783
516.630488	0.231728
516.994235	0.230611
517.357925	0.229129
517.721558	0.227446
518.085133	0.227066
518.448651	0.227157
518.812112	0.229267
519.175516	0.229120
519.538863	0.226855
519.902152	0.228327
520.265385	0.225095
520.628560	0.226767
520.991678	0.227265
521.354739	0.226108
521.717743	0.227695
522.080690	0.227905
522.443580	0.225304
522.806413	0.226440
523.169189	0.225430
523.531908	0.224428
523.894569	0.227966
524.257174	0.227991
524.619722	0.225719
524.982213	0.226718
525.344647	0.225597
525.707025	0.226609
526.069345	0.224611
526.431608	0.226224
526.793815	0.224534
527.155964	0.228273
527.518057	0.227449
527.880093	0.228614
528.242072	0.226942
528.603995	0.228819
528.965860	0.230557
529.327669	0.229490
529.689421	0.230214
530.051117	0.231209
530.412755	0.228741
530.774337	0.231182
531.135862	0.231462
531.497331	0.231042
531.858743	0.233787
532.220098	0.230489
532.581396	0.233060
532.942638	0.233706
533.303824	0.234503
533.664953	0.234289
534.026025	0.235937
534.387040	0.233919
534.747999	0.233861
535.108902	0.232820
535.469748	0.237399
535.830537	0.235546
536.191270	0.236116
536.551947	0.235664
536.912567	0.235436
537.273131	0.237326
537.633638	0.237443
537.994089	0.237760
538.354483	0.238926
538.714821	0.235905
539.075103	0.235731
539.435328	0.236579
539.795497	0.240049
540.155609	0.236816
540.515665	0.234842
540.875665	0.240509
541.235609	0.238913
541.595496	0.239009
541.955328	0.235608
542.315102	0.238191
542.674821	0.239578
543.034483	0.239228
543.394090	0.239144
543.753640	0.241294
544.113134	0.236038
544.472571	0.239260
544.831953	0.236301
545.191278	0.240207
545.550548	0.240039
545.909761	0.236496
546.268918	0.237215
546.628019	0.235716
546.987064	0.238372
547.346053	0.240271
547.704986	0.237830
548.063863	0.238481
548.422684	0.238529
548.781449	0.240404
549.140158	0.238004
549.498811	0.240777
549.857408	0.243842
550.215949	0.238963
550.574434	0.241965
550.932864	0.239514
551.291237	0.238574
551.649555	0.239931
552.007817	0.239399
552.366022	0.240520
552.724173	0.240561
553.082267	0.241119
553.440305	0.237794
553.798288	0.242394
554.156215	0.238775
554.514086	0.239379
554.871902	0.242586
555.229661	0.241852
555.587365	0.242376
555.945014	0.244999
556.302606	0.241718
556.660143	0.244351
557.017625	0.240557
557.375050	0.243169
557.732421	0.240239
558.089735	0.242256
558.446994	0.242016
558.804197	0.241282
559.161345	0.241714
559.518437	0.245007
559.875474	0.242332
560.232455	0.241906
560.589381	0.243242
560.946251	0.243085
561.303065	0.240833
561.659825	0.242057
562.016528	0.243654
562.373177	0.246553
562.729770	0.243866
563.086307	0.246007
563.442789	0.243849
563.799216	0.246534
564.155587	0.245146
564.511904	0.246402
564.868164	0.246658
565.224370	0.246143
565.580520	0.248141
565.936615	0.247965
566.292654	0.250980
566.648638	0.247808
567.004567	0.248615
567.360441	0.249409
567.716260	0.251584
568.072023	0.249023
568.427732	0.249791
568.783385	0.252448
569.138982	0.250611
569.494525	0.250085
569.850013	0.253146
570.205445	0.251192
570.560823	0.254123
570.916145	0.255863
571.271412	0.254017
571.626625	0.255766
571.981782	0.256157
572.336884	0.257076
572.691931	0.256723
573.046923	0.257970
573.401860	0.259170
573.756743	0.260390
574.111570	0.259581
574.466342	0.260235
574.821059	0.259487
575.175722	0.262148
575.530330	0.261833
575.884882	0.261905
576.239380	0.264386
576.593823	0.264811
576.948211	0.264334
577.302544	0.267500
577.656823	0.267045
578.011047	0.267243
578.365216	0.267720
578.719330	0.269549
579.073389	0.269633
579.427394	0.270539
579.781344	0.271930
580.135239	0.273115
580.489080	0.272624
580.842866	0.275876
581.196597	0.275836
581.550273	0.274116
581.903895	0.275478
582.257463	0.273402
582.610975	0.277030
582.964434	0.275884
583.317837	0.278650
583.671186	0.278958
584.024481	0.279027
584.377721	0.281525
584.730906	0.282130
585.084037	0.281084
585.437113	0.283439
585.790135	0.282684
586.143103	0.285204
586.496016	0.286609
586.848874	0.284061
587.201679	0.284987
587.554428	0.288191
587.907124	0.287048
588.259765	0.287572
588.612352	0.287977
588.964884	0.291674
589.317362	0.291628
589.669786	0.291386
590.022155	0.289952
590.374470	0.289379
590.726731	0.291196
591.078937	0.296045
591.431090	0.292166
591.783188	0.296706
592.135232	0.296872
592.487222	0.297193
592.839157	0.295373
593.191038	0.297640
593.542866	0.299458
593.894639	0.302972
594.246358	0.301226
594.598022	0.300146
594.949633	0.303992
595.301190	0.305060
595.652692	0.304169
596.004141	0.300037
596.355535	0.307980
596.706876	0.308590
597.058162	0.310889
597.409395	0.308311
597.760573	0.306094
598.111698	0.309022
598.462768	0.309685
598.813785	0.310870
599.164748	0.312365
599.515657	0.312354
599.866511	0.316104
600.217312	0.311071
600.568060	0.316398
600.918753	0.312349
601.269392	0.313625
601.619978	0.317265
601.970510	0.314639
602.320988	0.314801
602.671412	0.312692
603.021783	0.315102
603.372100	0.316419
603.722363	0.316362
604.072572	0.317023
604.422728	0.316897
604.772830	0.318613
605.122878	0.318593
605.472872	0.318943
605.822813	0.317124
606.172701	0.319992
606.522534	0.316944
606.872314	0.317221
607.222041	0.318658
607.571714	0.316452
607.921333	0.317829
608.270899	0.317295
608.620411	0.314100
608.969870	0.318310
609.319276	0.318239
609.668627	0.318049
610.017926	0.316647
610.367171	0.315127
610.716362	0.315995
611.065500	0.316280
611.414585	0.314967
611.763616	0.315446
612.112594	0.316345
612.461518	0.315413
612.810389	0.313312
613.159207	0.315517
613.507971	0.317256
613.856682	0.313090
614.205340	0.314825
614.553945	0.311272
614.902496	0.314953
615.250994	0.313133
615.599439	0.313954
615.947830	0.313529
616.296169	0.314523
616.644454	0.313718
616.992686	0.313884
617.340864	0.311895
617.688990	0.314962
618.037063	0.312067
618.385082	0.313754
618.733048	0.310567
619.080961	0.313021
619.428821	0.312636
619.776628	0.311954
620.124382	0.314167
620.472083	0.314234
620.819731	0.313459
621.167326	0.317614
621.514868	0.317081
621.862357	0.321581
622.209793	0.320911
622.557176	0.323691
622.904506	0.324544
623.251783	0.326801
623.599007	0.328943
623.946179	0.328563
624.293297	0.330920
624.640363	0.334351
624.987376	0.334804
625.334336	0.337348
625.681243	0.339351
626.028097	0.340011
626.374899	0.341399
626.721647	0.341263
627.068343	0.345057
627.414987	0.345881
627.761577	0.347757
628.108115	0.346172
628.454600	0.351574
628.801032	0.348921
629.147412	0.351175
629.493739	0.351338
629.840014	0.353953
630.186236	0.351841
630.532405	0.357448
630.878521	0.354745
631.224585	0.356371
631.570597	0.360937
631.916556	0.358819
632.262462	0.359343
632.608316	0.361052
632.954117	0.362136
633.299866	0.362782
633.645562	0.363450
633.991206	0.368039
634.336797	0.370980
634.682336	0.373229
635.027823	0.374486
635.373257	0.374841
635.718639	0.378467
636.063968	0.377691
636.409245	0.383204
636.754470	0.384115
637.099642	0.386472
637.444762	0.389374
637.789829	0.388671
638.134845	0.392318
638.479808	0.393133
638.824719	0.393343
639.169577	0.397195
639.514383	0.396079
639.859137	0.400174
640.203839	0.399787
640.548489	0.400674
640.893086	0.401692
641.237632	0.403609
641.582125	0.401777
641.926566	0.403385
642.270955	0.403459
642.615292	0.404016
642.959576	0.403140
643.303809	0.403343
643.647990	0.403201
643.992118	0.403648
644.336195	0.407561
644.680219	0.406044
645.024192	0.406380
645.368112	0.400003
645.711981	0.399338
646.055797	0.394043
646.399562	0.396687
646.743274	0.389199
647.086935	0.386221
647.430544	0.386044
647.774101	0.384891
648.117606	0.384693
648.461059	0.385185
648.804460	0.387389
649.147810	0.392781
649.491108	0.394603
649.834354	0.395893
650.177548	0.401895
650.520690	0.406645
650.863781	0.407452
651.206820	0.407512
651.549807	0.411939
651.892742	0.415749
652.235626	0.415071
652.578458	0.416556
652.921238	0.422818
653.263967	0.420243
653.606644	0.424541
653.949269	0.424110
654.291843	0.427879
654.634365	0.423933
654.976836	0.427973
655.319255	0.427961
655.661622	0.429214
656.003938	0.430050
656.346203	0.432750
656.688416	0.430496
657.030577	0.433525
657.372687	0.436123
657.714746	0.436747
658.056753	0.433541
658.398708	0.437642
658.740612	0.438733
659.082465	0.434423
659.424266	0.435354
659.766016	0.434454
660.107715	0.437419
660.449362	0.436542
660.790958	0.436690
661.132503	0.437627
661.473996	0.435161
661.815438	0.435698
662.156829	0.435697
662.498168	0.436878
662.839456	0.438517
663.180693	0.435956
663.521879	0.436112
663.863013	0.437315
664.204097	0.435596
664.545129	0.431844
664.886110	0.432786
665.227040	0.429760
665.567918	0.432395
665.908746	0.430760
666.249522	0.430090
666.590248	0.431095
666.930922	0.429766
667.271545	0.428131
667.612118	0.428532
667.952639	0.429471
668.293109	0.428571
668.633528	0.431319
668.973896	0.431595
669.314213	0.432257
669.654480	0.433516
669.994695	0.434124
670.334859	0.434745
670.674973	0.434983
671.015035	0.435297
671.355047	0.434400
671.695008	0.436425
672.034918	0.437549
672.374777	0.437146
672.714585	0.438529
673.054342	0.437972
673.394049	0.438380
673.733705	0.435918
674.073310	0.437060
674.412864	0.440360
674.752368	0.440592
675.091820	0.440740
675.431223	0.445644
675.770574	0.445203
676.109875	0.448268
676.449125	0.448157
676.788324	0.450284
677.127473	0.456296
677.466571	0.455644
677.805619	0.456711
678.144616	0.458090
678.483562	0.459745
678.822458	0.463073
679.161303	0.463731
679.500098	0.463910
679.838842	0.465830
680.177535	0.465680
680.516179	0.463782
680.854771	0.462897
681.193314	0.456397
681.531805	0.447596
681.870247	0.435825
682.208638	0.428139
682.546978	0.427661
682.885268	0.428955
683.223508	0.435744
683.561697	0.439151
683.899836	0.441717
684.237925	0.445620
684.575963	0.447372
684.913951	0.451164
685.251889	0.447003
685.589776	0.448439
685.927614	0.450782
686.265401	0.445181
686.603137	0.446973
686.940824	0.440366
687.278460	0.439306
687.616046	0.438753
687.953582	0.433493
688.291068	0.435171
688.628504	0.430271
688.965889	0.432465
689.303224	0.436489
689.640510	0.441063
689.977745	0.446073
690.314930	0.454747
690.652065	0.459169
690.989150	0.466181
691.326185	0.472719
691.663170	0.477063
692.000105	0.485142
692.336990	0.491837
692.673825	0.493774
693.010610	0.500990
693.347345	0.506050
693.684030	0.507817
694.020665	0.512747
694.357251	0.520704
694.693786	0.521420
695.030272	0.525622
695.366707	0.529220
695.703093	0.532395
696.039429	0.529783
696.375716	0.531651
696.711952	0.534451
697.048139	0.536250
697.384276	0.538876
697.720363	0.536235
698.056400	0.535664
698.392388	0.541202
698.728326	0.544086
699.064214	0.547164
699.400053	0.547445
699.735842	0.550816
700.071581	0.554186
700.407270	0.557635
700.742910	0.559108
701.078501	0.565889
701.414042	0.566157
701.749533	0.569195
702.084974	0.578383
702.420366	0.570616
702.755709	0.578074
703.091002	0.585513
703.426246	0.579379
703.761440	0.584587
704.096584	0.590267
704.431679	0.587134
704.766725	0.588997
705.101721	0.590209
705.436668	0.586601
705.771565	0.594303
706.106413	0.590692
706.441212	0.585949
706.775961	0.583987
707.110661	0.587313
707.445311	0.584194
707.779913	0.580779
708.114465	0.579584
708.448967	0.575996
708.783421	0.568086
709.117825	0.562769
709.452180	0.563097
709.786485	0.556884
710.120742	0.546864
710.454949	0.548853
710.789107	0.540160
711.123216	0.531450
711.457275	0.533589
711.791286	0.524281
712.125247	0.523448
712.459159	0.533940
712.793023	0.526851
713.126837	0.530323
713.460602	0.531496
713.794318	0.540946
714.127985	0.540060
714.461602	0.549432
714.795171	0.552480
715.128691	0.560153
715.462162	0.568067
715.795584	0.573890
716.128957	0.576293
716.462281	0.582788
716.795556	0.586472
717.128782	0.591489
717.461960	0.601715
717.795088	0.599577
718.128167	0.605406
718.461198	0.614168
718.794180	0.615136
719.127113	0.617842
719.459997	0.621601
719.792833	0.627898
720.125619	0.628495
720.458357	0.635134
720.791046	0.633921
721.123686	0.638351
721.456278	0.645210
721.788821	0.642909
722.121315	0.645942
722.453761	0.650158
722.786158	0.648341
723.118506	0.644602
723.450805	0.652318
723.783056	0.648301
724.115259	0.645329
724.447412	0.644970
724.779518	0.646751
725.111574	0.646278
725.443582	0.640991
725.775542	0.642490
726.107453	0.635303
726.439315	0.635442
726.771129	0.633827
727.102895	0.627545
727.434612	0.619961
727.766281	0.618165
728.097901	0.617951
728.429473	0.617268
728.760996	0.615468
729.092471	0.615371
729.423897	0.618734
729.755276	0.618716
730.086606	0.618580
730.417887	0.613358
730.749120	0.603441
731.080305	0.594661
731.411442	0.590691
731.742530	0.596107
732.073570	0.594878
732.404562	0.587585
732.735506	0.588629
733.066401	0.593081
733.397249	0.602479
733.728048	0.614722
734.058798	0.627068
734.389501	0.637303
734.720156	0.646371
735.050762	0.654819
735.381320	0.655826
735.711831	0.665168
736.042293	0.669943
736.372707	0.665277
736.703073	0.670495
737.033391	0.672610
737.363661	0.669306
737.693883	0.664377
738.024056	0.663886
738.354182	0.664120
738.684260	0.652661
739.014290	0.649605
739.344272	0.650559
739.674207	0.643718
740.004093	0.643233
740.333931	0.643665
740.663722	0.643662
740.993464	0.643917
741.323159	0.647694
741.652806	0.652949
741.982405	0.657270
742.311956	0.661858
742.641460	0.664603
742.970915	0.667923
743.300323	0.675282
743.629683	0.682307
743.958996	0.684942
744.288260	0.688639
744.617477	0.694185
744.946647	0.695033
745.275768	0.701914
745.604842	0.700808
745.933869	0.710806
746.262847	0.711364
746.591778	0.704731
746.920662	0.710915
747.249498	0.717629
747.578286	0.708630
747.907027	0.705400
748.235720	0.705335
748.564365	0.700312
748.892963	0.700294
749.221514	0.703669
749.550017	0.708305
749.878473	0.708246
750.206881	0.714477
750.535242	0.715660
750.863555	0.716188
751.191821	0.717133
751.520039	0.719602
751.848210	0.724772
752.176334	0.717507
752.504411	0.716621
752.832440	0.724944
753.160421	0.728777
753.488356	0.726915
753.816243	0.724647
754.144082	0.732753
754.471875	0.735565
754.799620	0.731377
755.127318	0.732958
755.454969	0.733258
755.782572	0.731594
756.110129	0.737000
756.437638	0.739741
756.765100	0.736643
757.092515	0.734172
757.419882	0.733059
757.747203	0.738449
758.074477	0.737841
758.401703	0.735590
758.728882	0.729843
759.056014	0.728626
759.383099	0.728301
759.710138	0.729060
760.037129	0.725737
760.364073	0.719665
760.690970	0.721661
761.017820	0.727965
761.344623	0.723489
761.671379	0.714372
761.998088	0.702882
762.324751	0.679994
762.651366	0.637755
762.977935	0.571381
763.304456	0.519631
763.630931	0.510038
763.957359	0.548929
764.283740	0.593708
764.610074	0.619944
764.936362	0.651454
765.262602	0.678507
765.588796	0.699936
765.914943	0.717578
766.241044	0.734687
766.567097	0.741380
766.893104	0.750847
767.219064	0.757966
767.544978	0.764386
767.870845	0.778089
768.196665	0.781319
768.522438	0.778894
768.848165	0.781047
769.173846	0.789749
769.499479	0.793557
769.825066	0.797954
770.150607	0.803182
770.476101	0.798256
770.801548	0.799326
771.126949	0.810493
771.452303	0.815312
771.777611	0.813497
772.102872	0.812416
772.428087	0.818176
772.753256	0.821097
773.078378	0.823476
773.403453	0.831945
773.728482	0.836054
774.053465	0.830177
774.378401	0.833901
774.703291	0.841583
775.028135	0.841686
775.352932	0.843044
775.677683	0.845795
776.002388	0.846995
776.327046	0.845812
776.651658	0.849868
776.976224	0.852789
777.300743	0.853004
777.625216	0.854923
777.949643	0.858006
778.274024	0.856653
778.598359	0.858572
778.922647	0.856582
779.246889	0.858133
779.571086	0.861586
779.895236	0.864171
780.219339	0.861802
780.543397	0.858808
780.867409	0.856785
781.191374	0.858402
781.515294	0.859981
781.839167	0.859627
782.162995	0.862378
782.486776	0.859369
782.810511	0.860808
783.134201	0.863773
783.457844	0.861733
783.781441	0.865370
784.104993	0.870005
784.428498	0.870423
784.751958	0.865644
785.075372	0.868579
785.398739	0.872654
785.722061	0.868587
786.045337	0.863350
786.368568	0.869629
786.691752	0.872180
787.014891	0.856941
787.337983	0.848513
787.661030	0.841348
787.984031	0.824495
788.306987	0.810783
788.629897	0.812823
788.952760	0.817901
789.275579	0.821235
789.598351	0.837578
789.921078	0.849513
790.243759	0.851229
790.566395	0.856796
790.888984	0.864100
791.211529	0.869685
791.534027	0.870842
791.856480	0.874284
792.178888	0.879368
792.501249	0.881362
792.823566	0.883360
793.145836	0.883522
793.468062	0.885069
793.790241	0.885526
794.112375	0.882731
794.434464	0.878339
794.756507	0.878128
795.078505	0.878331
795.400457	0.871535
795.722364	0.859875
796.044226	0.853292
796.366042	0.851573
796.687812	0.856149
797.009538	0.851756
797.331218	0.853760
797.652852	0.859814
797.974442	0.864221
798.295986	0.864316
798.617484	0.866703
798.938938	0.871041
799.260346	0.874958
799.581709	0.878287
799.903026	0.880464
800.224299	0.880703
800.545526	0.885019
800.866708	0.889411
801.187845	0.893695
801.508936	0.893051
801.829983	0.890199
802.150984	0.892061
802.471940	0.898107
802.792851	0.896582
803.113717	0.898944
803.434538	0.896120
803.755314	0.897607
804.076045	0.901004
804.396731	0.899859
804.717372	0.900425
805.037967	0.902519
805.358518	0.900614
805.679024	0.897063
805.999485	0.897325
806.319901	0.898480
806.640272	0.898343
806.960598	0.897517
807.280879	0.893699
807.601115	0.891926
807.921306	0.895753
808.241453	0.896770
808.561554	0.894203
808.881611	0.894786
809.201623	0.896372
809.521590	0.896497
809.841513	0.897609
810.161390	0.896777
810.481223	0.898268
810.801011	0.901809
811.120755	0.903936
811.440453	0.902006
811.760107	0.900787
812.079716	0.900506
812.399281	0.904319
812.718801	0.906666
813.038276	0.907382
813.357707	0.907105
813.677093	0.904089
813.996434	0.907432
814.315731	0.908395
814.634983	0.910137
814.954191	0.908624
815.273354	0.905735
815.592473	0.900978
815.911547	0.902486
816.230577	0.899679
816.549562	0.896528
816.868502	0.897496
817.187399	0.893381
817.506250	0.887929
817.825058	0.889835
818.143821	0.886231
818.462539	0.881438
818.781213	0.872773
819.099843	0.862107
819.418429	0.847113
819.736970	0.829609
820.055466	0.809765
820.373919	0.785270
820.692327	0.751752
821.010691	0.716645
821.329011	0.639912
821.647286	0.524710
821.965517	0.411076
822.283704	0.368500
822.601847	0.369816
822.919945	0.405485
823.237999	0.439147
823.556010	0.486086
823.873976	0.541756
824.191897	0.591775
824.509775	0.634793
824.827609	0.680111
825.145398	0.702469
825.463144	0.704727
825.780845	0.687724
826.098502	0.670080
826.416116	0.623758
826.733685	0.580008
827.051210	0.570588
827.368692	0.585910
827.686129	0.623296
828.003522	0.676325
828.320872	0.724263
828.638177	0.767859
828.955439	0.799253
829.272656	0.822041
829.589830	0.839462
829.906960	0.854885
830.224046	0.866966
830.541088	0.877695
830.858086	0.881443
831.175041	0.888255
831.491952	0.887077
831.808819	0.883072
832.125642	0.876857
832.442421	0.862446
832.759157	0.841153
833.075849	0.794795
833.392497	0.731327
833.709101	0.691054
834.025662	0.699446
834.342179	0.731216
834.658653	0.770306
834.975083	0.805996
835.291469	0.833012
835.607811	0.854918
835.924110	0.870493
836.240366	0.888131
836.556578	0.901739
836.872746	0.908965
837.188871	0.915643
837.504952	0.920167
837.820990	0.924195
838.136984	0.927279
838.452935	0.930358
838.768842	0.933447
839.084706	0.925062
839.400526	0.900898
839.716303	0.859061
840.032037	0.836845
840.347727	0.840286
840.663373	0.858161
840.978977	0.880277
841.294537	0.901826
841.610054	0.918837
841.925527	0.926534
842.240957	0.932504
842.556344	0.940232
842.871687	0.946353
843.186987	0.950237
843.502244	0.951073
843.817458	0.952123
844.132629	0.955882
844.447756	0.960303
844.762840	0.960503
845.077881	0.959334
845.392879	0.961195
845.707833	0.962826
846.022745	0.963971
846.337613	0.964501
846.652438	0.966360
846.967221	0.965068
847.281960	0.965299
847.596656	0.967136
847.911309	0.966902
848.225919	0.968002
848.540485	0.968776
848.855009	0.969422
849.169490	0.968797
849.483928	0.969786
849.798323	0.968981
850.112675	0.970739
850.426984	0.970069
850.741251	0.970020
851.055474	0.971611
851.369654	0.967785
851.683792	0.969788
851.997887	0.970298
852.311938	0.970629
852.625947	0.970626
852.939914	0.968937
853.253837	0.970704
853.567718	0.971685
853.881555	0.970759
854.195350	0.968325
854.509103	0.970889
854.822812	0.971298
855.136479	0.970068
855.450103	0.970728
855.763685	0.968190
856.077224	0.969464
856.390720	0.971127
856.704173	0.970885
857.017584	0.968507
857.330953	0.968286
857.644278	0.968860
857.957561	0.968370
858.270802	0.968634
858.584000	0.967555
858.897155	0.965847
859.210268	0.968453
859.523339	0.968729
859.836367	0.970514
860.149352	0.971712
860.462295	0.968993
860.775195	0.970502
861.088054	0.969770
861.400869	0.970075
861.713642	0.970931
862.026373	0.970090
862.339062	0.971690
862.651708	0.967969
862.964312	0.968609
863.276873	0.969112
863.589392	0.967961
863.901869	0.967115
864.214303	0.964251
864.526696	0.964682
864.839045	0.963105
865.151353	0.961660
865.463619	0.962873
865.775842	0.962513
866.088023	0.962402
866.400162	0.963218
866.712258	0.962341
867.024313	0.963389
867.336325	0.964211
867.648296	0.963993
867.960224	0.963160
868.272110	0.961322
868.583954	0.963738
868.895755	0.963416
869.207515	0.962220
869.519233	0.960420
869.830909	0.960894
870.142542	0.963138
870.454134	0.962072
870.765684	0.961493
871.077191	0.957447
871.388657	0.959255
871.700081	0.958970
872.011463	0.958962
872.322803	0.959091
872.634101	0.958459
872.945357	0.955076
873.256571	0.952624
873.567744	0.953385
873.878874	0.954772
874.189963	0.952398
874.501010	0.951297
874.812015	0.949411
875.122979	0.952372
875.433900	0.954205
875.744780	0.954279
876.055618	0.950797
876.366415	0.950808
876.677169	0.950886
876.987882	0.951507
877.298554	0.950851
877.609183	0.948521
877.919771	0.945167
878.230317	0.942719
878.540822	0.941396
878.851285	0.935546
879.161707	0.928140
879.472087	0.916518
879.782425	0.899828
880.092722	0.865134
880.402977	0.813057
880.713191	0.753210
881.023363	0.693906
881.333494	0.661459
881.643583	0.632377
881.953631	0.632070
882.263637	0.661518
882.573602	0.700401
882.883526	0.726156
883.193408	0.749969
883.503248	0.771895
883.813048	0.799815
884.122806	0.828320
884.432522	0.851938
884.742197	0.871300
885.051831	0.882634
885.361424	0.892612
885.670975	0.903979
885.980485	0.913806
886.289954	0.920601
886.599382	0.924873
886.908768	0.929333
887.218113	0.935243
887.527417	0.939893
887.836680	0.943371
888.145901	0.944329
888.455082	0.946383
888.764221	0.950598
889.073319	0.952326
889.382376	0.953804
889.691392	0.954715
890.000366	0.953716
890.309300	0.954555
890.618193	0.954128
890.927044	0.952320
891.235855	0.952089
891.544625	0.951388
891.853353	0.951999
892.162041	0.950169
892.470687	0.943802
892.779293	0.938272
893.087858	0.934937
893.396381	0.925746
893.704864	0.913513
894.013306	0.890924
894.321707	0.864101
894.630068	0.848592
894.938387	0.844911
895.246665	0.844530
895.554903	0.857819
895.863100	0.871226
896.171256	0.888590
896.479371	0.906542
896.787446	0.919982
897.095480	0.926415
897.403473	0.930114
897.711425	0.933941
898.019336	0.940153
898.327207	0.943597
898.635038	0.945322
898.942827	0.946563
899.250576	0.948892
899.558284	0.952251
899.865952	0.954127
900.173579	0.955148
900.481165	0.956358
900.788711	0.959696
901.096216	0.962257
901.403681	0.962697
901.711105	0.963150
902.018489	0.964094
902.325832	0.963253
902.633135	0.962022
902.940397	0.955135
903.247619	0.944882
903.554800	0.918699
903.861941	0.880148
904.169041	0.843709
904.476101	0.826867
904.783121	0.828694
905.090100	0.844556
905.397039	0.866548
905.703938	0.886956
906.010796	0.906242
906.317614	0.924002
906.624391	0.934639
906.931129	0.944859
907.237826	0.952660
907.544483	0.959700
907.851099	0.963680
908.157675	0.968991
908.464211	0.970478
908.770707	0.972150
909.077163	0.974491
909.383578	0.975077
909.689954	0.976768
909.996289	0.975566
910.302584	0.978386
910.608839	0.980602
910.915054	0.978069
911.221229	0.979144
911.527363	0.977311
911.833458	0.977573
912.139513	0.978204
912.445527	0.975732
912.751502	0.974302
913.057436	0.973171
913.363331	0.969786
913.669186	0.966513
913.975000	0.961290
914.280775	0.956412
914.586510	0.950124
914.892205	0.935633
915.197859	0.915332
915.503475	0.887363
915.809050	0.868272
916.114585	0.862897
916.420081	0.860098
916.725536	0.856664
917.030952	0.865149
917.336328	0.878576
917.641665	0.893108
917.946961	0.908715
918.252218	0.920113
918.557435	0.927681
918.862612	0.938321
919.167750	0.942050
919.472848	0.948327
919.777906	0.952438
920.082925	0.959236
920.387904	0.962648
920.692843	0.963827
920.997743	0.964417
921.302603	0.967282
921.607423	0.968876
921.912204	0.971459
922.216946	0.972180
922.521647	0.973738
922.826310	0.975680
923.130932	0.976323
923.435516	0.978918
923.740059	0.980126
924.044564	0.978709
924.349028	0.980875
924.653454	0.983382
924.957840	0.985573
925.262186	0.983833
925.566493	0.984061
925.870761	0.985738
926.174989	0.987105
926.479178	0.988166
926.783328	0.989143
927.087438	0.988944
927.391509	0.987960
927.695541	0.990077
927.999533	0.989225
928.303486	0.989820
928.607400	0.991277
928.911275	0.989772
929.215110	0.990454
929.518906	0.991233
929.822663	0.989023
930.126381	0.990482
930.430060	0.991051
930.733699	0.990150
931.037299	0.990222
931.340861	0.990965
931.644383	0.989504
931.947866	0.990445
932.251309	0.990952
932.554714	0.990697
932.858080	0.990748
933.161407	0.989626
933.464694	0.991614
933.767943	0.989734
934.071153	0.991538
934.374323	0.992506
934.677455	0.991412
934.980548	0.992801
935.283602	0.990705
935.586617	0.991264
935.889593	0.990853
936.192530	0.991654
936.495428	0.992156
936.798287	0.991064
937.101108	0.990051
937.403890	0.990008
937.706632	0.989035
938.009336	0.987176
938.312002	0.986669
938.614628	0.984704
938.917216	0.984126
939.219765	0.982491
939.522275	0.983760
939.824747	0.983512
940.127179	0.982469
940.429573	0.985580
940.731929	0.984470
941.034246	0.984690
941.336524	0.985055
941.638763	0.986684
941.940964	0.986559
942.243126	0.987202
942.545250	0.987880
942.847335	0.988395
943.149381	0.989433
943.451389	0.987594
943.753359	0.988760
944.055290	0.991429
944.357182	0.990214
944.659036	0.988800
944.960851	0.989876
945.262628	0.990559
945.564367	0.990608
945.866067	0.989804
946.167729	0.989547
946.469352	0.990140
946.770937	0.988936
947.072484	0.991180
947.373992	0.990003
947.675462	0.990652
947.976893	0.990357
948.278286	0.990447
948.579641	0.992695
948.880958	0.990838
949.182236	0.991072
949.483476	0.991175
949.784678	0.989527
950.085841	0.991516
950.386967	0.991645
950.688054	0.990358
950.989103	0.991554
951.290114	0.989899
951.591087	0.989989
951.892021	0.989976
952.192917	0.989290
952.493776	0.989162
952.794596	0.987496
953.095378	0.989048
953.396122	0.987868
953.696828	0.988106
953.997496	0.990134
954.298126	0.990106
954.598718	0.991399
954.899272	0.991653
955.199788	0.990827
955.500266	0.992645
955.800706	0.993162
956.101108	0.992975
956.401472	0.993949
956.701798	0.994130
957.002087	0.992968
957.302337	0.994116
957.602550	0.996654
957.902724	0.995503
958.202861	0.995312
958.502960	0.995406
958.803022	0.992713
959.103045	0.996300
959.403031	0.996484
959.702979	0.994611
960.002889	0.996413
960.302762	0.994982
960.602596	0.996734
960.902393	0.995142
961.202153	0.997048
961.501875	0.996467
961.801559	0.996602
962.101205	0.995740
962.400814	0.996749
962.700385	0.997359
962.999918	0.996941
963.299414	0.996534
963.598873	0.995674
963.898293	0.996069
964.197677	0.997294
964.497022	0.996679
964.796331	0.997532
965.095601	0.996903
965.394835	0.996671
965.694030	0.996884
965.993189	0.998112
966.292309	0.995704
966.591393	0.998323
966.890439	0.997580
967.189447	0.997492
967.488419	0.997840
967.787353	0.997445
968.086249	0.996642
968.385108	0.995701
968.683930	0.997541
968.982714	0.997752
969.281462	0.998226
969.580172	0.996600
969.878844	0.997747
970.177480	0.996863
970.476078	0.998075
970.774639	0.996309
971.073162	0.997805
971.371649	0.996368
971.670098	0.997039
971.968510	0.997983
972.266885	0.994424
972.565223	0.997168
972.863524	0.996309
973.161788	0.995911
973.460014	0.997873
973.758204	0.996380
974.056356	0.996594
974.354471	0.995536
974.652550	0.996351
974.950591	0.995393
975.248595	0.997240
975.546563	0.997070
975.844493	0.997851
976.142386	0.997688
976.440243	0.997798
976.738062	0.997360
977.035845	0.997211
977.333590	0.997714
977.631299	0.998762
977.928971	0.996709
978.226606	0.997377
978.524204	0.996955
978.821765	0.997817
979.119290	0.995970
979.416777	0.997648
979.714228	0.997075
980.011642	0.995414
980.309020	0.997253
980.606360	0.997065
980.903664	0.998762
981.200931	0.996008
981.498162	0.995032
981.795356	0.995453
982.092513	0.993712
982.389633	0.995786
982.686717	0.991480
982.983764	0.992641
983.280775	0.990014
983.577749	0.990380
983.874686	0.991939
984.171587	0.992348
984.468451	0.994419
984.765279	0.995481
985.062070	0.994556
985.358824	0.994937
985.655543	0.995769
985.952224	0.996867
986.248869	0.997197
986.545478	0.997950
986.842050	0.998526
987.138586	0.996200
987.435086	0.997162
987.731549	0.999253
988.027975	0.998966
988.324366	0.997399
988.620719	0.998635
988.917037	0.997069
989.213318	0.999035
989.509563	0.998885
989.805772	0.997887
990.101944	0.997469
990.398080	0.998446
990.694180	0.999292
990.990244	0.996932
991.286271	0.997950
991.582262	0.999710
991.878217	0.997793
992.174136	0.999957
992.470019	0.998496
992.765865	0.998983
993.061676	0.998677
993.357450	0.998537
993.653188	0.997064
993.948890	0.997840
994.244556	0.998080
994.540186	0.997351
994.835780	0.996393
995.131337	0.997796
995.426859	0.996905
995.722345	0.998552
996.017795	0.996710
996.313208	0.996473
996.608586	0.996169
996.903928	0.996044
997.199234	0.996425
997.494504	0.996357
997.789738	0.997238
998.084936	0.996481
998.380099	0.998672
998.675225	0.997938
998.970316	0.998455
999.265371	0.998792
999.560390	0.997530
999.855373	0.998531
1000.150320	0.998377
1000.445232	0.998201
1000.740108	0.998522
1001.034948	0.999613
1001.329752	0.999566
1001.624521	0.998987
1001.919254	0.997939
1002.213951	0.998796
1002.508613	0.998129
1002.803239	0.998826
1003.097829	0.999295
1003.392384	0.999280
1003.686903	0.998762
1003.981386	0.998209
1004.275834	0.999450
1004.570246	0.998405
1004.864623	0.999071
1005.158964	1.000587
1005.453270	0.998400
1005.747540	0.998136
1006.041775	0.998508
1006.335974	0.999321
1006.630138	0.998184
1006.924266	0.999501
1007.218359	1.000624
1007.512416	0.998623
1007.806438	0.999408
1008.100425	0.999245
1008.394376	0.998514
1008.688292	0.998522
1008.982172	1.000688
1009.276017	0.998906
1009.569827	0.999466
1009.863602	0.998064
1010.157341	1.000164
1010.451045	0.998917
1010.744714	0.998078
1011.038347	0.999386
1011.331945	0.999852
1011.625508	0.998058
1011.919036	0.998663
1012.212528	0.998825
1012.505986	0.998797
1012.799408	0.998614
1013.092795	0.998624
1013.386147	0.998795
1013.679464	1.001135
1013.972745	0.998275
1014.265992	0.997993
1014.559204	0.999374
1014.852380	1.000674
1015.145521	0.997992
1015.438628	0.999256
1015.731699	0.998886
1016.024736	0.998896
1016.317737	0.999556
1016.610703	0.998917
1016.903635	0.999147
1017.196531	0.998880
1017.489393	0.999678
1017.782219	0.999233
1018.075011	0.998188
1018.367768	0.998858
1018.660490	1.000155
1018.953177	1.000155
1019.245829	1.000155
