Dividing Wavelength (nm)	Counts (n)	Blue Motor Position (mm): 0.000000	Red Motor Position (mm): 26.000000	
326.493990	1.000038
326.888308	1.000038
327.282561	1.000038
327.676750	0.998827
328.070874	1.000336
328.464933	1.000332
328.858929	1.000092
329.252859	0.999047
329.646726	0.998398
330.040528	0.999998
330.434265	0.998851
330.827938	1.000488
331.221547	0.999993
331.615091	1.000273
332.008571	0.999948
332.401986	0.999612
332.795338	1.000344
333.188625	0.997687
333.581847	1.001351
333.975006	0.998454
334.368100	0.999646
334.761129	0.999298
335.154095	0.999865
335.546996	0.997044
335.939833	0.992925
336.332606	0.993031
336.725315	0.995901
337.117960	0.994407
337.510540	0.994731
337.903056	0.995184
338.295508	0.992419
338.687896	0.994861
339.080220	0.994493
339.472480	0.994037
339.864676	0.994210
340.256807	0.996077
340.648875	0.995460
341.040879	0.995499
341.432818	0.993447
341.824694	0.995471
342.216506	0.995645
342.608253	0.994680
342.999937	0.993040
343.391557	0.993794
343.783113	0.994091
344.174605	0.994601
344.566033	0.995331
344.957397	0.993885
345.348697	0.993330
345.739934	0.993581
346.131106	0.993715
346.522215	0.994320
346.913260	0.994160
347.304241	0.994935
347.695159	0.994065
348.086012	0.993732
348.476802	0.994240
348.867528	0.994107
349.258191	0.994430
349.648789	0.995078
350.039324	0.993380
350.429796	0.994776
350.820203	0.995001
351.210548	0.994641
351.600828	0.994975
351.991045	0.994341
352.381198	0.994933
352.771288	0.994086
353.161314	0.994168
353.551276	0.995598
353.941175	0.994327
354.331010	0.993817
354.720782	0.995682
355.110490	0.994305
355.500135	0.994797
355.889717	0.994954
356.279235	0.994291
356.668689	0.993934
357.058080	0.994449
357.447408	0.994334
357.836672	0.994757
358.225873	0.995697
358.615010	0.995582
359.004084	0.995677
359.393095	0.994896
359.782043	0.995100
360.170927	0.995510
360.559748	0.996128
360.948505	0.994486
361.337199	0.994200
361.725830	0.994028
362.114398	0.994236
362.502903	0.994639
362.891344	0.995305
363.279722	0.993971
363.668037	0.995005
364.056289	0.993921
364.444478	0.995336
364.832603	0.995110
365.220665	0.994442
365.608665	0.994768
365.996601	0.994870
366.384474	0.994169
366.772284	0.994046
367.160031	0.993393
367.547715	0.994037
367.935336	0.994695
368.322893	0.995288
368.710388	0.994517
369.097820	0.994399
369.485189	0.994475
369.872495	0.992654
370.259738	0.992735
370.646918	0.995178
371.034035	0.994674
371.421090	0.994506
371.808081	0.994138
372.195010	0.994746
372.581875	0.994667
372.968678	0.995383
373.355418	0.994365
373.742096	0.994527
374.128710	0.996157
374.515262	0.994227
374.901751	0.994714
375.288177	0.994634
375.674540	0.995498
376.060841	0.994339
376.447079	0.995830
376.833254	0.994422
377.219367	0.994679
377.605417	0.995532
377.991404	0.995703
378.377329	0.994325
378.763191	0.995628
379.148991	0.996775
379.534727	0.994587
379.920402	0.995491
380.306013	0.995218
380.691563	0.995554
381.077049	0.995485
381.462474	0.996025
381.847835	0.996261
382.233134	0.994860
382.618371	0.996171
383.003545	0.995295
383.388657	0.994801
383.773706	0.996308
384.158693	0.995541
384.543618	0.996535
384.928480	0.996486
385.313280	0.995165
385.698017	0.996664
386.082692	0.996960
386.467305	0.996767
386.851856	0.996429
387.236344	0.995612
387.620770	0.994961
388.005133	0.996372
388.389435	0.995993
388.773674	0.996397
389.157851	0.996423
389.541965	0.995641
389.926018	0.995751
390.310008	0.997088
390.693936	0.996259
391.077802	0.996550
391.461606	0.996582
391.845348	0.996677
392.229027	0.997728
392.612645	0.996862
392.996200	0.997509
393.379694	0.996177
393.763125	0.997637
394.146494	0.997821
394.529801	0.995887
394.913047	0.997047
395.296230	0.996796
395.679351	0.997139
396.062410	0.996148
396.445408	0.996301
396.828343	0.996652
397.211217	0.996667
397.594028	0.997290
397.976778	0.996324
398.359466	0.996450
398.742092	0.996776
399.124656	0.995962
399.507158	0.996420
399.889598	0.997337
400.271977	0.996892
400.654294	0.997087
401.036549	0.997375
401.418742	0.997158
401.800874	0.995830
402.182944	0.996731
402.564952	0.995800
402.946898	0.997451
403.328783	0.997385
403.710606	0.997043
404.092367	0.997415
404.474067	0.996442
404.855705	0.997215
405.237282	0.996550
405.618797	0.996481
406.000250	0.996439
406.381642	0.996522
406.762972	0.996589
407.144240	0.997307
407.525447	0.997319
407.906593	0.996680
408.287677	0.997141
408.668700	0.997396
409.049661	0.995568
409.430560	0.996740
409.811399	0.996521
410.192176	0.995839
410.572891	0.996682
410.953545	0.996228
411.334138	0.995162
411.714669	0.996796
412.095139	0.996183
412.475547	0.997030
412.855894	0.997649
413.236180	0.996678
413.616405	0.997109
413.996568	0.997410
414.376670	0.997611
414.756711	0.996669
415.136691	0.997128
415.516609	0.995980
415.896466	0.997305
416.276262	0.995430
416.655997	0.997114
417.035670	0.996756
417.415283	0.996292
417.794834	0.996167
418.174324	0.996830
418.553753	0.996949
418.933121	0.996797
419.312428	0.996351
419.691674	0.996579
420.070859	0.996564
420.449983	0.996909
420.829045	0.997223
421.208047	0.997547
421.586988	0.997776
421.965867	0.996629
422.344686	0.997600
422.723444	0.997034
423.102141	0.996937
423.480777	0.997310
423.859352	0.996523
424.237866	0.997134
424.616319	0.997037
424.994712	0.996468
425.373044	0.997018
425.751314	0.996807
426.129524	0.996165
426.507673	0.996943
426.885762	0.997530
427.263789	0.996553
427.641756	0.996844
428.019662	0.997691
428.397508	0.996070
428.775292	0.995847
429.153016	0.996692
429.530679	0.996793
429.908282	0.997579
430.285824	0.996645
430.663305	0.996391
431.040726	0.996015
431.418086	0.997183
431.795385	0.997151
432.172624	0.995527
432.549802	0.996496
432.926920	0.995860
433.303977	0.994973
433.680974	0.996336
434.057910	0.996195
434.434786	0.996213
434.811601	0.994546
435.188355	0.995415
435.565050	0.994389
435.941683	0.995517
436.318257	0.996193
436.694770	0.994068
437.071222	0.994766
437.447614	0.995247
437.823946	0.994281
438.200218	0.994632
438.576429	0.993252
438.952580	0.992861
439.328670	0.991912
439.704700	0.992094
440.080670	0.990924
440.456580	0.989963
440.832429	0.988722
441.208218	0.988591
441.583947	0.987466
441.959616	0.986659
442.335224	0.986015
442.710773	0.985299
443.086261	0.982836
443.461689	0.980588
443.837057	0.979574
444.212365	0.978003
444.587612	0.975769
444.962800	0.974762
445.337927	0.972706
445.712995	0.971391
446.088002	0.968908
446.462949	0.966746
446.837837	0.963668
447.212664	0.961978
447.587431	0.958600
447.962139	0.952915
448.336786	0.947117
448.711374	0.944392
449.085901	0.945506
449.460369	0.943801
449.834776	0.939749
450.209124	0.933453
450.583412	0.928042
450.957640	0.924426
451.331808	0.921191
451.705917	0.920469
452.079965	0.916357
452.453954	0.910494
452.827883	0.907004
453.201752	0.902037
453.575562	0.899351
453.949311	0.891842
454.323001	0.887886
454.696632	0.881475
455.070202	0.873733
455.443713	0.866269
455.817164	0.860177
456.190556	0.852214
456.563888	0.845102
456.937160	0.838783
457.310373	0.836116
457.683526	0.829710
458.056619	0.824748
458.429653	0.817681
458.802628	0.811308
459.175542	0.803313
459.548398	0.790600
459.921194	0.780214
460.293930	0.773589
460.666607	0.754399
461.039224	0.742618
461.411782	0.734064
461.784280	0.725869
462.156719	0.721110
462.529099	0.713491
462.901419	0.712066
463.273680	0.706481
463.645882	0.697981
464.018024	0.691280
464.390106	0.680808
464.762130	0.665119
465.134094	0.648052
465.505999	0.625111
465.877845	0.601372
466.249631	0.587823
466.621358	0.582515
466.993026	0.579810
467.364634	0.573215
467.736184	0.569269
468.107674	0.565931
468.479105	0.554964
468.850477	0.553724
469.221790	0.548211
469.593043	0.546283
469.964238	0.540027
470.335373	0.531722
470.706449	0.522653
471.077467	0.516806
471.448425	0.483137
471.819324	0.459674
472.190164	0.452481
472.560945	0.465211
472.931667	0.472628
473.302330	0.469050
473.672934	0.471655
474.043479	0.455287
474.413965	0.450633
474.784393	0.446483
475.154761	0.436567
475.525070	0.427830
475.895321	0.427606
476.265513	0.416810
476.635645	0.407670
477.005719	0.401256
477.375734	0.393477
477.745691	0.382951
478.115588	0.374653
478.485427	0.364089
478.855207	0.348699
479.224928	0.329734
479.594591	0.315691
479.964194	0.312853
480.333739	0.308692
480.703226	0.304559
481.072653	0.299761
481.442022	0.292185
481.811333	0.285490
482.180584	0.284744
482.549777	0.285142
482.918912	0.285261
483.287988	0.281649
483.657005	0.278237
484.025964	0.281012
484.394864	0.275512
484.763706	0.272734
485.132489	0.274854
485.501213	0.273183
485.869879	0.269449
486.238487	0.270036
486.607036	0.266001
486.975527	0.268370
487.343959	0.262443
487.712333	0.259814
488.080648	0.259487
488.448905	0.257178
488.817104	0.256958
489.185244	0.250256
489.553326	0.245876
489.921350	0.235110
490.289315	0.216931
490.657222	0.211241
491.025070	0.211350
491.392861	0.212481
491.760593	0.217003
492.128267	0.221586
492.495883	0.226348
492.863440	0.231767
493.230939	0.237557
493.598380	0.238346
493.965763	0.239899
494.333088	0.241704
494.700354	0.242955
495.067563	0.241440
495.434713	0.244122
495.801805	0.241830
496.168839	0.242690
496.535815	0.244046
496.902733	0.243643
497.269593	0.244964
497.636395	0.242640
498.003139	0.242494
498.369825	0.245778
498.736453	0.241723
499.103023	0.242918
499.469535	0.242001
499.835989	0.242291
500.202385	0.242979
500.568723	0.246141
500.935003	0.241243
501.301226	0.245315
501.667390	0.239552
502.033497	0.237944
502.399546	0.240448
502.765537	0.242096
503.131470	0.240233
503.497345	0.236690
503.863163	0.245524
504.228923	0.238249
504.594625	0.236754
504.960269	0.242131
505.325856	0.237476
505.691385	0.241459
506.056856	0.238392
506.422270	0.237448
506.787625	0.239927
507.152924	0.237088
507.518164	0.237582
507.883347	0.239518
508.248472	0.240867
508.613540	0.236015
508.978550	0.238572
509.343503	0.239003
509.708398	0.236634
510.073236	0.234286
510.438016	0.234249
510.802738	0.234879
511.167403	0.233871
511.532010	0.235924
511.896561	0.231281
512.261053	0.230019
512.625488	0.232054
512.989866	0.232332
513.354186	0.232784
513.718449	0.234515
514.082655	0.230721
514.446803	0.232832
514.810894	0.230609
515.174927	0.233109
515.538904	0.232680
515.902822	0.229328
516.266684	0.232084
516.630488	0.233241
516.994235	0.231884
517.357925	0.230532
517.721558	0.229042
518.085133	0.228609
518.448651	0.228690
518.812112	0.230653
519.175516	0.230177
519.538863	0.227794
519.902152	0.229649
520.265385	0.226437
520.628560	0.228139
520.991678	0.228658
521.354739	0.227592
521.717743	0.228532
522.080690	0.229409
522.443580	0.226696
522.806413	0.227000
523.169189	0.226759
523.531908	0.225545
523.894569	0.229288
524.257174	0.229277
524.619722	0.226917
524.982213	0.228001
525.344647	0.226743
525.707025	0.227737
526.069345	0.226082
526.431608	0.227517
526.793815	0.225464
527.155964	0.229539
527.518057	0.228530
527.880093	0.229475
528.242072	0.228181
528.603995	0.229766
528.965860	0.231783
529.327669	0.230534
529.689421	0.231201
530.051117	0.232336
530.412755	0.230181
530.774337	0.232294
531.135862	0.232873
531.497331	0.232072
531.858743	0.234781
532.220098	0.231602
532.581396	0.233923
532.942638	0.234775
533.303824	0.235368
533.664953	0.235295
534.026025	0.237027
534.387040	0.235105
534.747999	0.235032
535.108902	0.233826
535.469748	0.238745
535.830537	0.236648
536.191270	0.236996
536.551947	0.236675
536.912567	0.236798
537.273131	0.238333
537.633638	0.238471
537.994089	0.238954
538.354483	0.239903
538.714821	0.236951
539.075103	0.236791
539.435328	0.237467
539.795497	0.241265
540.155609	0.237508
540.515665	0.235806
540.875665	0.241749
541.235609	0.240201
541.595496	0.240163
541.955328	0.236750
542.315102	0.239432
542.674821	0.240478
543.034483	0.240302
543.394090	0.240196
543.753640	0.242129
544.113134	0.236802
544.472571	0.240355
544.831953	0.237553
545.191278	0.241584
545.550548	0.240808
545.909761	0.237745
546.268918	0.238316
546.628019	0.236506
546.987064	0.239392
547.346053	0.241197
547.704986	0.239263
548.063863	0.239357
548.422684	0.239852
548.781449	0.241341
549.140158	0.238999
549.498811	0.241927
549.857408	0.244943
550.215949	0.239667
550.574434	0.242830
550.932864	0.240787
551.291237	0.239400
551.649555	0.240945
552.007817	0.240778
552.366022	0.241457
552.724173	0.241922
553.082267	0.241956
553.440305	0.239030
553.798288	0.243229
554.156215	0.239716
554.514086	0.240711
554.871902	0.243798
555.229661	0.242994
555.587365	0.243500
555.945014	0.246082
556.302606	0.243042
556.660143	0.245611
557.017625	0.241838
557.375050	0.244223
557.732421	0.241296
558.089735	0.243258
558.446994	0.243198
558.804197	0.242405
559.161345	0.242697
559.518437	0.246005
559.875474	0.243622
560.232455	0.243070
560.589381	0.244027
560.946251	0.244314
561.303065	0.241869
561.659825	0.243319
562.016528	0.244782
562.373177	0.247754
562.729770	0.245089
563.086307	0.246874
563.442789	0.244902
563.799216	0.247704
564.155587	0.246579
564.511904	0.247712
564.868164	0.248034
565.224370	0.247585
565.580520	0.249105
565.936615	0.249300
566.292654	0.252147
566.648638	0.248991
567.004567	0.249944
567.360441	0.250807
567.716260	0.252701
568.072023	0.250584
568.427732	0.251370
568.783385	0.253690
569.138982	0.251835
569.494525	0.251411
569.850013	0.254482
570.205445	0.252615
570.560823	0.255249
570.916145	0.257094
571.271412	0.255702
571.626625	0.257131
571.981782	0.257231
572.336884	0.258163
572.691931	0.258097
573.046923	0.259090
573.401860	0.260423
573.756743	0.261791
574.111570	0.261156
574.466342	0.261361
574.821059	0.260685
575.175722	0.263348
575.530330	0.263172
575.884882	0.263338
576.239380	0.265411
576.593823	0.265938
576.948211	0.265402
577.302544	0.268600
577.656823	0.268440
578.011047	0.268578
578.365216	0.269189
578.719330	0.271063
579.073389	0.271249
579.427394	0.272318
579.781344	0.272970
580.135239	0.274378
580.489080	0.273697
580.842866	0.276785
581.196597	0.276969
581.550273	0.275347
581.903895	0.276727
582.257463	0.274659
582.610975	0.277931
582.964434	0.277483
583.317837	0.279953
583.671186	0.280821
584.024481	0.280275
584.377721	0.282752
584.730906	0.283274
585.084037	0.282527
585.437113	0.284522
585.790135	0.284073
586.143103	0.286735
586.496016	0.288109
586.848874	0.285589
587.201679	0.286064
587.554428	0.289518
587.907124	0.288258
588.259765	0.289015
588.612352	0.289691
588.964884	0.293415
589.317362	0.292957
589.669786	0.292555
590.022155	0.291466
590.374470	0.290659
590.726731	0.292642
591.078937	0.297012
591.431090	0.293711
591.783188	0.297983
592.135232	0.298406
592.487222	0.298426
592.839157	0.296471
593.191038	0.298731
593.542866	0.300577
593.894639	0.304435
594.246358	0.302138
594.598022	0.301617
594.949633	0.305269
595.301190	0.306028
595.652692	0.305107
596.004141	0.301221
596.355535	0.309685
596.706876	0.309837
597.058162	0.312391
597.409395	0.309925
597.760573	0.307287
598.111698	0.310283
598.462768	0.311090
598.813785	0.312509
599.164748	0.313670
599.515657	0.313692
599.866511	0.317385
600.217312	0.312542
600.568060	0.318367
600.918753	0.314297
601.269392	0.315298
601.619978	0.318478
601.970510	0.316074
602.320988	0.316317
602.671412	0.313899
603.021783	0.316693
603.372100	0.317710
603.722363	0.317291
604.072572	0.318658
604.422728	0.318284
604.772830	0.320488
605.122878	0.319761
605.472872	0.320508
605.822813	0.318883
606.172701	0.321442
606.522534	0.318619
606.872314	0.318730
607.222041	0.319972
607.571714	0.317827
607.921333	0.318745
608.270899	0.319178
608.620411	0.315923
608.969870	0.319694
609.319276	0.319861
609.668627	0.319237
610.017926	0.317967
610.367171	0.316549
610.716362	0.317069
611.065500	0.317455
611.414585	0.316208
611.763616	0.316811
612.112594	0.317308
612.461518	0.316937
612.810389	0.314394
613.159207	0.316937
613.507971	0.318948
613.856682	0.314125
614.205340	0.316227
614.553945	0.312662
614.902496	0.316954
615.250994	0.314705
615.599439	0.315586
615.947830	0.315025
616.296169	0.316052
616.644454	0.314975
616.992686	0.315437
617.340864	0.312796
617.688990	0.316881
618.037063	0.313852
618.385082	0.315361
618.733048	0.312260
619.080961	0.314410
619.428821	0.313752
619.776628	0.313594
620.124382	0.315437
620.472083	0.315700
620.819731	0.315306
621.167326	0.319096
621.514868	0.318942
621.862357	0.322724
622.209793	0.322836
622.557176	0.324798
622.904506	0.326116
623.251783	0.328199
623.599007	0.330697
623.946179	0.330018
624.293297	0.332337
624.640363	0.335492
624.987376	0.336532
625.334336	0.338894
625.681243	0.341301
626.028097	0.342119
626.374899	0.342875
626.721647	0.342820
627.068343	0.346492
627.414987	0.347408
627.761577	0.349174
628.108115	0.347565
628.454600	0.352800
628.801032	0.350325
629.147412	0.352262
629.493739	0.352733
629.840014	0.355636
630.186236	0.353359
630.532405	0.358725
630.878521	0.356216
631.224585	0.358541
631.570597	0.361739
631.916556	0.360724
632.262462	0.360440
632.608316	0.362704
632.954117	0.363623
633.299866	0.364285
633.645562	0.364726
633.991206	0.368689
634.336797	0.372400
634.682336	0.374153
635.027823	0.375666
635.373257	0.377100
635.718639	0.379933
636.063968	0.379338
636.409245	0.385321
636.754470	0.384898
637.099642	0.387931
637.444762	0.391153
637.789829	0.389891
638.134845	0.393968
638.479808	0.394667
638.824719	0.394391
639.169577	0.398835
639.514383	0.397308
639.859137	0.401635
640.203839	0.401642
640.548489	0.401759
640.893086	0.403398
641.237632	0.404475
641.582125	0.403324
641.926566	0.404794
642.270955	0.405249
642.615292	0.405658
642.959576	0.404132
643.303809	0.405392
643.647990	0.404314
643.992118	0.404747
644.336195	0.408691
644.680219	0.406921
645.024192	0.407631
645.368112	0.401448
645.711981	0.400574
646.055797	0.395478
646.399562	0.398119
646.743274	0.390542
647.086935	0.387648
647.430544	0.387597
647.774101	0.386729
648.117606	0.386260
648.461059	0.387188
648.804460	0.389012
649.147810	0.394390
649.491108	0.396252
649.834354	0.397411
650.177548	0.402976
650.520690	0.408447
650.863781	0.409292
651.206820	0.408694
651.549807	0.413636
651.892742	0.417661
652.235626	0.416651
652.578458	0.418255
652.921238	0.423349
653.263967	0.422066
653.606644	0.425561
653.949269	0.425615
654.291843	0.429019
654.634365	0.425863
654.976836	0.429254
655.319255	0.429675
655.661622	0.430886
656.003938	0.431023
656.346203	0.434579
656.688416	0.432192
657.030577	0.435135
657.372687	0.437052
657.714746	0.437764
658.056753	0.434981
658.398708	0.438646
658.740612	0.440116
659.082465	0.436112
659.424266	0.436752
659.766016	0.436312
660.107715	0.438581
660.449362	0.437597
660.790958	0.438528
661.132503	0.438709
661.473996	0.436883
661.815438	0.437252
662.156829	0.437617
662.498168	0.437957
662.839456	0.439980
663.180693	0.437778
663.521879	0.437655
663.863013	0.438237
664.204097	0.436995
664.545129	0.433918
664.886110	0.433727
665.227040	0.431233
665.567918	0.434062
665.908746	0.431922
666.249522	0.431620
666.590248	0.432881
666.930922	0.430722
667.271545	0.429535
667.612118	0.430007
667.952639	0.431980
668.293109	0.429930
668.633528	0.432785
668.973896	0.433214
669.314213	0.433116
669.654480	0.434967
669.994695	0.435180
670.334859	0.435907
670.674973	0.436164
671.015035	0.436410
671.355047	0.436203
671.695008	0.437201
672.034918	0.439432
672.374777	0.438749
672.714585	0.439692
673.054342	0.439706
673.394049	0.439603
673.733705	0.437658
674.073310	0.438580
674.412864	0.442278
674.752368	0.442335
675.091820	0.442096
675.431223	0.446565
675.770574	0.446038
676.109875	0.449718
676.449125	0.449637
676.788324	0.451668
677.127473	0.456875
677.466571	0.456633
677.805619	0.458322
678.144616	0.459327
678.483562	0.460939
678.822458	0.464416
679.161303	0.465331
679.500098	0.465162
679.838842	0.467347
680.177535	0.466394
680.516179	0.464542
680.854771	0.464209
681.193314	0.457840
681.531805	0.449430
681.870247	0.437336
682.208638	0.429467
682.546978	0.428962
682.885268	0.430516
683.223508	0.436995
683.561697	0.440969
683.899836	0.443668
684.237925	0.446568
684.575963	0.449302
684.913951	0.452518
685.251889	0.447995
685.589776	0.449897
685.927614	0.452607
686.265401	0.446771
686.603137	0.447662
686.940824	0.442084
687.278460	0.440708
687.616046	0.439723
687.953582	0.434418
688.291068	0.436260
688.628504	0.431898
688.965889	0.434181
689.303224	0.438387
689.640510	0.442279
689.977745	0.447576
690.314930	0.455832
690.652065	0.459658
690.989150	0.467547
691.326185	0.474273
691.663170	0.479211
692.000105	0.485550
692.336990	0.493200
692.673825	0.495468
693.010610	0.502547
693.347345	0.507737
693.684030	0.509449
694.020665	0.513514
694.357251	0.522559
694.693786	0.522228
695.030272	0.525791
695.366707	0.529418
695.703093	0.533368
696.039429	0.531285
696.375716	0.532983
696.711952	0.535826
697.048139	0.538050
697.384276	0.539086
697.720363	0.538083
698.056400	0.536726
698.392388	0.542365
698.728326	0.544841
699.064214	0.548558
699.400053	0.548875
699.735842	0.552541
700.071581	0.555288
700.407270	0.558368
700.742910	0.560599
701.078501	0.567312
701.414042	0.567371
701.749533	0.570644
702.084974	0.579423
702.420366	0.570930
702.755709	0.579394
703.091002	0.587287
703.426246	0.580659
703.761440	0.586140
704.096584	0.591262
704.431679	0.588181
704.766725	0.590283
705.101721	0.591383
705.436668	0.587899
705.771565	0.594830
706.106413	0.592127
706.441212	0.586676
706.775961	0.585844
707.110661	0.588213
707.445311	0.585045
707.779913	0.582387
708.114465	0.580738
708.448967	0.577575
708.783421	0.568908
709.117825	0.564208
709.452180	0.564134
709.786485	0.557357
710.120742	0.547267
710.454949	0.549391
710.789107	0.541617
711.123216	0.532911
711.457275	0.534901
711.791286	0.525497
712.125247	0.524505
712.459159	0.534997
712.793023	0.528008
713.126837	0.531144
713.460602	0.532630
713.794318	0.541378
714.127985	0.540460
714.461602	0.549834
714.795171	0.554261
715.128691	0.561065
715.462162	0.569033
715.795584	0.574011
716.128957	0.577494
716.462281	0.584345
716.795556	0.587634
717.128782	0.592760
717.461960	0.602078
717.795088	0.600843
718.128167	0.606527
718.461198	0.615193
718.794180	0.616126
719.127113	0.618899
719.459997	0.622471
719.792833	0.628505
720.125619	0.629651
720.458357	0.635824
720.791046	0.635032
721.123686	0.638754
721.456278	0.645404
721.788821	0.642879
722.121315	0.646927
722.453761	0.651418
722.786158	0.648592
723.118506	0.645333
723.450805	0.653661
723.783056	0.649562
724.115259	0.646406
724.447412	0.646569
724.779518	0.647196
725.111574	0.647419
725.443582	0.642290
725.775542	0.644733
726.107453	0.636537
726.439315	0.635933
726.771129	0.634656
727.102895	0.628025
727.434612	0.620747
727.766281	0.618584
728.097901	0.618295
728.429473	0.618031
728.760996	0.616727
729.092471	0.616741
729.423897	0.620110
729.755276	0.619260
730.086606	0.619762
730.417887	0.613913
730.749120	0.605150
731.080305	0.595464
731.411442	0.591544
731.742530	0.596897
732.073570	0.595477
732.404562	0.588699
732.735506	0.589405
733.066401	0.594217
733.397249	0.603288
733.728048	0.615083
734.058798	0.627639
734.389501	0.638383
734.720156	0.647250
735.050762	0.655458
735.381320	0.657105
735.711831	0.665589
736.042293	0.671174
736.372707	0.666704
736.703073	0.671083
737.033391	0.673575
737.363661	0.669801
737.693883	0.664607
738.024056	0.664371
738.354182	0.665155
738.684260	0.653870
739.014290	0.649893
739.344272	0.651069
739.674207	0.644413
740.004093	0.644076
740.333931	0.644549
740.663722	0.644387
740.993464	0.644573
741.323159	0.647933
741.652806	0.653680
741.982405	0.658586
742.311956	0.662426
742.641460	0.665118
742.970915	0.668652
743.300323	0.676183
743.629683	0.683021
743.958996	0.684143
744.288260	0.689132
744.617477	0.694527
744.946647	0.697047
745.275768	0.701238
745.604842	0.701427
745.933869	0.711177
746.262847	0.712259
746.591778	0.705691
746.920662	0.711483
747.249498	0.718546
747.578286	0.710186
747.907027	0.705408
748.235720	0.707106
748.564365	0.701034
748.892963	0.700734
749.221514	0.704313
749.550017	0.708909
749.878473	0.708963
750.206881	0.714472
750.535242	0.717128
750.863555	0.715871
751.191821	0.717471
751.520039	0.721395
751.848210	0.725224
752.176334	0.718433
752.504411	0.717161
752.832440	0.724773
753.160421	0.729206
753.488356	0.727572
753.816243	0.724779
754.144082	0.732859
754.471875	0.736478
754.799620	0.732719
755.127318	0.733689
755.454969	0.733884
755.782572	0.732094
756.110129	0.738161
756.437638	0.740327
756.765100	0.736245
757.092515	0.734745
757.419882	0.733117
757.747203	0.738415
758.074477	0.738537
758.401703	0.736036
758.728882	0.730682
759.056014	0.728927
759.383099	0.728690
759.710138	0.730997
760.037129	0.726204
760.364073	0.719155
760.690970	0.723179
761.017820	0.728097
761.344623	0.724090
761.671379	0.714900
761.998088	0.703160
762.324751	0.680408
762.651366	0.639135
762.977935	0.572313
763.304456	0.520735
763.630931	0.511315
763.957359	0.550614
764.283740	0.594591
764.610074	0.621745
764.936362	0.651934
765.262602	0.678912
765.588796	0.699769
765.914943	0.717917
766.241044	0.735816
766.567097	0.742344
766.893104	0.751386
767.219064	0.758663
767.544978	0.765285
767.870845	0.777808
768.196665	0.782391
768.522438	0.780183
768.848165	0.780874
769.173846	0.790177
769.499479	0.794380
769.825066	0.797113
770.150607	0.803678
770.476101	0.798402
770.801548	0.798987
771.126949	0.811525
771.452303	0.814864
771.777611	0.813745
772.102872	0.812891
772.428087	0.819129
772.753256	0.822317
773.078378	0.823178
773.403453	0.832900
773.728482	0.837718
774.053465	0.830015
774.378401	0.833989
774.703291	0.842734
775.028135	0.841419
775.352932	0.842668
775.677683	0.846830
776.002388	0.846769
776.327046	0.846274
776.651658	0.849445
776.976224	0.853330
777.300743	0.853858
777.625216	0.855530
777.949643	0.856218
778.274024	0.857232
778.598359	0.859375
778.922647	0.856634
779.246889	0.857167
779.571086	0.861114
779.895236	0.864731
780.219339	0.861263
780.543397	0.858665
780.867409	0.857217
781.191374	0.859338
781.515294	0.860928
781.839167	0.858836
782.162995	0.863375
782.486776	0.859851
782.810511	0.860161
783.134201	0.865004
783.457844	0.862078
783.781441	0.865194
784.104993	0.870636
784.428498	0.870952
784.751958	0.867254
785.075372	0.868512
785.398739	0.872031
785.722061	0.868899
786.045337	0.864805
786.368568	0.870040
786.691752	0.872399
787.014891	0.857554
787.337983	0.849733
787.661030	0.841585
787.984031	0.824578
788.306987	0.810221
788.629897	0.813465
788.952760	0.817365
789.275579	0.820404
789.598351	0.836970
789.921078	0.849651
790.243759	0.851935
790.566395	0.856468
790.888984	0.864019
791.211529	0.868680
791.534027	0.872488
791.856480	0.874558
792.178888	0.879166
792.501249	0.882520
792.823566	0.883070
793.145836	0.882755
793.468062	0.885121
793.790241	0.883770
794.112375	0.882483
794.434464	0.878495
794.756507	0.878522
795.078505	0.877631
795.400457	0.872545
795.722364	0.860166
796.044226	0.853283
796.366042	0.853144
796.687812	0.856414
797.009538	0.852624
797.331218	0.854791
797.652852	0.859235
797.974442	0.865069
798.295986	0.864122
798.617484	0.866814
798.938938	0.870559
799.260346	0.876529
799.581709	0.879427
799.903026	0.879418
800.224299	0.880652
800.545526	0.884427
800.866708	0.889632
801.187845	0.892318
801.508936	0.892923
801.829983	0.890383
802.150984	0.894449
802.471940	0.897999
802.792851	0.898220
803.113717	0.898734
803.434538	0.896263
803.755314	0.898329
804.076045	0.900916
804.396731	0.900966
804.717372	0.899286
805.037967	0.902006
805.358518	0.899765
805.679024	0.898244
805.999485	0.896742
806.319901	0.897411
806.640272	0.897686
806.960598	0.897714
807.280879	0.893466
807.601115	0.891778
807.921306	0.896414
808.241453	0.895973
808.561554	0.894868
808.881611	0.894221
809.201623	0.896314
809.521590	0.895608
809.841513	0.898469
810.161390	0.895362
810.481223	0.897756
810.801011	0.901495
811.120755	0.903776
811.440453	0.902827
811.760107	0.899759
812.079716	0.900757
812.399281	0.903986
812.718801	0.907325
813.038276	0.907980
813.357707	0.906720
813.677093	0.904274
813.996434	0.907240
814.315731	0.908030
814.634983	0.909804
814.954191	0.908941
815.273354	0.905210
815.592473	0.901678
815.911547	0.902005
816.230577	0.899206
816.549562	0.895944
816.868502	0.897779
817.187399	0.892953
817.506250	0.888165
817.825058	0.891304
818.143821	0.886742
818.462539	0.881760
818.781213	0.873865
819.099843	0.862830
819.418429	0.847574
819.736970	0.829378
820.055466	0.809281
820.373919	0.785522
820.692327	0.753255
821.010691	0.718701
821.329011	0.641663
821.647286	0.527199
821.965517	0.414251
822.283704	0.371717
822.601847	0.373600
822.919945	0.408972
823.237999	0.441942
823.556010	0.488605
823.873976	0.543975
824.191897	0.594115
824.509775	0.637348
824.827609	0.680988
825.145398	0.704637
825.463144	0.706761
825.780845	0.690121
826.098502	0.670965
826.416116	0.625510
826.733685	0.581942
827.051210	0.573885
827.368692	0.587708
827.686129	0.625621
828.003522	0.677663
828.320872	0.724754
828.638177	0.768952
828.955439	0.801197
829.272656	0.822281
829.589830	0.839756
829.906960	0.855594
830.224046	0.867627
830.541088	0.877725
830.858086	0.883081
831.175041	0.888418
831.491952	0.887687
831.808819	0.884504
832.125642	0.877903
832.442421	0.862744
832.759157	0.841275
833.075849	0.795682
833.392497	0.731783
833.709101	0.691235
834.025662	0.701203
834.342179	0.732170
834.658653	0.771047
834.975083	0.806683
835.291469	0.833486
835.607811	0.854621
835.924110	0.871958
836.240366	0.888385
836.556578	0.900497
836.872746	0.908830
837.188871	0.915219
837.504952	0.920491
837.820990	0.924187
838.136984	0.927022
838.452935	0.929830
838.768842	0.931673
839.084706	0.925066
839.400526	0.899344
839.716303	0.859779
840.032037	0.837399
840.347727	0.840520
840.663373	0.859131
840.978977	0.880659
841.294537	0.902934
841.610054	0.918605
841.925527	0.927382
842.240957	0.933294
842.556344	0.939359
842.871687	0.945101
843.186987	0.950029
843.502244	0.949817
843.817458	0.951769
844.132629	0.954934
844.447756	0.961211
844.762840	0.960428
845.077881	0.959258
845.392879	0.960313
845.707833	0.963959
846.022745	0.964090
846.337613	0.964403
846.652438	0.966863
846.967221	0.964071
847.281960	0.966404
847.596656	0.967105
847.911309	0.966327
848.225919	0.968321
848.540485	0.967620
848.855009	0.967887
849.169490	0.967553
849.483928	0.969866
849.798323	0.970618
850.112675	0.970161
850.426984	0.969331
850.741251	0.969986
851.055474	0.970707
851.369654	0.968499
851.683792	0.967859
851.997887	0.970644
852.311938	0.970635
852.625947	0.968898
852.939914	0.968034
853.253837	0.969109
853.567718	0.971093
853.881555	0.970014
854.195350	0.968502
854.509103	0.970096
854.822812	0.970415
855.136479	0.970237
855.450103	0.969702
855.763685	0.968065
856.077224	0.968438
856.390720	0.970870
856.704173	0.970051
857.017584	0.969504
857.330953	0.966175
857.644278	0.969442
857.957561	0.969174
858.270802	0.968757
858.584000	0.968061
858.897155	0.967427
859.210268	0.967928
859.523339	0.968790
859.836367	0.969441
860.149352	0.971569
860.462295	0.969283
860.775195	0.969605
861.088054	0.969810
861.400869	0.970197
861.713642	0.970904
862.026373	0.971429
862.339062	0.970360
862.651708	0.967478
862.964312	0.967590
863.276873	0.969200
863.589392	0.968440
863.901869	0.966283
864.214303	0.965037
864.526696	0.963861
864.839045	0.964838
865.151353	0.961570
865.463619	0.962661
865.775842	0.963739
866.088023	0.963460
866.400162	0.962387
866.712258	0.962417
867.024313	0.962827
867.336325	0.964073
867.648296	0.963587
867.960224	0.962260
868.272110	0.961248
868.583954	0.964811
868.895755	0.964372
869.207515	0.961634
869.519233	0.960144
869.830909	0.960858
870.142542	0.961931
870.454134	0.961753
870.765684	0.960709
871.077191	0.958615
871.388657	0.959694
871.700081	0.957360
872.011463	0.958641
872.322803	0.957261
872.634101	0.956385
872.945357	0.954621
873.256571	0.952629
873.567744	0.953387
873.878874	0.953831
874.189963	0.952250
874.501010	0.952384
874.812015	0.950509
875.122979	0.951697
875.433900	0.954240
875.744780	0.954836
876.055618	0.952350
876.366415	0.950629
876.677169	0.950972
876.987882	0.951889
877.298554	0.951940
877.609183	0.947607
877.919771	0.944855
878.230317	0.943956
878.540822	0.941632
878.851285	0.936161
879.161707	0.928814
879.472087	0.916784
879.782425	0.900762
880.092722	0.866302
880.402977	0.815360
880.713191	0.755509
881.023363	0.697893
881.333494	0.664215
881.643583	0.635379
881.953631	0.635746
882.263637	0.664922
882.573602	0.703967
882.883526	0.728668
883.193408	0.752009
883.503248	0.773553
883.813048	0.800884
884.122806	0.830198
884.432522	0.854020
884.742197	0.871571
885.051831	0.883057
885.361424	0.893845
885.670975	0.904502
885.980485	0.914515
886.289954	0.920920
886.599382	0.926276
886.908768	0.929771
887.218113	0.935679
887.527417	0.939829
887.836680	0.942280
888.145901	0.944494
888.455082	0.945622
888.764221	0.951760
889.073319	0.953502
889.382376	0.953405
889.691392	0.954157
890.000366	0.952731
890.309300	0.954325
890.618193	0.954373
890.927044	0.952939
891.235855	0.950840
891.544625	0.951955
891.853353	0.951484
892.162041	0.949697
892.470687	0.944437
892.779293	0.938276
893.087858	0.934708
893.396381	0.927118
893.704864	0.914185
894.013306	0.891248
894.321707	0.865898
894.630068	0.849493
894.938387	0.846798
895.246665	0.846829
895.554903	0.859521
895.863100	0.872786
896.171256	0.888654
896.479371	0.908135
896.787446	0.920972
897.095480	0.926264
897.403473	0.929605
897.711425	0.933905
898.019336	0.940861
898.327207	0.944148
898.635038	0.945997
898.942827	0.946114
899.250576	0.950144
899.558284	0.953059
899.865952	0.955093
900.173579	0.955833
900.481165	0.955308
900.788711	0.960321
901.096216	0.961895
901.403681	0.961552
901.711105	0.964021
902.018489	0.964249
902.325832	0.962228
902.633135	0.962795
902.940397	0.956822
903.247619	0.943630
903.554800	0.918901
903.861941	0.880927
904.169041	0.846260
904.476101	0.828635
904.783121	0.830636
905.090100	0.845190
905.397039	0.866163
905.703938	0.887476
906.010796	0.907699
906.317614	0.924297
906.624391	0.935951
906.931129	0.945282
907.237826	0.952078
907.544483	0.959873
907.851099	0.963299
908.157675	0.968077
908.464211	0.970556
908.770707	0.972219
909.077163	0.974836
909.383578	0.974261
909.689954	0.975056
909.996289	0.974948
910.302584	0.979047
910.608839	0.980792
910.915054	0.978644
911.221229	0.979134
911.527363	0.976812
911.833458	0.977798
912.139513	0.978024
912.445527	0.976210
912.751502	0.973420
913.057436	0.973126
913.363331	0.970826
913.669186	0.966792
913.975000	0.961731
914.280775	0.956377
914.586510	0.949456
914.892205	0.936189
915.197859	0.915971
915.503475	0.888180
915.809050	0.870529
916.114585	0.864768
916.420081	0.862052
916.725536	0.859351
917.030952	0.866660
917.336328	0.878312
917.641665	0.894197
917.946961	0.908543
918.252218	0.920577
918.557435	0.929857
918.862612	0.937272
919.167750	0.942825
919.472848	0.948412
919.777906	0.953259
920.082925	0.959413
920.387904	0.961891
920.692843	0.964035
920.997743	0.964411
921.302603	0.967509
921.607423	0.968943
921.912204	0.972497
922.216946	0.972133
922.521647	0.973765
922.826310	0.975117
923.130932	0.976906
923.435516	0.978867
923.740059	0.980155
924.044564	0.979335
924.349028	0.981232
924.653454	0.982899
924.957840	0.984251
925.262186	0.984401
925.566493	0.983121
925.870761	0.984693
926.174989	0.987049
926.479178	0.987376
926.783328	0.989120
927.087438	0.987970
927.391509	0.988480
927.695541	0.990255
927.999533	0.989370
928.303486	0.988647
928.607400	0.990969
928.911275	0.988868
929.215110	0.990139
929.518906	0.991082
929.822663	0.989328
930.126381	0.990898
930.430060	0.990228
930.733699	0.990427
931.037299	0.989319
931.340861	0.990178
931.644383	0.989476
931.947866	0.989656
932.251309	0.990345
932.554714	0.990542
932.858080	0.990670
933.161407	0.989989
933.464694	0.990995
933.767943	0.989213
934.071153	0.990748
934.374323	0.991594
934.677455	0.990743
934.980548	0.991583
935.283602	0.990851
935.586617	0.990772
935.889593	0.990281
936.192530	0.990534
936.495428	0.991393
936.798287	0.991436
937.101108	0.990527
937.403890	0.988882
937.706632	0.990547
938.009336	0.986577
938.312002	0.986645
938.614628	0.984347
938.917216	0.983712
939.219765	0.981793
939.522275	0.983516
939.824747	0.983370
940.127179	0.983412
940.429573	0.984807
940.731929	0.984841
941.034246	0.983888
941.336524	0.985448
941.638763	0.985534
941.940964	0.986108
942.243126	0.987025
942.545250	0.988088
942.847335	0.987923
943.149381	0.987205
943.451389	0.988331
943.753359	0.988424
944.055290	0.990603
944.357182	0.989843
944.659036	0.988489
944.960851	0.990180
945.262628	0.989453
945.564367	0.991262
945.866067	0.988819
946.167729	0.990393
946.469352	0.989774
946.770937	0.989319
947.072484	0.990362
947.373992	0.989748
947.675462	0.990479
947.976893	0.990471
948.278286	0.991409
948.579641	0.992168
948.880958	0.990370
949.182236	0.991453
949.483476	0.990403
949.784678	0.990692
950.085841	0.990240
950.386967	0.990914
950.688054	0.989736
950.989103	0.990522
951.290114	0.989456
951.591087	0.990139
951.892021	0.990125
952.192917	0.988914
952.493776	0.988136
952.794596	0.987906
953.095378	0.986758
953.396122	0.987538
953.696828	0.986883
953.997496	0.989698
954.298126	0.991095
954.598718	0.991029
954.899272	0.991059
955.199788	0.989698
955.500266	0.991135
955.800706	0.992637
956.101108	0.992809
956.401472	0.993791
956.701798	0.993267
957.002087	0.993537
957.302337	0.992667
957.602550	0.994844
957.902724	0.994011
958.202861	0.994632
958.502960	0.994435
958.803022	0.993019
959.103045	0.995816
959.403031	0.996604
959.702979	0.994709
960.002889	0.995560
960.302762	0.994108
960.602596	0.995572
960.902393	0.994696
961.202153	0.995879
961.501875	0.996939
961.801559	0.995161
962.101205	0.995554
962.400814	0.996088
962.700385	0.996542
962.999918	0.996623
963.299414	0.995512
963.598873	0.994479
963.898293	0.994806
964.197677	0.995443
964.497022	0.995829
964.796331	0.998021
965.095601	0.996380
965.394835	0.996061
965.694030	0.996873
965.993189	0.996347
966.292309	0.996842
966.591393	0.997136
966.890439	0.996679
967.189447	0.995960
967.488419	0.997690
967.787353	0.996271
968.086249	0.995009
968.385108	0.996693
968.683930	0.996496
968.982714	0.996378
969.281462	0.996886
969.580172	0.996139
969.878844	0.997783
970.177480	0.996556
970.476078	0.997480
970.774639	0.996559
971.073162	0.996546
971.371649	0.997213
971.670098	0.995680
971.968510	0.997025
972.266885	0.994656
972.565223	0.994903
972.863524	0.995247
973.161788	0.995603
973.460014	0.997710
973.758204	0.995562
974.056356	0.996612
974.354471	0.994511
974.652550	0.996162
974.950591	0.996763
975.248595	0.997194
975.546563	0.996847
975.844493	0.997790
976.142386	0.997183
976.440243	0.997559
976.738062	0.997314
977.035845	0.998104
977.333590	0.996455
977.631299	0.997246
977.928971	0.996382
978.226606	0.996273
978.524204	0.995141
978.821765	0.997229
979.119290	0.996947
979.416777	0.996140
979.714228	0.996993
980.011642	0.995845
980.309020	0.997425
980.606360	0.996689
980.903664	0.997767
981.200931	0.996407
981.498162	0.995375
981.795356	0.994465
982.092513	0.993316
982.389633	0.994641
982.686717	0.992343
982.983764	0.992112
983.280775	0.990695
983.577749	0.989968
983.874686	0.992020
984.171587	0.992733
984.468451	0.992351
984.765279	0.995000
985.062070	0.994123
985.358824	0.995000
985.655543	0.994102
985.952224	0.996147
986.248869	0.996561
986.545478	0.996766
986.842050	0.998004
987.138586	0.996325
987.435086	0.996316
987.731549	0.998501
988.027975	0.996975
988.324366	0.997817
988.620719	0.996347
988.917037	0.996947
989.213318	0.998578
989.509563	0.998134
989.805772	0.997808
990.101944	0.997154
990.398080	0.996598
990.694180	0.997633
990.990244	0.996233
991.286271	0.997076
991.582262	0.997392
991.878217	0.998009
992.174136	0.997775
992.470019	0.998492
992.765865	0.996660
993.061676	0.997933
993.357450	0.997385
993.653188	0.997366
993.948890	0.996859
994.244556	0.997603
994.540186	0.996791
994.835780	0.996009
995.131337	0.996974
995.426859	0.996793
995.722345	0.997777
996.017795	0.995141
996.313208	0.995573
996.608586	0.995373
996.903928	0.996204
997.199234	0.994111
997.494504	0.995891
997.789738	0.996273
998.084936	0.996406
998.380099	0.998166
998.675225	0.997963
998.970316	0.998148
999.265371	0.996709
999.560390	0.997650
999.855373	0.998245
1000.150320	0.998145
1000.445232	0.998100
1000.740108	0.997146
1001.034948	0.996658
1001.329752	0.998502
1001.624521	0.999079
1001.919254	0.997710
1002.213951	0.998151
1002.508613	0.997051
1002.803239	0.998609
1003.097829	0.998832
1003.392384	0.999498
1003.686903	0.997621
1003.981386	0.998970
1004.275834	0.998731
1004.570246	0.998648
1004.864623	0.999132
1005.158964	0.998063
1005.453270	0.998334
1005.747540	0.997005
1006.041775	0.998337
1006.335974	0.999005
1006.630138	0.999236
1006.924266	0.999378
1007.218359	1.000276
1007.512416	0.998844
1007.806438	0.998370
1008.100425	0.999446
1008.394376	0.998938
1008.688292	0.997581
1008.982172	0.999402
1009.276017	0.998584
1009.569827	0.998269
1009.863602	0.998204
1010.157341	0.999219
1010.451045	0.999055
1010.744714	0.999028
1011.038347	0.998650
1011.331945	0.998192
1011.625508	0.998534
1011.919036	0.998927
1012.212528	0.998144
1012.505986	0.997465
1012.799408	0.998505
1013.092795	0.999036
1013.386147	0.997229
1013.679464	0.998662
1013.972745	0.997467
1014.265992	0.997458
1014.559204	0.998669
1014.852380	0.999111
1015.145521	0.998761
1015.438628	0.999032
1015.731699	0.998532
1016.024736	0.998504
1016.317737	0.998359
1016.610703	0.998536
1016.903635	0.998777
1017.196531	0.998235
1017.489393	0.999801
1017.782219	0.998393
1018.075011	0.997384
1018.367768	0.998233
1018.660490	0.998044
1018.953177	0.998044
1019.245829	0.998044
