Dividing Wavelength (nm)	Counts (n)	Blue Motor Position (mm): 0.000000	Red Motor Position (mm): 25.600000	
326.493990	1.000480
326.888308	1.000480
327.282561	1.000480
327.676750	0.999193
328.070874	0.998549
328.464933	0.999577
328.858929	0.999873
329.252859	1.000171
329.646726	0.999251
330.040528	1.000163
330.434265	0.999335
330.827938	0.999891
331.221547	1.000416
331.615091	0.999719
332.008571	1.000701
332.401986	0.998741
332.795338	0.999029
333.188625	0.997427
333.581847	0.999805
333.975006	0.998314
334.368100	0.998768
334.761129	0.999266
335.154095	1.000511
335.546996	0.996580
335.939833	0.994058
336.332606	0.993719
336.725315	0.994189
337.117960	0.995450
337.510540	0.994320
337.903056	0.995317
338.295508	0.994495
338.687896	0.993017
339.080220	0.995693
339.472480	0.994158
339.864676	0.993967
340.256807	0.994889
340.648875	0.995542
341.040879	0.995004
341.432818	0.994304
341.824694	0.994526
342.216506	0.995216
342.608253	0.993815
342.999937	0.994303
343.391557	0.994493
343.783113	0.994200
344.174605	0.995161
344.566033	0.995635
344.957397	0.993829
345.348697	0.993813
345.739934	0.994128
346.131106	0.994159
346.522215	0.993731
346.913260	0.994268
347.304241	0.994301
347.695159	0.994032
348.086012	0.993331
348.476802	0.994755
348.867528	0.994619
349.258191	0.993925
349.648789	0.995496
350.039324	0.993830
350.429796	0.995383
350.820203	0.994335
351.210548	0.994417
351.600828	0.994103
351.991045	0.995141
352.381198	0.993907
352.771288	0.994442
353.161314	0.994405
353.551276	0.994820
353.941175	0.994418
354.331010	0.993830
354.720782	0.994606
355.110490	0.994565
355.500135	0.994224
355.889717	0.995238
356.279235	0.993365
356.668689	0.994953
357.058080	0.993455
357.447408	0.995070
357.836672	0.995603
358.225873	0.994845
358.615010	0.993073
359.004084	0.995593
359.393095	0.994899
359.782043	0.994630
360.170927	0.994671
360.559748	0.994851
360.948505	0.993508
361.337199	0.994809
361.725830	0.994441
362.114398	0.994039
362.502903	0.994560
362.891344	0.996344
363.279722	0.994436
363.668037	0.995093
364.056289	0.994349
364.444478	0.995886
364.832603	0.995753
365.220665	0.994285
365.608665	0.994525
365.996601	0.993511
366.384474	0.995095
366.772284	0.995071
367.160031	0.992787
367.547715	0.993673
367.935336	0.993993
368.322893	0.994496
368.710388	0.991648
369.097820	0.995478
369.485189	0.994930
369.872495	0.993608
370.259738	0.992886
370.646918	0.994373
371.034035	0.995341
371.421090	0.993487
371.808081	0.994806
372.195010	0.995006
372.581875	0.995644
372.968678	0.994698
373.355418	0.994885
373.742096	0.994897
374.128710	0.995085
374.515262	0.993706
374.901751	0.995521
375.288177	0.994931
375.674540	0.995632
376.060841	0.994432
376.447079	0.995224
376.833254	0.995618
377.219367	0.994101
377.605417	0.995472
377.991404	0.994614
378.377329	0.994467
378.763191	0.994791
379.148991	0.995720
379.534727	0.995585
379.920402	0.995722
380.306013	0.995872
380.691563	0.996284
381.077049	0.994648
381.462474	0.996223
381.847835	0.996328
382.233134	0.995119
382.618371	0.995455
383.003545	0.995093
383.388657	0.995539
383.773706	0.996561
384.158693	0.995265
384.543618	0.995984
384.928480	0.996667
385.313280	0.996000
385.698017	0.996625
386.082692	0.996576
386.467305	0.996239
386.851856	0.995877
387.236344	0.996142
387.620770	0.995484
388.005133	0.996246
388.389435	0.995712
388.773674	0.996202
389.157851	0.997018
389.541965	0.995754
389.926018	0.995569
390.310008	0.997677
390.693936	0.996462
391.077802	0.996086
391.461606	0.996437
391.845348	0.995968
392.229027	0.996892
392.612645	0.996928
392.996200	0.997402
393.379694	0.996577
393.763125	0.997750
394.146494	0.996804
394.529801	0.996715
394.913047	0.997263
395.296230	0.996211
395.679351	0.996585
396.062410	0.995980
396.445408	0.997665
396.828343	0.996345
397.211217	0.995506
397.594028	0.996768
397.976778	0.996688
398.359466	0.996276
398.742092	0.996904
399.124656	0.995709
399.507158	0.996515
399.889598	0.996079
400.271977	0.996903
400.654294	0.996911
401.036549	0.996959
401.418742	0.997719
401.800874	0.996050
402.182944	0.996526
402.564952	0.996528
402.946898	0.997484
403.328783	0.997058
403.710606	0.996504
404.092367	0.996679
404.474067	0.997357
404.855705	0.996866
405.237282	0.996967
405.618797	0.996528
406.000250	0.995959
406.381642	0.997008
406.762972	0.996752
407.144240	0.997452
407.525447	0.996735
407.906593	0.996767
408.287677	0.996648
408.668700	0.997493
409.049661	0.995972
409.430560	0.997652
409.811399	0.996241
410.192176	0.996371
410.572891	0.996256
410.953545	0.997253
411.334138	0.995982
411.714669	0.997074
412.095139	0.995944
412.475547	0.997216
412.855894	0.997470
413.236180	0.997133
413.616405	0.997118
413.996568	0.997232
414.376670	0.996882
414.756711	0.997040
415.136691	0.997146
415.516609	0.996598
415.896466	0.995791
416.276262	0.995553
416.655997	0.996455
417.035670	0.996492
417.415283	0.995929
417.794834	0.996598
418.174324	0.997074
418.553753	0.997002
418.933121	0.996719
419.312428	0.996479
419.691674	0.996366
420.070859	0.996679
420.449983	0.996873
420.829045	0.997129
421.208047	0.996848
421.586988	0.997584
421.965867	0.996455
422.344686	0.997505
422.723444	0.996227
423.102141	0.996253
423.480777	0.997494
423.859352	0.996660
424.237866	0.996426
424.616319	0.996350
424.994712	0.996517
425.373044	0.996297
425.751314	0.997059
426.129524	0.996571
426.507673	0.996400
426.885762	0.997121
427.263789	0.996612
427.641756	0.996768
428.019662	0.996930
428.397508	0.995993
428.775292	0.995402
429.153016	0.996196
429.530679	0.996553
429.908282	0.996641
430.285824	0.995832
430.663305	0.995637
431.040726	0.995598
431.418086	0.997008
431.795385	0.996519
432.172624	0.995030
432.549802	0.996663
432.926920	0.996083
433.303977	0.994960
433.680974	0.996870
434.057910	0.994990
434.434786	0.995298
434.811601	0.994472
435.188355	0.993727
435.565050	0.994718
435.941683	0.994111
436.318257	0.994269
436.694770	0.991977
437.071222	0.992982
437.447614	0.992183
437.823946	0.991085
438.200218	0.990681
438.576429	0.989526
438.952580	0.989118
439.328670	0.987543
439.704700	0.987003
440.080670	0.985345
440.456580	0.984366
440.832429	0.981875
441.208218	0.981245
441.583947	0.980442
441.959616	0.978808
442.335224	0.976063
442.710773	0.975101
443.086261	0.971948
443.461689	0.970342
443.837057	0.967673
444.212365	0.966035
444.587612	0.963525
444.962800	0.959911
445.337927	0.958063
445.712995	0.957661
446.088002	0.952010
446.462949	0.949510
446.837837	0.945882
447.212664	0.942876
447.587431	0.937456
447.962139	0.930761
448.336786	0.920878
448.711374	0.919153
449.085901	0.921037
449.460369	0.917567
449.834776	0.911888
450.209124	0.904714
450.583412	0.897658
450.957640	0.893028
451.331808	0.889105
451.705917	0.886902
452.079965	0.883094
452.453954	0.874303
452.827883	0.870671
453.201752	0.863922
453.575562	0.861141
453.949311	0.850818
454.323001	0.846499
454.696632	0.840155
455.070202	0.830744
455.443713	0.821466
455.817164	0.813052
456.190556	0.804894
456.563888	0.796442
456.937160	0.789380
457.310373	0.786738
457.683526	0.778234
458.056619	0.773451
458.429653	0.765777
458.802628	0.758902
459.175542	0.750509
459.548398	0.734619
459.921194	0.724148
460.293930	0.716334
460.666607	0.695513
461.039224	0.682511
461.411782	0.673526
461.784280	0.664312
462.156719	0.658901
462.529099	0.651549
462.901419	0.651063
463.273680	0.644752
463.645882	0.637330
464.018024	0.630183
464.390106	0.619291
464.762130	0.602526
465.134094	0.585279
465.505999	0.560511
465.877845	0.535045
466.249631	0.520244
466.621358	0.515146
466.993026	0.512918
467.364634	0.507465
467.736184	0.504426
468.107674	0.502076
468.479105	0.492292
468.850477	0.490783
469.221790	0.487144
469.593043	0.486183
469.964238	0.481473
470.335373	0.473878
470.706449	0.465766
471.077467	0.460515
471.448425	0.425284
471.819324	0.400649
472.190164	0.394038
472.560945	0.410115
472.931667	0.420669
473.302330	0.418088
473.672934	0.421989
474.043479	0.406325
474.413965	0.402843
474.784393	0.400133
475.154761	0.390907
475.525070	0.383428
475.895321	0.384017
476.265513	0.374058
476.635645	0.365965
477.005719	0.361650
477.375734	0.354263
477.745691	0.344482
478.115588	0.337004
478.485427	0.327492
478.855207	0.312780
479.224928	0.293811
479.594591	0.280303
479.964194	0.278994
480.333739	0.275996
480.703226	0.273320
481.072653	0.269422
481.442022	0.262948
481.811333	0.257250
482.180584	0.257722
482.549777	0.259689
482.918912	0.260842
483.287988	0.258314
483.657005	0.256108
484.025964	0.260115
484.394864	0.255505
484.763706	0.253974
485.132489	0.257271
485.501213	0.256541
485.869879	0.253654
486.238487	0.255404
486.607036	0.252207
486.975527	0.255236
487.343959	0.250333
487.712333	0.248240
488.080648	0.249068
488.448905	0.247130
488.817104	0.247703
489.185244	0.241736
489.553326	0.237839
489.921350	0.227207
490.289315	0.209413
490.657222	0.204030
491.025070	0.204766
491.392861	0.206285
491.760593	0.211762
492.128267	0.216801
492.495883	0.221866
492.863440	0.227730
493.230939	0.233744
493.598380	0.234489
493.965763	0.236696
494.333088	0.238674
494.700354	0.239757
495.067563	0.238494
495.434713	0.241671
495.801805	0.239712
496.168839	0.240761
496.535815	0.241701
496.902733	0.241650
497.269593	0.243338
497.636395	0.240849
498.003139	0.241163
498.369825	0.243750
498.736453	0.240325
499.103023	0.241468
499.469535	0.240755
499.835989	0.241147
500.202385	0.241838
500.568723	0.245254
500.935003	0.240113
501.301226	0.244465
501.667390	0.238605
502.033497	0.237013
502.399546	0.239581
502.765537	0.241235
503.131470	0.239583
503.497345	0.235998
503.863163	0.244632
504.228923	0.237283
504.594625	0.236077
504.960269	0.241595
505.325856	0.236720
505.691385	0.240872
506.056856	0.237717
506.422270	0.237001
506.787625	0.239411
507.152924	0.236741
507.518164	0.237213
507.883347	0.238722
508.248472	0.240583
508.613540	0.235708
508.978550	0.237927
509.343503	0.238464
509.708398	0.236153
510.073236	0.233601
510.438016	0.233598
510.802738	0.234626
511.167403	0.233619
511.532010	0.235657
511.896561	0.230765
512.261053	0.229597
512.625488	0.231812
512.989866	0.232086
513.354186	0.232300
513.718449	0.234219
514.082655	0.230583
514.446803	0.232755
514.810894	0.230533
515.174927	0.232915
515.538904	0.232346
515.902822	0.229273
516.266684	0.231777
516.630488	0.232674
516.994235	0.231471
517.357925	0.230432
517.721558	0.228940
518.085133	0.228225
518.448651	0.228334
518.812112	0.230429
519.175516	0.229846
519.538863	0.227672
519.902152	0.229432
520.265385	0.226204
520.628560	0.227888
520.991678	0.228625
521.354739	0.227220
521.717743	0.228568
522.080690	0.229088
522.443580	0.226407
522.806413	0.227303
523.169189	0.226766
523.531908	0.225688
523.894569	0.229147
524.257174	0.228936
524.619722	0.226840
524.982213	0.227724
525.344647	0.226879
525.707025	0.227448
526.069345	0.225679
526.431608	0.227280
526.793815	0.225232
527.155964	0.229412
527.518057	0.228340
527.880093	0.229276
528.242072	0.228076
528.603995	0.229977
528.965860	0.231670
529.327669	0.230432
529.689421	0.231373
530.051117	0.232177
530.412755	0.230116
530.774337	0.232188
531.135862	0.232580
531.497331	0.232009
531.858743	0.234747
532.220098	0.231559
532.581396	0.234027
532.942638	0.234657
533.303824	0.235182
533.664953	0.235116
534.026025	0.236918
534.387040	0.234819
534.747999	0.234805
535.108902	0.233782
535.469748	0.238370
535.830537	0.236765
536.191270	0.237022
536.551947	0.236387
536.912567	0.236498
537.273131	0.238273
537.633638	0.238518
537.994089	0.238785
538.354483	0.239714
538.714821	0.236843
539.075103	0.236916
539.435328	0.237258
539.795497	0.241174
540.155609	0.237769
540.515665	0.235696
540.875665	0.241660
541.235609	0.240087
541.595496	0.239978
541.955328	0.236680
542.315102	0.239379
542.674821	0.240390
543.034483	0.240441
543.394090	0.240041
543.753640	0.242000
544.113134	0.236797
544.472571	0.240421
544.831953	0.237179
545.191278	0.241457
545.550548	0.240614
545.909761	0.237527
546.268918	0.238294
546.628019	0.236473
546.987064	0.239299
547.346053	0.241142
547.704986	0.239141
548.063863	0.239089
548.422684	0.239631
548.781449	0.241229
549.140158	0.238976
549.498811	0.241788
549.857408	0.244747
550.215949	0.239971
550.574434	0.242739
550.932864	0.240706
551.291237	0.239521
551.649555	0.240974
552.007817	0.240206
552.366022	0.241166
552.724173	0.241512
553.082267	0.241697
553.440305	0.238772
553.798288	0.243036
554.156215	0.239807
554.514086	0.240408
554.871902	0.243477
555.229661	0.243006
555.587365	0.243273
555.945014	0.246100
556.302606	0.242795
556.660143	0.245328
557.017625	0.242027
557.375050	0.244052
557.732421	0.241212
558.089735	0.242983
558.446994	0.243209
558.804197	0.242269
559.161345	0.242329
559.518437	0.245904
559.875474	0.243519
560.232455	0.243004
560.589381	0.243767
560.946251	0.244227
561.303065	0.241677
561.659825	0.243337
562.016528	0.244828
562.373177	0.247572
562.729770	0.244869
563.086307	0.247056
563.442789	0.244794
563.799216	0.247617
564.155587	0.246377
564.511904	0.247562
564.868164	0.247794
565.224370	0.247137
565.580520	0.249634
565.936615	0.249030
566.292654	0.252187
566.648638	0.249170
567.004567	0.249851
567.360441	0.250454
567.716260	0.252524
568.072023	0.250274
568.427732	0.251073
568.783385	0.253620
569.138982	0.251598
569.494525	0.251045
569.850013	0.254073
570.205445	0.252603
570.560823	0.254999
570.916145	0.256918
571.271412	0.255525
571.626625	0.256808
571.981782	0.257157
572.336884	0.258241
572.691931	0.257776
573.046923	0.259149
573.401860	0.260382
573.756743	0.261707
574.111570	0.260801
574.466342	0.261438
574.821059	0.260351
575.175722	0.263245
575.530330	0.262967
575.884882	0.263253
576.239380	0.265540
576.593823	0.266055
576.948211	0.265657
577.302544	0.268776
577.656823	0.268147
578.011047	0.268308
578.365216	0.269110
578.719330	0.271268
579.073389	0.270767
579.427394	0.272075
579.781344	0.272890
580.135239	0.274298
580.489080	0.273712
580.842866	0.276805
581.196597	0.276906
581.550273	0.275238
581.903895	0.276445
582.257463	0.274452
582.610975	0.277745
582.964434	0.277269
583.317837	0.279746
583.671186	0.280304
584.024481	0.280467
584.377721	0.282870
584.730906	0.283399
585.084037	0.282534
585.437113	0.284463
585.790135	0.284075
586.143103	0.287008
586.496016	0.287903
586.848874	0.285493
587.201679	0.286246
587.554428	0.289655
587.907124	0.287951
588.259765	0.289020
588.612352	0.289492
588.964884	0.292969
589.317362	0.293120
589.669786	0.292662
590.022155	0.291012
590.374470	0.290385
590.726731	0.292827
591.078937	0.297356
591.431090	0.293551
591.783188	0.297908
592.135232	0.298394
592.487222	0.298709
592.839157	0.296205
593.191038	0.298880
593.542866	0.300491
593.894639	0.304234
594.246358	0.302116
594.598022	0.301622
594.949633	0.305180
595.301190	0.306109
595.652692	0.305567
596.004141	0.301371
596.355535	0.309173
596.706876	0.309775
597.058162	0.312370
597.409395	0.309443
597.760573	0.307274
598.111698	0.310572
598.462768	0.311065
598.813785	0.312292
599.164748	0.313453
599.515657	0.313926
599.866511	0.317065
600.217312	0.312450
600.568060	0.318041
600.918753	0.314539
601.269392	0.315220
601.619978	0.318634
601.970510	0.316099
602.320988	0.316281
602.671412	0.313958
603.021783	0.316396
603.372100	0.317865
603.722363	0.317335
604.072572	0.318109
604.422728	0.318102
604.772830	0.320593
605.122878	0.319751
605.472872	0.320328
605.822813	0.318521
606.172701	0.321228
606.522534	0.318648
606.872314	0.318591
607.222041	0.319754
607.571714	0.317902
607.921333	0.319021
608.270899	0.318951
608.620411	0.315841
608.969870	0.319442
609.319276	0.319615
609.668627	0.319330
610.017926	0.318146
610.367171	0.316820
610.716362	0.317117
611.065500	0.317439
611.414585	0.316438
611.763616	0.317031
612.112594	0.317173
612.461518	0.316768
612.810389	0.314679
613.159207	0.316746
613.507971	0.318450
613.856682	0.314094
614.205340	0.315983
614.553945	0.312813
614.902496	0.316217
615.250994	0.314530
615.599439	0.315432
615.947830	0.314584
616.296169	0.315917
616.644454	0.315434
616.992686	0.315156
617.340864	0.312969
617.688990	0.316627
618.037063	0.313322
618.385082	0.315319
618.733048	0.312310
619.080961	0.314456
619.428821	0.313956
619.776628	0.313471
620.124382	0.315450
620.472083	0.315616
620.819731	0.315360
621.167326	0.318821
621.514868	0.318834
621.862357	0.323031
622.209793	0.322551
622.557176	0.324652
622.904506	0.325810
623.251783	0.328269
623.599007	0.330696
623.946179	0.329870
624.293297	0.331821
624.640363	0.335531
624.987376	0.336214
625.334336	0.339078
625.681243	0.341061
626.028097	0.342058
626.374899	0.342749
626.721647	0.342861
627.068343	0.346323
627.414987	0.347160
627.761577	0.349492
628.108115	0.347334
628.454600	0.352741
628.801032	0.350143
629.147412	0.352578
629.493739	0.352487
629.840014	0.356255
630.186236	0.353277
630.532405	0.358618
630.878521	0.356231
631.224585	0.358001
631.570597	0.362196
631.916556	0.360419
632.262462	0.360849
632.608316	0.362478
632.954117	0.363685
633.299866	0.364406
633.645562	0.364730
633.991206	0.368797
634.336797	0.371914
634.682336	0.374245
635.027823	0.376077
635.373257	0.376333
635.718639	0.379535
636.063968	0.378758
636.409245	0.384748
636.754470	0.385350
637.099642	0.388027
637.444762	0.391212
637.789829	0.390094
638.134845	0.393726
638.479808	0.394298
638.824719	0.394635
639.169577	0.398124
639.514383	0.397444
639.859137	0.401329
640.203839	0.401345
640.548489	0.402101
640.893086	0.402919
641.237632	0.404593
641.582125	0.403444
641.926566	0.404607
642.270955	0.404838
642.615292	0.405259
642.959576	0.404511
643.303809	0.404937
643.647990	0.404400
643.992118	0.404843
644.336195	0.408774
644.680219	0.406920
645.024192	0.407475
645.368112	0.401109
645.711981	0.400143
646.055797	0.395427
646.399562	0.397878
646.743274	0.390112
647.086935	0.387411
647.430544	0.387641
647.774101	0.386561
648.117606	0.385983
648.461059	0.386192
648.804460	0.389243
649.147810	0.393853
649.491108	0.395683
649.834354	0.397368
650.177548	0.403102
650.520690	0.408232
650.863781	0.409265
651.206820	0.408580
651.549807	0.413493
651.892742	0.416983
652.235626	0.417001
652.578458	0.417451
652.921238	0.424119
653.263967	0.421725
653.606644	0.425761
653.949269	0.425022
654.291843	0.428955
654.634365	0.425948
654.976836	0.429324
655.319255	0.429366
655.661622	0.431157
656.003938	0.431325
656.346203	0.433626
656.688416	0.431296
657.030577	0.435229
657.372687	0.437070
657.714746	0.438166
658.056753	0.434844
658.398708	0.438652
658.740612	0.439872
659.082465	0.435984
659.424266	0.436246
659.766016	0.436104
660.107715	0.438063
660.449362	0.437246
660.790958	0.438167
661.132503	0.438704
661.473996	0.436133
661.815438	0.437512
662.156829	0.437730
662.498168	0.438237
662.839456	0.439658
663.180693	0.437511
663.521879	0.436794
663.863013	0.438282
664.204097	0.436644
664.545129	0.433981
664.886110	0.434221
665.227040	0.430906
665.567918	0.434062
665.908746	0.431873
666.249522	0.432117
666.590248	0.432834
666.930922	0.430715
667.271545	0.429175
667.612118	0.429735
667.952639	0.431284
668.293109	0.430069
668.633528	0.432983
668.973896	0.432613
669.314213	0.433471
669.654480	0.434716
669.994695	0.435339
670.334859	0.435610
670.674973	0.436212
671.015035	0.436437
671.355047	0.436004
671.695008	0.437579
672.034918	0.438837
672.374777	0.439021
672.714585	0.439728
673.054342	0.439628
673.394049	0.439884
673.733705	0.437346
674.073310	0.438349
674.412864	0.441491
674.752368	0.442061
675.091820	0.442321
675.431223	0.446836
675.770574	0.446112
676.109875	0.449297
676.449125	0.449597
676.788324	0.452026
677.127473	0.457093
677.466571	0.456649
677.805619	0.458151
678.144616	0.459620
678.483562	0.460916
678.822458	0.463404
679.161303	0.464817
679.500098	0.464289
679.838842	0.466718
680.177535	0.466750
680.516179	0.465175
680.854771	0.464380
681.193314	0.457049
681.531805	0.448536
681.870247	0.437180
682.208638	0.429958
682.546978	0.429214
682.885268	0.430745
683.223508	0.436404
683.561697	0.440558
683.899836	0.442854
684.237925	0.446472
684.575963	0.449176
684.913951	0.452259
685.251889	0.447736
685.589776	0.450117
685.927614	0.452461
686.265401	0.446543
686.603137	0.448139
686.940824	0.442396
687.278460	0.440854
687.616046	0.439623
687.953582	0.434585
688.291068	0.435812
688.628504	0.431181
688.965889	0.433766
689.303224	0.437827
689.640510	0.441552
689.977745	0.447428
690.314930	0.455543
690.652065	0.460251
690.989150	0.467901
691.326185	0.474030
691.663170	0.478640
692.000105	0.485559
692.336990	0.492618
692.673825	0.495049
693.010610	0.502216
693.347345	0.507775
693.684030	0.508823
694.020665	0.513613
694.357251	0.522175
694.693786	0.521827
695.030272	0.525751
695.366707	0.530276
695.703093	0.533357
696.039429	0.530687
696.375716	0.532200
696.711952	0.535502
697.048139	0.537426
697.384276	0.539283
697.720363	0.537579
698.056400	0.536271
698.392388	0.541733
698.728326	0.545594
699.064214	0.548059
699.400053	0.548191
699.735842	0.552232
700.071581	0.555364
700.407270	0.558364
700.742910	0.560602
701.078501	0.566746
701.414042	0.566914
701.749533	0.570692
702.084974	0.579310
702.420366	0.571323
702.755709	0.579072
703.091002	0.587011
703.426246	0.580228
703.761440	0.586479
704.096584	0.591274
704.431679	0.587925
704.766725	0.589997
705.101721	0.591744
705.436668	0.587210
705.771565	0.594976
706.106413	0.591943
706.441212	0.586092
706.775961	0.585132
707.110661	0.588364
707.445311	0.584915
707.779913	0.581427
708.114465	0.580494
708.448967	0.577288
708.783421	0.569323
709.117825	0.563989
709.452180	0.564343
709.786485	0.557623
710.120742	0.547954
710.454949	0.549478
710.789107	0.541607
711.123216	0.532938
711.457275	0.534537
711.791286	0.525708
712.125247	0.524179
712.459159	0.535020
712.793023	0.527642
713.126837	0.531834
713.460602	0.532330
713.794318	0.541837
714.127985	0.539970
714.461602	0.550075
714.795171	0.553887
715.128691	0.561333
715.462162	0.569256
715.795584	0.574190
716.128957	0.577344
716.462281	0.584286
716.795556	0.587381
717.128782	0.592203
717.461960	0.601513
717.795088	0.599794
718.128167	0.606370
718.461198	0.615259
718.794180	0.616409
719.127113	0.618895
719.459997	0.621786
719.792833	0.627952
720.125619	0.630114
720.458357	0.635494
720.791046	0.635027
721.123686	0.638828
721.456278	0.644961
721.788821	0.642795
722.121315	0.647316
722.453761	0.650992
722.786158	0.649047
723.118506	0.645617
723.450805	0.652985
723.783056	0.649136
724.115259	0.646332
724.447412	0.646684
724.779518	0.647506
725.111574	0.646647
725.443582	0.641593
725.775542	0.644314
726.107453	0.636350
726.439315	0.636502
726.771129	0.634253
727.102895	0.628142
727.434612	0.620801
727.766281	0.618463
728.097901	0.617908
728.429473	0.617393
728.760996	0.616080
729.092471	0.615215
729.423897	0.620225
729.755276	0.619081
730.086606	0.619441
730.417887	0.613547
730.749120	0.604606
731.080305	0.595521
731.411442	0.591371
731.742530	0.596350
732.073570	0.596342
732.404562	0.588411
732.735506	0.589824
733.066401	0.593959
733.397249	0.603377
733.728048	0.614497
734.058798	0.627293
734.389501	0.637119
734.720156	0.647789
735.050762	0.654906
735.381320	0.656209
735.711831	0.665709
736.042293	0.670753
736.372707	0.666342
736.703073	0.671087
737.033391	0.673239
737.363661	0.669444
737.693883	0.665412
738.024056	0.664906
738.354182	0.665171
738.684260	0.654142
739.014290	0.649562
739.344272	0.650724
739.674207	0.644291
740.004093	0.643457
740.333931	0.644398
740.663722	0.643944
740.993464	0.643916
741.323159	0.648863
741.652806	0.654127
741.982405	0.658233
742.311956	0.662019
742.641460	0.665118
742.970915	0.668367
743.300323	0.676294
743.629683	0.682834
743.958996	0.684716
744.288260	0.688398
744.617477	0.694906
744.946647	0.695971
745.275768	0.701423
745.604842	0.701960
745.933869	0.711367
746.262847	0.712869
746.591778	0.704933
746.920662	0.711773
747.249498	0.718448
747.578286	0.709657
747.907027	0.705087
748.235720	0.706308
748.564365	0.700959
748.892963	0.700786
749.221514	0.703713
749.550017	0.708680
749.878473	0.708334
750.206881	0.715128
750.535242	0.715516
750.863555	0.715470
751.191821	0.716892
751.520039	0.720229
751.848210	0.725441
752.176334	0.717681
752.504411	0.717097
752.832440	0.725028
753.160421	0.728326
753.488356	0.727328
753.816243	0.725272
754.144082	0.733285
754.471875	0.736647
754.799620	0.731672
755.127318	0.733461
755.454969	0.733464
755.782572	0.732046
756.110129	0.736847
756.437638	0.740467
756.765100	0.736753
757.092515	0.734789
757.419882	0.732868
757.747203	0.738916
758.074477	0.738606
758.401703	0.735762
758.728882	0.730252
759.056014	0.729384
759.383099	0.728907
759.710138	0.729853
760.037129	0.725801
760.364073	0.719533
760.690970	0.722161
761.017820	0.728423
761.344623	0.723672
761.671379	0.715186
761.998088	0.702756
762.324751	0.680701
762.651366	0.639475
762.977935	0.572717
763.304456	0.520412
763.630931	0.511775
763.957359	0.550661
764.283740	0.594162
764.610074	0.621444
764.936362	0.652148
765.262602	0.678794
765.588796	0.699893
765.914943	0.718240
766.241044	0.735689
766.567097	0.742607
766.893104	0.751666
767.219064	0.759250
767.544978	0.765151
767.870845	0.778312
768.196665	0.782258
768.522438	0.780493
768.848165	0.782190
769.173846	0.790031
769.499479	0.794563
769.825066	0.798538
770.150607	0.802959
770.476101	0.798366
770.801548	0.800425
771.126949	0.810502
771.452303	0.814622
771.777611	0.812495
772.102872	0.812665
772.428087	0.817663
772.753256	0.820919
773.078378	0.823269
773.403453	0.832978
773.728482	0.836364
774.053465	0.830428
774.378401	0.834022
774.703291	0.842096
775.028135	0.841667
775.352932	0.843419
775.677683	0.846268
776.002388	0.846627
776.327046	0.846105
776.651658	0.849091
776.976224	0.852598
777.300743	0.853645
777.625216	0.855191
777.949643	0.857154
778.274024	0.857752
778.598359	0.858369
778.922647	0.856538
779.246889	0.858042
779.571086	0.862009
779.895236	0.864264
780.219339	0.860864
780.543397	0.858732
780.867409	0.856928
781.191374	0.859206
781.515294	0.859744
781.839167	0.859433
782.162995	0.861832
782.486776	0.859899
782.810511	0.860323
783.134201	0.864100
783.457844	0.862103
783.781441	0.863373
784.104993	0.871373
784.428498	0.871026
784.751958	0.866472
785.075372	0.868990
785.398739	0.872878
785.722061	0.868850
786.045337	0.864765
786.368568	0.869584
786.691752	0.872121
787.014891	0.857788
787.337983	0.849278
787.661030	0.841513
787.984031	0.824854
788.306987	0.811478
788.629897	0.813511
788.952760	0.817750
789.275579	0.821438
789.598351	0.837061
789.921078	0.848362
790.243759	0.851643
790.566395	0.856346
790.888984	0.863168
791.211529	0.869118
791.534027	0.871761
791.856480	0.874753
792.178888	0.879618
792.501249	0.882611
792.823566	0.882668
793.145836	0.883267
793.468062	0.883992
793.790241	0.884134
794.112375	0.883053
794.434464	0.876938
794.756507	0.877903
795.078505	0.877766
795.400457	0.872369
795.722364	0.860402
796.044226	0.852925
796.366042	0.852266
796.687812	0.856388
797.009538	0.851967
797.331218	0.854312
797.652852	0.859662
797.974442	0.863819
798.295986	0.863880
798.617484	0.866858
798.938938	0.871238
799.260346	0.876823
799.581709	0.878911
799.903026	0.880359
800.224299	0.881016
800.545526	0.884351
800.866708	0.888717
801.187845	0.892842
801.508936	0.893015
801.829983	0.889770
802.150984	0.892582
802.471940	0.898586
802.792851	0.896615
803.113717	0.898692
803.434538	0.895745
803.755314	0.898358
804.076045	0.900647
804.396731	0.900462
804.717372	0.900361
805.037967	0.902863
805.358518	0.900409
805.679024	0.898856
805.999485	0.896101
806.319901	0.896813
806.640272	0.897867
806.960598	0.895670
807.280879	0.893036
807.601115	0.892265
807.921306	0.895760
808.241453	0.896588
808.561554	0.894025
808.881611	0.895017
809.201623	0.896530
809.521590	0.896587
809.841513	0.896986
810.161390	0.895759
810.481223	0.898451
810.801011	0.902169
811.120755	0.903012
811.440453	0.902463
811.760107	0.900886
812.079716	0.900757
812.399281	0.904444
812.718801	0.906762
813.038276	0.908153
813.357707	0.906707
813.677093	0.904360
813.996434	0.907291
814.315731	0.909041
814.634983	0.909650
814.954191	0.907951
815.273354	0.905954
815.592473	0.902682
815.911547	0.901480
816.230577	0.899247
816.549562	0.896244
816.868502	0.896042
817.187399	0.893238
817.506250	0.886739
817.825058	0.891152
818.143821	0.885407
818.462539	0.882138
818.781213	0.873491
819.099843	0.862952
819.418429	0.847467
819.736970	0.830295
820.055466	0.810854
820.373919	0.785311
820.692327	0.752962
821.010691	0.718034
821.329011	0.641786
821.647286	0.527271
821.965517	0.413895
822.283704	0.371553
822.601847	0.373489
822.919945	0.409010
823.237999	0.441569
823.556010	0.488275
823.873976	0.543592
824.191897	0.593960
824.509775	0.636531
824.827609	0.680633
825.145398	0.703558
825.463144	0.706163
825.780845	0.689188
826.098502	0.670579
826.416116	0.625380
826.733685	0.581580
827.051210	0.573222
827.368692	0.588287
827.686129	0.624963
828.003522	0.677924
828.320872	0.724215
828.638177	0.768316
828.955439	0.800776
829.272656	0.822177
829.589830	0.838754
829.906960	0.854994
830.224046	0.867483
830.541088	0.877612
830.858086	0.882661
831.175041	0.887826
831.491952	0.888375
831.808819	0.883676
832.125642	0.877319
832.442421	0.863068
832.759157	0.841153
833.075849	0.794780
833.392497	0.731664
833.709101	0.691255
834.025662	0.701280
834.342179	0.732165
834.658653	0.770692
834.975083	0.807104
835.291469	0.832369
835.607811	0.855934
835.924110	0.870655
836.240366	0.887754
836.556578	0.901787
836.872746	0.909450
837.188871	0.915083
837.504952	0.919967
837.820990	0.924258
838.136984	0.927604
838.452935	0.931180
838.768842	0.931523
839.084706	0.925564
839.400526	0.899616
839.716303	0.859816
840.032037	0.836435
840.347727	0.841735
840.663373	0.859993
840.978977	0.879925
841.294537	0.902521
841.610054	0.919050
841.925527	0.926057
842.240957	0.932933
842.556344	0.939541
842.871687	0.946057
843.186987	0.950657
843.502244	0.949773
843.817458	0.952058
844.132629	0.956002
844.447756	0.960476
844.762840	0.960114
845.077881	0.959459
845.392879	0.960363
845.707833	0.962912
846.022745	0.963041
846.337613	0.964519
846.652438	0.965645
846.967221	0.964378
847.281960	0.965883
847.596656	0.968088
847.911309	0.966188
848.225919	0.967252
848.540485	0.968918
848.855009	0.968874
849.169490	0.968063
849.483928	0.968806
849.798323	0.969533
850.112675	0.969861
850.426984	0.969141
850.741251	0.969806
851.055474	0.970241
851.369654	0.968182
851.683792	0.968943
851.997887	0.969789
852.311938	0.970762
852.625947	0.969371
852.939914	0.967830
853.253837	0.969723
853.567718	0.970914
853.881555	0.970349
854.195350	0.968285
854.509103	0.969574
854.822812	0.969599
855.136479	0.970152
855.450103	0.970464
855.763685	0.967943
856.077224	0.967721
856.390720	0.969460
856.704173	0.970109
857.017584	0.968285
857.330953	0.967017
857.644278	0.967289
857.957561	0.968910
858.270802	0.968713
858.584000	0.967964
858.897155	0.965887
859.210268	0.966660
859.523339	0.968496
859.836367	0.970782
860.149352	0.971341
860.462295	0.969294
860.775195	0.969164
861.088054	0.969154
861.400869	0.969841
861.713642	0.970343
862.026373	0.970578
862.339062	0.970882
862.651708	0.966933
862.964312	0.968384
863.276873	0.969153
863.589392	0.969041
863.901869	0.965923
864.214303	0.965498
864.526696	0.963656
864.839045	0.962800
865.151353	0.962223
865.463619	0.962878
865.775842	0.963362
866.088023	0.962512
866.400162	0.962096
866.712258	0.962227
867.024313	0.962905
867.336325	0.963991
867.648296	0.964542
867.960224	0.962213
868.272110	0.961969
868.583954	0.963920
868.895755	0.964395
869.207515	0.962133
869.519233	0.958704
869.830909	0.962344
870.142542	0.961828
870.454134	0.961738
870.765684	0.959558
871.077191	0.958075
871.388657	0.958655
871.700081	0.958382
872.011463	0.959803
872.322803	0.958847
872.634101	0.957307
872.945357	0.954959
873.256571	0.953669
873.567744	0.953129
873.878874	0.953601
874.189963	0.951772
874.501010	0.951671
874.812015	0.950205
875.122979	0.951421
875.433900	0.953405
875.744780	0.953446
876.055618	0.952075
876.366415	0.949714
876.677169	0.950430
876.987882	0.951484
877.298554	0.951647
877.609183	0.947551
877.919771	0.944309
878.230317	0.943935
878.540822	0.941259
878.851285	0.935831
879.161707	0.928289
879.472087	0.915535
879.782425	0.901214
880.092722	0.865875
880.402977	0.814837
880.713191	0.754841
881.023363	0.697482
881.333494	0.663656
881.643583	0.635657
881.953631	0.634882
882.263637	0.663587
882.573602	0.702659
882.883526	0.728946
883.193408	0.751808
883.503248	0.773337
883.813048	0.800008
884.122806	0.830269
884.432522	0.852424
884.742197	0.872506
885.051831	0.883463
885.361424	0.892519
885.670975	0.903758
885.980485	0.914196
886.289954	0.920488
886.599382	0.926218
886.908768	0.928671
887.218113	0.935895
887.527417	0.940113
887.836680	0.942103
888.145901	0.944580
888.455082	0.946791
888.764221	0.951215
889.073319	0.952645
889.382376	0.953189
889.691392	0.953247
890.000366	0.953185
890.309300	0.954096
890.618193	0.954139
890.927044	0.951820
891.235855	0.951766
891.544625	0.952227
891.853353	0.952274
892.162041	0.949142
892.470687	0.944760
892.779293	0.937752
893.087858	0.933724
893.396381	0.927398
893.704864	0.912787
894.013306	0.890610
894.321707	0.865081
894.630068	0.851057
894.938387	0.845915
895.246665	0.847715
895.554903	0.859772
895.863100	0.871095
896.171256	0.888793
896.479371	0.908352
896.787446	0.921282
897.095480	0.927062
897.403473	0.928775
897.711425	0.934211
898.019336	0.940806
898.327207	0.943875
898.635038	0.945515
898.942827	0.945822
899.250576	0.948462
899.558284	0.952918
899.865952	0.954049
900.173579	0.955337
900.481165	0.955653
900.788711	0.959989
901.096216	0.960964
901.403681	0.962322
901.711105	0.963651
902.018489	0.963260
902.325832	0.962280
902.633135	0.961620
902.940397	0.956508
903.247619	0.945280
903.554800	0.919726
903.861941	0.881049
904.169041	0.846233
904.476101	0.828605
904.783121	0.829541
905.090100	0.845564
905.397039	0.866912
905.703938	0.887439
906.010796	0.907465
906.317614	0.923769
906.624391	0.935789
906.931129	0.945317
907.237826	0.952466
907.544483	0.958776
907.851099	0.963581
908.157675	0.968027
908.464211	0.968630
908.770707	0.972024
909.077163	0.973707
909.383578	0.974757
909.689954	0.974753
909.996289	0.975684
910.302584	0.978401
910.608839	0.980729
910.915054	0.978061
911.221229	0.978319
911.527363	0.976450
911.833458	0.977288
912.139513	0.977974
912.445527	0.975191
912.751502	0.973593
913.057436	0.973807
913.363331	0.970519
913.669186	0.967085
913.975000	0.961463
914.280775	0.956367
914.586510	0.949858
914.892205	0.937433
915.197859	0.915621
915.503475	0.888337
915.809050	0.869372
916.114585	0.864053
916.420081	0.861997
916.725536	0.859008
917.030952	0.866273
917.336328	0.878516
917.641665	0.892154
917.946961	0.908643
918.252218	0.920543
918.557435	0.929684
918.862612	0.938032
919.167750	0.943830
919.472848	0.948080
919.777906	0.953156
920.082925	0.959103
920.387904	0.961676
920.692843	0.963572
920.997743	0.964940
921.302603	0.967764
921.607423	0.968858
921.912204	0.972757
922.216946	0.972622
922.521647	0.973413
922.826310	0.974957
923.130932	0.976206
923.435516	0.978037
923.740059	0.979793
924.044564	0.978713
924.349028	0.980970
924.653454	0.983025
924.957840	0.985080
925.262186	0.984617
925.566493	0.982884
925.870761	0.984306
926.174989	0.987368
926.479178	0.986937
926.783328	0.988243
927.087438	0.989031
927.391509	0.988388
927.695541	0.990121
927.999533	0.988733
928.303486	0.989352
928.607400	0.991828
928.911275	0.989953
929.215110	0.989674
929.518906	0.991051
929.822663	0.989274
930.126381	0.991767
930.430060	0.989803
930.733699	0.990752
931.037299	0.989653
931.340861	0.990185
931.644383	0.989032
931.947866	0.989623
932.251309	0.990018
932.554714	0.989663
932.858080	0.990488
933.161407	0.989413
933.464694	0.991326
933.767943	0.989076
934.071153	0.990515
934.374323	0.992019
934.677455	0.989804
934.980548	0.992015
935.283602	0.990601
935.586617	0.990728
935.889593	0.989813
936.192530	0.991052
936.495428	0.990805
936.798287	0.990695
937.101108	0.989870
937.403890	0.989396
937.706632	0.988476
938.009336	0.986658
938.312002	0.985822
938.614628	0.984017
938.917216	0.983661
939.219765	0.981789
939.522275	0.982003
939.824747	0.982482
940.127179	0.983694
940.429573	0.985187
940.731929	0.984319
941.034246	0.983957
941.336524	0.985745
941.638763	0.985887
941.940964	0.986754
942.243126	0.987100
942.545250	0.986755
942.847335	0.988579
943.149381	0.988892
943.451389	0.988619
943.753359	0.987942
944.055290	0.991083
944.357182	0.990187
944.659036	0.988599
944.960851	0.988706
945.262628	0.990179
945.564367	0.988913
945.866067	0.989524
946.167729	0.990755
946.469352	0.989892
946.770937	0.988758
947.072484	0.990927
947.373992	0.989759
947.675462	0.990090
947.976893	0.990764
948.278286	0.990365
948.579641	0.991646
948.880958	0.991014
949.182236	0.990663
949.483476	0.990834
949.784678	0.989635
950.085841	0.991482
950.386967	0.990834
950.688054	0.990903
950.989103	0.991502
951.290114	0.989180
951.591087	0.988913
951.892021	0.990091
952.192917	0.988570
952.493776	0.987452
952.794596	0.988919
953.095378	0.989126
953.396122	0.987870
953.696828	0.986272
953.997496	0.990165
954.298126	0.990320
954.598718	0.990402
954.899272	0.991165
955.199788	0.989863
955.500266	0.991844
955.800706	0.993003
956.101108	0.993000
956.401472	0.994203
956.701798	0.993912
957.002087	0.993528
957.302337	0.993335
957.602550	0.994371
957.902724	0.994927
958.202861	0.994188
958.502960	0.994787
958.803022	0.994396
959.103045	0.994984
959.403031	0.996605
959.702979	0.994595
960.002889	0.995365
960.302762	0.995045
960.602596	0.996133
960.902393	0.995747
961.202153	0.996784
961.501875	0.997037
961.801559	0.994602
962.101205	0.995329
962.400814	0.995851
962.700385	0.996227
962.999918	0.995586
963.299414	0.996366
963.598873	0.995708
963.898293	0.995290
964.197677	0.995811
964.497022	0.995445
964.796331	0.997810
965.095601	0.995582
965.394835	0.996275
965.694030	0.996685
965.993189	0.996231
966.292309	0.996527
966.591393	0.996803
966.890439	0.996282
967.189447	0.995791
967.488419	0.996689
967.787353	0.995643
968.086249	0.995944
968.385108	0.996226
968.683930	0.996260
968.982714	0.997473
969.281462	0.996543
969.580172	0.995881
969.878844	0.997080
970.177480	0.996397
970.476078	0.997262
970.774639	0.996657
971.073162	0.996952
971.371649	0.995947
971.670098	0.995894
971.968510	0.996643
972.266885	0.995644
972.565223	0.995259
972.863524	0.996596
973.161788	0.996160
973.460014	0.996962
973.758204	0.994862
974.056356	0.995902
974.354471	0.995117
974.652550	0.996191
974.950591	0.996501
975.248595	0.995220
975.546563	0.995606
975.844493	0.997200
976.142386	0.997284
976.440243	0.997323
976.738062	0.997057
977.035845	0.997948
977.333590	0.995732
977.631299	0.996943
977.928971	0.996105
978.226606	0.996713
978.524204	0.996278
978.821765	0.997723
979.119290	0.995808
979.416777	0.995262
979.714228	0.996842
980.011642	0.995632
980.309020	0.998124
980.606360	0.997032
980.903664	0.997668
981.200931	0.995757
981.498162	0.994609
981.795356	0.995015
982.092513	0.993682
982.389633	0.994447
982.686717	0.990077
982.983764	0.991006
983.280775	0.990890
983.577749	0.990436
983.874686	0.991874
984.171587	0.992180
984.468451	0.994141
984.765279	0.993843
985.062070	0.994215
985.358824	0.995974
985.655543	0.993628
985.952224	0.996117
986.248869	0.996582
986.545478	0.996554
986.842050	0.997609
987.138586	0.996696
987.435086	0.997335
987.731549	0.998666
988.027975	0.998100
988.324366	0.997614
988.620719	0.997731
988.917037	0.995962
989.213318	0.997038
989.509563	0.997796
989.805772	0.998289
990.101944	0.998053
990.398080	0.997729
990.694180	0.996983
990.990244	0.997234
991.286271	0.998344
991.582262	0.998979
991.878217	0.997283
992.174136	0.998544
992.470019	0.998446
992.765865	0.998113
993.061676	0.997201
993.357450	0.996927
993.653188	0.996466
993.948890	0.995697
994.244556	0.997222
994.540186	0.995916
994.835780	0.996963
995.131337	0.997714
995.426859	0.996545
995.722345	0.997101
996.017795	0.995310
996.313208	0.996290
996.608586	0.995214
996.903928	0.996029
997.199234	0.995987
997.494504	0.995919
997.789738	0.996098
998.084936	0.995351
998.380099	0.997301
998.675225	0.997331
998.970316	0.998663
999.265371	0.998789
999.560390	0.996974
999.855373	0.998495
1000.150320	0.998217
1000.445232	0.998766
1000.740108	0.997396
1001.034948	0.997412
1001.329752	0.998760
1001.624521	0.998387
1001.919254	0.998097
1002.213951	0.999465
1002.508613	0.998196
1002.803239	0.998625
1003.097829	0.998675
1003.392384	0.998088
1003.686903	0.998113
1003.981386	0.998465
1004.275834	0.997762
1004.570246	0.998427
1004.864623	0.997768
1005.158964	0.997990
1005.453270	0.998960
1005.747540	0.997079
1006.041775	0.997777
1006.335974	0.999308
1006.630138	0.999569
1006.924266	0.998111
1007.218359	0.999237
1007.512416	0.997995
1007.806438	0.998505
1008.100425	0.999302
1008.394376	0.998178
1008.688292	0.998237
1008.982172	1.000052
1009.276017	0.998909
1009.569827	0.997839
1009.863602	0.998003
1010.157341	1.000428
1010.451045	0.997916
1010.744714	0.998025
1011.038347	0.997836
1011.331945	0.998435
1011.625508	0.997478
1011.919036	0.997661
1012.212528	0.998758
1012.505986	0.997484
1012.799408	0.999075
1013.092795	0.998505
1013.386147	0.999419
1013.679464	0.998891
1013.972745	0.997979
1014.265992	0.996791
1014.559204	0.998256
1014.852380	0.998404
1015.145521	0.998144
1015.438628	0.998205
1015.731699	0.997576
1016.024736	0.998502
1016.317737	0.999433
1016.610703	0.999325
1016.903635	0.998356
1017.196531	0.998201
1017.489393	0.999770
1017.782219	0.998085
1018.075011	0.997544
1018.367768	0.998795
1018.660490	0.999569
1018.953177	0.999569
1019.245829	0.999569
