Dividing Wavelength (nm)	Counts (n)	Blue Motor Position (mm): 0.000000	Red Motor Position (mm): 25.300000	
326.493990	1.000052
326.888308	1.000052
327.282561	1.000052
327.676750	0.999796
328.070874	0.998364
328.464933	0.999508
328.858929	0.999342
329.252859	1.000452
329.646726	0.999769
330.040528	0.999803
330.434265	0.998896
330.827938	1.001703
331.221547	1.001808
331.615091	1.000052
332.008571	1.000115
332.401986	0.999171
332.795338	1.000341
333.188625	0.998604
333.581847	1.001130
333.975006	0.999244
334.368100	0.998769
334.761129	0.999175
335.154095	1.001526
335.546996	0.997763
335.939833	0.993780
336.332606	0.994454
336.725315	0.995785
337.117960	0.994710
337.510540	0.995755
337.903056	0.994581
338.295508	0.994561
338.687896	0.993835
339.080220	0.995136
339.472480	0.994495
339.864676	0.992932
340.256807	0.994360
340.648875	0.994454
341.040879	0.996022
341.432818	0.995503
341.824694	0.994575
342.216506	0.995959
342.608253	0.995383
342.999937	0.994096
343.391557	0.994513
343.783113	0.994266
344.174605	0.994698
344.566033	0.995340
344.957397	0.993012
345.348697	0.994870
345.739934	0.994191
346.131106	0.994173
346.522215	0.993938
346.913260	0.994746
347.304241	0.994008
347.695159	0.994073
348.086012	0.993109
348.476802	0.994646
348.867528	0.994351
349.258191	0.993367
349.648789	0.994758
350.039324	0.994570
350.429796	0.996112
350.820203	0.994690
351.210548	0.993735
351.600828	0.993907
351.991045	0.994454
352.381198	0.994907
352.771288	0.994565
353.161314	0.993574
353.551276	0.995552
353.941175	0.994464
354.331010	0.994248
354.720782	0.994259
355.110490	0.994080
355.500135	0.995065
355.889717	0.994431
356.279235	0.993609
356.668689	0.994001
357.058080	0.992561
357.447408	0.995208
357.836672	0.995494
358.225873	0.995206
358.615010	0.994476
359.004084	0.995042
359.393095	0.994834
359.782043	0.994478
360.170927	0.994288
360.559748	0.995015
360.948505	0.993444
361.337199	0.995057
361.725830	0.994813
362.114398	0.994636
362.502903	0.995063
362.891344	0.995804
363.279722	0.994906
363.668037	0.994018
364.056289	0.995457
364.444478	0.996037
364.832603	0.995153
365.220665	0.994329
365.608665	0.995179
365.996601	0.994335
366.384474	0.994876
366.772284	0.995144
367.160031	0.992915
367.547715	0.993329
367.935336	0.995228
368.322893	0.994250
368.710388	0.992467
369.097820	0.994171
369.485189	0.994804
369.872495	0.993296
370.259738	0.993239
370.646918	0.995184
371.034035	0.994746
371.421090	0.994541
371.808081	0.994870
372.195010	0.994491
372.581875	0.994294
372.968678	0.995189
373.355418	0.994961
373.742096	0.993778
374.128710	0.996118
374.515262	0.994496
374.901751	0.995201
375.288177	0.995445
375.674540	0.995125
376.060841	0.994060
376.447079	0.995026
376.833254	0.995119
377.219367	0.995646
377.605417	0.995424
377.991404	0.994529
378.377329	0.994275
378.763191	0.994605
379.148991	0.994735
379.534727	0.995607
379.920402	0.995197
380.306013	0.995551
380.691563	0.995339
381.077049	0.995086
381.462474	0.994942
381.847835	0.995228
382.233134	0.994715
382.618371	0.994804
383.003545	0.995045
383.388657	0.995639
383.773706	0.996023
384.158693	0.995825
384.543618	0.995769
384.928480	0.996261
385.313280	0.995719
385.698017	0.995789
386.082692	0.996464
386.467305	0.996603
386.851856	0.995605
387.236344	0.995647
387.620770	0.995897
388.005133	0.995731
388.389435	0.996526
388.773674	0.995635
389.157851	0.995960
389.541965	0.996462
389.926018	0.995276
390.310008	0.996935
390.693936	0.995137
391.077802	0.996373
391.461606	0.995945
391.845348	0.995887
392.229027	0.995993
392.612645	0.995400
392.996200	0.997707
393.379694	0.995838
393.763125	0.996514
394.146494	0.995906
394.529801	0.995197
394.913047	0.996492
395.296230	0.996698
395.679351	0.996462
396.062410	0.995145
396.445408	0.996612
396.828343	0.995923
397.211217	0.996150
397.594028	0.996006
397.976778	0.996373
398.359466	0.995336
398.742092	0.995534
399.124656	0.995683
399.507158	0.996542
399.889598	0.996018
400.271977	0.995905
400.654294	0.997238
401.036549	0.995763
401.418742	0.996596
401.800874	0.995307
402.182944	0.996032
402.564952	0.994733
402.946898	0.997294
403.328783	0.996438
403.710606	0.995968
404.092367	0.995639
404.474067	0.996341
404.855705	0.995677
405.237282	0.995727
405.618797	0.996345
406.000250	0.996291
406.381642	0.997167
406.762972	0.996558
407.144240	0.996793
407.525447	0.996538
407.906593	0.997190
408.287677	0.996330
408.668700	0.996828
409.049661	0.996853
409.430560	0.997059
409.811399	0.995800
410.192176	0.995983
410.572891	0.996136
410.953545	0.996842
411.334138	0.995990
411.714669	0.996559
412.095139	0.995521
412.475547	0.996657
412.855894	0.996822
413.236180	0.997084
413.616405	0.996881
413.996568	0.995915
414.376670	0.996339
414.756711	0.995938
415.136691	0.996440
415.516609	0.995970
415.896466	0.995236
416.276262	0.995417
416.655997	0.996992
417.035670	0.995978
417.415283	0.996434
417.794834	0.996525
418.174324	0.995485
418.553753	0.996641
418.933121	0.995876
419.312428	0.995168
419.691674	0.996137
420.070859	0.995915
420.449983	0.996402
420.829045	0.996355
421.208047	0.996510
421.586988	0.996823
421.965867	0.996278
422.344686	0.996345
422.723444	0.996262
423.102141	0.996374
423.480777	0.996242
423.859352	0.995734
424.237866	0.995968
424.616319	0.996241
424.994712	0.996140
425.373044	0.996206
425.751314	0.996098
426.129524	0.995987
426.507673	0.996529
426.885762	0.996222
427.263789	0.995805
427.641756	0.996450
428.019662	0.996521
428.397508	0.995521
428.775292	0.994986
429.153016	0.995574
429.530679	0.996033
429.908282	0.996395
430.285824	0.995277
430.663305	0.995320
431.040726	0.994945
431.418086	0.996672
431.795385	0.995355
432.172624	0.994565
432.549802	0.994604
432.926920	0.994932
433.303977	0.994395
433.680974	0.994744
434.057910	0.993470
434.434786	0.993253
434.811601	0.993287
435.188355	0.992250
435.565050	0.991662
435.941683	0.991241
436.318257	0.991446
436.694770	0.989076
437.071222	0.988887
437.447614	0.987868
437.823946	0.987068
438.200218	0.986346
438.576429	0.983955
438.952580	0.983246
439.328670	0.980726
439.704700	0.980386
440.080670	0.979628
440.456580	0.976470
440.832429	0.973882
441.208218	0.974023
441.583947	0.970842
441.959616	0.968567
442.335224	0.966177
442.710773	0.964335
443.086261	0.960892
443.461689	0.959149
443.837057	0.955604
444.212365	0.952520
444.587612	0.949808
444.962800	0.945486
445.337927	0.942439
445.712995	0.941628
446.088002	0.934405
446.462949	0.931820
446.837837	0.928178
447.212664	0.923667
447.587431	0.917312
447.962139	0.907382
448.336786	0.895891
448.711374	0.893955
449.085901	0.895455
449.460369	0.892268
449.834776	0.886089
450.209124	0.877102
450.583412	0.867270
450.957640	0.862479
451.331808	0.857786
451.705917	0.856636
452.079965	0.850924
452.453954	0.842270
452.827883	0.837320
453.201752	0.829903
453.575562	0.826168
453.949311	0.815050
454.323001	0.810584
454.696632	0.802523
455.070202	0.791321
455.443713	0.781750
455.817164	0.772904
456.190556	0.762892
456.563888	0.753863
456.937160	0.745598
457.310373	0.745033
457.683526	0.736237
458.056619	0.729797
458.429653	0.722212
458.802628	0.715823
459.175542	0.705664
459.548398	0.688818
459.921194	0.677504
460.293930	0.670025
460.666607	0.649279
461.039224	0.635038
461.411782	0.625561
461.784280	0.615819
462.156719	0.610127
462.529099	0.602966
462.901419	0.603448
463.273680	0.597310
463.645882	0.589655
464.018024	0.584232
464.390106	0.572195
464.762130	0.555738
465.134094	0.537531
465.505999	0.512104
465.877845	0.486066
466.249631	0.470230
466.621358	0.465012
466.993026	0.464029
467.364634	0.459073
467.736184	0.457295
468.107674	0.456566
468.479105	0.447340
468.850477	0.447068
469.221790	0.444346
469.593043	0.444599
469.964238	0.441622
470.335373	0.434307
470.706449	0.426961
471.077467	0.422808
471.448425	0.386446
471.819324	0.361651
472.190164	0.355435
472.560945	0.373325
472.931667	0.386403
473.302330	0.385088
473.672934	0.390447
474.043479	0.375699
474.413965	0.372628
474.784393	0.371151
475.154761	0.362577
475.525070	0.355851
475.895321	0.357692
476.265513	0.348658
476.635645	0.341106
477.005719	0.337480
477.375734	0.330844
477.745691	0.321623
478.115588	0.315269
478.485427	0.306074
478.855207	0.291367
479.224928	0.272961
479.594591	0.259807
479.964194	0.259182
480.333739	0.257817
480.703226	0.256390
481.072653	0.252845
481.442022	0.246842
481.811333	0.242002
482.180584	0.243319
482.549777	0.246409
482.918912	0.248347
483.287988	0.246558
483.657005	0.244887
484.025964	0.249745
484.394864	0.245781
484.763706	0.245113
485.132489	0.248722
485.501213	0.248767
485.869879	0.246280
486.238487	0.248667
486.607036	0.245919
486.975527	0.249400
487.343959	0.245042
487.712333	0.243368
488.080648	0.244402
488.448905	0.242947
488.817104	0.243741
489.185244	0.237942
489.553326	0.234431
489.921350	0.224106
490.289315	0.206523
490.657222	0.201343
491.025070	0.202394
491.392861	0.204076
491.760593	0.209345
492.128267	0.214753
492.495883	0.219882
492.863440	0.226082
493.230939	0.232042
493.598380	0.232972
493.965763	0.235430
494.333088	0.237446
494.700354	0.238706
495.067563	0.237578
495.434713	0.240760
495.801805	0.238507
496.168839	0.239988
496.535815	0.240902
496.902733	0.241101
497.269593	0.242688
497.636395	0.240248
498.003139	0.240547
498.369825	0.243177
498.736453	0.239628
499.103023	0.240756
499.469535	0.240381
499.835989	0.240580
500.202385	0.241420
500.568723	0.244609
500.935003	0.239919
501.301226	0.243731
501.667390	0.238177
502.033497	0.236197
502.399546	0.239204
502.765537	0.240767
503.131470	0.238997
503.497345	0.235408
503.863163	0.244307
504.228923	0.237384
504.594625	0.235864
504.960269	0.241028
505.325856	0.236280
505.691385	0.240732
506.056856	0.237466
506.422270	0.236904
506.787625	0.239371
507.152924	0.236581
507.518164	0.237052
507.883347	0.238690
508.248472	0.240206
508.613540	0.235326
508.978550	0.237609
509.343503	0.238357
509.708398	0.235859
510.073236	0.233607
510.438016	0.233529
510.802738	0.234309
511.167403	0.233336
511.532010	0.235160
511.896561	0.230800
512.261053	0.229530
512.625488	0.231575
512.989866	0.231902
513.354186	0.232186
513.718449	0.234110
514.082655	0.230459
514.446803	0.232701
514.810894	0.230014
515.174927	0.232861
515.538904	0.232165
515.902822	0.229287
516.266684	0.231727
516.630488	0.232745
516.994235	0.231239
517.357925	0.230231
517.721558	0.228654
518.085133	0.228162
518.448651	0.228232
518.812112	0.230294
519.175516	0.229882
519.538863	0.227856
519.902152	0.229326
520.265385	0.226152
520.628560	0.228072
520.991678	0.228181
521.354739	0.227105
521.717743	0.228619
522.080690	0.229090
522.443580	0.226292
522.806413	0.227020
523.169189	0.226360
523.531908	0.225275
523.894569	0.228707
524.257174	0.229025
524.619722	0.226681
524.982213	0.227970
525.344647	0.226625
525.707025	0.227364
526.069345	0.225717
526.431608	0.227155
526.793815	0.225163
527.155964	0.229519
527.518057	0.228234
527.880093	0.229425
528.242072	0.228045
528.603995	0.229606
528.965860	0.231607
529.327669	0.230237
529.689421	0.231200
530.051117	0.231955
530.412755	0.229807
530.774337	0.232208
531.135862	0.232426
531.497331	0.231922
531.858743	0.234526
532.220098	0.231349
532.581396	0.233804
532.942638	0.234281
533.303824	0.235337
533.664953	0.235148
534.026025	0.236793
534.387040	0.234695
534.747999	0.234878
535.108902	0.233597
535.469748	0.238595
535.830537	0.236654
536.191270	0.236951
536.551947	0.236687
536.912567	0.236503
537.273131	0.238629
537.633638	0.238202
537.994089	0.238697
538.354483	0.239723
538.714821	0.236971
539.075103	0.236507
539.435328	0.237207
539.795497	0.241224
540.155609	0.237787
540.515665	0.235708
540.875665	0.241351
541.235609	0.239769
541.595496	0.240037
541.955328	0.236545
542.315102	0.239212
542.674821	0.240349
543.034483	0.240371
543.394090	0.239897
543.753640	0.242010
544.113134	0.236896
544.472571	0.240257
544.831953	0.237125
545.191278	0.241401
545.550548	0.240749
545.909761	0.237422
546.268918	0.238297
546.628019	0.236714
546.987064	0.238792
547.346053	0.241075
547.704986	0.238869
548.063863	0.239304
548.422684	0.239437
548.781449	0.241274
549.140158	0.239011
549.498811	0.241903
549.857408	0.244797
550.215949	0.239783
550.574434	0.242588
550.932864	0.240568
551.291237	0.239374
551.649555	0.240572
552.007817	0.240490
552.366022	0.241372
552.724173	0.241385
553.082267	0.241722
553.440305	0.238654
553.798288	0.243201
554.156215	0.239682
554.514086	0.240377
554.871902	0.243444
555.229661	0.242583
555.587365	0.243151
555.945014	0.245840
556.302606	0.242746
556.660143	0.245302
557.017625	0.241811
557.375050	0.243892
557.732421	0.240958
558.089735	0.243199
558.446994	0.243401
558.804197	0.242407
559.161345	0.242430
559.518437	0.245816
559.875474	0.243679
560.232455	0.242657
560.589381	0.244065
560.946251	0.244257
561.303065	0.241810
561.659825	0.243154
562.016528	0.244513
562.373177	0.247269
562.729770	0.244746
563.086307	0.246958
563.442789	0.244832
563.799216	0.247581
564.155587	0.246235
564.511904	0.247264
564.868164	0.247637
565.224370	0.247287
565.580520	0.249160
565.936615	0.248915
566.292654	0.251980
566.648638	0.248995
567.004567	0.250002
567.360441	0.250501
567.716260	0.252489
568.072023	0.250276
568.427732	0.250815
568.783385	0.253456
569.138982	0.251515
569.494525	0.251194
569.850013	0.254283
570.205445	0.252427
570.560823	0.255066
570.916145	0.257278
571.271412	0.255256
571.626625	0.256809
571.981782	0.257304
572.336884	0.257971
572.691931	0.257885
573.046923	0.258882
573.401860	0.260412
573.756743	0.262065
574.111570	0.260909
574.466342	0.261348
574.821059	0.260565
575.175722	0.263384
575.530330	0.263127
575.884882	0.263128
576.239380	0.265311
576.593823	0.265800
576.948211	0.265342
577.302544	0.268488
577.656823	0.268160
578.011047	0.268518
578.365216	0.269084
578.719330	0.270904
579.073389	0.270949
579.427394	0.271771
579.781344	0.272809
580.135239	0.274100
580.489080	0.273895
580.842866	0.277092
581.196597	0.277001
581.550273	0.275518
581.903895	0.276379
582.257463	0.274509
582.610975	0.277748
582.964434	0.277263
583.317837	0.279562
583.671186	0.280130
584.024481	0.280304
584.377721	0.282597
584.730906	0.283352
585.084037	0.282264
585.437113	0.284329
585.790135	0.283812
586.143103	0.286475
586.496016	0.288203
586.848874	0.285634
587.201679	0.285895
587.554428	0.289679
587.907124	0.288132
588.259765	0.288801
588.612352	0.289412
588.964884	0.293357
589.317362	0.292746
589.669786	0.292413
590.022155	0.291424
590.374470	0.290597
590.726731	0.292496
591.078937	0.297409
591.431090	0.293805
591.783188	0.297534
592.135232	0.298122
592.487222	0.298166
592.839157	0.296540
593.191038	0.298912
593.542866	0.300566
593.894639	0.304238
594.246358	0.302331
594.598022	0.301700
594.949633	0.305190
595.301190	0.305955
595.652692	0.305127
596.004141	0.301495
596.355535	0.309522
596.706876	0.309696
597.058162	0.312305
597.409395	0.309471
597.760573	0.307525
598.111698	0.310279
598.462768	0.310983
598.813785	0.312408
599.164748	0.313491
599.515657	0.314122
599.866511	0.317239
600.217312	0.312524
600.568060	0.318136
600.918753	0.314428
601.269392	0.315013
601.619978	0.318297
601.970510	0.316309
602.320988	0.316209
602.671412	0.314116
603.021783	0.316344
603.372100	0.317512
603.722363	0.317521
604.072572	0.318555
604.422728	0.317836
604.772830	0.320060
605.122878	0.319665
605.472872	0.320295
605.822813	0.318509
606.172701	0.321447
606.522534	0.318680
606.872314	0.318822
607.222041	0.319561
607.571714	0.317442
607.921333	0.319205
608.270899	0.318970
608.620411	0.315734
608.969870	0.319419
609.319276	0.319470
609.668627	0.319731
610.017926	0.317903
610.367171	0.316654
610.716362	0.317247
611.065500	0.317364
611.414585	0.316469
611.763616	0.316993
612.112594	0.317684
612.461518	0.316817
612.810389	0.314558
613.159207	0.316872
613.507971	0.318374
613.856682	0.314404
614.205340	0.315543
614.553945	0.312935
614.902496	0.316595
615.250994	0.314444
615.599439	0.315401
615.947830	0.314602
616.296169	0.315876
616.644454	0.315249
616.992686	0.315267
617.340864	0.312938
617.688990	0.316826
618.037063	0.313266
618.385082	0.315380
618.733048	0.312208
619.080961	0.314798
619.428821	0.313674
619.776628	0.313723
620.124382	0.315298
620.472083	0.315337
620.819731	0.315190
621.167326	0.318916
621.514868	0.318917
621.862357	0.322820
622.209793	0.322386
622.557176	0.324270
622.904506	0.326221
623.251783	0.327819
623.599007	0.330594
623.946179	0.329886
624.293297	0.331686
624.640363	0.335777
624.987376	0.336096
625.334336	0.338860
625.681243	0.340951
626.028097	0.341498
626.374899	0.342692
626.721647	0.342633
627.068343	0.346141
627.414987	0.347193
627.761577	0.349353
628.108115	0.347391
628.454600	0.352771
628.801032	0.350124
629.147412	0.352004
629.493739	0.352733
629.840014	0.355703
630.186236	0.353133
630.532405	0.358516
630.878521	0.356198
631.224585	0.358194
631.570597	0.361905
631.916556	0.360344
632.262462	0.360364
632.608316	0.362705
632.954117	0.363234
633.299866	0.364471
633.645562	0.364747
633.991206	0.368816
634.336797	0.371759
634.682336	0.373839
635.027823	0.375609
635.373257	0.376707
635.718639	0.379604
636.063968	0.378873
636.409245	0.384967
636.754470	0.385153
637.099642	0.387414
637.444762	0.390911
637.789829	0.389919
638.134845	0.393476
638.479808	0.394171
638.824719	0.394209
639.169577	0.398458
639.514383	0.396861
639.859137	0.401989
640.203839	0.401270
640.548489	0.401877
640.893086	0.402826
641.237632	0.404695
641.582125	0.402967
641.926566	0.404917
642.270955	0.405015
642.615292	0.405175
642.959576	0.404649
643.303809	0.404884
643.647990	0.404641
643.992118	0.405124
644.336195	0.408404
644.680219	0.406789
645.024192	0.407624
645.368112	0.401029
645.711981	0.400029
646.055797	0.395578
646.399562	0.397754
646.743274	0.390044
647.086935	0.387726
647.430544	0.387854
647.774101	0.386006
648.117606	0.386114
648.461059	0.386722
648.804460	0.389018
649.147810	0.393773
649.491108	0.395833
649.834354	0.397230
650.177548	0.402528
650.520690	0.407806
650.863781	0.408792
651.206820	0.408773
651.549807	0.412913
651.892742	0.416991
652.235626	0.416274
652.578458	0.417746
652.921238	0.423712
653.263967	0.421165
653.606644	0.425195
653.949269	0.425345
654.291843	0.428555
654.634365	0.425640
654.976836	0.428872
655.319255	0.428942
655.661622	0.430696
656.003938	0.430918
656.346203	0.433494
656.688416	0.431712
657.030577	0.434751
657.372687	0.437282
657.714746	0.437745
658.056753	0.434406
658.398708	0.438674
658.740612	0.439891
659.082465	0.435707
659.424266	0.436622
659.766016	0.435954
660.107715	0.438867
660.449362	0.437543
660.790958	0.437843
661.132503	0.439043
661.473996	0.436198
661.815438	0.437144
662.156829	0.437732
662.498168	0.438136
662.839456	0.439409
663.180693	0.437424
663.521879	0.437272
663.863013	0.437950
664.204097	0.436881
664.545129	0.433257
664.886110	0.433866
665.227040	0.431016
665.567918	0.434118
665.908746	0.431654
666.249522	0.431211
666.590248	0.432205
666.930922	0.430594
667.271545	0.429426
667.612118	0.429387
667.952639	0.431409
668.293109	0.429820
668.633528	0.433148
668.973896	0.432086
669.314213	0.433548
669.654480	0.434828
669.994695	0.435235
670.334859	0.435820
670.674973	0.435873
671.015035	0.436316
671.355047	0.436133
671.695008	0.437368
672.034918	0.438505
672.374777	0.438345
672.714585	0.439650
673.054342	0.439042
673.394049	0.439846
673.733705	0.437497
674.073310	0.438825
674.412864	0.441449
674.752368	0.442323
675.091820	0.442312
675.431223	0.446691
675.770574	0.446207
676.109875	0.449386
676.449125	0.449182
676.788324	0.451697
677.127473	0.456900
677.466571	0.456984
677.805619	0.458461
678.144616	0.459175
678.483562	0.460549
678.822458	0.463987
679.161303	0.464941
679.500098	0.465032
679.838842	0.466710
680.177535	0.466928
680.516179	0.464670
680.854771	0.464014
681.193314	0.458051
681.531805	0.448728
681.870247	0.436975
682.208638	0.429702
682.546978	0.428487
682.885268	0.431192
683.223508	0.436632
683.561697	0.440289
683.899836	0.442988
684.237925	0.446553
684.575963	0.448947
684.913951	0.452178
685.251889	0.447758
685.589776	0.449867
685.927614	0.451507
686.265401	0.446322
686.603137	0.447846
686.940824	0.441633
687.278460	0.440200
687.616046	0.439513
687.953582	0.434089
688.291068	0.435791
688.628504	0.431596
688.965889	0.433715
689.303224	0.437506
689.640510	0.442153
689.977745	0.447345
690.314930	0.455302
690.652065	0.460201
690.989150	0.467757
691.326185	0.474089
691.663170	0.478077
692.000105	0.486002
692.336990	0.492528
692.673825	0.495023
693.010610	0.502031
693.347345	0.506994
693.684030	0.508951
694.020665	0.513437
694.357251	0.522312
694.693786	0.522342
695.030272	0.526328
695.366707	0.529304
695.703093	0.533194
696.039429	0.531384
696.375716	0.532236
696.711952	0.535701
697.048139	0.537551
697.384276	0.539298
697.720363	0.537585
698.056400	0.536720
698.392388	0.542624
698.728326	0.545488
699.064214	0.547564
699.400053	0.548846
699.735842	0.551658
700.071581	0.555166
700.407270	0.558171
700.742910	0.559823
701.078501	0.567140
701.414042	0.567309
701.749533	0.569947
702.084974	0.579023
702.420366	0.571480
702.755709	0.579505
703.091002	0.586697
703.426246	0.579505
703.761440	0.585539
704.096584	0.591114
704.431679	0.588053
704.766725	0.589803
705.101721	0.591624
705.436668	0.587969
705.771565	0.595027
706.106413	0.591341
706.441212	0.586796
706.775961	0.585324
707.110661	0.588188
707.445311	0.583908
707.779913	0.582107
708.114465	0.580672
708.448967	0.576793
708.783421	0.568682
709.117825	0.563784
709.452180	0.564301
709.786485	0.556945
710.120742	0.547154
710.454949	0.549337
710.789107	0.541640
711.123216	0.532641
711.457275	0.534372
711.791286	0.525596
712.125247	0.524512
712.459159	0.535481
712.793023	0.527593
713.126837	0.531439
713.460602	0.531900
713.794318	0.541266
714.127985	0.540276
714.461602	0.550335
714.795171	0.553615
715.128691	0.560939
715.462162	0.569048
715.795584	0.574032
716.128957	0.577891
716.462281	0.583634
716.795556	0.587133
717.128782	0.592578
717.461960	0.602663
717.795088	0.600682
718.128167	0.606157
718.461198	0.615395
718.794180	0.615797
719.127113	0.618493
719.459997	0.622714
719.792833	0.628980
720.125619	0.629581
720.458357	0.635546
720.791046	0.634667
721.123686	0.638440
721.456278	0.645284
721.788821	0.642430
722.121315	0.646704
722.453761	0.650932
722.786158	0.648806
723.118506	0.645845
723.450805	0.653144
723.783056	0.649256
724.115259	0.646730
724.447412	0.645935
724.779518	0.647660
725.111574	0.646244
725.443582	0.642557
725.775542	0.643938
726.107453	0.636553
726.439315	0.635557
726.771129	0.634584
727.102895	0.627366
727.434612	0.620738
727.766281	0.618803
728.097901	0.618118
728.429473	0.617417
728.760996	0.617112
729.092471	0.616383
729.423897	0.620120
729.755276	0.619349
730.086606	0.618943
730.417887	0.613043
730.749120	0.604398
731.080305	0.595803
731.411442	0.591628
731.742530	0.596905
732.073570	0.595797
732.404562	0.588552
732.735506	0.589366
733.066401	0.593587
733.397249	0.603542
733.728048	0.614840
734.058798	0.626856
734.389501	0.638102
734.720156	0.646506
735.050762	0.655559
735.381320	0.656647
735.711831	0.666083
736.042293	0.670318
736.372707	0.666099
736.703073	0.670836
737.033391	0.673136
737.363661	0.669588
737.693883	0.665209
738.024056	0.664083
738.354182	0.665041
738.684260	0.653960
739.014290	0.649847
739.344272	0.650687
739.674207	0.644504
740.004093	0.644135
740.333931	0.644493
740.663722	0.643890
740.993464	0.644994
741.323159	0.647795
741.652806	0.653123
741.982405	0.658695
742.311956	0.662842
742.641460	0.664961
742.970915	0.669227
743.300323	0.676174
743.629683	0.682998
743.958996	0.684212
744.288260	0.689162
744.617477	0.694735
744.946647	0.696125
745.275768	0.701651
745.604842	0.701489
745.933869	0.711365
746.262847	0.711788
746.591778	0.705365
746.920662	0.711310
747.249498	0.718188
747.578286	0.708920
747.907027	0.705914
748.235720	0.705982
748.564365	0.700319
748.892963	0.701275
749.221514	0.703897
749.550017	0.708344
749.878473	0.708434
750.206881	0.715666
750.535242	0.716424
750.863555	0.716535
751.191821	0.716561
751.520039	0.720641
751.848210	0.725594
752.176334	0.716947
752.504411	0.716766
752.832440	0.725282
753.160421	0.728201
753.488356	0.727236
753.816243	0.724783
754.144082	0.733219
754.471875	0.737257
754.799620	0.730956
755.127318	0.734314
755.454969	0.733409
755.782572	0.732788
756.110129	0.737094
756.437638	0.740448
756.765100	0.736579
757.092515	0.734725
757.419882	0.733929
757.747203	0.739666
758.074477	0.737641
758.401703	0.734642
758.728882	0.730178
759.056014	0.728973
759.383099	0.728926
759.710138	0.729425
760.037129	0.725124
760.364073	0.720174
760.690970	0.721977
761.017820	0.728581
761.344623	0.723549
761.671379	0.715361
761.998088	0.703792
762.324751	0.680783
762.651366	0.639192
762.977935	0.572488
763.304456	0.520792
763.630931	0.510814
763.957359	0.550211
764.283740	0.594739
764.610074	0.621905
764.936362	0.651702
765.262602	0.678610
765.588796	0.700215
765.914943	0.718478
766.241044	0.734849
766.567097	0.741755
766.893104	0.752764
767.219064	0.758814
767.544978	0.764836
767.870845	0.778069
768.196665	0.781464
768.522438	0.779361
768.848165	0.781560
769.173846	0.789901
769.499479	0.794750
769.825066	0.797935
770.150607	0.803028
770.476101	0.797935
770.801548	0.799758
771.126949	0.811243
771.452303	0.814560
771.777611	0.814182
772.102872	0.812499
772.428087	0.818394
772.753256	0.822131
773.078378	0.822955
773.403453	0.832895
773.728482	0.837245
774.053465	0.830272
774.378401	0.833823
774.703291	0.842315
775.028135	0.841866
775.352932	0.843087
775.677683	0.847034
776.002388	0.847076
776.327046	0.845503
776.651658	0.849752
776.976224	0.853675
777.300743	0.853262
777.625216	0.855671
777.949643	0.857381
778.274024	0.857114
778.598359	0.858570
778.922647	0.857485
779.246889	0.858807
779.571086	0.861934
779.895236	0.864652
780.219339	0.861687
780.543397	0.858684
780.867409	0.856590
781.191374	0.858946
781.515294	0.860504
781.839167	0.859681
782.162995	0.862009
782.486776	0.860319
782.810511	0.860534
783.134201	0.864492
783.457844	0.861636
783.781441	0.865120
784.104993	0.870353
784.428498	0.870781
784.751958	0.866798
785.075372	0.869455
785.398739	0.873533
785.722061	0.870749
786.045337	0.863783
786.368568	0.870188
786.691752	0.872811
787.014891	0.857292
787.337983	0.848573
787.661030	0.841639
787.984031	0.824237
788.306987	0.810661
788.629897	0.813300
788.952760	0.817096
789.275579	0.821636
789.598351	0.836095
789.921078	0.849989
790.243759	0.851290
790.566395	0.856550
790.888984	0.863974
791.211529	0.869449
791.534027	0.872305
791.856480	0.874158
792.178888	0.878900
792.501249	0.881033
792.823566	0.882976
793.145836	0.882657
793.468062	0.885828
793.790241	0.886226
794.112375	0.883347
794.434464	0.878137
794.756507	0.878605
795.078505	0.877978
795.400457	0.872151
795.722364	0.861002
796.044226	0.853480
796.366042	0.852116
796.687812	0.856041
797.009538	0.852372
797.331218	0.855357
797.652852	0.859820
797.974442	0.865683
798.295986	0.865422
798.617484	0.866507
798.938938	0.871718
799.260346	0.876025
799.581709	0.878298
799.903026	0.880255
800.224299	0.880956
800.545526	0.884480
800.866708	0.889721
801.187845	0.893309
801.508936	0.892462
801.829983	0.890258
802.150984	0.892652
802.471940	0.898627
802.792851	0.897492
803.113717	0.898093
803.434538	0.896397
803.755314	0.899546
804.076045	0.900512
804.396731	0.900426
804.717372	0.899918
805.037967	0.902147
805.358518	0.899297
805.679024	0.896997
805.999485	0.896474
806.319901	0.897345
806.640272	0.898493
806.960598	0.897164
807.280879	0.894185
807.601115	0.893288
807.921306	0.895929
808.241453	0.895925
808.561554	0.894393
808.881611	0.893031
809.201623	0.895887
809.521590	0.896777
809.841513	0.897920
810.161390	0.896034
810.481223	0.897623
810.801011	0.900149
811.120755	0.903309
811.440453	0.901936
811.760107	0.900777
812.079716	0.901252
812.399281	0.903839
812.718801	0.905874
813.038276	0.907476
813.357707	0.906272
813.677093	0.904319
813.996434	0.907639
814.315731	0.909142
814.634983	0.910911
814.954191	0.908430
815.273354	0.904909
815.592473	0.901712
815.911547	0.901053
816.230577	0.898609
816.549562	0.895949
816.868502	0.897985
817.187399	0.894134
817.506250	0.888359
817.825058	0.890109
818.143821	0.887359
818.462539	0.881544
818.781213	0.873762
819.099843	0.862538
819.418429	0.847784
819.736970	0.829520
820.055466	0.811409
820.373919	0.785331
820.692327	0.752036
821.010691	0.718011
821.329011	0.641923
821.647286	0.527500
821.965517	0.413946
822.283704	0.371092
822.601847	0.372740
822.919945	0.408479
823.237999	0.441890
823.556010	0.488462
823.873976	0.543746
824.191897	0.593333
824.509775	0.636144
824.827609	0.680701
825.145398	0.704209
825.463144	0.706571
825.780845	0.689501
826.098502	0.670598
826.416116	0.624988
826.733685	0.582049
827.051210	0.573062
827.368692	0.587619
827.686129	0.625296
828.003522	0.677517
828.320872	0.723962
828.638177	0.767822
828.955439	0.800869
829.272656	0.822308
829.589830	0.839412
829.906960	0.855291
830.224046	0.867009
830.541088	0.877883
830.858086	0.882515
831.175041	0.887532
831.491952	0.887757
831.808819	0.884668
832.125642	0.878611
832.442421	0.862164
832.759157	0.840918
833.075849	0.795707
833.392497	0.731433
833.709101	0.691319
834.025662	0.700940
834.342179	0.732255
834.658653	0.770928
834.975083	0.808340
835.291469	0.832998
835.607811	0.855548
835.924110	0.871161
836.240366	0.887762
836.556578	0.901220
836.872746	0.908663
837.188871	0.915903
837.504952	0.920813
837.820990	0.924041
838.136984	0.927760
838.452935	0.930710
838.768842	0.931137
839.084706	0.925361
839.400526	0.899361
839.716303	0.859164
840.032037	0.837169
840.347727	0.841856
840.663373	0.858729
840.978977	0.879700
841.294537	0.903025
841.610054	0.919569
841.925527	0.926751
842.240957	0.932674
842.556344	0.938604
842.871687	0.947250
843.186987	0.950106
843.502244	0.949431
843.817458	0.951202
844.132629	0.956177
844.447756	0.960176
844.762840	0.962131
845.077881	0.959280
845.392879	0.960101
845.707833	0.962563
846.022745	0.964907
846.337613	0.963581
846.652438	0.966406
846.967221	0.963845
847.281960	0.964073
847.596656	0.967547
847.911309	0.965315
848.225919	0.968099
848.540485	0.968277
848.855009	0.969564
849.169490	0.969375
849.483928	0.967645
849.798323	0.969140
850.112675	0.970072
850.426984	0.970861
850.741251	0.969011
851.055474	0.969574
851.369654	0.968377
851.683792	0.970022
851.997887	0.969721
852.311938	0.970992
852.625947	0.969774
852.939914	0.967914
853.253837	0.970053
853.567718	0.970790
853.881555	0.969449
854.195350	0.967680
854.509103	0.969991
854.822812	0.969854
855.136479	0.970993
855.450103	0.969307
855.763685	0.968418
856.077224	0.967566
856.390720	0.970373
856.704173	0.970298
857.017584	0.968955
857.330953	0.966562
857.644278	0.968176
857.957561	0.968372
858.270802	0.968474
858.584000	0.967642
858.897155	0.967472
859.210268	0.967418
859.523339	0.968808
859.836367	0.969976
860.149352	0.971083
860.462295	0.968618
860.775195	0.970127
861.088054	0.969679
861.400869	0.969210
861.713642	0.970809
862.026373	0.970503
862.339062	0.971171
862.651708	0.968237
862.964312	0.967227
863.276873	0.969900
863.589392	0.969324
863.901869	0.966385
864.214303	0.965070
864.526696	0.965142
864.839045	0.963769
865.151353	0.961429
865.463619	0.963344
865.775842	0.962028
866.088023	0.961990
866.400162	0.962950
866.712258	0.962182
867.024313	0.962530
867.336325	0.965044
867.648296	0.963379
867.960224	0.962270
868.272110	0.961081
868.583954	0.964437
868.895755	0.962987
869.207515	0.961818
869.519233	0.959255
869.830909	0.961530
870.142542	0.963436
870.454134	0.962382
870.765684	0.961314
871.077191	0.958721
871.388657	0.958616
871.700081	0.959084
872.011463	0.959211
872.322803	0.958915
872.634101	0.956879
872.945357	0.955559
873.256571	0.953554
873.567744	0.953266
873.878874	0.954777
874.189963	0.953211
874.501010	0.951912
874.812015	0.950192
875.122979	0.952367
875.433900	0.953580
875.744780	0.954459
876.055618	0.950957
876.366415	0.949330
876.677169	0.950869
876.987882	0.951734
877.298554	0.951662
877.609183	0.947718
877.919771	0.945741
878.230317	0.943113
878.540822	0.940803
878.851285	0.935235
879.161707	0.927933
879.472087	0.916590
879.782425	0.900278
880.092722	0.866312
880.402977	0.814351
880.713191	0.754870
881.023363	0.696639
881.333494	0.663858
881.643583	0.635154
881.953631	0.634554
882.263637	0.663781
882.573602	0.703600
882.883526	0.727405
883.193408	0.751547
883.503248	0.773586
883.813048	0.799814
884.122806	0.830358
884.432522	0.852779
884.742197	0.871577
885.051831	0.883169
885.361424	0.892935
885.670975	0.904774
885.980485	0.915810
886.289954	0.920889
886.599382	0.926027
886.908768	0.929625
887.218113	0.935583
887.527417	0.939398
887.836680	0.943359
888.145901	0.944630
888.455082	0.946675
888.764221	0.951316
889.073319	0.953327
889.382376	0.954058
889.691392	0.953750
890.000366	0.953046
890.309300	0.954779
890.618193	0.953996
890.927044	0.951127
891.235855	0.952261
891.544625	0.952855
891.853353	0.952104
892.162041	0.948916
892.470687	0.943606
892.779293	0.938930
893.087858	0.934624
893.396381	0.927685
893.704864	0.914733
894.013306	0.891154
894.321707	0.864048
894.630068	0.850362
894.938387	0.846296
895.246665	0.846342
895.554903	0.859002
895.863100	0.872517
896.171256	0.888834
896.479371	0.908639
896.787446	0.919932
897.095480	0.926871
897.403473	0.929282
897.711425	0.932610
898.019336	0.941449
898.327207	0.943422
898.635038	0.945323
898.942827	0.944956
899.250576	0.947276
899.558284	0.953271
899.865952	0.955304
900.173579	0.955267
900.481165	0.955902
900.788711	0.960149
901.096216	0.961343
901.403681	0.962213
901.711105	0.963723
902.018489	0.963812
902.325832	0.962988
902.633135	0.961871
902.940397	0.956402
903.247619	0.944190
903.554800	0.919670
903.861941	0.880464
904.169041	0.845542
904.476101	0.828780
904.783121	0.829930
905.090100	0.844909
905.397039	0.866656
905.703938	0.887677
906.010796	0.907610
906.317614	0.924385
906.624391	0.935803
906.931129	0.943763
907.237826	0.952649
907.544483	0.959515
907.851099	0.963022
908.157675	0.968284
908.464211	0.970508
908.770707	0.973426
909.077163	0.973684
909.383578	0.975490
909.689954	0.974915
909.996289	0.975844
910.302584	0.979026
910.608839	0.979124
910.915054	0.978303
911.221229	0.978172
911.527363	0.978182
911.833458	0.977080
912.139513	0.977561
912.445527	0.976255
912.751502	0.974062
913.057436	0.972518
913.363331	0.970372
913.669186	0.966139
913.975000	0.961732
914.280775	0.955921
914.586510	0.949418
914.892205	0.937156
915.197859	0.915481
915.503475	0.888603
915.809050	0.868907
916.114585	0.864576
916.420081	0.861299
916.725536	0.858773
917.030952	0.865918
917.336328	0.878962
917.641665	0.894437
917.946961	0.909317
918.252218	0.920111
918.557435	0.929046
918.862612	0.936597
919.167750	0.943540
919.472848	0.947155
919.777906	0.953280
920.082925	0.958864
920.387904	0.961876
920.692843	0.962162
920.997743	0.964470
921.302603	0.968508
921.607423	0.970412
921.912204	0.972538
922.216946	0.971756
922.521647	0.974131
922.826310	0.974846
923.130932	0.977566
923.435516	0.979501
923.740059	0.980170
924.044564	0.978636
924.349028	0.981007
924.653454	0.982678
924.957840	0.984935
925.262186	0.984418
925.566493	0.984394
925.870761	0.984841
926.174989	0.985500
926.479178	0.988515
926.783328	0.988428
927.087438	0.988244
927.391509	0.987564
927.695541	0.990074
927.999533	0.989008
928.303486	0.990471
928.607400	0.991378
928.911275	0.989329
929.215110	0.989875
929.518906	0.990666
929.822663	0.989669
930.126381	0.991288
930.430060	0.990265
930.733699	0.990607
931.037299	0.990039
931.340861	0.990509
931.644383	0.989906
931.947866	0.989689
932.251309	0.991155
932.554714	0.990673
932.858080	0.990605
933.161407	0.990280
933.464694	0.990423
933.767943	0.989803
934.071153	0.989600
934.374323	0.991516
934.677455	0.992018
934.980548	0.991364
935.283602	0.990792
935.586617	0.992060
935.889593	0.990894
936.192530	0.990312
936.495428	0.990449
936.798287	0.991019
937.101108	0.990404
937.403890	0.988714
937.706632	0.989437
938.009336	0.986813
938.312002	0.986338
938.614628	0.984830
938.917216	0.982986
939.219765	0.982005
939.522275	0.983194
939.824747	0.983374
940.127179	0.983385
940.429573	0.985082
940.731929	0.984542
941.034246	0.983529
941.336524	0.985392
941.638763	0.986115
941.940964	0.986357
942.243126	0.987047
942.545250	0.988179
942.847335	0.987646
943.149381	0.988084
943.451389	0.987942
943.753359	0.987969
944.055290	0.989691
944.357182	0.990525
944.659036	0.987818
944.960851	0.988303
945.262628	0.988995
945.564367	0.989958
945.866067	0.988743
946.167729	0.990419
946.469352	0.988706
946.770937	0.989056
947.072484	0.989762
947.373992	0.990055
947.675462	0.989667
947.976893	0.989643
948.278286	0.990773
948.579641	0.992482
948.880958	0.990877
949.182236	0.990269
949.483476	0.991745
949.784678	0.988783
950.085841	0.991012
950.386967	0.990081
950.688054	0.990350
950.989103	0.990844
951.290114	0.988978
951.591087	0.989557
951.892021	0.990236
952.192917	0.988274
952.493776	0.987575
952.794596	0.988548
953.095378	0.987244
953.396122	0.987971
953.696828	0.987701
953.997496	0.989315
954.298126	0.991009
954.598718	0.990393
954.899272	0.991518
955.199788	0.990584
955.500266	0.993567
955.800706	0.992123
956.101108	0.992722
956.401472	0.993034
956.701798	0.993954
957.002087	0.993471
957.302337	0.993020
957.602550	0.994363
957.902724	0.994670
958.202861	0.995252
958.502960	0.994510
958.803022	0.994127
959.103045	0.995223
959.403031	0.996041
959.702979	0.995436
960.002889	0.995232
960.302762	0.994510
960.602596	0.996926
960.902393	0.994346
961.202153	0.996785
961.501875	0.996117
961.801559	0.996050
962.101205	0.994916
962.400814	0.996305
962.700385	0.995613
962.999918	0.996055
963.299414	0.996045
963.598873	0.996262
963.898293	0.996380
964.197677	0.997317
964.497022	0.997122
964.796331	0.997220
965.095601	0.996599
965.394835	0.996722
965.694030	0.996074
965.993189	0.996928
966.292309	0.996741
966.591393	0.997452
966.890439	0.997443
967.189447	0.996960
967.488419	0.997133
967.787353	0.995625
968.086249	0.996387
968.385108	0.996295
968.683930	0.996664
968.982714	0.996862
969.281462	0.996610
969.580172	0.996089
969.878844	0.996823
970.177480	0.997641
970.476078	0.997145
970.774639	0.995663
971.073162	0.998948
971.371649	0.996223
971.670098	0.996016
971.968510	0.997049
972.266885	0.995169
972.565223	0.995996
972.863524	0.996350
973.161788	0.995202
973.460014	0.996311
973.758204	0.995094
974.056356	0.996705
974.354471	0.994015
974.652550	0.995181
974.950591	0.995345
975.248595	0.995641
975.546563	0.997266
975.844493	0.997443
976.142386	0.997460
976.440243	0.996159
976.738062	0.997189
977.035845	0.997069
977.333590	0.997339
977.631299	0.997978
977.928971	0.995953
978.226606	0.996820
978.524204	0.996846
978.821765	0.997201
979.119290	0.995673
979.416777	0.997180
979.714228	0.997066
980.011642	0.995992
980.309020	0.996460
980.606360	0.996536
980.903664	0.997771
981.200931	0.996121
981.498162	0.994747
981.795356	0.994801
982.092513	0.994435
982.389633	0.994645
982.686717	0.991257
982.983764	0.990803
983.280775	0.991417
983.577749	0.989784
983.874686	0.991657
984.171587	0.992170
984.468451	0.993952
984.765279	0.994553
985.062070	0.993577
985.358824	0.995533
985.655543	0.994428
985.952224	0.995371
986.248869	0.995744
986.545478	0.995964
986.842050	0.998519
987.138586	0.996856
987.435086	0.997533
987.731549	0.997412
988.027975	0.996850
988.324366	0.996462
988.620719	0.997084
988.917037	0.997242
989.213318	0.997663
989.509563	0.998422
989.805772	0.997946
990.101944	0.998109
990.398080	0.997323
990.694180	0.997329
990.990244	0.997568
991.286271	0.997577
991.582262	0.998259
991.878217	0.997587
992.174136	0.998048
992.470019	0.998222
992.765865	0.996887
993.061676	0.998454
993.357450	0.997986
993.653188	0.996457
993.948890	0.996400
994.244556	0.996377
994.540186	0.997000
994.835780	0.996535
995.131337	0.997957
995.426859	0.996467
995.722345	0.997024
996.017795	0.996181
996.313208	0.996084
996.608586	0.995818
996.903928	0.996613
997.199234	0.995724
997.494504	0.996267
997.789738	0.996357
998.084936	0.996594
998.380099	0.997349
998.675225	0.996183
998.970316	0.997899
999.265371	0.998659
999.560390	0.998151
999.855373	0.997150
1000.150320	0.998318
1000.445232	0.998534
1000.740108	0.997746
1001.034948	0.997450
1001.329752	0.997633
1001.624521	0.999145
1001.919254	0.996284
1002.213951	0.997301
1002.508613	0.996315
1002.803239	0.998838
1003.097829	0.998067
1003.392384	0.998732
1003.686903	0.996925
1003.981386	0.998465
1004.275834	0.998984
1004.570246	0.997669
1004.864623	0.998536
1005.158964	0.999337
1005.453270	0.998147
1005.747540	0.996623
1006.041775	0.998805
1006.335974	0.999476
1006.630138	0.998269
1006.924266	0.999331
1007.218359	0.999745
1007.512416	0.998615
1007.806438	0.998683
1008.100425	0.999934
1008.394376	0.998653
1008.688292	0.999421
1008.982172	1.000283
1009.276017	0.999607
1009.569827	0.997935
1009.863602	0.998473
1010.157341	0.998863
1010.451045	0.998533
1010.744714	0.999423
1011.038347	0.999201
1011.331945	0.999363
1011.625508	0.997780
1011.919036	0.998414
1012.212528	0.997866
1012.505986	0.998414
1012.799408	0.999247
1013.092795	0.997857
1013.386147	0.999557
1013.679464	0.997691
1013.972745	0.998254
1014.265992	0.997268
1014.559204	0.997900
1014.852380	0.998672
1015.145521	0.998748
1015.438628	0.998629
1015.731699	0.997621
1016.024736	0.999142
1016.317737	0.998820
1016.610703	0.998786
1016.903635	0.999953
1017.196531	0.999022
1017.489393	0.999028
1017.782219	0.998730
1018.075011	0.998789
1018.367768	0.998925
1018.660490	0.998235
1018.953177	0.998235
1019.245829	0.998235
