Dividing Wavelength (nm)	Counts (n)	Blue Motor Position (mm): 0.000000	Red Motor Position (mm): 20.600000	
326.493990	1.002596
326.888308	1.002596
327.282561	1.002596
327.676750	0.999922
328.070874	1.000214
328.464933	1.000095
328.858929	1.000187
329.252859	0.999703
329.646726	0.999908
330.040528	1.001023
330.434265	1.000390
330.827938	1.000787
331.221547	1.001598
331.615091	1.000556
332.008571	1.000436
332.401986	1.001026
332.795338	1.000326
333.188625	0.998971
333.581847	1.000919
333.975006	0.999687
334.368100	1.000174
334.761129	1.000218
335.154095	1.001921
335.546996	0.999127
335.939833	0.994159
336.332606	0.993215
336.725315	0.995795
337.117960	0.994880
337.510540	0.995243
337.903056	0.995022
338.295508	0.993631
338.687896	0.994964
339.080220	0.995863
339.472480	0.994946
339.864676	0.995082
340.256807	0.995155
340.648875	0.995317
341.040879	0.994561
341.432818	0.994377
341.824694	0.994377
342.216506	0.995347
342.608253	0.995538
342.999937	0.994420
343.391557	0.995196
343.783113	0.994405
344.174605	0.995211
344.566033	0.995857
344.957397	0.992985
345.348697	0.994624
345.739934	0.994065
346.131106	0.994866
346.522215	0.994194
346.913260	0.993746
347.304241	0.995018
347.695159	0.994533
348.086012	0.994088
348.476802	0.994009
348.867528	0.995529
349.258191	0.993204
349.648789	0.994597
350.039324	0.995382
350.429796	0.996064
350.820203	0.995261
351.210548	0.994638
351.600828	0.994791
351.991045	0.994941
352.381198	0.994040
352.771288	0.994189
353.161314	0.994462
353.551276	0.996553
353.941175	0.993644
354.331010	0.993423
354.720782	0.995172
355.110490	0.993876
355.500135	0.996339
355.889717	0.993940
356.279235	0.994487
356.668689	0.993698
357.058080	0.994908
357.447408	0.996228
357.836672	0.995328
358.225873	0.995068
358.615010	0.994285
359.004084	0.996076
359.393095	0.995872
359.782043	0.995974
360.170927	0.995585
360.559748	0.995600
360.948505	0.994103
361.337199	0.993461
361.725830	0.994217
362.114398	0.995728
362.502903	0.995545
362.891344	0.996318
363.279722	0.994554
363.668037	0.994968
364.056289	0.994057
364.444478	0.995242
364.832603	0.995666
365.220665	0.994355
365.608665	0.995032
365.996601	0.994186
366.384474	0.994511
366.772284	0.994845
367.160031	0.993672
367.547715	0.992436
367.935336	0.995700
368.322893	0.994532
368.710388	0.993757
369.097820	0.996043
369.485189	0.995313
369.872495	0.995066
370.259738	0.991676
370.646918	0.994776
371.034035	0.995932
371.421090	0.994465
371.808081	0.995377
372.195010	0.994988
372.581875	0.995034
372.968678	0.994549
373.355418	0.994392
373.742096	0.994146
374.128710	0.995344
374.515262	0.994000
374.901751	0.995463
375.288177	0.994567
375.674540	0.995747
376.060841	0.994523
376.447079	0.994885
376.833254	0.995338
377.219367	0.995109
377.605417	0.995628
377.991404	0.994618
378.377329	0.995408
378.763191	0.994796
379.148991	0.995799
379.534727	0.995723
379.920402	0.995238
380.306013	0.994769
380.691563	0.996898
381.077049	0.994982
381.462474	0.996141
381.847835	0.995116
382.233134	0.994626
382.618371	0.995154
383.003545	0.995701
383.388657	0.995508
383.773706	0.996264
384.158693	0.995677
384.543618	0.995577
384.928480	0.996100
385.313280	0.996061
385.698017	0.996916
386.082692	0.995644
386.467305	0.995276
386.851856	0.996459
387.236344	0.995219
387.620770	0.994989
388.005133	0.996999
388.389435	0.996048
388.773674	0.995275
389.157851	0.996537
389.541965	0.996691
389.926018	0.995527
390.310008	0.997176
390.693936	0.995326
391.077802	0.996556
391.461606	0.996473
391.845348	0.996194
392.229027	0.997757
392.612645	0.996193
392.996200	0.997596
393.379694	0.996273
393.763125	0.996776
394.146494	0.996704
394.529801	0.996966
394.913047	0.996234
395.296230	0.996281
395.679351	0.996731
396.062410	0.996017
396.445408	0.997403
396.828343	0.996294
397.211217	0.996777
397.594028	0.996476
397.976778	0.995709
398.359466	0.996813
398.742092	0.995959
399.124656	0.996259
399.507158	0.995942
399.889598	0.996641
400.271977	0.996895
400.654294	0.996477
401.036549	0.998056
401.418742	0.997233
401.800874	0.996164
402.182944	0.996670
402.564952	0.995010
402.946898	0.997354
403.328783	0.995754
403.710606	0.996582
404.092367	0.996288
404.474067	0.995880
404.855705	0.995875
405.237282	0.995805
405.618797	0.995523
406.000250	0.995240
406.381642	0.997155
406.762972	0.995618
407.144240	0.996844
407.525447	0.995908
407.906593	0.996374
408.287677	0.995885
408.668700	0.996113
409.049661	0.994655
409.430560	0.995711
409.811399	0.995255
410.192176	0.995086
410.572891	0.994640
410.953545	0.994586
411.334138	0.993379
411.714669	0.994545
412.095139	0.993991
412.475547	0.993511
412.855894	0.992726
413.236180	0.991830
413.616405	0.991651
413.996568	0.991216
414.376670	0.989214
414.756711	0.987525
415.136691	0.987172
415.516609	0.985114
415.896466	0.983954
416.276262	0.981459
416.655997	0.981194
417.035670	0.976451
417.415283	0.975309
417.794834	0.972997
418.174324	0.970539
418.553753	0.968401
418.933121	0.964742
419.312428	0.960971
419.691674	0.957480
420.070859	0.954112
420.449983	0.951304
420.829045	0.946221
421.208047	0.942880
421.586988	0.939086
421.965867	0.933575
422.344686	0.927527
422.723444	0.924067
423.102141	0.921668
423.480777	0.912841
423.859352	0.910283
424.237866	0.901396
424.616319	0.895608
424.994712	0.887665
425.373044	0.882621
425.751314	0.874279
426.129524	0.870259
426.507673	0.860501
426.885762	0.852343
427.263789	0.844159
427.641756	0.840897
428.019662	0.831058
428.397508	0.822335
428.775292	0.814136
429.153016	0.804619
429.530679	0.799442
429.908282	0.788120
430.285824	0.783667
430.663305	0.766311
431.040726	0.765852
431.418086	0.758460
431.795385	0.745823
432.172624	0.736251
432.549802	0.728455
432.926920	0.718572
433.303977	0.709589
433.680974	0.699841
434.057910	0.690128
434.434786	0.681483
434.811601	0.674049
435.188355	0.655666
435.565050	0.651711
435.941683	0.644631
436.318257	0.627167
436.694770	0.618555
437.071222	0.608936
437.447614	0.603870
437.823946	0.600417
438.200218	0.584946
438.576429	0.585108
438.952580	0.572067
439.328670	0.562790
439.704700	0.560819
440.080670	0.555263
440.456580	0.532765
440.832429	0.532421
441.208218	0.535109
441.583947	0.520894
441.959616	0.514155
442.335224	0.513180
442.710773	0.500211
443.086261	0.492237
443.461689	0.500801
443.837057	0.486213
444.212365	0.472817
444.587612	0.474423
444.962800	0.460999
445.337927	0.458323
445.712995	0.477623
446.088002	0.439861
446.462949	0.446327
446.837837	0.446693
447.212664	0.434013
447.587431	0.422483
447.962139	0.392027
448.336786	0.351297
448.711374	0.358565
449.085901	0.397825
449.460369	0.399376
449.834776	0.400514
450.209124	0.379045
450.583412	0.370176
450.957640	0.362431
451.331808	0.371612
451.705917	0.392748
452.079965	0.395998
452.453954	0.383540
452.827883	0.389158
453.201752	0.383658
453.575562	0.393701
453.949311	0.381243
454.323001	0.387047
454.696632	0.381943
455.070202	0.373922
455.443713	0.365649
455.817164	0.360250
456.190556	0.355493
456.563888	0.351771
456.937160	0.349242
457.310373	0.366124
457.683526	0.364292
458.056619	0.369819
458.429653	0.370253
458.802628	0.373129
459.175542	0.367835
459.548398	0.350439
459.921194	0.342163
460.293930	0.342448
460.666607	0.320016
461.039224	0.308277
461.411782	0.303750
461.784280	0.302688
462.156719	0.307216
462.529099	0.311193
462.901419	0.327155
463.273680	0.331525
463.645882	0.330909
464.018024	0.336561
464.390106	0.329751
464.762130	0.314247
465.134094	0.297554
465.505999	0.266697
465.877845	0.237432
466.249631	0.224435
466.621358	0.232054
466.993026	0.245495
467.364634	0.251684
467.736184	0.260395
468.107674	0.269154
468.479105	0.267944
468.850477	0.274831
469.221790	0.281462
469.593043	0.292001
469.964238	0.296401
470.335373	0.295714
470.706449	0.293963
471.077467	0.294572
471.448425	0.256966
471.819324	0.232684
472.190164	0.231929
472.560945	0.260875
472.931667	0.283010
473.302330	0.287034
473.672934	0.298964
474.043479	0.287076
474.413965	0.288630
474.784393	0.292219
475.154761	0.287782
475.525070	0.284641
475.895321	0.290235
476.265513	0.284362
476.635645	0.279708
477.005719	0.279924
477.375734	0.276351
477.745691	0.269932
478.115588	0.266269
478.485427	0.259831
478.855207	0.246795
479.224928	0.229057
479.594591	0.217389
479.964194	0.221012
480.333739	0.222007
480.703226	0.223586
481.072653	0.222035
481.442022	0.217574
481.811333	0.214100
482.180584	0.217746
482.549777	0.222997
482.918912	0.226238
483.287988	0.225866
483.657005	0.225739
484.025964	0.231818
484.394864	0.229371
484.763706	0.230064
485.132489	0.235001
485.501213	0.235557
485.869879	0.234032
486.238487	0.237228
486.607036	0.234980
486.975527	0.239456
487.343959	0.235632
487.712333	0.234657
488.080648	0.236080
488.448905	0.235045
488.817104	0.236497
489.185244	0.230873
489.553326	0.228024
489.921350	0.217860
490.289315	0.200353
490.657222	0.195363
491.025070	0.196583
491.392861	0.198389
491.760593	0.204240
492.128267	0.209861
492.495883	0.215287
492.863440	0.221391
493.230939	0.227994
493.598380	0.229210
493.965763	0.231355
494.333088	0.233320
494.700354	0.234784
495.067563	0.233962
495.434713	0.236964
495.801805	0.235255
496.168839	0.236458
496.535815	0.237880
496.902733	0.237772
497.269593	0.239315
497.636395	0.237250
498.003139	0.237577
498.369825	0.240250
498.736453	0.236916
499.103023	0.238554
499.469535	0.237811
499.835989	0.237893
500.202385	0.238794
500.568723	0.242370
500.935003	0.237454
501.301226	0.241655
501.667390	0.235918
502.033497	0.233948
502.399546	0.237092
502.765537	0.238636
503.131470	0.237126
503.497345	0.233251
503.863163	0.242207
504.228923	0.235049
504.594625	0.233836
504.960269	0.239313
505.325856	0.234752
505.691385	0.238858
506.056856	0.235637
506.422270	0.235249
506.787625	0.237570
507.152924	0.234915
507.518164	0.235524
507.883347	0.237115
508.248472	0.238770
508.613540	0.234022
508.978550	0.236299
509.343503	0.236783
509.708398	0.234284
510.073236	0.231902
510.438016	0.232294
510.802738	0.232966
511.167403	0.232085
511.532010	0.233902
511.896561	0.229331
512.261053	0.228498
512.625488	0.230421
512.989866	0.230610
513.354186	0.230869
513.718449	0.232690
514.082655	0.229110
514.446803	0.231275
514.810894	0.229113
515.174927	0.231757
515.538904	0.230982
515.902822	0.228154
516.266684	0.230176
516.630488	0.231627
516.994235	0.230281
517.357925	0.229021
517.721558	0.227518
518.085133	0.227246
518.448651	0.227119
518.812112	0.229359
519.175516	0.229100
519.538863	0.226838
519.902152	0.228094
520.265385	0.225073
520.628560	0.226906
520.991678	0.227195
521.354739	0.226212
521.717743	0.227509
522.080690	0.227967
522.443580	0.225109
522.806413	0.226108
523.169189	0.225378
523.531908	0.224434
523.894569	0.227844
524.257174	0.227812
524.619722	0.225539
524.982213	0.226709
525.344647	0.225606
525.707025	0.226399
526.069345	0.224491
526.431608	0.226334
526.793815	0.223941
527.155964	0.228365
527.518057	0.227330
527.880093	0.228200
528.242072	0.226862
528.603995	0.228778
528.965860	0.230259
529.327669	0.229317
529.689421	0.230241
530.051117	0.231060
530.412755	0.228713
530.774337	0.231378
531.135862	0.231499
531.497331	0.230780
531.858743	0.233621
532.220098	0.230563
532.581396	0.232998
532.942638	0.233504
533.303824	0.234243
533.664953	0.234197
534.026025	0.235752
534.387040	0.233963
534.747999	0.233713
535.108902	0.232939
535.469748	0.237541
535.830537	0.235567
536.191270	0.235893
536.551947	0.235192
536.912567	0.235521
537.273131	0.237387
537.633638	0.237404
537.994089	0.237927
538.354483	0.238739
538.714821	0.235750
539.075103	0.235624
539.435328	0.236113
539.795497	0.239879
540.155609	0.236574
540.515665	0.234790
540.875665	0.240325
541.235609	0.239002
541.595496	0.239017
541.955328	0.235530
542.315102	0.238202
542.674821	0.239218
543.034483	0.239602
543.394090	0.239041
543.753640	0.240829
544.113134	0.235803
544.472571	0.239112
544.831953	0.236063
545.191278	0.240113
545.550548	0.239740
545.909761	0.236505
546.268918	0.237114
546.628019	0.235636
546.987064	0.238149
547.346053	0.240164
547.704986	0.237865
548.063863	0.238432
548.422684	0.238395
548.781449	0.240294
549.140158	0.237791
549.498811	0.240672
549.857408	0.243821
550.215949	0.238631
550.574434	0.241904
550.932864	0.239639
551.291237	0.238244
551.649555	0.239753
552.007817	0.239181
552.366022	0.240202
552.724173	0.240562
553.082267	0.241055
553.440305	0.237605
553.798288	0.242155
554.156215	0.238559
554.514086	0.239399
554.871902	0.242508
555.229661	0.241795
555.587365	0.242239
555.945014	0.244607
556.302606	0.241665
556.660143	0.244369
557.017625	0.240698
557.375050	0.242833
557.732421	0.239661
558.089735	0.241935
558.446994	0.242321
558.804197	0.241133
559.161345	0.241520
559.518437	0.244792
559.875474	0.242506
560.232455	0.241923
560.589381	0.242969
560.946251	0.243176
561.303065	0.240839
561.659825	0.242008
562.016528	0.243673
562.373177	0.246583
562.729770	0.243663
563.086307	0.245600
563.442789	0.243559
563.799216	0.246480
564.155587	0.245267
564.511904	0.246383
564.868164	0.246452
565.224370	0.246453
565.580520	0.247846
565.936615	0.247667
566.292654	0.250876
566.648638	0.247718
567.004567	0.248867
567.360441	0.249390
567.716260	0.251439
568.072023	0.249107
568.427732	0.249710
568.783385	0.252368
569.138982	0.250340
569.494525	0.249994
569.850013	0.252975
570.205445	0.251073
570.560823	0.253929
570.916145	0.255796
571.271412	0.254038
571.626625	0.255503
571.981782	0.256184
572.336884	0.256890
572.691931	0.256775
573.046923	0.257994
573.401860	0.258763
573.756743	0.260622
574.111570	0.259466
574.466342	0.260107
574.821059	0.259315
575.175722	0.261827
575.530330	0.261717
575.884882	0.261783
576.239380	0.263956
576.593823	0.264637
576.948211	0.264079
577.302544	0.267380
577.656823	0.266768
578.011047	0.266805
578.365216	0.267532
578.719330	0.269555
579.073389	0.269497
579.427394	0.270731
579.781344	0.271575
580.135239	0.272799
580.489080	0.272726
580.842866	0.275673
581.196597	0.275576
581.550273	0.274107
581.903895	0.274790
582.257463	0.273289
582.610975	0.276885
582.964434	0.275707
583.317837	0.278539
583.671186	0.278962
584.024481	0.279033
584.377721	0.281366
584.730906	0.282272
585.084037	0.281165
585.437113	0.283320
585.790135	0.282238
586.143103	0.285532
586.496016	0.286682
586.848874	0.283708
587.201679	0.284357
587.554428	0.288005
587.907124	0.286702
588.259765	0.287435
588.612352	0.287793
588.964884	0.291764
589.317362	0.291516
589.669786	0.291501
590.022155	0.289878
590.374470	0.289277
590.726731	0.291247
591.078937	0.295960
591.431090	0.292131
591.783188	0.296462
592.135232	0.296717
592.487222	0.297048
592.839157	0.295278
593.191038	0.297131
593.542866	0.298999
593.894639	0.302680
594.246358	0.300655
594.598022	0.300014
594.949633	0.303840
595.301190	0.304532
595.652692	0.303974
596.004141	0.299928
596.355535	0.308086
596.706876	0.308323
597.058162	0.311085
597.409395	0.308209
597.760573	0.305986
598.111698	0.308895
598.462768	0.309758
598.813785	0.310905
599.164748	0.312257
599.515657	0.312508
599.866511	0.315682
600.217312	0.311024
600.568060	0.316447
600.918753	0.312662
601.269392	0.313611
601.619978	0.317262
601.970510	0.314408
602.320988	0.314783
602.671412	0.312384
603.021783	0.314793
603.372100	0.316331
603.722363	0.316183
604.072572	0.316902
604.422728	0.316641
604.772830	0.318488
605.122878	0.318158
605.472872	0.318553
605.822813	0.316792
606.172701	0.319614
606.522534	0.317347
606.872314	0.317207
607.222041	0.318352
607.571714	0.316052
607.921333	0.317878
608.270899	0.317403
608.620411	0.313949
608.969870	0.318112
609.319276	0.318231
609.668627	0.317868
610.017926	0.316467
610.367171	0.315022
610.716362	0.315765
611.065500	0.315960
611.414585	0.314818
611.763616	0.315461
612.112594	0.316007
612.461518	0.315245
612.810389	0.312618
613.159207	0.315393
613.507971	0.317223
613.856682	0.312607
614.205340	0.314631
614.553945	0.311331
614.902496	0.315035
615.250994	0.312926
615.599439	0.313932
615.947830	0.313036
616.296169	0.314142
616.644454	0.313581
616.992686	0.313537
617.340864	0.311539
617.688990	0.315045
618.037063	0.311679
618.385082	0.313523
618.733048	0.310467
619.080961	0.312853
619.428821	0.312052
619.776628	0.312033
620.124382	0.313793
620.472083	0.314288
620.819731	0.313308
621.167326	0.317403
621.514868	0.316768
621.862357	0.321215
622.209793	0.320982
622.557176	0.323176
622.904506	0.324371
623.251783	0.326573
623.599007	0.328684
623.946179	0.328352
624.293297	0.330045
624.640363	0.334046
624.987376	0.334894
625.334336	0.337525
625.681243	0.339513
626.028097	0.340080
626.374899	0.341470
626.721647	0.341313
627.068343	0.344903
627.414987	0.345607
627.761577	0.347789
628.108115	0.346119
628.454600	0.350892
628.801032	0.348435
629.147412	0.350827
629.493739	0.351044
629.840014	0.354482
630.186236	0.351696
630.532405	0.357363
630.878521	0.354816
631.224585	0.356864
631.570597	0.360423
631.916556	0.359159
632.262462	0.359076
632.608316	0.360825
632.954117	0.361929
633.299866	0.362991
633.645562	0.363131
633.991206	0.367688
634.336797	0.370549
634.682336	0.372559
635.027823	0.374233
635.373257	0.374897
635.718639	0.378643
636.063968	0.377470
636.409245	0.383633
636.754470	0.383647
637.099642	0.386178
637.444762	0.389332
637.789829	0.389023
638.134845	0.392198
638.479808	0.393289
638.824719	0.393015
639.169577	0.397341
639.514383	0.395578
639.859137	0.400593
640.203839	0.399869
640.548489	0.400549
640.893086	0.401516
641.237632	0.403244
641.582125	0.401844
641.926566	0.403001
642.270955	0.403484
642.615292	0.404134
642.959576	0.402777
643.303809	0.403662
643.647990	0.403069
643.992118	0.403486
644.336195	0.407235
644.680219	0.405539
645.024192	0.406095
645.368112	0.400092
645.711981	0.398608
646.055797	0.393762
646.399562	0.396347
646.743274	0.388685
647.086935	0.385996
647.430544	0.386469
647.774101	0.385381
648.117606	0.384488
648.461059	0.385135
648.804460	0.387607
649.147810	0.392424
649.491108	0.395015
649.834354	0.395943
650.177548	0.401965
650.520690	0.406417
650.863781	0.407899
651.206820	0.407030
651.549807	0.412007
651.892742	0.416561
652.235626	0.415135
652.578458	0.416510
652.921238	0.422350
653.263967	0.419913
653.606644	0.424515
653.949269	0.423865
654.291843	0.427997
654.634365	0.424282
654.976836	0.427706
655.319255	0.427392
655.661622	0.429398
656.003938	0.429704
656.346203	0.432703
656.688416	0.430602
657.030577	0.433822
657.372687	0.435590
657.714746	0.436634
658.056753	0.433519
658.398708	0.437194
658.740612	0.438559
659.082465	0.434499
659.424266	0.434834
659.766016	0.434467
660.107715	0.437172
660.449362	0.436038
660.790958	0.436603
661.132503	0.437190
661.473996	0.434698
661.815438	0.436349
662.156829	0.435943
662.498168	0.436659
662.839456	0.437679
663.180693	0.436198
663.521879	0.436308
663.863013	0.436986
664.204097	0.435812
664.545129	0.432115
664.886110	0.432681
665.227040	0.430305
665.567918	0.432622
665.908746	0.430718
666.249522	0.429904
666.590248	0.430816
666.930922	0.429663
667.271545	0.428639
667.612118	0.428073
667.952639	0.430010
668.293109	0.428642
668.633528	0.431358
668.973896	0.431384
669.314213	0.431961
669.654480	0.433738
669.994695	0.433730
670.334859	0.434417
670.674973	0.434594
671.015035	0.434642
671.355047	0.434612
671.695008	0.436188
672.034918	0.438016
672.374777	0.437469
672.714585	0.438067
673.054342	0.438285
673.394049	0.438558
673.733705	0.435957
674.073310	0.437046
674.412864	0.440299
674.752368	0.440742
675.091820	0.441000
675.431223	0.444759
675.770574	0.444952
676.109875	0.448311
676.449125	0.448558
676.788324	0.450652
677.127473	0.455597
677.466571	0.455950
677.805619	0.457239
678.144616	0.457918
678.483562	0.460054
678.822458	0.461558
679.161303	0.463427
679.500098	0.463945
679.838842	0.466205
680.177535	0.465387
680.516179	0.464136
680.854771	0.462195
681.193314	0.456014
681.531805	0.447824
681.870247	0.435969
682.208638	0.428547
682.546978	0.427880
682.885268	0.428960
683.223508	0.435419
683.561697	0.439309
683.899836	0.441784
684.237925	0.445318
684.575963	0.447657
684.913951	0.450935
685.251889	0.446531
685.589776	0.448921
685.927614	0.451331
686.265401	0.444966
686.603137	0.446679
686.940824	0.440656
687.278460	0.439077
687.616046	0.438147
687.953582	0.432605
688.291068	0.434580
688.628504	0.430472
688.965889	0.432557
689.303224	0.436435
689.640510	0.440383
689.977745	0.446138
690.314930	0.454255
690.652065	0.459226
690.989150	0.466580
691.326185	0.472542
691.663170	0.477097
692.000105	0.484406
692.336990	0.491578
692.673825	0.494118
693.010610	0.501062
693.347345	0.506392
693.684030	0.507707
694.020665	0.512542
694.357251	0.521501
694.693786	0.520852
695.030272	0.525268
695.366707	0.528575
695.703093	0.532495
696.039429	0.529781
696.375716	0.531879
696.711952	0.534370
697.048139	0.536534
697.384276	0.538625
697.720363	0.536614
698.056400	0.535911
698.392388	0.541208
698.728326	0.544424
699.064214	0.547039
699.400053	0.547278
699.735842	0.551293
700.071581	0.553960
700.407270	0.556814
700.742910	0.559375
701.078501	0.566011
701.414042	0.566219
701.749533	0.569676
702.084974	0.578258
702.420366	0.570265
702.755709	0.578422
703.091002	0.586628
703.426246	0.579503
703.761440	0.585225
704.096584	0.589935
704.431679	0.586610
704.766725	0.589119
705.101721	0.590909
705.436668	0.586500
705.771565	0.593329
706.106413	0.590779
706.441212	0.585798
706.775961	0.584226
707.110661	0.588028
707.445311	0.583708
707.779913	0.581352
708.114465	0.579312
708.448967	0.576343
708.783421	0.568466
709.117825	0.563225
709.452180	0.563542
709.786485	0.556330
710.120742	0.546484
710.454949	0.548493
710.789107	0.540738
711.123216	0.532303
711.457275	0.533323
711.791286	0.524361
712.125247	0.522927
712.459159	0.534442
712.793023	0.526031
713.126837	0.531321
713.460602	0.531137
713.794318	0.540388
714.127985	0.539605
714.461602	0.549729
714.795171	0.552977
715.128691	0.560460
715.462162	0.567896
715.795584	0.573514
716.128957	0.576344
716.462281	0.582879
716.795556	0.585966
717.128782	0.591996
717.461960	0.600851
717.795088	0.599189
718.128167	0.605965
718.461198	0.614395
718.794180	0.615286
719.127113	0.617456
719.459997	0.620973
719.792833	0.626970
720.125619	0.628415
720.458357	0.634630
720.791046	0.634382
721.123686	0.638017
721.456278	0.644804
721.788821	0.642229
722.121315	0.646224
722.453761	0.649681
722.786158	0.647731
723.118506	0.644858
723.450805	0.652149
723.783056	0.649103
724.115259	0.645699
724.447412	0.645550
724.779518	0.646842
725.111574	0.646006
725.443582	0.641590
725.775542	0.642772
726.107453	0.634939
726.439315	0.635466
726.771129	0.633726
727.102895	0.626977
727.434612	0.620556
727.766281	0.617626
728.097901	0.617001
728.429473	0.616677
728.760996	0.615937
729.092471	0.615738
729.423897	0.619339
729.755276	0.619322
730.086606	0.618892
730.417887	0.612850
730.749120	0.603801
731.080305	0.594527
731.411442	0.591050
731.742530	0.596103
732.073570	0.595015
732.404562	0.586958
732.735506	0.588765
733.066401	0.593261
733.397249	0.603008
733.728048	0.613365
734.058798	0.626449
734.389501	0.637313
734.720156	0.646736
735.050762	0.654350
735.381320	0.655493
735.711831	0.665129
736.042293	0.670413
736.372707	0.665091
736.703073	0.669929
737.033391	0.672780
737.363661	0.668821
737.693883	0.664629
738.024056	0.663492
738.354182	0.664654
738.684260	0.653152
739.014290	0.649704
739.344272	0.650058
739.674207	0.643434
740.004093	0.642720
740.333931	0.643258
740.663722	0.643216
740.993464	0.644588
741.323159	0.647472
741.652806	0.652932
741.982405	0.657679
742.311956	0.662589
742.641460	0.664760
742.970915	0.668358
743.300323	0.675508
743.629683	0.681600
743.958996	0.684040
744.288260	0.688222
744.617477	0.694300
744.946647	0.696543
745.275768	0.700962
745.604842	0.701230
745.933869	0.710866
746.262847	0.711935
746.591778	0.705167
746.920662	0.711619
747.249498	0.718252
747.578286	0.708253
747.907027	0.705083
748.235720	0.705986
748.564365	0.700283
748.892963	0.700351
749.221514	0.703819
749.550017	0.708774
749.878473	0.708531
750.206881	0.714849
750.535242	0.716867
750.863555	0.715160
751.191821	0.717075
751.520039	0.719747
751.848210	0.725040
752.176334	0.717286
752.504411	0.716538
752.832440	0.723720
753.160421	0.728549
753.488356	0.726653
753.816243	0.724445
754.144082	0.732755
754.471875	0.736508
754.799620	0.731545
755.127318	0.732934
755.454969	0.733417
755.782572	0.731872
756.110129	0.736697
756.437638	0.739416
756.765100	0.736542
757.092515	0.733254
757.419882	0.732803
757.747203	0.739046
758.074477	0.737766
758.401703	0.735037
758.728882	0.729530
759.056014	0.729241
759.383099	0.727881
759.710138	0.729329
760.037129	0.725957
760.364073	0.719384
760.690970	0.721769
761.017820	0.728442
761.344623	0.722427
761.671379	0.714060
761.998088	0.702416
762.324751	0.680214
762.651366	0.638720
762.977935	0.571016
763.304456	0.518945
763.630931	0.509673
763.957359	0.549298
764.283740	0.593411
764.610074	0.620502
764.936362	0.650933
765.262602	0.678555
765.588796	0.699724
765.914943	0.717125
766.241044	0.735483
766.567097	0.742212
766.893104	0.751682
767.219064	0.758334
767.544978	0.764596
767.870845	0.778062
768.196665	0.782012
768.522438	0.779367
768.848165	0.781034
769.173846	0.789652
769.499479	0.795069
769.825066	0.797882
770.150607	0.803325
770.476101	0.798461
770.801548	0.799468
771.126949	0.810396
771.452303	0.814794
771.777611	0.813569
772.102872	0.812916
772.428087	0.817775
772.753256	0.821570
773.078378	0.823374
773.403453	0.832603
773.728482	0.836517
774.053465	0.829132
774.378401	0.833384
774.703291	0.841687
775.028135	0.842786
775.352932	0.843578
775.677683	0.845785
776.002388	0.846886
776.327046	0.845537
776.651658	0.849775
776.976224	0.853082
777.300743	0.853478
777.625216	0.855187
777.949643	0.857125
778.274024	0.857802
778.598359	0.858887
778.922647	0.856787
779.246889	0.858427
779.571086	0.861582
779.895236	0.865424
780.219339	0.861297
780.543397	0.859284
780.867409	0.856701
781.191374	0.858698
781.515294	0.860578
781.839167	0.859507
782.162995	0.862441
782.486776	0.860252
782.810511	0.860651
783.134201	0.864628
783.457844	0.862770
783.781441	0.864326
784.104993	0.869888
784.428498	0.870918
784.751958	0.866702
785.075372	0.869341
785.398739	0.872568
785.722061	0.868952
786.045337	0.864201
786.368568	0.869998
786.691752	0.872327
787.014891	0.857932
787.337983	0.849562
787.661030	0.841336
787.984031	0.824360
788.306987	0.810863
788.629897	0.813503
788.952760	0.817525
789.275579	0.821121
789.598351	0.836132
789.921078	0.849257
790.243759	0.851350
790.566395	0.856311
790.888984	0.864639
791.211529	0.868974
791.534027	0.871241
791.856480	0.874170
792.178888	0.879317
792.501249	0.882689
792.823566	0.882884
793.145836	0.882372
793.468062	0.885000
793.790241	0.885305
794.112375	0.882886
794.434464	0.878214
794.756507	0.878471
795.078505	0.877538
795.400457	0.872969
795.722364	0.860426
796.044226	0.853310
796.366042	0.852422
796.687812	0.855199
797.009538	0.851801
797.331218	0.855140
797.652852	0.860598
797.974442	0.864970
798.295986	0.864448
798.617484	0.866958
798.938938	0.871734
799.260346	0.876663
799.581709	0.877191
799.903026	0.880871
800.224299	0.880209
800.545526	0.885215
800.866708	0.889087
801.187845	0.893378
801.508936	0.892726
801.829983	0.890059
802.150984	0.891649
802.471940	0.897969
802.792851	0.897530
803.113717	0.898267
803.434538	0.895954
803.755314	0.899408
804.076045	0.900566
804.396731	0.900811
804.717372	0.900134
805.037967	0.901017
805.358518	0.899013
805.679024	0.897544
805.999485	0.898236
806.319901	0.897079
806.640272	0.898749
806.960598	0.896224
807.280879	0.894917
807.601115	0.892632
807.921306	0.895502
808.241453	0.895631
808.561554	0.893700
808.881611	0.893599
809.201623	0.895859
809.521590	0.896964
809.841513	0.897221
810.161390	0.896008
810.481223	0.898110
810.801011	0.900519
811.120755	0.903474
811.440453	0.902479
811.760107	0.900321
812.079716	0.899658
812.399281	0.904684
812.718801	0.906940
813.038276	0.906992
813.357707	0.907046
813.677093	0.903797
813.996434	0.907131
814.315731	0.908955
814.634983	0.910337
814.954191	0.908126
815.273354	0.905969
815.592473	0.900827
815.911547	0.901451
816.230577	0.899223
816.549562	0.896473
816.868502	0.897260
817.187399	0.893794
817.506250	0.888466
817.825058	0.889910
818.143821	0.886807
818.462539	0.881393
818.781213	0.872961
819.099843	0.862168
819.418429	0.846861
819.736970	0.829400
820.055466	0.810232
820.373919	0.784497
820.692327	0.751988
821.010691	0.716997
821.329011	0.640051
821.647286	0.524971
821.965517	0.410669
822.283704	0.368287
822.601847	0.369468
822.919945	0.404842
823.237999	0.439038
823.556010	0.485558
823.873976	0.541614
824.191897	0.591644
824.509775	0.634453
824.827609	0.679822
825.145398	0.702158
825.463144	0.704974
825.780845	0.688411
826.098502	0.668837
826.416116	0.623212
826.733685	0.579578
827.051210	0.570687
827.368692	0.585247
827.686129	0.622760
828.003522	0.675802
828.320872	0.723102
828.638177	0.768013
828.955439	0.800437
829.272656	0.822225
829.589830	0.839318
829.906960	0.854894
830.224046	0.866853
830.541088	0.877334
830.858086	0.881684
831.175041	0.887962
831.491952	0.887769
831.808819	0.884021
832.125642	0.877127
832.442421	0.863036
832.759157	0.840301
833.075849	0.794170
833.392497	0.730917
833.709101	0.690189
834.025662	0.699785
834.342179	0.730820
834.658653	0.770846
834.975083	0.805626
835.291469	0.832516
835.607811	0.854384
835.924110	0.871113
836.240366	0.888044
836.556578	0.901276
836.872746	0.908257
837.188871	0.914880
837.504952	0.922326
837.820990	0.923847
838.136984	0.926761
838.452935	0.930393
838.768842	0.931174
839.084706	0.925410
839.400526	0.899900
839.716303	0.859530
840.032037	0.836355
840.347727	0.840338
840.663373	0.859335
840.978977	0.879903
841.294537	0.903075
841.610054	0.918580
841.925527	0.927621
842.240957	0.933048
842.556344	0.941066
842.871687	0.945011
843.186987	0.950558
843.502244	0.950558
843.817458	0.952931
844.132629	0.956186
844.447756	0.961397
844.762840	0.959966
845.077881	0.960540
845.392879	0.960372
845.707833	0.964171
846.022745	0.964140
846.337613	0.965325
846.652438	0.965920
846.967221	0.965013
847.281960	0.965601
847.596656	0.967837
847.911309	0.967021
848.225919	0.968061
848.540485	0.969553
848.855009	0.969085
849.169490	0.969149
849.483928	0.970069
849.798323	0.968549
850.112675	0.970414
850.426984	0.969573
850.741251	0.970403
851.055474	0.970822
851.369654	0.968712
851.683792	0.970109
851.997887	0.970933
852.311938	0.970246
852.625947	0.970095
852.939914	0.969436
853.253837	0.970596
853.567718	0.971887
853.881555	0.972034
854.195350	0.968953
854.509103	0.970256
854.822812	0.969940
855.136479	0.970120
855.450103	0.969222
855.763685	0.968215
856.077224	0.968507
856.390720	0.970461
856.704173	0.971471
857.017584	0.969509
857.330953	0.967740
857.644278	0.968006
857.957561	0.968582
858.270802	0.969221
858.584000	0.968606
858.897155	0.967166
859.210268	0.968255
859.523339	0.969589
859.836367	0.970163
860.149352	0.971074
860.462295	0.968836
860.775195	0.969657
861.088054	0.969089
861.400869	0.970108
861.713642	0.970715
862.026373	0.969957
862.339062	0.972228
862.651708	0.968749
862.964312	0.967881
863.276873	0.969755
863.589392	0.968797
863.901869	0.966909
864.214303	0.964826
864.526696	0.965256
864.839045	0.963464
865.151353	0.962324
865.463619	0.963141
865.775842	0.962489
866.088023	0.962456
866.400162	0.962782
866.712258	0.963274
867.024313	0.962488
867.336325	0.964304
867.648296	0.964246
867.960224	0.962925
868.272110	0.962387
868.583954	0.964778
868.895755	0.965479
869.207515	0.963342
869.519233	0.959721
869.830909	0.961142
870.142542	0.963128
870.454134	0.962343
870.765684	0.960185
871.077191	0.958674
871.388657	0.959806
871.700081	0.958592
872.011463	0.958071
872.322803	0.958897
872.634101	0.957156
872.945357	0.955644
873.256571	0.953138
873.567744	0.953243
873.878874	0.953959
874.189963	0.952920
874.501010	0.952943
874.812015	0.950994
875.122979	0.951802
875.433900	0.953638
875.744780	0.954612
876.055618	0.950829
876.366415	0.951033
876.677169	0.950664
876.987882	0.952727
877.298554	0.951964
877.609183	0.948385
877.919771	0.945552
878.230317	0.942567
878.540822	0.941909
878.851285	0.936323
879.161707	0.928111
879.472087	0.916793
879.782425	0.899885
880.092722	0.865632
880.402977	0.813663
880.713191	0.753302
881.023363	0.694021
881.333494	0.660749
881.643583	0.632469
881.953631	0.632088
882.263637	0.660557
882.573602	0.700537
882.883526	0.724693
883.193408	0.749311
883.503248	0.771479
883.813048	0.799218
884.122806	0.828308
884.432522	0.852084
884.742197	0.870782
885.051831	0.882480
885.361424	0.891823
885.670975	0.903946
885.980485	0.913826
886.289954	0.920646
886.599382	0.925887
886.908768	0.929479
887.218113	0.934858
887.527417	0.939953
887.836680	0.942496
888.145901	0.944088
888.455082	0.947182
888.764221	0.950963
889.073319	0.954204
889.382376	0.954502
889.691392	0.953379
890.000366	0.952583
890.309300	0.954567
890.618193	0.953182
890.927044	0.952293
891.235855	0.952166
891.544625	0.952530
891.853353	0.952399
892.162041	0.950802
892.470687	0.943773
892.779293	0.938754
893.087858	0.934548
893.396381	0.927661
893.704864	0.913028
894.013306	0.889687
894.321707	0.863331
894.630068	0.849341
894.938387	0.843860
895.246665	0.846600
895.554903	0.858303
895.863100	0.871560
896.171256	0.888353
896.479371	0.907255
896.787446	0.920024
897.095480	0.925790
897.403473	0.929911
897.711425	0.932990
898.019336	0.940713
898.327207	0.942408
898.635038	0.945335
898.942827	0.945610
899.250576	0.947995
899.558284	0.953515
899.865952	0.954139
900.173579	0.955847
900.481165	0.956453
900.788711	0.960035
901.096216	0.961138
901.403681	0.962329
901.711105	0.963378
902.018489	0.963563
902.325832	0.962985
902.633135	0.962093
902.940397	0.956073
903.247619	0.944169
903.554800	0.917840
903.861941	0.879663
904.169041	0.843955
904.476101	0.827052
904.783121	0.827123
905.090100	0.844201
905.397039	0.865193
905.703938	0.887215
906.010796	0.906091
906.317614	0.923127
906.624391	0.935454
906.931129	0.944075
907.237826	0.952959
907.544483	0.959196
907.851099	0.963192
908.157675	0.968110
908.464211	0.970138
908.770707	0.972740
909.077163	0.974451
909.383578	0.974453
909.689954	0.975712
909.996289	0.976836
910.302584	0.978297
910.608839	0.979492
910.915054	0.980298
911.221229	0.978771
911.527363	0.977001
911.833458	0.976724
912.139513	0.978383
912.445527	0.976005
912.751502	0.973802
913.057436	0.972844
913.363331	0.970592
913.669186	0.966700
913.975000	0.962203
914.280775	0.956621
914.586510	0.950046
914.892205	0.936207
915.197859	0.915506
915.503475	0.887523
915.809050	0.867774
916.114585	0.863492
916.420081	0.860156
916.725536	0.855566
917.030952	0.865570
917.336328	0.877887
917.641665	0.892555
917.946961	0.907959
918.252218	0.919701
918.557435	0.928921
918.862612	0.937987
919.167750	0.943097
919.472848	0.946919
919.777906	0.952078
920.082925	0.958703
920.387904	0.962953
920.692843	0.963726
920.997743	0.963958
921.302603	0.966983
921.607423	0.970633
921.912204	0.972635
922.216946	0.972323
922.521647	0.973484
922.826310	0.975339
923.130932	0.978501
923.435516	0.979482
923.740059	0.980253
924.044564	0.980136
924.349028	0.980954
924.653454	0.982814
924.957840	0.985670
925.262186	0.984903
925.566493	0.984232
925.870761	0.984770
926.174989	0.986739
926.479178	0.988776
926.783328	0.989875
927.087438	0.989851
927.391509	0.988543
927.695541	0.989587
927.999533	0.990209
928.303486	0.989687
928.607400	0.992315
928.911275	0.989226
929.215110	0.991415
929.518906	0.991797
929.822663	0.989847
930.126381	0.991990
930.430060	0.990940
930.733699	0.990448
931.037299	0.990827
931.340861	0.991413
931.644383	0.990526
931.947866	0.990266
932.251309	0.991242
932.554714	0.991044
932.858080	0.989745
933.161407	0.990579
933.464694	0.992382
933.767943	0.989298
934.071153	0.991437
934.374323	0.991974
934.677455	0.991378
934.980548	0.991835
935.283602	0.991409
935.586617	0.992021
935.889593	0.991388
936.192530	0.991516
936.495428	0.990950
936.798287	0.990479
937.101108	0.990906
937.403890	0.989920
937.706632	0.989171
938.009336	0.988138
938.312002	0.987242
938.614628	0.985311
938.917216	0.983603
939.219765	0.982713
939.522275	0.983639
939.824747	0.982672
940.127179	0.983989
940.429573	0.985532
940.731929	0.985077
941.034246	0.984779
941.336524	0.986280
941.638763	0.986213
941.940964	0.987434
942.243126	0.985905
942.545250	0.988629
942.847335	0.988790
943.149381	0.989552
943.451389	0.987859
943.753359	0.989130
944.055290	0.991014
944.357182	0.990238
944.659036	0.988716
944.960851	0.989073
945.262628	0.990098
945.564367	0.989925
945.866067	0.991313
946.167729	0.991222
946.469352	0.990219
946.770937	0.989028
947.072484	0.990782
947.373992	0.990278
947.675462	0.991255
947.976893	0.990754
948.278286	0.990610
948.579641	0.993445
948.880958	0.991626
949.182236	0.990834
949.483476	0.991228
949.784678	0.991342
950.085841	0.991552
950.386967	0.992168
950.688054	0.990460
950.989103	0.991399
951.290114	0.990033
951.591087	0.990584
951.892021	0.989886
952.192917	0.989196
952.493776	0.988826
952.794596	0.988095
953.095378	0.988483
953.396122	0.988680
953.696828	0.988311
953.997496	0.990925
954.298126	0.992496
954.598718	0.991341
954.899272	0.991614
955.199788	0.990568
955.500266	0.994051
955.800706	0.993097
956.101108	0.994267
956.401472	0.993442
956.701798	0.995043
957.002087	0.993084
957.302337	0.995118
957.602550	0.994727
957.902724	0.995737
958.202861	0.995692
958.502960	0.996057
958.803022	0.994056
959.103045	0.996533
959.403031	0.996575
959.702979	0.995650
960.002889	0.996828
960.302762	0.995417
960.602596	0.996249
960.902393	0.995705
961.202153	0.996701
961.501875	0.997116
961.801559	0.996622
962.101205	0.995739
962.400814	0.996273
962.700385	0.997306
962.999918	0.996969
963.299414	0.996670
963.598873	0.996227
963.898293	0.996118
964.197677	0.997627
964.497022	0.996561
964.796331	0.997630
965.095601	0.997929
965.394835	0.997528
965.694030	0.998211
965.993189	0.997737
966.292309	0.997875
966.591393	0.998368
966.890439	0.999013
967.189447	0.996481
967.488419	0.998351
967.787353	0.996190
968.086249	0.996454
968.385108	0.997521
968.683930	0.997169
968.982714	0.998176
969.281462	0.997765
969.580172	0.996664
969.878844	0.998548
970.177480	0.997466
970.476078	0.996692
970.774639	0.996883
971.073162	0.997079
971.371649	0.997509
971.670098	0.996856
971.968510	0.998102
972.266885	0.995929
972.565223	0.996763
972.863524	0.997588
973.161788	0.997174
973.460014	0.998330
973.758204	0.995122
974.056356	0.996365
974.354471	0.994677
974.652550	0.996258
974.950591	0.995991
975.248595	0.996975
975.546563	0.998034
975.844493	0.999134
976.142386	0.998423
976.440243	0.997252
976.738062	0.997872
977.035845	0.997883
977.333590	0.998017
977.631299	0.998281
977.928971	0.998239
978.226606	0.998022
978.524204	0.995781
978.821765	0.997867
979.119290	0.996522
979.416777	0.997118
979.714228	0.996880
980.011642	0.996436
980.309020	0.998400
980.606360	0.996286
980.903664	0.999856
981.200931	0.996619
981.498162	0.996133
981.795356	0.995250
982.092513	0.994280
982.389633	0.994604
982.686717	0.992954
982.983764	0.993088
983.280775	0.990668
983.577749	0.991606
983.874686	0.992826
984.171587	0.991899
984.468451	0.994395
984.765279	0.994996
985.062070	0.995146
985.358824	0.996039
985.655543	0.994739
985.952224	0.996592
986.248869	0.996289
986.545478	0.997816
986.842050	0.999902
987.138586	0.995424
987.435086	0.997588
987.731549	0.998701
988.027975	0.997797
988.324366	0.997458
988.620719	0.998718
988.917037	0.996441
989.213318	0.999465
989.509563	0.998245
989.805772	0.999543
990.101944	0.999772
990.398080	0.998306
990.694180	0.998314
990.990244	0.997576
991.286271	0.998110
991.582262	0.997915
991.878217	0.999481
992.174136	0.999282
992.470019	0.999535
992.765865	0.997771
993.061676	0.998828
993.357450	0.998089
993.653188	0.996716
993.948890	0.997650
994.244556	0.997726
994.540186	0.996586
994.835780	0.998099
995.131337	0.997690
995.426859	0.996741
995.722345	0.997652
996.017795	0.996463
996.313208	0.996552
996.608586	0.996962
996.903928	0.998308
997.199234	0.996337
997.494504	0.996179
997.789738	0.996215
998.084936	0.996520
998.380099	0.998957
998.675225	0.998946
998.970316	0.998344
999.265371	0.998753
999.560390	0.997624
999.855373	0.998818
1000.150320	0.998257
1000.445232	0.999214
1000.740108	0.998056
1001.034948	0.998499
1001.329752	0.998742
1001.624521	0.999271
1001.919254	0.998757
1002.213951	0.999507
1002.508613	0.998500
1002.803239	0.999774
1003.097829	0.999428
1003.392384	0.999025
1003.686903	0.998959
1003.981386	0.998575
1004.275834	0.999354
1004.570246	0.998923
1004.864623	1.000337
1005.158964	0.999492
1005.453270	0.999191
1005.747540	0.998793
1006.041775	0.999401
1006.335974	0.999035
1006.630138	0.999434
1006.924266	0.999672
1007.218359	1.001243
1007.512416	0.999333
1007.806438	0.998990
1008.100425	1.000425
1008.394376	0.999644
1008.688292	0.998622
1008.982172	1.000959
1009.276017	0.999389
1009.569827	0.999940
1009.863602	0.998882
1010.157341	1.000058
1010.451045	0.999900
1010.744714	1.000347
1011.038347	1.000307
1011.331945	0.998288
1011.625508	0.999037
1011.919036	0.999467
1012.212528	1.000374
1012.505986	0.998269
1012.799408	0.999181
1013.092795	0.998553
1013.386147	0.999017
1013.679464	1.000266
1013.972745	0.998539
1014.265992	0.997756
1014.559204	0.999395
1014.852380	1.000144
1015.145521	0.999876
1015.438628	0.999677
1015.731699	0.999727
1016.024736	0.998446
1016.317737	0.998806
1016.610703	0.998791
1016.903635	1.000445
1017.196531	0.998782
1017.489393	0.999788
1017.782219	0.998643
1018.075011	0.998505
1018.367768	0.999550
1018.660490	0.999830
1018.953177	0.999830
1019.245829	0.999830
