Dividing Wavelength (nm)	Counts (n)	Blue Motor Position (mm): 0.000000	Red Motor Position (mm): 11.900000	
326.493990	1.000268
326.888308	1.000268
327.282561	1.000268
327.676750	1.000902
328.070874	0.999605
328.464933	1.000991
328.858929	0.999133
329.252859	1.000651
329.646726	0.998900
330.040528	1.000769
330.434265	0.998355
330.827938	1.000965
331.221547	1.001418
331.615091	1.000439
332.008571	1.000302
332.401986	0.999688
332.795338	1.000011
333.188625	0.997724
333.581847	0.999861
333.975006	0.998851
334.368100	1.000079
334.761129	1.000743
335.154095	1.000693
335.546996	0.997638
335.939833	0.992812
336.332606	0.993650
336.725315	0.992995
337.117960	0.995230
337.510540	0.993577
337.903056	0.993955
338.295508	0.992469
338.687896	0.993524
339.080220	0.994031
339.472480	0.993820
339.864676	0.994245
340.256807	0.993963
340.648875	0.994792
341.040879	0.993659
341.432818	0.993368
341.824694	0.993295
342.216506	0.994525
342.608253	0.994278
342.999937	0.994074
343.391557	0.993903
343.783113	0.993696
344.174605	0.994019
344.566033	0.993995
344.957397	0.992814
345.348697	0.993635
345.739934	0.993490
346.131106	0.994108
346.522215	0.992135
346.913260	0.993347
347.304241	0.993819
347.695159	0.994028
348.086012	0.992072
348.476802	0.992869
348.867528	0.994623
349.258191	0.992454
349.648789	0.994180
350.039324	0.993639
350.429796	0.994084
350.820203	0.994532
351.210548	0.993080
351.600828	0.993045
351.991045	0.994699
352.381198	0.992159
352.771288	0.993229
353.161314	0.993079
353.551276	0.994387
353.941175	0.993759
354.331010	0.992728
354.720782	0.993329
355.110490	0.993264
355.500135	0.993825
355.889717	0.993357
356.279235	0.993293
356.668689	0.994257
357.058080	0.993780
357.447408	0.993449
357.836672	0.994752
358.225873	0.993842
358.615010	0.994402
359.004084	0.994509
359.393095	0.994230
359.782043	0.994007
360.170927	0.993826
360.559748	0.993715
360.948505	0.992783
361.337199	0.994170
361.725830	0.993364
362.114398	0.992052
362.502903	0.994314
362.891344	0.994923
363.279722	0.993564
363.668037	0.994141
364.056289	0.993605
364.444478	0.994425
364.832603	0.992453
365.220665	0.992035
365.608665	0.993335
365.996601	0.991973
366.384474	0.993511
366.772284	0.992454
367.160031	0.992438
367.547715	0.992747
367.935336	0.993065
368.322893	0.992526
368.710388	0.992238
369.097820	0.993193
369.485189	0.993016
369.872495	0.991788
370.259738	0.991082
370.646918	0.992959
371.034035	0.993482
371.421090	0.992026
371.808081	0.992134
372.195010	0.993334
372.581875	0.992439
372.968678	0.992375
373.355418	0.993282
373.742096	0.991747
374.128710	0.993678
374.515262	0.992632
374.901751	0.993255
375.288177	0.992673
375.674540	0.993706
376.060841	0.993535
376.447079	0.993080
376.833254	0.992297
377.219367	0.993411
377.605417	0.993048
377.991404	0.993026
378.377329	0.992771
378.763191	0.992068
379.148991	0.993221
379.534727	0.992938
379.920402	0.992347
380.306013	0.993391
380.691563	0.993404
381.077049	0.992082
381.462474	0.993829
381.847835	0.993002
382.233134	0.992002
382.618371	0.992395
383.003545	0.992302
383.388657	0.991561
383.773706	0.992385
384.158693	0.991187
384.543618	0.989801
384.928480	0.990279
385.313280	0.988438
385.698017	0.986879
386.082692	0.985227
386.467305	0.982829
386.851856	0.979967
387.236344	0.976408
387.620770	0.973116
388.005133	0.971196
388.389435	0.966484
388.773674	0.961014
389.157851	0.956930
389.541965	0.952034
389.926018	0.948611
390.310008	0.943021
390.693936	0.937089
391.077802	0.929395
391.461606	0.923581
391.845348	0.916446
392.229027	0.910462
392.612645	0.903033
392.996200	0.892868
393.379694	0.883176
393.763125	0.873201
394.146494	0.866893
394.529801	0.855345
394.913047	0.844920
395.296230	0.839080
395.679351	0.826363
396.062410	0.817314
396.445408	0.811040
396.828343	0.799107
397.211217	0.788572
397.594028	0.787289
397.976778	0.772598
398.359466	0.761966
398.742092	0.749945
399.124656	0.750404
399.507158	0.735626
399.889598	0.725447
400.271977	0.712073
400.654294	0.707991
401.036549	0.699116
401.418742	0.695587
401.800874	0.676187
402.182944	0.668558
402.564952	0.654679
402.946898	0.651134
403.328783	0.644362
403.710606	0.649237
404.092367	0.621975
404.474067	0.621031
404.855705	0.615318
405.237282	0.619731
405.618797	0.602553
406.000250	0.594487
406.381642	0.582536
406.762972	0.583167
407.144240	0.578225
407.525447	0.575858
407.906593	0.566001
408.287677	0.558247
408.668700	0.563879
409.049661	0.555675
409.430560	0.549783
409.811399	0.555716
410.192176	0.535869
410.572891	0.541239
410.953545	0.529175
411.334138	0.540149
411.714669	0.533025
412.095139	0.543185
412.475547	0.527302
412.855894	0.528526
413.236180	0.526981
413.616405	0.531991
413.996568	0.522074
414.376670	0.527103
414.756711	0.531914
415.136691	0.528309
415.516609	0.519952
415.896466	0.515656
416.276262	0.512184
416.655997	0.513412
417.035670	0.495033
417.415283	0.486811
417.794834	0.491478
418.174324	0.496323
418.553753	0.505375
418.933121	0.487827
419.312428	0.481130
419.691674	0.486844
420.070859	0.475421
420.449983	0.483285
420.829045	0.473196
421.208047	0.481706
421.586988	0.475013
421.965867	0.474184
422.344686	0.462864
422.723444	0.475132
423.102141	0.491530
423.480777	0.464658
423.859352	0.485759
424.237866	0.462503
424.616319	0.463056
424.994712	0.454619
425.373044	0.464269
425.751314	0.452777
426.129524	0.468756
426.507673	0.452791
426.885762	0.446395
427.263789	0.451854
427.641756	0.461235
428.019662	0.451944
428.397508	0.450873
428.775292	0.455039
429.153016	0.446660
429.530679	0.453451
429.908282	0.446681
430.285824	0.456250
430.663305	0.435156
431.040726	0.456505
431.418086	0.456193
431.795385	0.447649
432.172624	0.446283
432.549802	0.447604
432.926920	0.446744
433.303977	0.445110
433.680974	0.442802
434.057910	0.441132
434.434786	0.440858
434.811601	0.443082
435.188355	0.425291
435.565050	0.434793
435.941683	0.436171
436.318257	0.420797
436.694770	0.420945
437.071222	0.419665
437.447614	0.423675
437.823946	0.430486
438.200218	0.419305
438.576429	0.429297
438.952580	0.422441
439.328670	0.419215
439.704700	0.425941
440.080670	0.426764
440.456580	0.407905
440.832429	0.415940
441.208218	0.426981
441.583947	0.415866
441.959616	0.415992
442.335224	0.420987
442.710773	0.411530
443.086261	0.409791
443.461689	0.423378
443.837057	0.413351
444.212365	0.403156
444.587612	0.410406
444.962800	0.400029
445.337927	0.401852
445.712995	0.427709
446.088002	0.390085
446.462949	0.400945
446.837837	0.404833
447.212664	0.393976
447.587431	0.385900
447.962139	0.356169
448.336786	0.315732
448.711374	0.326077
449.085901	0.369692
449.460369	0.374427
449.834776	0.377907
450.209124	0.357386
450.583412	0.349644
450.957640	0.342639
451.331808	0.354152
451.705917	0.377406
452.079965	0.381654
452.453954	0.370427
452.827883	0.377229
453.201752	0.371864
453.575562	0.383179
453.949311	0.371958
454.323001	0.378027
454.696632	0.373568
455.070202	0.366599
455.443713	0.358290
455.817164	0.353100
456.190556	0.349298
456.563888	0.345615
456.937160	0.343304
457.310373	0.360681
457.683526	0.359309
458.056619	0.365046
458.429653	0.365803
458.802628	0.369207
459.175542	0.363192
459.548398	0.346206
459.921194	0.338335
460.293930	0.338706
460.666607	0.316124
461.039224	0.304687
461.411782	0.299850
461.784280	0.299306
462.156719	0.303525
462.529099	0.308114
462.901419	0.324040
463.273680	0.328622
463.645882	0.327695
464.018024	0.333837
464.390106	0.326613
464.762130	0.311288
465.134094	0.294282
465.505999	0.263848
465.877845	0.234032
466.249631	0.221214
466.621358	0.228470
466.993026	0.242503
467.364634	0.248579
467.736184	0.257727
468.107674	0.265879
468.479105	0.265117
468.850477	0.271700
469.221790	0.279003
469.593043	0.288851
469.964238	0.293890
470.335373	0.292965
470.706449	0.291300
471.077467	0.292064
471.448425	0.254003
471.819324	0.229741
472.190164	0.229012
472.560945	0.257957
472.931667	0.280014
473.302330	0.284048
473.672934	0.295916
474.043479	0.284133
474.413965	0.286173
474.784393	0.289494
475.154761	0.284591
475.525070	0.281545
475.895321	0.287362
476.265513	0.281635
476.635645	0.276778
477.005719	0.277099
477.375734	0.273514
477.745691	0.266552
478.115588	0.263073
478.485427	0.256765
478.855207	0.243437
479.224928	0.226292
479.594591	0.214233
479.964194	0.217764
480.333739	0.218843
480.703226	0.220181
481.072653	0.218680
481.442022	0.214280
481.811333	0.211050
482.180584	0.214452
482.549777	0.219836
482.918912	0.223096
483.287988	0.222674
483.657005	0.222366
484.025964	0.228845
484.394864	0.226216
484.763706	0.226987
485.132489	0.231845
485.501213	0.232682
485.869879	0.230811
486.238487	0.234391
486.607036	0.232007
486.975527	0.236628
487.343959	0.232315
487.712333	0.231145
488.080648	0.233060
488.448905	0.232149
488.817104	0.233437
489.185244	0.228011
489.553326	0.224894
489.921350	0.214708
490.289315	0.197303
490.657222	0.192339
491.025070	0.193620
491.392861	0.195309
491.760593	0.201080
492.128267	0.206866
492.495883	0.212168
492.863440	0.218522
493.230939	0.225011
493.598380	0.226103
493.965763	0.228620
494.333088	0.230745
494.700354	0.232213
495.067563	0.230997
495.434713	0.234484
495.801805	0.232360
496.168839	0.233946
496.535815	0.235287
496.902733	0.235206
497.269593	0.236897
497.636395	0.234542
498.003139	0.234688
498.369825	0.237850
498.736453	0.234295
499.103023	0.235615
499.469535	0.235207
499.835989	0.235478
500.202385	0.236441
500.568723	0.239460
500.935003	0.234770
501.301226	0.239098
501.667390	0.233305
502.033497	0.231304
502.399546	0.234701
502.765537	0.236217
503.131470	0.234743
503.497345	0.231134
503.863163	0.239765
504.228923	0.232450
504.594625	0.231444
504.960269	0.236593
505.325856	0.231919
505.691385	0.236261
506.056856	0.232844
506.422270	0.232250
506.787625	0.234882
507.152924	0.232383
507.518164	0.232863
507.883347	0.234656
508.248472	0.236046
508.613540	0.231373
508.978550	0.233727
509.343503	0.234095
509.708398	0.231759
510.073236	0.229313
510.438016	0.229495
510.802738	0.230359
511.167403	0.229131
511.532010	0.231212
511.896561	0.226843
512.261053	0.225605
512.625488	0.227781
512.989866	0.227610
513.354186	0.228237
513.718449	0.230064
514.082655	0.226492
514.446803	0.228723
514.810894	0.226446
515.174927	0.229111
515.538904	0.228599
515.902822	0.225335
516.266684	0.227863
516.630488	0.228709
516.994235	0.227558
517.357925	0.226488
517.721558	0.224622
518.085133	0.224018
518.448651	0.224330
518.812112	0.226565
519.175516	0.226175
519.538863	0.224159
519.902152	0.225490
520.265385	0.222615
520.628560	0.224154
520.991678	0.224641
521.354739	0.223640
521.717743	0.224578
522.080690	0.225185
522.443580	0.222189
522.806413	0.223176
523.169189	0.222640
523.531908	0.221633
523.894569	0.225100
524.257174	0.225163
524.619722	0.222675
524.982213	0.223726
525.344647	0.222772
525.707025	0.223530
526.069345	0.221663
526.431608	0.223316
526.793815	0.221276
527.155964	0.225456
527.518057	0.224443
527.880093	0.225530
528.242072	0.224118
528.603995	0.225924
528.965860	0.227676
529.327669	0.226624
529.689421	0.227179
530.051117	0.228210
530.412755	0.225710
530.774337	0.228359
531.135862	0.228397
531.497331	0.227773
531.858743	0.230777
532.220098	0.227403
532.581396	0.230030
532.942638	0.230539
533.303824	0.231425
533.664953	0.231370
534.026025	0.232790
534.387040	0.231035
534.747999	0.230849
535.108902	0.230001
535.469748	0.234617
535.830537	0.232751
536.191270	0.232856
536.551947	0.232527
536.912567	0.232668
537.273131	0.234543
537.633638	0.234470
537.994089	0.235157
538.354483	0.236175
538.714821	0.232797
539.075103	0.232711
539.435328	0.233425
539.795497	0.237087
540.155609	0.233960
540.515665	0.231871
540.875665	0.237809
541.235609	0.236206
541.595496	0.236200
541.955328	0.232683
542.315102	0.235566
542.674821	0.236531
543.034483	0.236491
543.394090	0.236339
543.753640	0.238129
544.113134	0.232710
544.472571	0.236519
544.831953	0.233088
545.191278	0.237273
545.550548	0.236838
545.909761	0.233496
546.268918	0.234258
546.628019	0.232751
546.987064	0.235358
547.346053	0.237152
547.704986	0.235049
548.063863	0.235807
548.422684	0.235664
548.781449	0.237204
549.140158	0.235062
549.498811	0.237885
549.857408	0.241254
550.215949	0.235845
550.574434	0.238942
550.932864	0.236622
551.291237	0.235310
551.649555	0.236963
552.007817	0.236703
552.366022	0.237361
552.724173	0.237777
553.082267	0.237986
553.440305	0.234798
553.798288	0.239221
554.156215	0.235888
554.514086	0.236366
554.871902	0.239562
555.229661	0.238965
555.587365	0.239299
555.945014	0.241657
556.302606	0.239230
556.660143	0.241332
557.017625	0.237752
557.375050	0.239874
557.732421	0.237003
558.089735	0.239258
558.446994	0.239129
558.804197	0.238147
559.161345	0.238314
559.518437	0.242034
559.875474	0.239553
560.232455	0.238756
560.589381	0.240226
560.946251	0.240187
561.303065	0.237858
561.659825	0.239210
562.016528	0.240738
562.373177	0.243479
562.729770	0.240928
563.086307	0.242893
563.442789	0.240961
563.799216	0.243564
564.155587	0.242410
564.511904	0.243464
564.868164	0.243691
565.224370	0.243327
565.580520	0.245162
565.936615	0.245010
566.292654	0.248044
566.648638	0.245179
567.004567	0.245787
567.360441	0.246710
567.716260	0.248403
568.072023	0.246346
568.427732	0.247005
568.783385	0.249544
569.138982	0.247729
569.494525	0.246953
569.850013	0.250146
570.205445	0.248855
570.560823	0.250949
570.916145	0.253004
571.271412	0.251386
571.626625	0.252667
571.981782	0.253401
572.336884	0.254301
572.691931	0.253778
573.046923	0.255015
573.401860	0.256265
573.756743	0.258191
574.111570	0.256861
574.466342	0.257556
574.821059	0.256348
575.175722	0.259485
575.530330	0.259191
575.884882	0.259282
576.239380	0.261344
576.593823	0.261723
576.948211	0.261222
577.302544	0.264608
577.656823	0.264138
578.011047	0.264158
578.365216	0.264954
578.719330	0.266799
579.073389	0.266733
579.427394	0.267972
579.781344	0.268910
580.135239	0.270150
580.489080	0.269937
580.842866	0.272895
581.196597	0.272813
581.550273	0.271622
581.903895	0.272626
582.257463	0.270735
582.610975	0.273868
582.964434	0.273413
583.317837	0.275684
583.671186	0.275969
584.024481	0.276362
584.377721	0.278813
584.730906	0.279409
585.084037	0.278212
585.437113	0.280399
585.790135	0.279848
586.143103	0.282689
586.496016	0.283953
586.848874	0.281361
587.201679	0.282135
587.554428	0.285351
587.907124	0.283950
588.259765	0.284943
588.612352	0.285203
588.964884	0.289196
589.317362	0.288667
589.669786	0.288893
590.022155	0.287260
590.374470	0.286884
590.726731	0.288864
591.078937	0.293070
591.431090	0.289587
591.783188	0.293842
592.135232	0.294319
592.487222	0.294271
592.839157	0.292548
593.191038	0.294887
593.542866	0.296379
593.894639	0.299927
594.246358	0.298537
594.598022	0.297757
594.949633	0.301304
595.301190	0.302177
595.652692	0.301084
596.004141	0.297606
596.355535	0.305563
596.706876	0.305877
597.058162	0.308444
597.409395	0.305666
597.760573	0.303138
598.111698	0.306538
598.462768	0.307121
598.813785	0.308458
599.164748	0.309653
599.515657	0.309990
599.866511	0.313401
600.217312	0.308534
600.568060	0.314166
600.918753	0.310324
601.269392	0.311049
601.619978	0.314592
601.970510	0.312087
602.320988	0.312405
602.671412	0.309867
603.021783	0.312501
603.372100	0.313859
603.722363	0.313943
604.072572	0.314055
604.422728	0.314019
604.772830	0.316185
605.122878	0.315393
605.472872	0.316198
605.822813	0.314816
606.172701	0.317180
606.522534	0.314708
606.872314	0.314651
607.222041	0.315942
607.571714	0.313974
607.921333	0.315326
608.270899	0.314867
608.620411	0.311554
608.969870	0.315720
609.319276	0.315435
609.668627	0.315836
610.017926	0.314189
610.367171	0.312867
610.716362	0.313723
611.065500	0.313589
611.414585	0.312474
611.763616	0.313076
612.112594	0.313302
612.461518	0.313149
612.810389	0.310410
613.159207	0.312576
613.507971	0.314681
613.856682	0.310607
614.205340	0.312307
614.553945	0.308466
614.902496	0.312800
615.250994	0.310569
615.599439	0.311167
615.947830	0.311112
616.296169	0.311816
616.644454	0.311314
616.992686	0.311467
617.340864	0.309202
617.688990	0.312910
618.037063	0.309535
618.385082	0.311039
618.733048	0.308034
619.080961	0.310423
619.428821	0.309899
619.776628	0.309409
620.124382	0.311451
620.472083	0.311449
620.819731	0.311367
621.167326	0.314987
621.514868	0.314655
621.862357	0.319082
622.209793	0.318691
622.557176	0.320787
622.904506	0.322017
623.251783	0.324343
623.599007	0.326232
623.946179	0.326163
624.293297	0.327901
624.640363	0.332132
624.987376	0.332748
625.334336	0.335026
625.681243	0.337243
626.028097	0.337833
626.374899	0.338895
626.721647	0.339282
627.068343	0.342246
627.414987	0.343163
627.761577	0.345538
628.108115	0.343736
628.454600	0.349183
628.801032	0.346528
629.147412	0.348368
629.493739	0.348875
629.840014	0.351872
630.186236	0.349311
630.532405	0.355002
630.878521	0.352020
631.224585	0.354362
631.570597	0.358431
631.916556	0.356758
632.262462	0.357102
632.608316	0.358715
632.954117	0.360212
633.299866	0.359945
633.645562	0.360971
633.991206	0.365281
634.336797	0.368254
634.682336	0.370089
635.027823	0.372173
635.373257	0.372559
635.718639	0.376622
636.063968	0.375368
636.409245	0.381383
636.754470	0.381662
637.099642	0.383745
637.444762	0.387400
637.789829	0.386699
638.134845	0.390312
638.479808	0.391034
638.824719	0.390630
639.169577	0.394613
639.514383	0.393591
639.859137	0.397938
640.203839	0.397828
640.548489	0.398226
640.893086	0.399085
641.237632	0.401239
641.582125	0.399466
641.926566	0.401283
642.270955	0.401401
642.615292	0.401532
642.959576	0.400791
643.303809	0.401469
643.647990	0.401259
643.992118	0.401532
644.336195	0.405032
644.680219	0.403825
645.024192	0.403880
645.368112	0.397773
645.711981	0.396614
646.055797	0.392099
646.399562	0.394614
646.743274	0.386538
647.086935	0.384194
647.430544	0.383826
647.774101	0.383166
648.117606	0.382297
648.461059	0.382600
648.804460	0.385108
649.147810	0.390338
649.491108	0.392255
649.834354	0.394110
650.177548	0.399182
650.520690	0.404724
650.863781	0.406138
651.206820	0.405272
651.549807	0.409698
651.892742	0.413649
652.235626	0.412949
652.578458	0.414182
652.921238	0.420003
653.263967	0.417648
653.606644	0.421809
653.949269	0.421555
654.291843	0.425813
654.634365	0.422396
654.976836	0.425647
655.319255	0.425937
655.661622	0.427436
656.003938	0.427397
656.346203	0.430476
656.688416	0.428372
657.030577	0.431611
657.372687	0.433453
657.714746	0.434745
658.056753	0.431371
658.398708	0.435568
658.740612	0.436522
659.082465	0.432381
659.424266	0.433735
659.766016	0.432585
660.107715	0.435198
660.449362	0.433938
660.790958	0.434837
661.132503	0.435439
661.473996	0.433060
661.815438	0.434013
662.156829	0.433855
662.498168	0.434668
662.839456	0.436430
663.180693	0.434022
663.521879	0.433652
663.863013	0.435080
664.204097	0.433083
664.545129	0.430008
664.886110	0.430617
665.227040	0.427846
665.567918	0.430044
665.908746	0.428556
666.249522	0.428069
666.590248	0.429249
666.930922	0.427713
667.271545	0.426331
667.612118	0.426334
667.952639	0.428142
668.293109	0.427064
668.633528	0.429524
668.973896	0.429181
669.314213	0.429607
669.654480	0.431459
669.994695	0.431289
670.334859	0.431968
670.674973	0.432281
671.015035	0.432343
671.355047	0.432675
671.695008	0.433911
672.034918	0.435874
672.374777	0.435631
672.714585	0.436052
673.054342	0.436267
673.394049	0.436162
673.733705	0.433792
674.073310	0.434787
674.412864	0.437695
674.752368	0.438915
675.091820	0.438762
675.431223	0.443048
675.770574	0.442729
676.109875	0.446092
676.449125	0.445774
676.788324	0.448576
677.127473	0.453664
677.466571	0.453578
677.805619	0.454916
678.144616	0.456536
678.483562	0.458786
678.822458	0.460637
679.161303	0.461906
679.500098	0.461729
679.838842	0.463258
680.177535	0.463380
680.516179	0.461509
680.854771	0.460260
681.193314	0.454041
681.531805	0.445583
681.870247	0.433560
682.208638	0.426376
682.546978	0.425268
682.885268	0.427085
683.223508	0.433916
683.561697	0.436816
683.899836	0.439718
684.237925	0.443111
684.575963	0.445516
684.913951	0.449182
685.251889	0.444195
685.589776	0.446649
685.927614	0.448867
686.265401	0.443834
686.603137	0.444744
686.940824	0.438375
687.278460	0.436799
687.616046	0.436337
687.953582	0.431086
688.291068	0.432592
688.628504	0.428745
688.965889	0.430144
689.303224	0.434472
689.640510	0.438475
689.977745	0.444369
690.314930	0.451734
690.652065	0.456730
690.989150	0.464345
691.326185	0.470365
691.663170	0.475232
692.000105	0.482454
692.336990	0.489858
692.673825	0.491750
693.010610	0.498667
693.347345	0.504608
693.684030	0.506093
694.020665	0.510455
694.357251	0.519238
694.693786	0.519069
695.030272	0.523781
695.366707	0.526388
695.703093	0.529953
696.039429	0.527649
696.375716	0.529430
696.711952	0.532662
697.048139	0.534582
697.384276	0.536490
697.720363	0.534176
698.056400	0.534157
698.392388	0.539114
698.728326	0.542607
699.064214	0.544935
699.400053	0.545878
699.735842	0.549102
700.071581	0.552435
700.407270	0.555376
700.742910	0.557745
701.078501	0.563969
701.414042	0.565121
701.749533	0.567359
702.084974	0.576352
702.420366	0.568667
702.755709	0.576473
703.091002	0.584022
703.426246	0.577822
703.761440	0.583188
704.096584	0.588105
704.431679	0.585108
704.766725	0.586789
705.101721	0.588618
705.436668	0.584855
705.771565	0.591476
706.106413	0.588240
706.441212	0.584172
706.775961	0.583120
707.110661	0.585983
707.445311	0.582369
707.779913	0.578603
708.114465	0.578117
708.448967	0.574167
708.783421	0.566189
709.117825	0.560952
709.452180	0.560712
709.786485	0.555091
710.120742	0.544778
710.454949	0.546619
710.789107	0.538557
711.123216	0.529938
711.457275	0.530860
711.791286	0.522254
712.125247	0.521133
712.459159	0.532146
712.793023	0.524866
713.126837	0.529132
713.460602	0.528794
713.794318	0.538149
714.127985	0.537363
714.461602	0.547658
714.795171	0.550231
715.128691	0.558166
715.462162	0.566122
715.795584	0.571123
716.128957	0.574571
716.462281	0.580828
716.795556	0.584623
717.128782	0.590297
717.461960	0.599304
717.795088	0.597605
718.128167	0.603474
718.461198	0.612943
718.794180	0.613418
719.127113	0.616231
719.459997	0.619591
719.792833	0.625802
720.125619	0.626881
720.458357	0.632600
720.791046	0.632404
721.123686	0.635802
721.456278	0.643308
721.788821	0.640042
722.121315	0.644418
722.453761	0.648395
722.786158	0.646509
723.118506	0.642497
723.450805	0.650795
723.783056	0.646619
724.115259	0.643932
724.447412	0.644189
724.779518	0.644803
725.111574	0.643640
725.443582	0.638872
725.775542	0.641331
726.107453	0.634032
726.439315	0.633169
726.771129	0.631469
727.102895	0.625740
727.434612	0.618117
727.766281	0.616822
728.097901	0.615511
728.429473	0.615333
728.760996	0.613640
729.092471	0.613860
729.423897	0.617383
729.755276	0.616963
730.086606	0.616880
730.417887	0.611323
730.749120	0.601320
731.080305	0.592426
731.411442	0.588855
731.742530	0.593831
732.073570	0.593131
732.404562	0.585460
732.735506	0.586458
733.066401	0.591327
733.397249	0.600280
733.728048	0.611981
734.058798	0.624423
734.389501	0.635160
734.720156	0.644832
735.050762	0.652780
735.381320	0.653640
735.711831	0.662935
736.042293	0.668213
736.372707	0.663691
736.703073	0.668462
737.033391	0.670826
737.363661	0.667290
737.693883	0.662904
738.024056	0.661581
738.354182	0.661794
738.684260	0.651843
739.014290	0.646742
739.344272	0.647903
739.674207	0.641423
740.004093	0.641129
740.333931	0.642199
740.663722	0.641472
740.993464	0.641647
741.323159	0.645170
741.652806	0.651236
741.982405	0.655503
742.311956	0.659936
742.641460	0.661965
742.970915	0.666603
743.300323	0.673723
743.629683	0.680107
743.958996	0.682280
744.288260	0.685766
744.617477	0.692598
744.946647	0.693720
745.275768	0.699389
745.604842	0.699533
745.933869	0.708948
746.262847	0.709504
746.591778	0.703668
746.920662	0.710334
747.249498	0.715582
747.578286	0.707401
747.907027	0.702861
748.235720	0.703656
748.564365	0.697982
748.892963	0.698863
749.221514	0.701654
749.550017	0.706607
749.878473	0.705468
750.206881	0.713193
750.535242	0.714682
750.863555	0.713501
751.191821	0.715197
751.520039	0.718024
751.848210	0.722675
752.176334	0.715225
752.504411	0.714885
752.832440	0.721903
753.160421	0.726949
753.488356	0.724417
753.816243	0.722218
754.144082	0.731537
754.471875	0.734331
754.799620	0.729649
755.127318	0.731251
755.454969	0.730707
755.782572	0.730378
756.110129	0.735433
756.437638	0.737411
756.765100	0.734193
757.092515	0.733148
757.419882	0.730349
757.747203	0.737098
758.074477	0.735613
758.401703	0.733516
758.728882	0.728917
759.056014	0.727201
759.383099	0.725860
759.710138	0.727487
760.037129	0.723421
760.364073	0.717962
760.690970	0.719492
761.017820	0.726046
761.344623	0.720597
761.671379	0.712228
761.998088	0.701086
762.324751	0.678099
762.651366	0.636021
762.977935	0.568764
763.304456	0.516412
763.630931	0.507313
763.957359	0.546464
764.283740	0.590714
764.610074	0.618155
764.936362	0.648918
765.262602	0.676087
765.588796	0.697258
765.914943	0.715660
766.241044	0.733279
766.567097	0.739588
766.893104	0.749444
767.219064	0.755854
767.544978	0.762661
767.870845	0.775493
768.196665	0.779842
768.522438	0.778165
768.848165	0.779547
769.173846	0.788893
769.499479	0.792948
769.825066	0.795763
770.150607	0.801695
770.476101	0.795995
770.801548	0.797557
771.126949	0.808432
771.452303	0.813382
771.777611	0.811548
772.102872	0.811304
772.428087	0.816794
772.753256	0.819334
773.078378	0.821872
773.403453	0.830503
773.728482	0.835511
774.053465	0.828659
774.378401	0.832110
774.703291	0.840977
775.028135	0.839796
775.352932	0.842260
775.677683	0.845431
776.002388	0.845027
776.327046	0.844879
776.651658	0.848411
776.976224	0.851562
777.300743	0.851158
777.625216	0.853530
777.949643	0.855071
778.274024	0.856160
778.598359	0.857992
778.922647	0.857392
779.246889	0.855956
779.571086	0.860465
779.895236	0.862657
780.219339	0.859695
780.543397	0.857233
780.867409	0.855541
781.191374	0.857873
781.515294	0.859430
781.839167	0.858027
782.162995	0.861707
782.486776	0.857417
782.810511	0.858748
783.134201	0.863277
783.457844	0.860680
783.781441	0.862247
784.104993	0.868970
784.428498	0.869199
784.751958	0.865735
785.075372	0.867648
785.398739	0.872071
785.722061	0.867576
786.045337	0.863425
786.368568	0.868444
786.691752	0.871011
787.014891	0.856225
787.337983	0.847877
787.661030	0.839867
787.984031	0.822590
788.306987	0.809185
788.629897	0.810656
788.952760	0.815049
789.275579	0.819922
789.598351	0.834281
789.921078	0.847981
790.243759	0.850032
790.566395	0.855970
790.888984	0.862417
791.211529	0.867211
791.534027	0.871138
791.856480	0.873120
792.178888	0.877733
792.501249	0.879893
792.823566	0.880892
793.145836	0.881387
793.468062	0.883591
793.790241	0.883967
794.112375	0.881655
794.434464	0.877958
794.756507	0.876805
795.078505	0.877083
795.400457	0.871425
795.722364	0.859314
796.044226	0.851386
796.366042	0.851188
796.687812	0.853794
797.009538	0.850589
797.331218	0.852971
797.652852	0.858157
797.974442	0.863053
798.295986	0.863169
798.617484	0.864641
798.938938	0.869836
799.260346	0.874418
799.581709	0.877001
799.903026	0.878206
800.224299	0.879441
800.545526	0.883273
800.866708	0.887977
801.187845	0.891431
801.508936	0.890464
801.829983	0.888779
802.150984	0.891739
802.471940	0.896147
802.792851	0.896219
803.113717	0.896230
803.434538	0.894024
803.755314	0.897199
804.076045	0.898589
804.396731	0.898442
804.717372	0.899341
805.037967	0.900970
805.358518	0.898933
805.679024	0.895817
805.999485	0.895743
806.319901	0.895830
806.640272	0.897493
806.960598	0.894800
807.280879	0.893244
807.601115	0.891575
807.921306	0.894676
808.241453	0.895448
808.561554	0.894402
808.881611	0.893465
809.201623	0.895112
809.521590	0.895152
809.841513	0.896834
810.161390	0.895842
810.481223	0.896799
810.801011	0.900411
811.120755	0.901491
811.440453	0.900280
811.760107	0.899009
812.079716	0.899094
812.399281	0.903409
812.718801	0.904310
813.038276	0.905525
813.357707	0.904784
813.677093	0.903229
813.996434	0.906171
814.315731	0.908182
814.634983	0.909034
814.954191	0.906859
815.273354	0.903862
815.592473	0.899587
815.911547	0.899485
816.230577	0.897053
816.549562	0.894648
816.868502	0.895862
817.187399	0.891727
817.506250	0.886382
817.825058	0.888955
818.143821	0.885052
818.462539	0.879753
818.781213	0.871981
819.099843	0.860229
819.418429	0.844981
819.736970	0.827502
820.055466	0.807389
820.373919	0.782344
820.692327	0.748391
821.010691	0.713547
821.329011	0.635068
821.647286	0.518937
821.965517	0.404645
822.283704	0.361666
822.601847	0.362659
822.919945	0.398168
823.237999	0.432595
823.556010	0.480168
823.873976	0.536401
824.191897	0.586495
824.509775	0.629979
824.827609	0.675412
825.145398	0.698232
825.463144	0.701116
825.780845	0.684535
826.098502	0.665511
826.416116	0.619541
826.733685	0.574825
827.051210	0.565980
827.368692	0.580660
827.686129	0.618645
828.003522	0.671951
828.320872	0.720493
828.638177	0.763589
828.955439	0.796981
829.272656	0.819166
829.589830	0.837827
829.906960	0.853041
830.224046	0.865881
830.541088	0.875408
830.858086	0.880483
831.175041	0.886917
831.491952	0.885492
831.808819	0.881715
832.125642	0.875949
832.442421	0.860317
832.759157	0.838712
833.075849	0.792159
833.392497	0.726942
833.709101	0.686617
834.025662	0.696350
834.342179	0.727323
834.658653	0.767806
834.975083	0.803897
835.291469	0.829542
835.607811	0.853257
835.924110	0.868540
836.240366	0.886794
836.556578	0.899994
836.872746	0.907737
837.188871	0.913870
837.504952	0.918688
837.820990	0.922192
838.136984	0.925948
838.452935	0.929652
838.768842	0.929777
839.084706	0.923798
839.400526	0.898501
839.716303	0.857526
840.032037	0.834432
840.347727	0.837611
840.663373	0.856527
840.978977	0.878581
841.294537	0.900648
841.610054	0.917199
841.925527	0.925038
842.240957	0.932416
842.556344	0.939220
842.871687	0.944515
843.186987	0.948965
843.502244	0.950747
843.817458	0.951055
844.132629	0.954679
844.447756	0.959327
844.762840	0.958512
845.077881	0.959604
845.392879	0.959578
845.707833	0.961842
846.022745	0.964582
846.337613	0.964385
846.652438	0.966316
846.967221	0.964553
847.281960	0.964098
847.596656	0.966567
847.911309	0.965897
848.225919	0.968034
848.540485	0.967680
848.855009	0.967901
849.169490	0.968629
849.483928	0.969105
849.798323	0.968759
850.112675	0.969367
850.426984	0.969953
850.741251	0.970547
851.055474	0.969533
851.369654	0.966731
851.683792	0.969281
851.997887	0.968871
852.311938	0.970259
852.625947	0.969147
852.939914	0.967526
853.253837	0.969118
853.567718	0.969626
853.881555	0.969395
854.195350	0.967727
854.509103	0.969901
854.822812	0.969280
855.136479	0.969305
855.450103	0.969846
855.763685	0.967620
856.077224	0.968208
856.390720	0.969401
856.704173	0.969800
857.017584	0.967499
857.330953	0.967155
857.644278	0.967648
857.957561	0.967786
858.270802	0.967875
858.584000	0.967015
858.897155	0.966535
859.210268	0.967038
859.523339	0.967426
859.836367	0.969736
860.149352	0.970280
860.462295	0.968069
860.775195	0.968955
861.088054	0.968545
861.400869	0.968490
861.713642	0.970055
862.026373	0.969615
862.339062	0.970573
862.651708	0.967853
862.964312	0.967260
863.276873	0.969098
863.589392	0.968614
863.901869	0.966044
864.214303	0.964061
864.526696	0.964126
864.839045	0.962783
865.151353	0.960963
865.463619	0.961430
865.775842	0.962455
866.088023	0.961817
866.400162	0.962632
866.712258	0.962003
867.024313	0.962646
867.336325	0.963919
867.648296	0.963538
867.960224	0.961970
868.272110	0.960992
868.583954	0.964152
868.895755	0.963975
869.207515	0.961238
869.519233	0.958911
869.830909	0.960278
870.142542	0.961388
870.454134	0.960662
870.765684	0.959431
871.077191	0.957196
871.388657	0.959303
871.700081	0.958286
872.011463	0.956802
872.322803	0.957740
872.634101	0.955777
872.945357	0.952874
873.256571	0.951613
873.567744	0.951983
873.878874	0.952400
874.189963	0.950696
874.501010	0.950142
874.812015	0.948754
875.122979	0.950382
875.433900	0.951627
875.744780	0.953141
876.055618	0.950008
876.366415	0.949212
876.677169	0.948097
876.987882	0.950125
877.298554	0.949877
877.609183	0.947139
877.919771	0.944291
878.230317	0.941302
878.540822	0.940154
878.851285	0.933658
879.161707	0.925653
879.472087	0.912224
879.782425	0.896448
880.092722	0.861802
880.402977	0.809081
880.713191	0.747841
881.023363	0.687441
881.333494	0.652414
881.643583	0.624515
881.953631	0.624314
882.263637	0.653108
882.573602	0.692558
882.883526	0.719704
883.193408	0.744341
883.503248	0.766499
883.813048	0.794545
884.122806	0.823808
884.432522	0.847616
884.742197	0.867403
885.051831	0.879336
885.361424	0.889337
885.670975	0.901180
885.980485	0.910941
886.289954	0.918205
886.599382	0.923919
886.908768	0.926670
887.218113	0.933932
887.527417	0.937949
887.836680	0.941034
888.145901	0.943319
888.455082	0.945108
888.764221	0.948187
889.073319	0.951662
889.382376	0.951448
889.691392	0.951496
890.000366	0.952303
890.309300	0.952795
890.618193	0.952301
890.927044	0.950477
891.235855	0.950815
891.544625	0.950861
891.853353	0.951422
892.162041	0.948562
892.470687	0.940961
892.779293	0.937354
893.087858	0.931424
893.396381	0.925155
893.704864	0.911596
894.013306	0.886950
894.321707	0.860071
894.630068	0.844869
894.938387	0.840408
895.246665	0.839809
895.554903	0.854482
895.863100	0.867431
896.171256	0.884534
896.479371	0.903810
896.787446	0.916541
897.095480	0.923379
897.403473	0.927735
897.711425	0.930915
898.019336	0.938716
898.327207	0.942120
898.635038	0.944883
898.942827	0.943072
899.250576	0.946648
899.558284	0.951507
899.865952	0.953749
900.173579	0.953972
900.481165	0.954414
900.788711	0.957943
901.096216	0.961303
901.403681	0.960586
901.711105	0.962023
902.018489	0.962236
902.325832	0.961224
902.633135	0.961043
902.940397	0.953932
903.247619	0.942135
903.554800	0.917767
903.861941	0.875337
904.169041	0.839080
904.476101	0.821120
904.783121	0.821593
905.090100	0.839378
905.397039	0.860358
905.703938	0.883728
906.010796	0.904064
906.317614	0.920438
906.624391	0.932939
906.931129	0.942370
907.237826	0.951468
907.544483	0.957893
907.851099	0.961876
908.157675	0.967649
908.464211	0.969298
908.770707	0.972919
909.077163	0.973006
909.383578	0.973569
909.689954	0.974846
909.996289	0.974411
910.302584	0.977233
910.608839	0.979264
910.915054	0.977169
911.221229	0.978037
911.527363	0.976503
911.833458	0.976196
912.139513	0.977246
912.445527	0.974465
912.751502	0.973866
913.057436	0.971898
913.363331	0.969978
913.669186	0.964796
913.975000	0.960466
914.280775	0.953948
914.586510	0.946438
914.892205	0.933878
915.197859	0.911693
915.503475	0.883668
915.809050	0.863690
916.114585	0.857624
916.420081	0.854667
916.725536	0.850593
917.030952	0.859833
917.336328	0.873389
917.641665	0.888528
917.946961	0.904980
918.252218	0.916526
918.557435	0.925319
918.862612	0.933927
919.167750	0.940397
919.472848	0.945027
919.777906	0.950478
920.082925	0.955919
920.387904	0.960094
920.692843	0.961956
920.997743	0.963185
921.302603	0.966315
921.607423	0.967548
921.912204	0.971640
922.216946	0.972013
922.521647	0.972459
922.826310	0.973910
923.130932	0.976799
923.435516	0.977350
923.740059	0.977982
924.044564	0.979115
924.349028	0.978820
924.653454	0.982283
924.957840	0.984139
925.262186	0.983134
925.566493	0.983232
925.870761	0.983463
926.174989	0.984750
926.479178	0.988029
926.783328	0.988026
927.087438	0.987717
927.391509	0.988032
927.695541	0.990314
927.999533	0.988275
928.303486	0.989351
928.607400	0.990788
928.911275	0.989408
929.215110	0.989562
929.518906	0.990388
929.822663	0.988967
930.126381	0.990419
930.430060	0.990148
930.733699	0.988644
931.037299	0.988634
931.340861	0.989822
931.644383	0.989876
931.947866	0.988755
932.251309	0.990326
932.554714	0.990617
932.858080	0.989033
933.161407	0.991011
933.464694	0.990711
933.767943	0.989859
934.071153	0.991416
934.374323	0.992201
934.677455	0.989935
934.980548	0.991309
935.283602	0.990327
935.586617	0.990026
935.889593	0.990265
936.192530	0.991655
936.495428	0.990121
936.798287	0.991143
937.101108	0.989848
937.403890	0.989648
937.706632	0.989008
938.009336	0.986484
938.312002	0.985189
938.614628	0.983263
938.917216	0.982023
939.219765	0.981552
939.522275	0.982645
939.824747	0.982057
940.127179	0.982238
940.429573	0.983407
940.731929	0.983618
941.034246	0.984184
941.336524	0.984388
941.638763	0.985340
941.940964	0.986903
942.243126	0.986208
942.545250	0.986248
942.847335	0.988082
943.149381	0.988057
943.451389	0.986447
943.753359	0.987829
944.055290	0.989785
944.357182	0.988943
944.659036	0.987045
944.960851	0.989313
945.262628	0.988801
945.564367	0.991158
945.866067	0.989140
946.167729	0.989731
946.469352	0.988908
946.770937	0.988143
947.072484	0.990157
947.373992	0.989556
947.675462	0.990281
947.976893	0.990459
948.278286	0.990574
948.579641	0.991224
948.880958	0.991835
949.182236	0.990963
949.483476	0.989788
949.784678	0.989437
950.085841	0.990614
950.386967	0.990585
950.688054	0.990341
950.989103	0.990164
951.290114	0.989257
951.591087	0.989598
951.892021	0.989227
952.192917	0.989450
952.493776	0.988683
952.794596	0.987868
953.095378	0.987223
953.396122	0.988094
953.696828	0.987417
953.997496	0.989691
954.298126	0.990123
954.598718	0.989827
954.899272	0.991351
955.199788	0.988885
955.500266	0.992586
955.800706	0.992783
956.101108	0.993565
956.401472	0.993294
956.701798	0.994722
957.002087	0.992306
957.302337	0.993157
957.602550	0.994543
957.902724	0.993990
958.202861	0.994396
958.502960	0.995343
958.803022	0.994440
959.103045	0.995166
959.403031	0.995403
959.702979	0.995820
960.002889	0.996203
960.302762	0.994775
960.602596	0.996550
960.902393	0.995425
961.202153	0.996182
961.501875	0.997127
961.801559	0.995365
962.101205	0.996361
962.400814	0.996421
962.700385	0.996886
962.999918	0.996122
963.299414	0.997330
963.598873	0.995834
963.898293	0.994796
964.197677	0.994585
964.497022	0.995744
964.796331	0.997183
965.095601	0.997476
965.394835	0.996446
965.694030	0.995797
965.993189	0.997298
966.292309	0.995637
966.591393	0.997935
966.890439	0.996917
967.189447	0.996312
967.488419	0.996707
967.787353	0.996131
968.086249	0.995828
968.385108	0.997136
968.683930	0.997658
968.982714	0.997472
969.281462	0.997311
969.580172	0.996436
969.878844	0.995800
970.177480	0.997595
970.476078	0.997205
970.774639	0.996976
971.073162	0.998140
971.371649	0.996081
971.670098	0.996447
971.968510	0.998027
972.266885	0.996752
972.565223	0.995784
972.863524	0.996196
973.161788	0.995707
973.460014	0.997263
973.758204	0.996388
974.056356	0.995709
974.354471	0.994516
974.652550	0.995536
974.950591	0.996897
975.248595	0.995436
975.546563	0.996441
975.844493	0.998057
976.142386	0.997068
976.440243	0.997368
976.738062	0.996993
977.035845	0.998477
977.333590	0.996367
977.631299	0.997443
977.928971	0.996012
978.226606	0.995703
978.524204	0.995319
978.821765	0.997564
979.119290	0.996356
979.416777	0.996913
979.714228	0.996710
980.011642	0.994573
980.309020	0.996886
980.606360	0.996520
980.903664	0.997567
981.200931	0.996012
981.498162	0.994219
981.795356	0.995098
982.092513	0.993382
982.389633	0.995176
982.686717	0.991299
982.983764	0.990565
983.280775	0.990929
983.577749	0.990656
983.874686	0.991396
984.171587	0.990527
984.468451	0.995596
984.765279	0.994819
985.062070	0.994568
985.358824	0.994902
985.655543	0.994667
985.952224	0.995437
986.248869	0.996500
986.545478	0.997115
986.842050	0.998487
987.138586	0.995144
987.435086	0.997002
987.731549	0.998798
988.027975	0.998061
988.324366	0.996960
988.620719	0.996902
988.917037	0.995779
989.213318	0.998628
989.509563	0.999383
989.805772	0.999228
990.101944	0.998485
990.398080	0.997055
990.694180	0.997824
990.990244	0.996554
991.286271	0.996633
991.582262	0.998364
991.878217	0.997082
992.174136	0.998508
992.470019	0.998856
992.765865	0.998473
993.061676	0.997901
993.357450	0.998013
993.653188	0.997105
993.948890	0.997383
994.244556	0.997533
994.540186	0.997300
994.835780	0.995452
995.131337	0.997468
995.426859	0.996592
995.722345	0.997925
996.017795	0.996000
996.313208	0.995689
996.608586	0.996230
996.903928	0.997058
997.199234	0.995771
997.494504	0.996508
997.789738	0.996271
998.084936	0.996843
998.380099	0.997192
998.675225	0.997268
998.970316	0.997376
999.265371	0.997980
999.560390	0.997559
999.855373	0.998657
1000.150320	0.997001
1000.445232	0.998785
1000.740108	0.998243
1001.034948	0.998284
1001.329752	0.998656
1001.624521	0.999206
1001.919254	0.997976
1002.213951	0.998337
1002.508613	0.998397
1002.803239	0.998788
1003.097829	0.998180
1003.392384	0.999012
1003.686903	0.997481
1003.981386	0.997531
1004.275834	0.999278
1004.570246	0.997723
1004.864623	0.998261
1005.158964	0.999481
1005.453270	0.998745
1005.747540	0.997841
1006.041775	0.998646
1006.335974	0.999656
1006.630138	0.998697
1006.924266	0.998875
1007.218359	1.000140
1007.512416	0.999042
1007.806438	0.999890
1008.100425	0.999901
1008.394376	0.999950
1008.688292	0.998585
1008.982172	1.000250
1009.276017	0.998845
1009.569827	0.998723
1009.863602	0.998747
1010.157341	0.999316
1010.451045	0.999440
1010.744714	0.999285
1011.038347	0.998211
1011.331945	0.999469
1011.625508	0.997306
1011.919036	0.998434
1012.212528	0.998243
1012.505986	0.998873
1012.799408	0.998908
1013.092795	0.999914
1013.386147	0.999191
1013.679464	0.998892
1013.972745	0.998099
1014.265992	0.997183
1014.559204	0.997472
1014.852380	0.998884
1015.145521	0.999093
1015.438628	0.999090
1015.731699	0.998760
1016.024736	0.999475
1016.317737	0.998046
1016.610703	0.997810
1016.903635	1.000504
1017.196531	0.998208
1017.489393	0.998114
1017.782219	0.999128
1018.075011	0.998446
1018.367768	0.998971
1018.660490	0.999418
1018.953177	0.999418
1019.245829	0.999418
