Dividing Wavelength (nm)	Counts (n)	Blue Motor Position (mm): 0.000000	Red Motor Position (mm): 12.700000	
326.493990	1.000942
326.888308	1.000942
327.282561	1.000942
327.676750	0.999626
328.070874	0.998959
328.464933	0.999999
328.858929	0.999115
329.252859	1.000186
329.646726	0.998810
330.040528	0.999742
330.434265	0.998788
330.827938	1.000522
331.221547	1.000354
331.615091	0.999343
332.008571	1.000853
332.401986	0.999824
332.795338	1.000412
333.188625	0.996728
333.581847	1.000075
333.975006	0.998910
334.368100	0.998876
334.761129	0.998782
335.154095	1.000588
335.546996	0.997149
335.939833	0.992436
336.332606	0.992956
336.725315	0.993348
337.117960	0.994406
337.510540	0.993153
337.903056	0.994030
338.295508	0.992531
338.687896	0.994884
339.080220	0.993054
339.472480	0.993270
339.864676	0.993230
340.256807	0.993428
340.648875	0.995684
341.040879	0.995090
341.432818	0.993808
341.824694	0.993432
342.216506	0.994273
342.608253	0.993316
342.999937	0.993206
343.391557	0.993674
343.783113	0.994817
344.174605	0.993509
344.566033	0.994146
344.957397	0.992983
345.348697	0.993361
345.739934	0.994093
346.131106	0.993169
346.522215	0.993448
346.913260	0.992950
347.304241	0.994093
347.695159	0.992490
348.086012	0.991431
348.476802	0.993375
348.867528	0.993855
349.258191	0.991750
349.648789	0.993743
350.039324	0.993591
350.429796	0.993343
350.820203	0.994266
351.210548	0.992152
351.600828	0.992473
351.991045	0.992669
352.381198	0.992364
352.771288	0.993600
353.161314	0.994001
353.551276	0.994950
353.941175	0.993524
354.331010	0.993230
354.720782	0.994344
355.110490	0.993129
355.500135	0.994636
355.889717	0.993819
356.279235	0.993191
356.668689	0.992770
357.058080	0.993368
357.447408	0.994269
357.836672	0.992951
358.225873	0.994118
358.615010	0.993713
359.004084	0.994679
359.393095	0.993385
359.782043	0.993426
360.170927	0.995458
360.559748	0.993946
360.948505	0.992631
361.337199	0.992532
361.725830	0.993347
362.114398	0.993009
362.502903	0.993997
362.891344	0.994904
363.279722	0.993397
363.668037	0.994482
364.056289	0.994194
364.444478	0.993589
364.832603	0.993931
365.220665	0.991704
365.608665	0.992123
365.996601	0.993487
366.384474	0.992078
366.772284	0.992713
367.160031	0.990959
367.547715	0.991941
367.935336	0.992806
368.322893	0.993003
368.710388	0.990914
369.097820	0.991842
369.485189	0.992355
369.872495	0.991220
370.259738	0.992461
370.646918	0.992626
371.034035	0.992138
371.421090	0.992269
371.808081	0.992315
372.195010	0.993371
372.581875	0.992716
372.968678	0.993487
373.355418	0.992465
373.742096	0.991475
374.128710	0.992368
374.515262	0.992588
374.901751	0.992698
375.288177	0.991973
375.674540	0.993802
376.060841	0.991978
376.447079	0.993519
376.833254	0.992507
377.219367	0.992476
377.605417	0.992832
377.991404	0.993293
378.377329	0.991385
378.763191	0.991525
379.148991	0.992286
379.534727	0.992268
379.920402	0.991980
380.306013	0.992037
380.691563	0.993708
381.077049	0.991981
381.462474	0.992744
381.847835	0.993535
382.233134	0.991633
382.618371	0.993060
383.003545	0.994018
383.388657	0.992431
383.773706	0.992942
384.158693	0.992436
384.543618	0.992768
384.928480	0.993139
385.313280	0.992625
385.698017	0.992722
386.082692	0.992260
386.467305	0.991268
386.851856	0.989817
387.236344	0.987868
387.620770	0.987274
388.005133	0.986332
388.389435	0.984659
388.773674	0.982235
389.157851	0.979754
389.541965	0.977524
389.926018	0.973525
390.310008	0.971309
390.693936	0.966050
391.077802	0.961408
391.461606	0.957555
391.845348	0.952811
392.229027	0.948561
392.612645	0.942505
392.996200	0.935407
393.379694	0.928479
393.763125	0.920978
394.146494	0.914468
394.529801	0.905605
394.913047	0.897788
395.296230	0.892691
395.679351	0.883323
396.062410	0.873407
396.445408	0.868041
396.828343	0.857931
397.211217	0.847723
397.594028	0.845185
397.976778	0.831561
398.359466	0.822508
398.742092	0.811272
399.124656	0.808466
399.507158	0.794943
399.889598	0.786043
400.271977	0.772213
400.654294	0.766139
401.036549	0.757126
401.418742	0.751009
401.800874	0.733598
402.182944	0.724299
402.564952	0.709711
402.946898	0.703635
403.328783	0.696488
403.710606	0.696850
404.092367	0.671173
404.474067	0.668105
404.855705	0.659679
405.237282	0.660592
405.618797	0.643382
406.000250	0.633453
406.381642	0.620743
406.762972	0.617987
407.144240	0.611556
407.525447	0.606339
407.906593	0.595286
408.287677	0.586911
408.668700	0.590252
409.049661	0.579870
409.430560	0.571781
409.811399	0.576027
410.192176	0.555637
410.572891	0.559409
410.953545	0.545179
411.334138	0.554821
411.714669	0.545968
412.095139	0.554801
412.475547	0.537542
412.855894	0.537879
413.236180	0.535083
413.616405	0.538837
413.996568	0.528173
414.376670	0.533063
414.756711	0.536503
415.136691	0.532548
415.516609	0.523401
415.896466	0.518997
416.276262	0.514378
416.655997	0.516006
417.035670	0.496486
417.415283	0.488161
417.794834	0.493002
418.174324	0.497494
418.553753	0.506741
418.933121	0.488751
419.312428	0.482415
419.691674	0.487656
420.070859	0.476199
420.449983	0.483839
420.829045	0.473657
421.208047	0.482230
421.586988	0.475764
421.965867	0.474360
422.344686	0.462746
422.723444	0.475575
423.102141	0.492370
423.480777	0.465360
423.859352	0.485703
424.237866	0.462777
424.616319	0.463390
424.994712	0.454559
425.373044	0.464904
425.751314	0.452971
426.129524	0.468985
426.507673	0.453096
426.885762	0.446700
427.263789	0.452147
427.641756	0.461473
428.019662	0.452111
428.397508	0.450776
428.775292	0.455613
429.153016	0.447278
429.530679	0.453616
429.908282	0.447045
430.285824	0.456831
430.663305	0.435129
431.040726	0.456001
431.418086	0.456190
431.795385	0.448649
432.172624	0.446334
432.549802	0.447202
432.926920	0.446467
433.303977	0.445295
433.680974	0.442850
434.057910	0.441530
434.434786	0.440992
434.811601	0.443114
435.188355	0.425066
435.565050	0.434771
435.941683	0.436042
436.318257	0.420692
436.694770	0.421422
437.071222	0.419448
437.447614	0.423728
437.823946	0.430334
438.200218	0.419487
438.576429	0.429515
438.952580	0.422391
439.328670	0.418807
439.704700	0.425951
440.080670	0.426826
440.456580	0.408155
440.832429	0.415419
441.208218	0.426905
441.583947	0.416250
441.959616	0.415397
442.335224	0.420494
442.710773	0.411439
443.086261	0.409546
443.461689	0.423262
443.837057	0.413743
444.212365	0.403428
444.587612	0.410545
444.962800	0.400179
445.337927	0.401607
445.712995	0.427784
446.088002	0.390705
446.462949	0.400822
446.837837	0.405421
447.212664	0.394499
447.587431	0.385803
447.962139	0.356188
448.336786	0.316016
448.711374	0.326033
449.085901	0.369855
449.460369	0.374128
449.834776	0.377723
450.209124	0.357435
450.583412	0.349939
450.957640	0.342925
451.331808	0.354463
451.705917	0.377360
452.079965	0.381954
452.453954	0.370248
452.827883	0.377389
453.201752	0.372115
453.575562	0.383775
453.949311	0.371930
454.323001	0.378247
454.696632	0.373915
455.070202	0.366355
455.443713	0.358120
455.817164	0.353201
456.190556	0.349201
456.563888	0.345884
456.937160	0.342977
457.310373	0.360457
457.683526	0.359537
458.056619	0.364799
458.429653	0.365573
458.802628	0.368887
459.175542	0.363204
459.548398	0.346304
459.921194	0.338238
460.293930	0.338459
460.666607	0.315874
461.039224	0.304532
461.411782	0.300487
461.784280	0.299375
462.156719	0.303600
462.529099	0.307922
462.901419	0.324019
463.273680	0.328733
463.645882	0.327995
464.018024	0.333906
464.390106	0.326667
464.762130	0.311979
465.134094	0.294410
465.505999	0.263611
465.877845	0.234460
466.249631	0.221482
466.621358	0.228743
466.993026	0.242506
467.364634	0.248731
467.736184	0.257427
468.107674	0.266190
468.479105	0.265147
468.850477	0.271960
469.221790	0.278886
469.593043	0.289149
469.964238	0.294033
470.335373	0.293003
470.706449	0.291515
471.077467	0.291936
471.448425	0.254326
471.819324	0.229966
472.190164	0.229368
472.560945	0.258148
472.931667	0.280233
473.302330	0.284390
473.672934	0.295812
474.043479	0.284304
474.413965	0.286192
474.784393	0.289820
475.154761	0.285096
475.525070	0.281860
475.895321	0.287454
476.265513	0.281425
476.635645	0.277100
477.005719	0.277255
477.375734	0.273631
477.745691	0.267063
478.115588	0.263364
478.485427	0.256731
478.855207	0.243811
479.224928	0.226400
479.594591	0.214528
479.964194	0.217835
480.333739	0.219173
480.703226	0.220433
481.072653	0.219002
481.442022	0.214555
481.811333	0.211101
482.180584	0.214572
482.549777	0.219737
482.918912	0.222991
483.287988	0.223285
483.657005	0.222472
484.025964	0.229399
484.394864	0.226276
484.763706	0.227133
485.132489	0.231937
485.501213	0.232668
485.869879	0.230922
486.238487	0.234164
486.607036	0.232504
486.975527	0.236599
487.343959	0.232537
487.712333	0.231469
488.080648	0.233084
488.448905	0.232077
488.817104	0.233630
489.185244	0.228096
489.553326	0.224898
489.921350	0.214840
490.289315	0.197558
490.657222	0.192325
491.025070	0.193876
491.392861	0.195800
491.760593	0.201340
492.128267	0.207014
492.495883	0.212544
492.863440	0.218770
493.230939	0.224902
493.598380	0.226599
493.965763	0.228594
494.333088	0.230821
494.700354	0.232394
495.067563	0.231308
495.434713	0.234691
495.801805	0.232820
496.168839	0.233546
496.535815	0.235204
496.902733	0.235343
497.269593	0.236879
497.636395	0.235060
498.003139	0.234990
498.369825	0.237969
498.736453	0.234565
499.103023	0.235640
499.469535	0.235209
499.835989	0.235695
500.202385	0.236533
500.568723	0.239877
500.935003	0.234839
501.301226	0.239116
501.667390	0.233506
502.033497	0.231361
502.399546	0.234497
502.765537	0.236191
503.131470	0.234962
503.497345	0.231142
503.863163	0.239625
504.228923	0.232849
504.594625	0.231308
504.960269	0.236744
505.325856	0.231945
505.691385	0.236309
506.056856	0.233232
506.422270	0.232611
506.787625	0.235128
507.152924	0.232567
507.518164	0.232914
507.883347	0.234395
508.248472	0.236199
508.613540	0.231172
508.978550	0.233585
509.343503	0.234307
509.708398	0.232111
510.073236	0.229740
510.438016	0.229490
510.802738	0.230485
511.167403	0.229439
511.532010	0.231644
511.896561	0.226705
512.261053	0.225613
512.625488	0.227866
512.989866	0.227953
513.354186	0.228579
513.718449	0.230117
514.082655	0.226478
514.446803	0.229085
514.810894	0.226398
515.174927	0.229170
515.538904	0.228525
515.902822	0.225341
516.266684	0.227954
516.630488	0.229009
516.994235	0.227702
517.357925	0.226597
517.721558	0.225022
518.085133	0.224466
518.448651	0.224588
518.812112	0.226623
519.175516	0.226407
519.538863	0.224233
519.902152	0.225625
520.265385	0.222552
520.628560	0.224155
520.991678	0.224760
521.354739	0.223270
521.717743	0.224706
522.080690	0.225378
522.443580	0.222406
522.806413	0.223703
523.169189	0.222555
523.531908	0.221880
523.894569	0.225201
524.257174	0.225306
524.619722	0.222729
524.982213	0.224078
525.344647	0.222953
525.707025	0.223672
526.069345	0.221991
526.431608	0.223550
526.793815	0.221522
527.155964	0.225376
527.518057	0.224535
527.880093	0.225872
528.242072	0.223814
528.603995	0.226175
528.965860	0.227988
529.327669	0.226598
529.689421	0.227449
530.051117	0.228260
530.412755	0.226055
530.774337	0.228376
531.135862	0.228668
531.497331	0.228189
531.858743	0.231069
532.220098	0.227613
532.581396	0.230224
532.942638	0.230809
533.303824	0.231583
533.664953	0.231401
534.026025	0.233012
534.387040	0.231170
534.747999	0.230926
535.108902	0.229982
535.469748	0.234907
535.830537	0.232799
536.191270	0.233211
536.551947	0.232714
536.912567	0.232692
537.273131	0.234485
537.633638	0.234500
537.994089	0.235114
538.354483	0.235929
538.714821	0.232917
539.075103	0.232878
539.435328	0.233652
539.795497	0.237354
540.155609	0.234001
540.515665	0.232152
540.875665	0.237631
541.235609	0.236459
541.595496	0.236316
541.955328	0.232757
542.315102	0.235328
542.674821	0.236481
543.034483	0.236447
543.394090	0.236027
543.753640	0.238325
544.113134	0.233118
544.472571	0.236283
544.831953	0.233394
545.191278	0.237505
545.550548	0.236971
545.909761	0.233815
546.268918	0.234450
546.628019	0.232697
546.987064	0.235348
547.346053	0.237354
547.704986	0.235180
548.063863	0.235621
548.422684	0.235720
548.781449	0.237619
549.140158	0.235147
549.498811	0.238030
549.857408	0.241006
550.215949	0.236064
550.574434	0.238968
550.932864	0.236805
551.291237	0.235571
551.649555	0.237000
552.007817	0.236966
552.366022	0.237595
552.724173	0.237667
553.082267	0.238115
553.440305	0.235068
553.798288	0.239571
554.156215	0.235869
554.514086	0.236638
554.871902	0.239887
555.229661	0.239045
555.587365	0.239552
555.945014	0.242257
556.302606	0.238856
556.660143	0.241610
557.017625	0.237870
557.375050	0.240295
557.732421	0.237447
558.089735	0.239224
558.446994	0.239299
558.804197	0.238461
559.161345	0.238396
559.518437	0.241948
559.875474	0.239441
560.232455	0.239181
560.589381	0.240542
560.946251	0.240269
561.303065	0.238002
561.659825	0.239352
562.016528	0.240828
562.373177	0.243604
562.729770	0.240887
563.086307	0.243231
563.442789	0.240504
563.799216	0.243864
564.155587	0.242398
564.511904	0.243384
564.868164	0.243787
565.224370	0.243633
565.580520	0.245218
565.936615	0.244911
566.292654	0.247969
566.648638	0.245032
567.004567	0.246191
567.360441	0.246614
567.716260	0.248691
568.072023	0.246400
568.427732	0.247074
568.783385	0.249579
569.138982	0.247695
569.494525	0.247382
569.850013	0.250043
570.205445	0.248622
570.560823	0.250810
570.916145	0.253149
571.271412	0.251635
571.626625	0.252822
571.981782	0.253117
572.336884	0.254182
572.691931	0.253727
573.046923	0.255314
573.401860	0.256485
573.756743	0.257977
574.111570	0.257070
574.466342	0.257629
574.821059	0.256613
575.175722	0.259353
575.530330	0.259439
575.884882	0.259286
576.239380	0.261529
576.593823	0.262028
576.948211	0.261297
577.302544	0.264480
577.656823	0.264240
578.011047	0.264398
578.365216	0.265008
578.719330	0.266747
579.073389	0.266712
579.427394	0.268275
579.781344	0.269042
580.135239	0.270214
580.489080	0.270033
580.842866	0.272821
581.196597	0.272991
581.550273	0.271628
581.903895	0.272703
582.257463	0.270583
582.610975	0.274150
582.964434	0.273209
583.317837	0.275939
583.671186	0.276123
584.024481	0.276311
584.377721	0.278691
584.730906	0.279412
585.084037	0.278658
585.437113	0.280332
585.790135	0.280024
586.143103	0.283047
586.496016	0.284321
586.848874	0.281461
587.201679	0.282589
587.554428	0.285375
587.907124	0.284119
588.259765	0.284749
588.612352	0.285490
588.964884	0.289477
589.317362	0.288974
589.669786	0.288514
590.022155	0.287244
590.374470	0.286658
590.726731	0.288625
591.078937	0.293322
591.431090	0.289501
591.783188	0.293796
592.135232	0.294482
592.487222	0.294509
592.839157	0.292783
593.191038	0.294667
593.542866	0.296716
593.894639	0.300104
594.246358	0.298273
594.598022	0.297661
594.949633	0.301366
595.301190	0.302226
595.652692	0.301594
596.004141	0.297558
596.355535	0.305205
596.706876	0.306321
597.058162	0.308456
597.409395	0.305414
597.760573	0.303465
598.111698	0.306604
598.462768	0.307200
598.813785	0.308298
599.164748	0.309805
599.515657	0.309952
599.866511	0.313261
600.217312	0.308390
600.568060	0.314459
600.918753	0.310597
601.269392	0.311259
601.619978	0.314197
601.970510	0.312340
602.320988	0.312321
602.671412	0.310226
603.021783	0.312698
603.372100	0.313976
603.722363	0.313534
604.072572	0.314711
604.422728	0.314015
604.772830	0.316478
605.122878	0.315798
605.472872	0.316368
605.822813	0.314749
606.172701	0.317201
606.522534	0.314648
606.872314	0.314858
607.222041	0.315738
607.571714	0.313883
607.921333	0.315250
608.270899	0.315142
608.620411	0.311652
608.969870	0.315736
609.319276	0.315600
609.668627	0.315870
610.017926	0.314176
610.367171	0.312825
610.716362	0.313449
611.065500	0.313629
611.414585	0.312410
611.763616	0.313079
612.112594	0.313436
612.461518	0.312845
612.810389	0.310255
613.159207	0.312903
613.507971	0.314747
613.856682	0.310193
614.205340	0.311997
614.553945	0.308861
614.902496	0.312832
615.250994	0.310658
615.599439	0.311433
615.947830	0.310947
616.296169	0.311612
616.644454	0.311154
616.992686	0.311371
617.340864	0.309295
617.688990	0.312952
618.037063	0.309202
618.385082	0.311365
618.733048	0.308323
619.080961	0.310853
619.428821	0.309894
619.776628	0.309736
620.124382	0.311532
620.472083	0.311834
620.819731	0.311189
621.167326	0.315193
621.514868	0.314850
621.862357	0.319163
622.209793	0.318511
622.557176	0.321071
622.904506	0.321974
623.251783	0.324328
623.599007	0.326729
623.946179	0.326132
624.293297	0.328148
624.640363	0.331852
624.987376	0.332720
625.334336	0.334843
625.681243	0.337213
626.028097	0.337798
626.374899	0.339086
626.721647	0.338726
627.068343	0.342189
627.414987	0.343716
627.761577	0.345932
628.108115	0.343862
628.454600	0.349058
628.801032	0.346622
629.147412	0.348840
629.493739	0.348827
629.840014	0.351770
630.186236	0.349148
630.532405	0.355077
630.878521	0.352305
631.224585	0.354549
631.570597	0.357876
631.916556	0.356699
632.262462	0.356787
632.608316	0.358814
632.954117	0.359627
633.299866	0.360838
633.645562	0.360865
633.991206	0.365136
634.336797	0.368344
634.682336	0.370397
635.027823	0.372231
635.373257	0.372499
635.718639	0.376265
636.063968	0.375711
636.409245	0.381231
636.754470	0.381885
637.099642	0.384245
637.444762	0.387579
637.789829	0.386481
638.134845	0.389876
638.479808	0.391005
638.824719	0.390699
639.169577	0.394694
639.514383	0.393338
639.859137	0.397575
640.203839	0.397455
640.548489	0.398421
640.893086	0.399911
641.237632	0.401034
641.582125	0.399215
641.926566	0.401357
642.270955	0.401373
642.615292	0.401588
642.959576	0.400733
643.303809	0.401907
643.647990	0.400816
643.992118	0.401203
644.336195	0.404905
644.680219	0.403736
645.024192	0.404187
645.368112	0.397957
645.711981	0.396686
646.055797	0.392177
646.399562	0.394511
646.743274	0.386157
647.086935	0.383596
647.430544	0.383682
647.774101	0.383176
648.117606	0.382470
648.461059	0.382648
648.804460	0.385279
649.147810	0.390455
649.491108	0.392799
649.834354	0.393811
650.177548	0.399472
650.520690	0.404884
650.863781	0.406189
651.206820	0.405277
651.549807	0.409941
651.892742	0.413637
652.235626	0.413279
652.578458	0.414396
652.921238	0.420185
653.263967	0.418413
653.606644	0.422156
653.949269	0.421965
654.291843	0.426202
654.634365	0.422599
654.976836	0.426006
655.319255	0.425740
655.661622	0.427280
656.003938	0.427393
656.346203	0.430609
656.688416	0.428482
657.030577	0.431704
657.372687	0.433412
657.714746	0.434771
658.056753	0.431515
658.398708	0.434932
658.740612	0.436740
659.082465	0.433044
659.424266	0.433183
659.766016	0.432746
660.107715	0.435197
660.449362	0.434145
660.790958	0.434797
661.132503	0.435279
661.473996	0.433078
661.815438	0.433863
662.156829	0.434279
662.498168	0.434890
662.839456	0.436244
663.180693	0.434000
663.521879	0.433970
663.863013	0.434724
664.204097	0.433614
664.545129	0.429777
664.886110	0.430682
665.227040	0.427959
665.567918	0.430812
665.908746	0.428666
666.249522	0.428031
666.590248	0.429211
666.930922	0.426761
667.271545	0.426367
667.612118	0.426150
667.952639	0.427946
668.293109	0.426250
668.633528	0.429672
668.973896	0.429241
669.314213	0.429965
669.654480	0.431854
669.994695	0.431798
670.334859	0.432138
670.674973	0.433101
671.015035	0.432995
671.355047	0.432510
671.695008	0.434022
672.034918	0.435591
672.374777	0.434914
672.714585	0.436381
673.054342	0.436349
673.394049	0.436456
673.733705	0.434417
674.073310	0.435518
674.412864	0.438409
674.752368	0.438567
675.091820	0.438634
675.431223	0.443200
675.770574	0.442720
676.109875	0.445714
676.449125	0.446384
676.788324	0.448347
677.127473	0.454005
677.466571	0.453226
677.805619	0.454957
678.144616	0.456219
678.483562	0.458470
678.822458	0.460622
679.161303	0.461506
679.500098	0.461815
679.838842	0.463636
680.177535	0.463361
680.516179	0.461802
680.854771	0.460490
681.193314	0.454215
681.531805	0.445518
681.870247	0.433843
682.208638	0.426491
682.546978	0.425442
682.885268	0.427115
683.223508	0.433359
683.561697	0.437414
683.899836	0.439469
684.237925	0.443537
684.575963	0.446028
684.913951	0.449190
685.251889	0.444302
685.589776	0.446797
685.927614	0.449229
686.265401	0.443269
686.603137	0.444073
686.940824	0.438251
687.278460	0.437018
687.616046	0.436202
687.953582	0.431157
688.291068	0.432536
688.628504	0.428497
688.965889	0.430960
689.303224	0.434628
689.640510	0.438338
689.977745	0.444523
690.314930	0.452245
690.652065	0.456911
690.989150	0.464382
691.326185	0.470953
691.663170	0.475250
692.000105	0.482616
692.336990	0.489207
692.673825	0.491931
693.010610	0.498829
693.347345	0.503894
693.684030	0.505954
694.020665	0.510456
694.357251	0.519486
694.693786	0.519453
695.030272	0.523013
695.366707	0.526621
695.703093	0.530509
696.039429	0.527637
696.375716	0.530126
696.711952	0.532983
697.048139	0.534100
697.384276	0.536999
697.720363	0.534669
698.056400	0.533740
698.392388	0.539424
698.728326	0.542070
699.064214	0.545848
699.400053	0.545831
699.735842	0.549545
700.071581	0.552315
700.407270	0.555093
700.742910	0.558006
701.078501	0.564295
701.414042	0.564711
701.749533	0.567445
702.084974	0.576368
702.420366	0.568515
702.755709	0.576431
703.091002	0.583935
703.426246	0.577658
703.761440	0.583283
704.096584	0.588208
704.431679	0.585526
704.766725	0.587501
705.101721	0.588848
705.436668	0.584761
705.771565	0.592228
706.106413	0.588758
706.441212	0.583408
706.775961	0.583100
707.110661	0.585670
707.445311	0.581550
707.779913	0.579163
708.114465	0.577175
708.448967	0.574868
708.783421	0.565544
709.117825	0.560238
709.452180	0.560881
709.786485	0.554729
710.120742	0.544509
710.454949	0.546324
710.789107	0.538557
711.123216	0.529880
711.457275	0.531416
711.791286	0.521500
712.125247	0.520927
712.459159	0.531985
712.793023	0.524456
713.126837	0.528858
713.460602	0.529491
713.794318	0.538829
714.127985	0.537388
714.461602	0.547325
714.795171	0.550410
715.128691	0.558702
715.462162	0.566177
715.795584	0.572001
716.128957	0.574472
716.462281	0.581213
716.795556	0.584653
717.128782	0.589636
717.461960	0.600042
717.795088	0.597278
718.128167	0.603833
718.461198	0.613129
718.794180	0.613282
719.127113	0.616296
719.459997	0.619576
719.792833	0.625717
720.125619	0.627350
720.458357	0.632435
720.791046	0.631975
721.123686	0.636154
721.456278	0.642999
721.788821	0.640105
722.121315	0.644298
722.453761	0.647625
722.786158	0.647006
723.118506	0.642356
723.450805	0.650728
723.783056	0.646639
724.115259	0.644516
724.447412	0.643896
724.779518	0.645165
725.111574	0.643604
725.443582	0.639293
725.775542	0.640779
726.107453	0.632872
726.439315	0.633391
726.771129	0.631651
727.102895	0.625528
727.434612	0.618223
727.766281	0.616303
728.097901	0.615796
728.429473	0.615131
728.760996	0.613651
729.092471	0.613130
729.423897	0.617987
729.755276	0.616407
730.086606	0.616679
730.417887	0.611315
730.749120	0.602054
731.080305	0.592823
731.411442	0.588982
731.742530	0.593981
732.073570	0.593904
732.404562	0.585239
732.735506	0.586799
733.066401	0.591178
733.397249	0.599647
733.728048	0.611817
734.058798	0.624036
734.389501	0.635586
734.720156	0.644592
735.050762	0.652914
735.381320	0.654564
735.711831	0.663133
736.042293	0.668127
736.372707	0.663588
736.703073	0.668259
737.033391	0.671242
737.363661	0.667711
737.693883	0.662602
738.024056	0.661831
738.354182	0.662140
738.684260	0.651347
739.014290	0.647191
739.344272	0.648015
739.674207	0.641009
740.004093	0.640588
740.333931	0.640884
740.663722	0.641944
740.993464	0.641716
741.323159	0.646036
741.652806	0.651120
741.982405	0.656107
742.311956	0.660120
742.641460	0.662059
742.970915	0.665793
743.300323	0.673750
743.629683	0.680253
743.958996	0.682072
744.288260	0.686824
744.617477	0.692137
744.946647	0.693804
745.275768	0.699434
745.604842	0.698910
745.933869	0.708943
746.262847	0.710090
746.591778	0.703542
746.920662	0.709790
747.249498	0.715866
747.578286	0.707302
747.907027	0.702913
748.235720	0.704088
748.564365	0.698460
748.892963	0.698997
749.221514	0.701661
749.550017	0.706972
749.878473	0.706276
750.206881	0.712770
750.535242	0.714474
750.863555	0.713414
751.191821	0.715278
751.520039	0.717324
751.848210	0.722953
752.176334	0.715152
752.504411	0.715623
752.832440	0.723246
753.160421	0.725963
753.488356	0.724860
753.816243	0.722621
754.144082	0.731054
754.471875	0.734717
754.799620	0.730033
755.127318	0.731206
755.454969	0.731321
755.782572	0.730386
756.110129	0.735221
756.437638	0.737450
756.765100	0.733989
757.092515	0.732214
757.419882	0.732037
757.747203	0.736722
758.074477	0.735815
758.401703	0.733314
758.728882	0.728141
759.056014	0.726896
759.383099	0.726057
759.710138	0.727106
760.037129	0.723716
760.364073	0.717956
760.690970	0.719473
761.017820	0.725634
761.344623	0.720777
761.671379	0.712329
761.998088	0.700448
762.324751	0.677595
762.651366	0.635830
762.977935	0.568983
763.304456	0.516568
763.630931	0.507479
763.957359	0.546296
764.283740	0.591260
764.610074	0.617714
764.936362	0.649132
765.262602	0.676184
765.588796	0.697742
765.914943	0.715377
766.241044	0.733028
766.567097	0.739585
766.893104	0.749915
767.219064	0.756375
767.544978	0.762033
767.870845	0.776011
768.196665	0.778920
768.522438	0.777814
768.848165	0.779262
769.173846	0.787965
769.499479	0.792984
769.825066	0.795402
770.150607	0.802073
770.476101	0.796181
770.801548	0.797731
771.126949	0.808448
771.452303	0.812594
771.777611	0.811744
772.102872	0.811072
772.428087	0.816656
772.753256	0.819465
773.078378	0.822198
773.403453	0.831803
773.728482	0.835716
774.053465	0.828490
774.378401	0.831730
774.703291	0.840642
775.028135	0.839791
775.352932	0.842208
775.677683	0.844537
776.002388	0.845694
776.327046	0.845115
776.651658	0.847723
776.976224	0.851809
777.300743	0.851708
777.625216	0.854144
777.949643	0.855716
778.274024	0.856515
778.598359	0.856225
778.922647	0.855814
779.246889	0.856271
779.571086	0.860252
779.895236	0.863568
780.219339	0.859675
780.543397	0.856736
780.867409	0.854639
781.191374	0.856875
781.515294	0.858769
781.839167	0.857663
782.162995	0.861398
782.486776	0.858698
782.810511	0.858603
783.134201	0.862969
783.457844	0.860890
783.781441	0.863741
784.104993	0.869836
784.428498	0.870791
784.751958	0.865078
785.075372	0.867517
785.398739	0.871144
785.722061	0.867314
786.045337	0.864281
786.368568	0.867947
786.691752	0.870327
787.014891	0.855729
787.337983	0.847627
787.661030	0.839745
787.984031	0.821611
788.306987	0.809090
788.629897	0.810918
788.952760	0.816255
789.275579	0.818908
789.598351	0.834542
789.921078	0.848648
790.243759	0.849926
790.566395	0.855213
790.888984	0.862763
791.211529	0.867297
791.534027	0.870448
791.856480	0.872655
792.178888	0.877679
792.501249	0.879540
792.823566	0.883003
793.145836	0.881854
793.468062	0.883031
793.790241	0.883417
794.112375	0.881191
794.434464	0.877054
794.756507	0.876042
795.078505	0.877225
795.400457	0.871172
795.722364	0.858969
796.044226	0.851742
796.366042	0.851465
796.687812	0.853677
797.009538	0.849957
797.331218	0.852786
797.652852	0.857898
797.974442	0.862441
798.295986	0.862268
798.617484	0.864932
798.938938	0.869083
799.260346	0.874378
799.581709	0.875233
799.903026	0.879417
800.224299	0.877634
800.545526	0.883176
800.866708	0.886763
801.187845	0.891885
801.508936	0.890130
801.829983	0.888155
802.150984	0.891554
802.471940	0.896251
802.792851	0.895203
803.113717	0.896085
803.434538	0.894332
803.755314	0.897364
804.076045	0.899042
804.396731	0.898508
804.717372	0.898301
805.037967	0.900423
805.358518	0.898188
805.679024	0.894627
805.999485	0.895818
806.319901	0.895772
806.640272	0.897328
806.960598	0.895214
807.280879	0.891868
807.601115	0.891064
807.921306	0.895136
808.241453	0.895016
808.561554	0.893241
808.881611	0.892628
809.201623	0.895185
809.521590	0.895336
809.841513	0.895479
810.161390	0.895249
810.481223	0.896178
810.801011	0.899174
811.120755	0.901053
811.440453	0.901051
811.760107	0.900147
812.079716	0.898396
812.399281	0.902640
812.718801	0.904628
813.038276	0.906453
813.357707	0.905730
813.677093	0.903664
813.996434	0.906253
814.315731	0.906939
814.634983	0.909314
814.954191	0.906097
815.273354	0.903350
815.592473	0.898856
815.911547	0.898994
816.230577	0.898351
816.549562	0.894704
816.868502	0.895875
817.187399	0.891191
817.506250	0.886688
817.825058	0.888587
818.143821	0.885205
818.462539	0.879930
818.781213	0.871373
819.099843	0.860373
819.418429	0.844831
819.736970	0.828152
820.055466	0.807048
820.373919	0.781954
820.692327	0.748808
821.010691	0.713965
821.329011	0.635690
821.647286	0.519424
821.965517	0.405145
822.283704	0.362471
822.601847	0.363177
822.919945	0.398921
823.237999	0.433211
823.556010	0.480466
823.873976	0.536144
824.191897	0.587220
824.509775	0.630385
824.827609	0.675886
825.145398	0.698887
825.463144	0.701422
825.780845	0.684212
826.098502	0.665766
826.416116	0.619441
826.733685	0.575521
827.051210	0.566160
827.368692	0.580433
827.686129	0.619382
828.003522	0.671825
828.320872	0.720576
828.638177	0.765168
828.955439	0.798173
829.272656	0.819591
829.589830	0.838147
829.906960	0.852826
830.224046	0.864254
830.541088	0.875145
830.858086	0.879737
831.175041	0.886534
831.491952	0.885153
831.808819	0.881741
832.125642	0.875310
832.442421	0.860973
832.759157	0.838368
833.075849	0.791546
833.392497	0.727608
833.709101	0.686649
834.025662	0.695586
834.342179	0.727417
834.658653	0.766804
834.975083	0.803726
835.291469	0.830573
835.607811	0.853231
835.924110	0.869091
836.240366	0.885718
836.556578	0.900133
836.872746	0.906447
837.188871	0.912936
837.504952	0.918338
837.820990	0.922040
838.136984	0.926008
838.452935	0.929143
838.768842	0.930235
839.084706	0.924071
839.400526	0.898069
839.716303	0.856923
840.032037	0.834723
840.347727	0.837475
840.663373	0.855835
840.978977	0.878430
841.294537	0.900309
841.610054	0.916293
841.925527	0.925913
842.240957	0.932038
842.556344	0.939096
842.871687	0.945323
843.186987	0.948789
843.502244	0.948875
843.817458	0.951456
844.132629	0.953957
844.447756	0.959676
844.762840	0.960093
845.077881	0.959039
845.392879	0.957723
845.707833	0.961854
846.022745	0.962635
846.337613	0.964257
846.652438	0.965584
846.967221	0.963742
847.281960	0.964239
847.596656	0.967824
847.911309	0.965045
848.225919	0.966491
848.540485	0.967948
848.855009	0.968684
849.169490	0.967725
849.483928	0.967909
849.798323	0.968698
850.112675	0.968537
850.426984	0.968234
850.741251	0.968895
851.055474	0.969842
851.369654	0.967545
851.683792	0.969354
851.997887	0.969718
852.311938	0.970439
852.625947	0.969450
852.939914	0.966999
853.253837	0.968760
853.567718	0.970266
853.881555	0.969887
854.195350	0.967396
854.509103	0.969014
854.822812	0.969104
855.136479	0.969739
855.450103	0.969170
855.763685	0.966982
856.077224	0.968653
856.390720	0.969244
856.704173	0.969471
857.017584	0.968240
857.330953	0.966360
857.644278	0.966902
857.957561	0.968425
858.270802	0.966306
858.584000	0.967006
858.897155	0.966013
859.210268	0.965921
859.523339	0.966775
859.836367	0.970110
860.149352	0.969712
860.462295	0.967727
860.775195	0.968144
861.088054	0.968404
861.400869	0.968329
861.713642	0.970543
862.026373	0.969794
862.339062	0.969903
862.651708	0.966869
862.964312	0.967112
863.276873	0.968416
863.589392	0.966983
863.901869	0.965679
864.214303	0.965013
864.526696	0.963764
864.839045	0.962883
865.151353	0.961081
865.463619	0.962437
865.775842	0.960990
866.088023	0.961194
866.400162	0.961457
866.712258	0.961346
867.024313	0.961465
867.336325	0.963219
867.648296	0.961776
867.960224	0.962025
868.272110	0.960594
868.583954	0.963383
868.895755	0.962896
869.207515	0.960834
869.519233	0.958145
869.830909	0.960596
870.142542	0.961406
870.454134	0.961619
870.765684	0.959654
871.077191	0.957029
871.388657	0.957485
871.700081	0.957506
872.011463	0.957720
872.322803	0.956981
872.634101	0.955870
872.945357	0.953343
873.256571	0.952419
873.567744	0.951891
873.878874	0.952192
874.189963	0.949757
874.501010	0.950978
874.812015	0.949032
875.122979	0.950938
875.433900	0.951242
875.744780	0.952663
876.055618	0.950749
876.366415	0.948934
876.677169	0.947985
876.987882	0.950304
877.298554	0.950284
877.609183	0.945571
877.919771	0.942897
878.230317	0.942391
878.540822	0.938820
878.851285	0.933486
879.161707	0.925478
879.472087	0.913208
879.782425	0.897400
880.092722	0.861876
880.402977	0.809307
880.713191	0.747346
881.023363	0.688795
881.333494	0.652815
881.643583	0.625579
881.953631	0.624957
882.263637	0.654326
882.573602	0.693098
882.883526	0.719674
883.193408	0.743980
883.503248	0.766356
883.813048	0.794283
884.122806	0.824233
884.432522	0.846923
884.742197	0.867561
885.051831	0.878691
885.361424	0.888785
885.670975	0.901933
885.980485	0.912527
886.289954	0.917958
886.599382	0.923468
886.908768	0.926639
887.218113	0.932051
887.527417	0.937549
887.836680	0.940562
888.145901	0.941965
888.455082	0.944345
888.764221	0.949805
889.073319	0.951142
889.382376	0.952329
889.691392	0.952739
890.000366	0.951000
890.309300	0.952080
890.618193	0.952608
890.927044	0.950152
891.235855	0.950266
891.544625	0.950608
891.853353	0.951556
892.162041	0.948586
892.470687	0.942587
892.779293	0.936990
893.087858	0.933129
893.396381	0.924977
893.704864	0.910559
894.013306	0.887176
894.321707	0.859838
894.630068	0.844761
894.938387	0.839403
895.246665	0.841014
895.554903	0.854010
895.863100	0.866929
896.171256	0.884967
896.479371	0.904963
896.787446	0.916832
897.095480	0.922787
897.403473	0.927530
897.711425	0.931548
898.019336	0.938700
898.327207	0.941488
898.635038	0.944104
898.942827	0.944152
899.250576	0.946837
899.558284	0.951424
899.865952	0.953168
900.173579	0.953944
900.481165	0.954945
900.788711	0.959247
901.096216	0.960503
901.403681	0.960360
901.711105	0.963329
902.018489	0.964076
902.325832	0.961963
902.633135	0.959205
902.940397	0.953831
903.247619	0.942185
903.554800	0.916972
903.861941	0.875121
904.169041	0.840062
904.476101	0.821439
904.783121	0.822760
905.090100	0.838464
905.397039	0.860987
905.703938	0.883195
906.010796	0.903901
906.317614	0.920759
906.624391	0.933901
906.931129	0.943047
907.237826	0.950555
907.544483	0.958329
907.851099	0.961596
908.157675	0.966583
908.464211	0.969416
908.770707	0.971133
909.077163	0.973945
909.383578	0.973358
909.689954	0.974849
909.996289	0.975496
910.302584	0.976359
910.608839	0.979033
910.915054	0.976843
911.221229	0.976878
911.527363	0.976314
911.833458	0.974836
912.139513	0.977515
912.445527	0.974425
912.751502	0.973171
913.057436	0.971701
913.363331	0.968991
913.669186	0.964554
913.975000	0.960461
914.280775	0.953129
914.586510	0.946948
914.892205	0.933304
915.197859	0.911442
915.503475	0.884508
915.809050	0.863857
916.114585	0.857175
916.420081	0.854502
916.725536	0.850870
917.030952	0.860927
917.336328	0.873393
917.641665	0.888907
917.946961	0.904771
918.252218	0.915301
918.557435	0.924970
918.862612	0.934848
919.167750	0.940185
919.472848	0.945341
919.777906	0.949687
920.082925	0.956776
920.387904	0.959947
920.692843	0.961421
920.997743	0.962894
921.302603	0.966692
921.607423	0.967838
921.912204	0.970316
922.216946	0.969519
922.521647	0.972257
922.826310	0.973829
923.130932	0.975505
923.435516	0.977277
923.740059	0.978779
924.044564	0.978320
924.349028	0.979172
924.653454	0.982223
924.957840	0.984313
925.262186	0.982602
925.566493	0.983126
925.870761	0.984484
926.174989	0.985788
926.479178	0.987884
926.783328	0.988247
927.087438	0.988216
927.391509	0.987362
927.695541	0.989489
927.999533	0.989438
928.303486	0.988451
928.607400	0.990458
928.911275	0.988510
929.215110	0.989928
929.518906	0.989830
929.822663	0.989400
930.126381	0.990454
930.430060	0.989948
930.733699	0.989289
931.037299	0.988014
931.340861	0.989968
931.644383	0.988476
931.947866	0.989138
932.251309	0.989968
932.554714	0.989497
932.858080	0.989924
933.161407	0.990902
933.464694	0.990296
933.767943	0.990445
934.071153	0.989196
934.374323	0.990397
934.677455	0.990469
934.980548	0.991853
935.283602	0.989594
935.586617	0.990626
935.889593	0.989483
936.192530	0.990350
936.495428	0.989122
936.798287	0.990953
937.101108	0.990480
937.403890	0.988030
937.706632	0.987962
938.009336	0.985830
938.312002	0.984434
938.614628	0.984444
938.917216	0.983019
939.219765	0.981142
939.522275	0.981374
939.824747	0.981746
940.127179	0.982568
940.429573	0.984368
940.731929	0.983559
941.034246	0.983666
941.336524	0.984806
941.638763	0.984943
941.940964	0.985680
942.243126	0.986542
942.545250	0.986189
942.847335	0.988254
943.149381	0.987264
943.451389	0.987631
943.753359	0.988046
944.055290	0.991423
944.357182	0.987834
944.659036	0.988477
944.960851	0.987882
945.262628	0.988965
945.564367	0.990556
945.866067	0.989256
946.167729	0.989098
946.469352	0.988526
946.770937	0.988981
947.072484	0.990320
947.373992	0.989631
947.675462	0.989250
947.976893	0.988883
948.278286	0.989955
948.579641	0.991186
948.880958	0.990286
949.182236	0.991265
949.483476	0.989804
949.784678	0.988808
950.085841	0.990616
950.386967	0.989684
950.688054	0.989667
950.989103	0.989609
951.290114	0.988533
951.591087	0.989274
951.892021	0.989132
952.192917	0.988242
952.493776	0.987054
952.794596	0.987889
953.095378	0.987381
953.396122	0.987534
953.696828	0.986663
953.997496	0.989464
954.298126	0.990449
954.598718	0.990064
954.899272	0.990725
955.199788	0.990542
955.500266	0.990718
955.800706	0.991942
956.101108	0.992861
956.401472	0.992530
956.701798	0.992940
957.002087	0.992986
957.302337	0.993027
957.602550	0.994503
957.902724	0.994522
958.202861	0.995050
958.502960	0.994485
958.803022	0.993248
959.103045	0.995739
959.403031	0.996020
959.702979	0.995605
960.002889	0.995544
960.302762	0.993832
960.602596	0.995123
960.902393	0.995136
961.202153	0.995912
961.501875	0.996576
961.801559	0.994908
962.101205	0.996319
962.400814	0.995687
962.700385	0.996681
962.999918	0.994932
963.299414	0.996575
963.598873	0.995346
963.898293	0.995765
964.197677	0.995711
964.497022	0.996086
964.796331	0.997131
965.095601	0.995889
965.394835	0.996382
965.694030	0.996124
965.993189	0.996736
966.292309	0.994887
966.591393	0.997847
966.890439	0.996048
967.189447	0.995556
967.488419	0.997256
967.787353	0.995920
968.086249	0.995749
968.385108	0.997271
968.683930	0.996510
968.982714	0.998386
969.281462	0.996760
969.580172	0.997376
969.878844	0.996452
970.177480	0.995744
970.476078	0.996697
970.774639	0.997283
971.073162	0.996914
971.371649	0.996794
971.670098	0.994930
971.968510	0.996941
972.266885	0.995974
972.565223	0.996117
972.863524	0.995380
973.161788	0.995397
973.460014	0.997924
973.758204	0.995520
974.056356	0.996579
974.354471	0.993997
974.652550	0.996816
974.950591	0.996124
975.248595	0.995496
975.546563	0.997423
975.844493	0.996853
976.142386	0.995565
976.440243	0.996512
976.738062	0.997422
977.035845	0.996989
977.333590	0.996322
977.631299	0.998264
977.928971	0.996077
978.226606	0.996706
978.524204	0.995844
978.821765	0.997724
979.119290	0.997055
979.416777	0.995869
979.714228	0.996889
980.011642	0.996407
980.309020	0.997041
980.606360	0.996618
980.903664	0.997222
981.200931	0.995714
981.498162	0.995168
981.795356	0.994389
982.092513	0.992593
982.389633	0.994767
982.686717	0.991242
982.983764	0.990285
983.280775	0.989247
983.577749	0.989936
983.874686	0.990587
984.171587	0.992249
984.468451	0.993896
984.765279	0.993700
985.062070	0.994483
985.358824	0.995501
985.655543	0.993671
985.952224	0.995127
986.248869	0.996133
986.545478	0.997640
986.842050	0.997489
987.138586	0.996137
987.435086	0.996731
987.731549	0.998495
988.027975	0.996624
988.324366	0.997460
988.620719	0.997734
988.917037	0.996316
989.213318	0.997747
989.509563	0.997491
989.805772	0.998584
990.101944	0.997981
990.398080	0.997485
990.694180	0.997164
990.990244	0.997697
991.286271	0.998790
991.582262	0.997699
991.878217	0.997440
992.174136	0.997976
992.470019	0.998181
992.765865	0.997117
993.061676	0.998089
993.357450	0.997529
993.653188	0.996685
993.948890	0.997545
994.244556	0.996926
994.540186	0.997791
994.835780	0.995592
995.131337	0.997008
995.426859	0.995474
995.722345	0.996495
996.017795	0.996013
996.313208	0.995275
996.608586	0.995478
996.903928	0.996155
997.199234	0.995333
997.494504	0.996556
997.789738	0.996016
998.084936	0.995874
998.380099	0.997582
998.675225	0.997002
998.970316	0.996751
999.265371	0.996938
999.560390	0.997386
999.855373	0.998156
1000.150320	0.997468
1000.445232	0.997935
1000.740108	0.997254
1001.034948	0.998004
1001.329752	0.997912
1001.624521	0.998153
1001.919254	0.997888
1002.213951	0.997621
1002.508613	0.997563
1002.803239	0.998145
1003.097829	0.997425
1003.392384	0.999200
1003.686903	0.998326
1003.981386	0.997599
1004.275834	0.998942
1004.570246	0.997706
1004.864623	0.998656
1005.158964	0.998276
1005.453270	0.999039
1005.747540	0.997588
1006.041775	0.997469
1006.335974	0.998949
1006.630138	0.998024
1006.924266	0.999494
1007.218359	0.999322
1007.512416	0.998045
1007.806438	0.998567
1008.100425	0.999952
1008.394376	0.998978
1008.688292	0.997770
1008.982172	0.999487
1009.276017	0.999933
1009.569827	0.998108
1009.863602	0.997944
1010.157341	0.998454
1010.451045	0.999506
1010.744714	0.998171
1011.038347	0.998446
1011.331945	0.998845
1011.625508	0.996329
1011.919036	0.997298
1012.212528	0.998129
1012.505986	0.997288
1012.799408	0.997534
1013.092795	0.999073
1013.386147	0.998539
1013.679464	0.999742
1013.972745	0.997475
1014.265992	0.997298
1014.559204	0.998767
1014.852380	0.998241
1015.145521	1.000019
1015.438628	0.998343
1015.731699	0.998152
1016.024736	0.998682
1016.317737	0.997227
1016.610703	0.997737
1016.903635	0.999222
1017.196531	0.997753
1017.489393	0.998665
1017.782219	0.998491
1018.075011	0.998904
1018.367768	0.999579
1018.660490	1.000232
1018.953177	1.000232
1019.245829	1.000232
