Dividing Wavelength (nm)	Counts (n)	Blue Motor Position (mm): 0.000000	Red Motor Position (mm): 18.700000	
326.493990	1.002334
326.888308	1.002334
327.282561	1.002334
327.676750	1.000563
328.070874	0.999569
328.464933	1.000303
328.858929	0.999939
329.252859	1.000112
329.646726	0.999062
330.040528	1.000239
330.434265	0.999309
330.827938	1.000728
331.221547	1.000964
331.615091	1.001081
332.008571	1.000637
332.401986	1.000872
332.795338	0.999545
333.188625	0.998558
333.581847	1.001165
333.975006	1.000085
334.368100	0.999720
334.761129	1.000700
335.154095	1.000740
335.546996	0.997259
335.939833	0.994259
336.332606	0.994877
336.725315	0.994215
337.117960	0.995770
337.510540	0.994113
337.903056	0.995088
338.295508	0.993821
338.687896	0.994587
339.080220	0.994800
339.472480	0.994199
339.864676	0.994513
340.256807	0.994634
340.648875	0.994132
341.040879	0.994785
341.432818	0.993914
341.824694	0.993898
342.216506	0.994228
342.608253	0.993723
342.999937	0.994816
343.391557	0.995254
343.783113	0.993872
344.174605	0.994461
344.566033	0.994605
344.957397	0.993770
345.348697	0.993568
345.739934	0.993885
346.131106	0.994688
346.522215	0.993701
346.913260	0.994494
347.304241	0.993806
347.695159	0.993615
348.086012	0.994116
348.476802	0.995130
348.867528	0.995753
349.258191	0.993444
349.648789	0.994561
350.039324	0.994085
350.429796	0.994125
350.820203	0.994778
351.210548	0.994427
351.600828	0.994019
351.991045	0.994363
352.381198	0.993532
352.771288	0.995045
353.161314	0.993301
353.551276	0.995067
353.941175	0.993602
354.331010	0.993788
354.720782	0.995271
355.110490	0.994197
355.500135	0.994475
355.889717	0.994147
356.279235	0.993607
356.668689	0.992652
357.058080	0.993577
357.447408	0.994528
357.836672	0.995097
358.225873	0.994937
358.615010	0.994977
359.004084	0.994963
359.393095	0.994892
359.782043	0.994661
360.170927	0.994834
360.559748	0.995347
360.948505	0.993689
361.337199	0.993989
361.725830	0.994072
362.114398	0.993391
362.502903	0.995117
362.891344	0.994959
363.279722	0.994130
363.668037	0.994191
364.056289	0.994615
364.444478	0.994706
364.832603	0.994224
365.220665	0.994510
365.608665	0.994922
365.996601	0.994037
366.384474	0.994345
366.772284	0.994233
367.160031	0.993067
367.547715	0.993322
367.935336	0.993941
368.322893	0.993813
368.710388	0.994542
369.097820	0.993455
369.485189	0.993648
369.872495	0.992787
370.259738	0.993197
370.646918	0.995484
371.034035	0.995095
371.421090	0.994294
371.808081	0.992888
372.195010	0.992722
372.581875	0.994317
372.968678	0.994862
373.355418	0.993820
373.742096	0.993938
374.128710	0.995298
374.515262	0.993396
374.901751	0.995799
375.288177	0.994685
375.674540	0.994922
376.060841	0.994133
376.447079	0.994002
376.833254	0.994612
377.219367	0.994712
377.605417	0.995021
377.991404	0.993745
378.377329	0.994878
378.763191	0.994260
379.148991	0.994823
379.534727	0.994590
379.920402	0.995093
380.306013	0.994574
380.691563	0.995380
381.077049	0.995333
381.462474	0.994929
381.847835	0.994423
382.233134	0.994767
382.618371	0.995551
383.003545	0.994283
383.388657	0.995430
383.773706	0.995373
384.158693	0.994567
384.543618	0.995181
384.928480	0.995282
385.313280	0.995872
385.698017	0.996674
386.082692	0.995711
386.467305	0.995434
386.851856	0.995685
387.236344	0.994110
387.620770	0.994249
388.005133	0.996923
388.389435	0.995583
388.773674	0.994762
389.157851	0.995278
389.541965	0.995253
389.926018	0.995490
390.310008	0.996977
390.693936	0.994696
391.077802	0.995869
391.461606	0.995425
391.845348	0.995298
392.229027	0.996466
392.612645	0.995209
392.996200	0.996147
393.379694	0.995403
393.763125	0.996040
394.146494	0.996033
394.529801	0.995038
394.913047	0.996405
395.296230	0.995355
395.679351	0.995186
396.062410	0.994682
396.445408	0.996260
396.828343	0.993969
397.211217	0.995469
397.594028	0.995250
397.976778	0.994395
398.359466	0.995113
398.742092	0.994475
399.124656	0.994520
399.507158	0.994439
399.889598	0.993865
400.271977	0.995569
400.654294	0.994946
401.036549	0.994405
401.418742	0.994598
401.800874	0.994178
402.182944	0.994601
402.564952	0.994727
402.946898	0.995044
403.328783	0.993787
403.710606	0.994584
404.092367	0.993703
404.474067	0.993851
404.855705	0.992810
405.237282	0.992909
405.618797	0.991125
406.000250	0.990223
406.381642	0.990412
406.762972	0.990276
407.144240	0.988385
407.525447	0.986918
407.906593	0.985437
408.287677	0.983698
408.668700	0.982569
409.049661	0.979341
409.430560	0.976694
409.811399	0.974392
410.192176	0.971656
410.572891	0.968200
410.953545	0.963979
411.334138	0.960849
411.714669	0.958331
412.095139	0.954901
412.475547	0.950594
412.855894	0.946239
413.236180	0.941849
413.616405	0.938276
413.996568	0.933661
414.376670	0.928129
414.756711	0.923173
415.136691	0.918532
415.516609	0.910232
415.896466	0.903933
416.276262	0.895984
416.655997	0.892255
417.035670	0.880510
417.415283	0.871259
417.794834	0.865711
418.174324	0.860930
418.553753	0.856423
418.933121	0.842894
419.312428	0.834136
419.691674	0.826223
420.070859	0.815434
420.449983	0.809650
420.829045	0.796404
421.208047	0.793113
421.586988	0.780993
421.965867	0.771527
422.344686	0.757128
422.723444	0.754795
423.102141	0.753708
423.480777	0.732251
423.859352	0.732968
424.237866	0.711841
424.616319	0.704038
424.994712	0.690288
425.373044	0.687608
425.751314	0.671074
426.129524	0.671911
426.507673	0.653598
426.885762	0.642009
427.263789	0.635295
427.641756	0.635402
428.019662	0.619893
428.397508	0.611293
428.775292	0.604965
429.153016	0.592471
429.530679	0.590335
429.908282	0.577940
430.285824	0.578978
430.663305	0.554817
431.040726	0.565009
431.418086	0.559504
431.795385	0.546015
432.172624	0.538851
432.549802	0.534264
432.926920	0.527620
433.303977	0.521612
433.680974	0.514445
434.057910	0.507608
434.434786	0.503472
434.811601	0.500379
435.188355	0.480548
435.565050	0.484848
435.941683	0.482534
436.318257	0.464989
436.694770	0.461470
437.071222	0.456698
437.447614	0.457157
437.823946	0.461129
438.200218	0.448498
438.576429	0.455224
438.952580	0.446147
439.328670	0.441185
439.704700	0.445899
440.080670	0.444602
440.456580	0.424986
440.832429	0.431005
441.208218	0.440583
441.583947	0.428587
441.959616	0.427284
442.335224	0.431096
442.710773	0.421247
443.086261	0.418336
443.461689	0.431311
443.837057	0.420252
444.212365	0.409893
444.587612	0.416830
444.962800	0.405739
445.337927	0.406630
445.712995	0.433077
446.088002	0.395134
446.462949	0.405011
446.837837	0.409116
447.212664	0.397938
447.587431	0.389435
447.962139	0.360205
448.336786	0.319617
448.711374	0.329678
449.085901	0.372720
449.460369	0.377355
449.834776	0.380532
450.209124	0.360115
450.583412	0.352391
450.957640	0.345448
451.331808	0.356539
451.705917	0.379708
452.079965	0.383777
452.453954	0.372494
452.827883	0.379593
453.201752	0.374198
453.575562	0.385390
453.949311	0.374046
454.323001	0.379861
454.696632	0.375704
455.070202	0.368242
455.443713	0.360246
455.817164	0.354879
456.190556	0.350676
456.563888	0.347550
456.937160	0.345341
457.310373	0.362097
457.683526	0.360932
458.056619	0.366682
458.429653	0.367550
458.802628	0.370812
459.175542	0.364939
459.548398	0.348005
459.921194	0.340005
460.293930	0.339617
460.666607	0.317527
461.039224	0.305971
461.411782	0.301666
461.784280	0.301240
462.156719	0.305317
462.529099	0.310035
462.901419	0.325778
463.273680	0.329741
463.645882	0.329986
464.018024	0.335356
464.390106	0.328603
464.762130	0.313217
465.134094	0.296557
465.505999	0.265502
465.877845	0.236050
466.249631	0.222820
466.621358	0.230479
466.993026	0.244124
467.364634	0.250531
467.736184	0.259168
468.107674	0.267990
468.479105	0.266818
468.850477	0.273914
469.221790	0.280483
469.593043	0.290950
469.964238	0.295643
470.335373	0.294847
470.706449	0.293482
471.077467	0.293986
471.448425	0.256025
471.819324	0.231978
472.190164	0.231398
472.560945	0.260152
472.931667	0.281907
473.302330	0.286106
473.672934	0.297660
474.043479	0.286100
474.413965	0.288090
474.784393	0.291735
475.154761	0.286672
475.525070	0.283645
475.895321	0.289452
476.265513	0.283801
476.635645	0.279009
477.005719	0.279013
477.375734	0.275692
477.745691	0.269146
478.115588	0.265388
478.485427	0.259108
478.855207	0.246044
479.224928	0.228675
479.594591	0.216870
479.964194	0.220400
480.333739	0.220986
480.703226	0.222682
481.072653	0.221260
481.442022	0.217005
481.811333	0.213184
482.180584	0.217070
482.549777	0.222330
482.918912	0.225531
483.287988	0.225128
483.657005	0.225111
484.025964	0.231413
484.394864	0.228496
484.763706	0.229126
485.132489	0.234370
485.501213	0.234839
485.869879	0.233298
486.238487	0.236657
486.607036	0.234388
486.975527	0.238754
487.343959	0.234786
487.712333	0.233940
488.080648	0.235533
488.448905	0.234496
488.817104	0.235721
489.185244	0.230519
489.553326	0.227130
489.921350	0.216928
490.289315	0.199561
490.657222	0.194316
491.025070	0.195715
491.392861	0.197782
491.760593	0.203443
492.128267	0.208865
492.495883	0.214411
492.863440	0.220500
493.230939	0.227026
493.598380	0.228330
493.965763	0.230415
494.333088	0.232549
494.700354	0.234052
495.067563	0.233204
495.434713	0.236463
495.801805	0.234387
496.168839	0.235693
496.535815	0.237249
496.902733	0.237278
497.269593	0.238664
497.636395	0.236445
498.003139	0.236951
498.369825	0.239748
498.736453	0.236375
499.103023	0.237629
499.469535	0.236904
499.835989	0.237322
500.202385	0.238331
500.568723	0.241394
500.935003	0.236942
501.301226	0.241063
501.667390	0.235435
502.033497	0.233397
502.399546	0.236460
502.765537	0.238128
503.131470	0.236759
503.497345	0.232772
503.863163	0.241777
504.228923	0.234575
504.594625	0.233469
504.960269	0.238762
505.325856	0.234191
505.691385	0.238326
506.056856	0.235271
506.422270	0.234617
506.787625	0.236763
507.152924	0.234305
507.518164	0.234934
507.883347	0.236605
508.248472	0.238146
508.613540	0.233293
508.978550	0.236053
509.343503	0.236389
509.708398	0.234081
510.073236	0.231552
510.438016	0.231453
510.802738	0.232537
511.167403	0.231626
511.532010	0.233326
511.896561	0.228791
512.261053	0.227719
512.625488	0.229758
512.989866	0.230189
513.354186	0.230380
513.718449	0.232258
514.082655	0.228683
514.446803	0.230766
514.810894	0.228271
515.174927	0.230949
515.538904	0.230541
515.902822	0.227566
516.266684	0.229763
516.630488	0.231266
516.994235	0.229942
517.357925	0.228542
517.721558	0.227055
518.085133	0.226424
518.448651	0.226658
518.812112	0.228714
519.175516	0.228509
519.538863	0.226167
519.902152	0.227625
520.265385	0.224515
520.628560	0.226344
520.991678	0.226711
521.354739	0.225544
521.717743	0.226427
522.080690	0.227219
522.443580	0.224711
522.806413	0.225546
523.169189	0.224760
523.531908	0.223706
523.894569	0.227286
524.257174	0.227340
524.619722	0.224916
524.982213	0.226229
525.344647	0.225084
525.707025	0.225738
526.069345	0.223869
526.431608	0.225753
526.793815	0.223478
527.155964	0.227646
527.518057	0.226653
527.880093	0.227648
528.242072	0.226241
528.603995	0.228339
528.965860	0.229927
529.327669	0.228622
529.689421	0.229498
530.051117	0.230414
530.412755	0.228213
530.774337	0.230498
531.135862	0.230699
531.497331	0.230083
531.858743	0.233041
532.220098	0.229607
532.581396	0.232121
532.942638	0.232770
533.303824	0.233791
533.664953	0.233363
534.026025	0.235117
534.387040	0.233085
534.747999	0.232972
535.108902	0.231856
535.469748	0.236749
535.830537	0.234817
536.191270	0.235065
536.551947	0.234657
536.912567	0.234570
537.273131	0.236498
537.633638	0.236593
537.994089	0.237206
538.354483	0.238023
538.714821	0.235019
539.075103	0.234819
539.435328	0.235664
539.795497	0.239375
540.155609	0.236223
540.515665	0.234193
540.875665	0.239797
541.235609	0.238190
541.595496	0.238283
541.955328	0.234811
542.315102	0.237612
542.674821	0.238474
543.034483	0.238558
543.394090	0.238401
543.753640	0.240220
544.113134	0.235274
544.472571	0.238300
544.831953	0.235247
545.191278	0.239592
545.550548	0.238846
545.909761	0.235513
546.268918	0.236446
546.628019	0.234940
546.987064	0.237499
547.346053	0.239028
547.704986	0.237070
548.063863	0.237341
548.422684	0.237684
548.781449	0.239756
549.140158	0.237203
549.498811	0.240099
549.857408	0.243429
550.215949	0.237765
550.574434	0.240864
550.932864	0.238918
551.291237	0.237457
551.649555	0.238936
552.007817	0.238895
552.366022	0.239318
552.724173	0.239804
553.082267	0.239977
553.440305	0.236716
553.798288	0.241169
554.156215	0.237882
554.514086	0.238441
554.871902	0.241680
555.229661	0.240912
555.587365	0.241591
555.945014	0.244032
556.302606	0.240848
556.660143	0.243573
557.017625	0.239792
557.375050	0.241955
557.732421	0.239143
558.089735	0.241244
558.446994	0.241329
558.804197	0.240219
559.161345	0.240392
559.518437	0.243916
559.875474	0.241651
560.232455	0.240981
560.589381	0.242188
560.946251	0.242082
561.303065	0.239933
561.659825	0.241281
562.016528	0.242791
562.373177	0.245586
562.729770	0.242932
563.086307	0.245159
563.442789	0.242750
563.799216	0.245580
564.155587	0.244272
564.511904	0.245404
564.868164	0.245617
565.224370	0.245403
565.580520	0.247103
565.936615	0.247115
566.292654	0.250084
566.648638	0.246966
567.004567	0.247971
567.360441	0.248464
567.716260	0.250676
568.072023	0.248404
568.427732	0.249135
568.783385	0.251587
569.138982	0.249557
569.494525	0.249507
569.850013	0.252326
570.205445	0.250580
570.560823	0.253173
570.916145	0.255064
571.271412	0.253214
571.626625	0.254884
571.981782	0.255241
572.336884	0.256150
572.691931	0.255919
573.046923	0.257045
573.401860	0.258180
573.756743	0.260047
574.111570	0.258638
574.466342	0.259363
574.821059	0.258381
575.175722	0.261212
575.530330	0.260898
575.884882	0.260991
576.239380	0.263236
576.593823	0.263834
576.948211	0.263428
577.302544	0.266150
577.656823	0.265914
578.011047	0.266232
578.365216	0.266795
578.719330	0.268806
579.073389	0.268772
579.427394	0.270225
579.781344	0.270518
580.135239	0.272204
580.489080	0.271837
580.842866	0.274850
581.196597	0.274554
581.550273	0.273326
581.903895	0.274064
582.257463	0.272435
582.610975	0.275587
582.964434	0.275006
583.317837	0.277671
583.671186	0.278017
584.024481	0.277998
584.377721	0.280730
584.730906	0.281134
585.084037	0.280214
585.437113	0.282092
585.790135	0.281384
586.143103	0.284371
586.496016	0.285676
586.848874	0.283292
587.201679	0.283907
587.554428	0.287296
587.907124	0.285989
588.259765	0.286658
588.612352	0.287204
588.964884	0.291245
589.317362	0.290737
589.669786	0.290666
590.022155	0.289087
590.374470	0.288344
590.726731	0.290269
591.078937	0.295032
591.431090	0.291441
591.783188	0.295971
592.135232	0.296008
592.487222	0.296168
592.839157	0.294486
593.191038	0.296473
593.542866	0.298271
593.894639	0.301996
594.246358	0.300157
594.598022	0.299374
594.949633	0.303135
595.301190	0.303766
595.652692	0.303303
596.004141	0.299341
596.355535	0.307035
596.706876	0.307656
597.058162	0.310057
597.409395	0.307332
597.760573	0.304952
598.111698	0.308323
598.462768	0.308944
598.813785	0.309962
599.164748	0.311176
599.515657	0.311740
599.866511	0.314997
600.217312	0.310173
600.568060	0.315664
600.918753	0.312053
601.269392	0.312752
601.619978	0.316027
601.970510	0.313678
602.320988	0.314035
602.671412	0.311431
603.021783	0.314234
603.372100	0.315341
603.722363	0.315129
604.072572	0.316443
604.422728	0.316000
604.772830	0.317937
605.122878	0.317695
605.472872	0.317946
605.822813	0.316432
606.172701	0.319191
606.522534	0.316302
606.872314	0.316304
607.222041	0.316991
607.571714	0.315601
607.921333	0.316827
608.270899	0.316913
608.620411	0.313469
608.969870	0.317791
609.319276	0.317068
609.668627	0.317299
610.017926	0.315683
610.367171	0.314435
610.716362	0.315301
611.065500	0.315591
611.414585	0.314060
611.763616	0.314389
612.112594	0.315191
612.461518	0.314818
612.810389	0.312303
613.159207	0.314453
613.507971	0.316433
613.856682	0.312294
614.205340	0.313664
614.553945	0.310785
614.902496	0.314298
615.250994	0.312297
615.599439	0.313181
615.947830	0.312427
616.296169	0.313299
616.644454	0.312728
616.992686	0.313132
617.340864	0.310971
617.688990	0.314702
618.037063	0.311027
618.385082	0.312806
618.733048	0.309562
619.080961	0.312399
619.428821	0.311369
619.776628	0.311226
620.124382	0.313180
620.472083	0.313362
620.819731	0.312696
621.167326	0.316585
621.514868	0.316352
621.862357	0.320540
622.209793	0.320298
622.557176	0.322453
622.904506	0.323433
623.251783	0.325756
623.599007	0.328159
623.946179	0.327664
624.293297	0.329699
624.640363	0.333341
624.987376	0.333875
625.334336	0.336203
625.681243	0.338555
626.028097	0.339814
626.374899	0.340449
626.721647	0.340457
627.068343	0.344017
627.414987	0.344965
627.761577	0.347289
628.108115	0.345610
628.454600	0.350310
628.801032	0.347967
629.147412	0.349938
629.493739	0.350291
629.840014	0.353653
630.186236	0.350791
630.532405	0.356443
630.878521	0.353866
631.224585	0.356388
631.570597	0.359777
631.916556	0.358130
632.262462	0.358491
632.608316	0.360322
632.954117	0.361200
633.299866	0.362021
633.645562	0.362111
633.991206	0.366638
634.336797	0.369815
634.682336	0.372043
635.027823	0.373501
635.373257	0.374137
635.718639	0.377804
636.063968	0.376865
636.409245	0.382256
636.754470	0.383060
637.099642	0.385182
637.444762	0.389045
637.789829	0.388220
638.134845	0.391523
638.479808	0.392452
638.824719	0.391788
639.169577	0.396291
639.514383	0.395126
639.859137	0.399881
640.203839	0.399577
640.548489	0.399718
640.893086	0.401026
641.237632	0.402577
641.582125	0.401040
641.926566	0.402546
642.270955	0.402822
642.615292	0.403361
642.959576	0.401941
643.303809	0.402808
643.647990	0.402393
643.992118	0.402796
644.336195	0.406355
644.680219	0.404996
645.024192	0.405882
645.368112	0.399438
645.711981	0.397904
646.055797	0.393521
646.399562	0.395792
646.743274	0.388195
647.086935	0.385639
647.430544	0.385650
647.774101	0.384363
648.117606	0.383993
648.461059	0.384253
648.804460	0.386858
649.147810	0.392189
649.491108	0.393772
649.834354	0.394964
650.177548	0.400917
650.520690	0.406002
650.863781	0.407546
651.206820	0.406827
651.549807	0.411368
651.892742	0.415276
652.235626	0.414640
652.578458	0.415826
652.921238	0.421480
653.263967	0.419931
653.606644	0.423513
653.949269	0.423103
654.291843	0.426951
654.634365	0.423767
654.976836	0.427009
655.319255	0.427123
655.661622	0.428331
656.003938	0.428861
656.346203	0.432099
656.688416	0.429088
657.030577	0.433354
657.372687	0.434543
657.714746	0.435440
658.056753	0.432882
658.398708	0.436683
658.740612	0.438230
659.082465	0.434032
659.424266	0.434405
659.766016	0.434285
660.107715	0.436382
660.449362	0.435243
660.790958	0.435980
661.132503	0.436466
661.473996	0.434151
661.815438	0.435793
662.156829	0.435214
662.498168	0.435997
662.839456	0.437552
663.180693	0.435554
663.521879	0.435451
663.863013	0.436298
664.204097	0.435032
664.545129	0.431599
664.886110	0.431873
665.227040	0.428773
665.567918	0.432043
665.908746	0.429809
666.249522	0.430152
666.590248	0.430711
666.930922	0.428663
667.271545	0.427709
667.612118	0.427387
667.952639	0.429183
668.293109	0.428277
668.633528	0.431284
668.973896	0.430544
669.314213	0.431835
669.654480	0.432651
669.994695	0.432835
670.334859	0.433225
670.674973	0.434214
671.015035	0.434077
671.355047	0.434132
671.695008	0.435200
672.034918	0.437073
672.374777	0.436409
672.714585	0.437434
673.054342	0.437562
673.394049	0.437571
673.733705	0.435485
674.073310	0.436670
674.412864	0.439779
674.752368	0.439924
675.091820	0.440124
675.431223	0.444211
675.770574	0.444626
676.109875	0.447223
676.449125	0.447262
676.788324	0.449638
677.127473	0.454827
677.466571	0.454842
677.805619	0.456702
678.144616	0.457747
678.483562	0.458953
678.822458	0.461765
679.161303	0.462730
679.500098	0.462945
679.838842	0.465615
680.177535	0.464723
680.516179	0.463172
680.854771	0.462189
681.193314	0.455392
681.531805	0.447288
681.870247	0.435551
682.208638	0.428015
682.546978	0.426997
682.885268	0.428670
683.223508	0.434567
683.561697	0.438611
683.899836	0.440894
684.237925	0.444500
684.575963	0.446922
684.913951	0.450767
685.251889	0.445940
685.589776	0.448145
685.927614	0.450382
686.265401	0.444989
686.603137	0.446529
686.940824	0.439612
687.278460	0.438875
687.616046	0.437968
687.953582	0.432079
688.291068	0.434180
688.628504	0.429745
688.965889	0.431700
689.303224	0.436142
689.640510	0.439784
689.977745	0.446094
690.314930	0.453508
690.652065	0.458060
690.989150	0.465520
691.326185	0.472253
691.663170	0.476752
692.000105	0.484068
692.336990	0.490579
692.673825	0.493445
693.010610	0.500702
693.347345	0.505659
693.684030	0.507401
694.020665	0.511873
694.357251	0.520320
694.693786	0.520321
695.030272	0.525025
695.366707	0.528196
695.703093	0.531013
696.039429	0.529396
696.375716	0.531075
696.711952	0.533445
697.048139	0.535818
697.384276	0.537998
697.720363	0.535691
698.056400	0.534820
698.392388	0.540655
698.728326	0.543480
699.064214	0.546396
699.400053	0.547059
699.735842	0.550607
700.071581	0.553108
700.407270	0.556156
700.742910	0.558490
701.078501	0.565260
701.414042	0.566256
701.749533	0.568606
702.084974	0.577244
702.420366	0.569723
702.755709	0.577551
703.091002	0.585283
703.426246	0.578865
703.761440	0.584845
704.096584	0.589910
704.431679	0.586378
704.766725	0.589029
705.101721	0.589831
705.436668	0.586067
705.771565	0.592635
706.106413	0.590330
706.441212	0.585211
706.775961	0.584458
707.110661	0.586901
707.445311	0.583691
707.779913	0.579912
708.114465	0.578511
708.448967	0.575671
708.783421	0.567494
709.117825	0.562237
709.452180	0.562402
709.786485	0.556913
710.120742	0.546328
710.454949	0.548294
710.789107	0.539675
711.123216	0.530783
711.457275	0.532519
711.791286	0.523837
712.125247	0.522484
712.459159	0.533410
712.793023	0.525873
713.126837	0.530140
713.460602	0.530065
713.794318	0.539601
714.127985	0.538761
714.461602	0.548956
714.795171	0.552167
715.128691	0.559798
715.462162	0.567528
715.795584	0.572686
716.128957	0.576058
716.462281	0.582624
716.795556	0.586455
717.128782	0.590695
717.461960	0.600290
717.795088	0.598610
718.128167	0.605116
718.461198	0.614323
718.794180	0.614252
719.127113	0.616957
719.459997	0.621489
719.792833	0.627269
720.125619	0.628386
720.458357	0.633858
720.791046	0.633793
721.123686	0.637329
721.456278	0.643504
721.788821	0.642260
722.121315	0.644899
722.453761	0.650220
722.786158	0.646845
723.118506	0.644646
723.450805	0.652758
723.783056	0.647954
724.115259	0.645781
724.447412	0.644440
724.779518	0.646366
725.111574	0.645094
725.443582	0.641501
725.775542	0.642860
726.107453	0.634836
726.439315	0.634611
726.771129	0.633295
727.102895	0.626197
727.434612	0.619530
727.766281	0.617147
728.097901	0.616783
728.429473	0.616446
728.760996	0.614980
729.092471	0.614816
729.423897	0.618532
729.755276	0.617665
730.086606	0.618049
730.417887	0.612104
730.749120	0.603266
731.080305	0.594219
731.411442	0.590308
731.742530	0.594969
732.073570	0.594659
732.404562	0.586411
732.735506	0.588070
733.066401	0.592284
733.397249	0.601385
733.728048	0.613457
734.058798	0.626084
734.389501	0.635908
734.720156	0.646399
735.050762	0.654126
735.381320	0.654897
735.711831	0.663916
736.042293	0.669212
736.372707	0.665152
736.703073	0.669922
737.033391	0.672505
737.363661	0.668433
737.693883	0.663773
738.024056	0.662322
738.354182	0.663691
738.684260	0.652832
739.014290	0.649375
739.344272	0.649615
739.674207	0.642979
740.004093	0.642238
740.333931	0.643326
740.663722	0.643862
740.993464	0.643264
741.323159	0.646459
741.652806	0.651992
741.982405	0.657078
742.311956	0.662003
742.641460	0.663443
742.970915	0.667155
743.300323	0.674584
743.629683	0.681788
743.958996	0.683435
744.288260	0.688275
744.617477	0.693374
744.946647	0.695107
745.275768	0.700653
745.604842	0.700507
745.933869	0.710162
746.262847	0.711552
746.591778	0.704889
746.920662	0.710988
747.249498	0.717443
747.578286	0.707857
747.907027	0.703734
748.235720	0.705775
748.564365	0.699628
748.892963	0.700243
749.221514	0.702155
749.550017	0.708038
749.878473	0.707937
750.206881	0.713982
750.535242	0.714502
750.863555	0.714910
751.191821	0.715909
751.520039	0.720011
751.848210	0.724402
752.176334	0.717304
752.504411	0.716146
752.832440	0.724052
753.160421	0.728173
753.488356	0.725547
753.816243	0.724056
754.144082	0.731787
754.471875	0.734886
754.799620	0.731264
755.127318	0.731660
755.454969	0.732103
755.782572	0.732063
756.110129	0.736656
756.437638	0.738753
756.765100	0.735120
757.092515	0.733638
757.419882	0.733474
757.747203	0.737858
758.074477	0.736882
758.401703	0.733957
758.728882	0.729394
759.056014	0.727927
759.383099	0.727365
759.710138	0.728301
760.037129	0.724220
760.364073	0.718771
760.690970	0.721723
761.017820	0.727206
761.344623	0.722531
761.671379	0.714160
761.998088	0.700873
762.324751	0.679265
762.651366	0.637350
762.977935	0.570661
763.304456	0.518237
763.630931	0.509070
763.957359	0.547794
764.283740	0.593294
764.610074	0.619902
764.936362	0.650962
765.262602	0.677908
765.588796	0.698540
765.914943	0.717535
766.241044	0.734895
766.567097	0.742084
766.893104	0.750952
767.219064	0.757847
767.544978	0.764615
767.870845	0.777139
768.196665	0.781902
768.522438	0.779203
768.848165	0.780738
769.173846	0.789505
769.499479	0.794629
769.825066	0.796851
770.150607	0.802474
770.476101	0.796826
770.801548	0.799484
771.126949	0.810306
771.452303	0.814013
771.777611	0.813418
772.102872	0.812559
772.428087	0.817752
772.753256	0.820801
773.078378	0.822800
773.403453	0.831466
773.728482	0.836961
774.053465	0.829270
774.378401	0.832785
774.703291	0.841719
775.028135	0.840111
775.352932	0.843621
775.677683	0.845955
776.002388	0.846250
776.327046	0.845275
776.651658	0.849105
776.976224	0.851757
777.300743	0.852488
777.625216	0.854749
777.949643	0.857234
778.274024	0.856711
778.598359	0.858425
778.922647	0.856775
779.246889	0.857222
779.571086	0.861383
779.895236	0.863750
780.219339	0.860853
780.543397	0.857824
780.867409	0.856943
781.191374	0.858223
781.515294	0.859751
781.839167	0.858464
782.162995	0.862004
782.486776	0.858976
782.810511	0.859809
783.134201	0.864127
783.457844	0.861058
783.781441	0.865524
784.104993	0.869795
784.428498	0.870843
784.751958	0.866330
785.075372	0.868803
785.398739	0.872664
785.722061	0.868588
786.045337	0.864387
786.368568	0.869652
786.691752	0.870889
787.014891	0.857976
787.337983	0.849450
787.661030	0.841019
787.984031	0.822924
788.306987	0.810114
788.629897	0.812334
788.952760	0.817274
789.275579	0.821429
789.598351	0.835965
789.921078	0.849833
790.243759	0.851171
790.566395	0.855591
790.888984	0.863190
791.211529	0.868606
791.534027	0.871526
791.856480	0.873619
792.178888	0.878366
792.501249	0.880833
792.823566	0.882370
793.145836	0.882644
793.468062	0.883981
793.790241	0.884974
794.112375	0.883608
794.434464	0.877658
794.756507	0.877884
795.078505	0.877254
795.400457	0.871955
795.722364	0.859476
796.044226	0.852573
796.366042	0.851855
796.687812	0.855536
797.009538	0.852037
797.331218	0.855451
797.652852	0.859306
797.974442	0.865214
798.295986	0.864166
798.617484	0.867129
798.938938	0.871314
799.260346	0.875830
799.581709	0.877508
799.903026	0.880626
800.224299	0.879892
800.545526	0.884205
800.866708	0.888899
801.187845	0.891166
801.508936	0.892080
801.829983	0.890051
802.150984	0.892335
802.471940	0.897129
802.792851	0.897497
803.113717	0.898544
803.434538	0.895174
803.755314	0.898160
804.076045	0.900524
804.396731	0.899134
804.717372	0.898389
805.037967	0.901896
805.358518	0.898768
805.679024	0.896863
805.999485	0.896727
806.319901	0.896438
806.640272	0.898202
806.960598	0.895875
807.280879	0.894543
807.601115	0.890805
807.921306	0.895456
808.241453	0.896083
808.561554	0.894079
808.881611	0.893912
809.201623	0.896179
809.521590	0.896074
809.841513	0.897217
810.161390	0.896328
810.481223	0.897727
810.801011	0.901650
811.120755	0.902523
811.440453	0.901237
811.760107	0.900128
812.079716	0.899929
812.399281	0.904254
812.718801	0.906872
813.038276	0.907484
813.357707	0.906257
813.677093	0.903385
813.996434	0.908036
814.315731	0.908058
814.634983	0.908842
814.954191	0.907754
815.273354	0.905039
815.592473	0.901876
815.911547	0.901937
816.230577	0.899234
816.549562	0.896063
816.868502	0.896109
817.187399	0.893423
817.506250	0.887871
817.825058	0.889916
818.143821	0.885844
818.462539	0.881420
818.781213	0.872679
819.099843	0.861888
819.418429	0.845910
819.736970	0.829133
820.055466	0.809842
820.373919	0.783973
820.692327	0.750963
821.010691	0.716247
821.329011	0.638808
821.647286	0.523237
821.965517	0.409654
822.283704	0.366702
822.601847	0.368142
822.919945	0.403461
823.237999	0.437510
823.556010	0.484763
823.873976	0.539916
824.191897	0.590263
824.509775	0.633209
824.827609	0.678863
825.145398	0.702123
825.463144	0.704514
825.780845	0.687976
826.098502	0.668248
826.416116	0.622008
826.733685	0.579052
827.051210	0.569254
827.368692	0.584680
827.686129	0.622519
828.003522	0.675359
828.320872	0.723106
828.638177	0.765757
828.955439	0.799208
829.272656	0.821234
829.589830	0.838429
829.906960	0.853819
830.224046	0.866363
830.541088	0.876477
830.858086	0.881159
831.175041	0.887234
831.491952	0.886232
831.808819	0.883014
832.125642	0.876525
832.442421	0.861808
832.759157	0.840175
833.075849	0.793519
833.392497	0.730318
833.709101	0.688914
834.025662	0.699109
834.342179	0.730643
834.658653	0.769377
834.975083	0.805191
835.291469	0.831260
835.607811	0.854739
835.924110	0.870344
836.240366	0.888163
836.556578	0.901672
836.872746	0.908876
837.188871	0.914458
837.504952	0.920947
837.820990	0.923916
838.136984	0.927730
838.452935	0.930325
838.768842	0.931194
839.084706	0.925095
839.400526	0.898415
839.716303	0.858488
840.032037	0.835970
840.347727	0.839862
840.663373	0.858568
840.978977	0.879900
841.294537	0.902251
841.610054	0.918042
841.925527	0.925869
842.240957	0.932357
842.556344	0.938736
842.871687	0.946253
843.186987	0.950158
843.502244	0.950707
843.817458	0.951581
844.132629	0.955641
844.447756	0.961315
844.762840	0.960447
845.077881	0.960307
845.392879	0.959186
845.707833	0.963139
846.022745	0.965969
846.337613	0.964867
846.652438	0.966384
846.967221	0.964693
847.281960	0.965967
847.596656	0.967155
847.911309	0.966541
848.225919	0.967411
848.540485	0.967887
848.855009	0.969223
849.169490	0.968221
849.483928	0.970400
849.798323	0.969050
850.112675	0.970125
850.426984	0.970213
850.741251	0.971485
851.055474	0.970671
851.369654	0.967396
851.683792	0.969005
851.997887	0.969799
852.311938	0.970638
852.625947	0.970164
852.939914	0.968184
853.253837	0.969484
853.567718	0.971480
853.881555	0.971265
854.195350	0.967261
854.509103	0.969996
854.822812	0.969965
855.136479	0.971279
855.450103	0.970099
855.763685	0.968052
856.077224	0.969531
856.390720	0.971024
856.704173	0.971307
857.017584	0.968428
857.330953	0.968804
857.644278	0.967199
857.957561	0.968203
858.270802	0.968573
858.584000	0.968206
858.897155	0.967162
859.210268	0.968546
859.523339	0.968831
859.836367	0.970750
860.149352	0.971094
860.462295	0.969385
860.775195	0.969998
861.088054	0.969139
861.400869	0.970017
861.713642	0.970046
862.026373	0.971310
862.339062	0.970163
862.651708	0.968449
862.964312	0.966810
863.276873	0.969991
863.589392	0.968748
863.901869	0.966261
864.214303	0.964500
864.526696	0.964525
864.839045	0.963881
865.151353	0.962448
865.463619	0.962440
865.775842	0.961968
866.088023	0.961739
866.400162	0.961927
866.712258	0.963079
867.024313	0.963702
867.336325	0.963056
867.648296	0.963430
867.960224	0.962025
868.272110	0.961727
868.583954	0.963815
868.895755	0.963544
869.207515	0.962098
869.519233	0.959086
869.830909	0.961098
870.142542	0.963558
870.454134	0.961965
870.765684	0.960796
871.077191	0.957964
871.388657	0.958296
871.700081	0.957561
872.011463	0.958263
872.322803	0.958623
872.634101	0.956118
872.945357	0.954815
873.256571	0.953250
873.567744	0.952902
873.878874	0.953151
874.189963	0.953106
874.501010	0.951930
874.812015	0.949890
875.122979	0.950579
875.433900	0.953223
875.744780	0.954874
876.055618	0.950642
876.366415	0.949414
876.677169	0.949672
876.987882	0.952179
877.298554	0.950766
877.609183	0.947771
877.919771	0.944949
878.230317	0.943086
878.540822	0.940012
878.851285	0.934791
879.161707	0.926618
879.472087	0.915127
879.782425	0.899539
880.092722	0.864934
880.402977	0.812253
880.713191	0.752337
881.023363	0.691950
881.333494	0.658507
881.643583	0.631101
881.953631	0.630716
882.263637	0.659327
882.573602	0.698765
882.883526	0.724711
883.193408	0.748066
883.503248	0.770240
883.813048	0.797506
884.122806	0.828161
884.432522	0.850372
884.742197	0.870286
885.051831	0.881011
885.361424	0.891722
885.670975	0.903464
885.980485	0.914350
886.289954	0.919121
886.599382	0.925104
886.908768	0.928042
887.218113	0.934553
887.527417	0.938729
887.836680	0.942552
888.145901	0.943647
888.455082	0.946920
888.764221	0.950772
889.073319	0.953111
889.382376	0.952848
889.691392	0.953350
890.000366	0.951079
890.309300	0.954597
890.618193	0.952822
890.927044	0.951525
891.235855	0.952509
891.544625	0.951388
891.853353	0.951565
892.162041	0.950069
892.470687	0.942445
892.779293	0.938200
893.087858	0.933739
893.396381	0.926461
893.704864	0.913381
894.013306	0.890261
894.321707	0.863088
894.630068	0.848982
894.938387	0.842332
895.246665	0.844483
895.554903	0.857678
895.863100	0.871161
896.171256	0.887153
896.479371	0.906818
896.787446	0.920274
897.095480	0.925103
897.403473	0.928938
897.711425	0.932647
898.019336	0.939849
898.327207	0.942923
898.635038	0.945666
898.942827	0.944986
899.250576	0.948251
899.558284	0.952679
899.865952	0.954048
900.173579	0.954523
900.481165	0.956173
900.788711	0.960027
901.096216	0.961386
901.403681	0.961687
901.711105	0.963132
902.018489	0.963123
902.325832	0.963778
902.633135	0.961280
902.940397	0.956291
903.247619	0.944243
903.554800	0.918056
903.861941	0.878913
904.169041	0.843141
904.476101	0.825067
904.783121	0.826532
905.090100	0.843172
905.397039	0.865046
905.703938	0.886775
906.010796	0.905731
906.317614	0.922416
906.624391	0.934060
906.931129	0.944629
907.237826	0.952505
907.544483	0.959230
907.851099	0.963240
908.157675	0.967814
908.464211	0.970610
908.770707	0.973247
909.077163	0.974654
909.383578	0.974210
909.689954	0.975005
909.996289	0.975654
910.302584	0.977911
910.608839	0.979038
910.915054	0.978864
911.221229	0.978876
911.527363	0.977514
911.833458	0.977176
912.139513	0.976959
912.445527	0.975214
912.751502	0.973327
913.057436	0.972479
913.363331	0.970213
913.669186	0.966387
913.975000	0.961752
914.280775	0.954767
914.586510	0.948913
914.892205	0.935189
915.197859	0.914290
915.503475	0.886711
915.809050	0.867246
916.114585	0.862785
916.420081	0.858472
916.725536	0.855526
917.030952	0.863748
917.336328	0.876550
917.641665	0.891792
917.946961	0.907178
918.252218	0.919493
918.557435	0.927744
918.862612	0.936226
919.167750	0.942988
919.472848	0.946863
919.777906	0.952424
920.082925	0.957950
920.387904	0.962083
920.692843	0.964379
920.997743	0.963341
921.302603	0.968712
921.607423	0.968777
921.912204	0.971170
922.216946	0.971298
922.521647	0.974209
922.826310	0.974326
923.130932	0.976071
923.435516	0.979576
923.740059	0.979710
924.044564	0.979302
924.349028	0.980705
924.653454	0.983727
924.957840	0.985442
925.262186	0.984234
925.566493	0.984314
925.870761	0.984992
926.174989	0.985400
926.479178	0.988593
926.783328	0.988101
927.087438	0.988997
927.391509	0.988180
927.695541	0.990234
927.999533	0.989847
928.303486	0.990086
928.607400	0.992110
928.911275	0.989126
929.215110	0.990803
929.518906	0.991401
929.822663	0.989361
930.126381	0.992450
930.430060	0.990956
930.733699	0.991533
931.037299	0.989794
931.340861	0.990258
931.644383	0.990280
931.947866	0.989033
932.251309	0.991429
932.554714	0.990468
932.858080	0.990212
933.161407	0.991402
933.464694	0.991268
933.767943	0.990263
934.071153	0.991668
934.374323	0.991816
934.677455	0.989894
934.980548	0.991274
935.283602	0.991191
935.586617	0.991845
935.889593	0.991323
936.192530	0.990542
936.495428	0.991309
936.798287	0.990885
937.101108	0.990728
937.403890	0.988674
937.706632	0.989118
938.009336	0.987202
938.312002	0.986351
938.614628	0.983680
938.917216	0.983388
939.219765	0.981347
939.522275	0.983561
939.824747	0.982924
940.127179	0.982745
940.429573	0.984380
940.731929	0.984510
941.034246	0.983874
941.336524	0.985466
941.638763	0.985895
941.940964	0.985442
942.243126	0.987157
942.545250	0.987093
942.847335	0.987987
943.149381	0.987814
943.451389	0.988440
943.753359	0.989288
944.055290	0.991377
944.357182	0.990006
944.659036	0.989314
944.960851	0.989933
945.262628	0.990853
945.564367	0.990542
945.866067	0.990649
946.167729	0.989965
946.469352	0.989975
946.770937	0.988742
947.072484	0.990992
947.373992	0.989550
947.675462	0.990279
947.976893	0.990005
948.278286	0.991316
948.579641	0.991214
948.880958	0.991304
949.182236	0.990978
949.483476	0.990885
949.784678	0.989797
950.085841	0.991232
950.386967	0.991589
950.688054	0.990383
950.989103	0.990479
951.290114	0.988688
951.591087	0.989103
951.892021	0.989468
952.192917	0.989652
952.493776	0.988103
952.794596	0.989502
953.095378	0.986385
953.396122	0.988847
953.696828	0.986003
953.997496	0.989917
954.298126	0.990105
954.598718	0.989840
954.899272	0.991740
955.199788	0.990478
955.500266	0.991530
955.800706	0.993860
956.101108	0.992837
956.401472	0.994645
956.701798	0.994134
957.002087	0.993088
957.302337	0.993603
957.602550	0.995809
957.902724	0.994197
958.202861	0.994633
958.502960	0.994174
958.803022	0.993901
959.103045	0.996037
959.403031	0.995597
959.702979	0.994839
960.002889	0.995900
960.302762	0.994798
960.602596	0.996194
960.902393	0.994435
961.202153	0.997084
961.501875	0.996990
961.801559	0.995874
962.101205	0.996676
962.400814	0.996198
962.700385	0.996228
962.999918	0.996473
963.299414	0.996543
963.598873	0.995005
963.898293	0.996846
964.197677	0.997030
964.497022	0.996510
964.796331	0.996947
965.095601	0.998826
965.394835	0.996393
965.694030	0.997024
965.993189	0.997852
966.292309	0.996989
966.591393	0.997133
966.890439	0.997538
967.189447	0.996889
967.488419	0.995998
967.787353	0.996783
968.086249	0.996297
968.385108	0.997963
968.683930	0.997726
968.982714	0.998591
969.281462	0.997235
969.580172	0.996410
969.878844	0.997620
970.177480	0.997769
970.476078	0.997076
970.774639	0.996456
971.073162	0.996936
971.371649	0.996712
971.670098	0.996094
971.968510	0.997309
972.266885	0.996036
972.565223	0.996754
972.863524	0.995612
973.161788	0.997587
973.460014	0.998397
973.758204	0.996547
974.056356	0.995161
974.354471	0.994208
974.652550	0.996321
974.950591	0.996590
975.248595	0.995905
975.546563	0.996717
975.844493	0.998204
976.142386	0.996764
976.440243	0.997640
976.738062	0.997344
977.035845	0.997744
977.333590	0.996883
977.631299	0.998127
977.928971	0.997423
978.226606	0.997162
978.524204	0.996605
978.821765	0.997447
979.119290	0.995788
979.416777	0.997230
979.714228	0.998813
980.011642	0.995259
980.309020	0.997620
980.606360	0.996678
980.903664	0.997284
981.200931	0.997387
981.498162	0.995252
981.795356	0.995630
982.092513	0.994328
982.389633	0.995486
982.686717	0.991617
982.983764	0.991669
983.280775	0.990245
983.577749	0.991094
983.874686	0.991969
984.171587	0.992625
984.468451	0.994093
984.765279	0.995059
985.062070	0.995453
985.358824	0.995028
985.655543	0.995200
985.952224	0.995521
986.248869	0.996731
986.545478	0.997838
986.842050	0.998145
987.138586	0.996794
987.435086	0.996719
987.731549	1.000000
988.027975	0.997654
988.324366	0.998093
988.620719	0.996678
988.917037	0.995760
989.213318	0.998429
989.509563	0.997962
989.805772	0.999144
990.101944	0.998602
990.398080	0.998796
990.694180	0.998365
990.990244	0.997368
991.286271	0.998197
991.582262	0.998874
991.878217	0.997770
992.174136	0.999053
992.470019	0.999406
992.765865	0.998042
993.061676	0.999276
993.357450	0.996947
993.653188	0.997119
993.948890	0.997262
994.244556	0.996120
994.540186	0.997643
994.835780	0.996294
995.131337	0.997696
995.426859	0.997492
995.722345	0.997603
996.017795	0.996789
996.313208	0.996026
996.608586	0.996184
996.903928	0.997091
997.199234	0.996451
997.494504	0.996723
997.789738	0.996613
998.084936	0.996586
998.380099	0.998161
998.675225	0.996296
998.970316	0.999262
999.265371	0.999043
999.560390	0.999253
999.855373	0.998999
1000.150320	0.998979
1000.445232	0.998035
1000.740108	0.998743
1001.034948	0.998885
1001.329752	0.999480
1001.624521	0.998708
1001.919254	0.999190
1002.213951	0.998256
1002.508613	0.997944
1002.803239	0.999348
1003.097829	0.998969
1003.392384	0.999286
1003.686903	0.998283
1003.981386	0.999589
1004.275834	0.999491
1004.570246	0.998765
1004.864623	0.999901
1005.158964	0.998910
1005.453270	0.998605
1005.747540	0.997930
1006.041775	0.998175
1006.335974	0.998961
1006.630138	0.999368
1006.924266	1.000563
1007.218359	0.999889
1007.512416	0.998924
1007.806438	0.998122
1008.100425	0.999020
1008.394376	0.999187
1008.688292	0.999946
1008.982172	1.000227
1009.276017	0.999366
1009.569827	0.998628
1009.863602	0.998052
1010.157341	1.000931
1010.451045	0.999850
1010.744714	0.999006
1011.038347	1.000761
1011.331945	0.998562
1011.625508	0.998300
1011.919036	0.998955
1012.212528	0.998935
1012.505986	0.998224
1012.799408	0.998389
1013.092795	1.000108
1013.386147	0.998498
1013.679464	0.999225
1013.972745	0.997702
1014.265992	0.997597
1014.559204	0.999167
1014.852380	0.999879
1015.145521	0.999373
1015.438628	0.999683
1015.731699	0.999446
1016.024736	0.999552
1016.317737	0.999467
1016.610703	0.998817
1016.903635	1.000696
1017.196531	0.998767
1017.489393	0.999790
1017.782219	1.000074
1018.075011	0.998471
1018.367768	0.999596
1018.660490	1.000532
1018.953177	1.000532
1019.245829	1.000532
