Dividing Wavelength (nm)	Counts (n)	Blue Motor Position (mm): 0.000000	Red Motor Position (mm): 37.100000	
326.493990	1.002583
326.888308	1.002583
327.282561	1.002583
327.676750	0.999814
328.070874	0.998476
328.464933	1.000105
328.858929	1.000400
329.252859	0.999561
329.646726	1.000289
330.040528	1.000515
330.434265	1.000595
330.827938	1.000189
331.221547	1.000437
331.615091	1.000936
332.008571	1.001102
332.401986	1.001048
332.795338	1.000519
333.188625	0.998853
333.581847	1.000811
333.975006	1.000198
334.368100	0.999830
334.761129	1.000800
335.154095	1.001175
335.546996	0.999507
335.939833	0.997075
336.332606	0.997179
336.725315	0.997866
337.117960	0.998881
337.510540	0.997081
337.903056	0.998691
338.295508	0.997177
338.687896	0.998106
339.080220	0.997967
339.472480	0.997595
339.864676	0.997777
340.256807	0.997297
340.648875	0.997260
341.040879	0.997587
341.432818	0.997347
341.824694	0.997444
342.216506	0.999124
342.608253	0.997982
342.999937	0.997323
343.391557	0.997190
343.783113	0.997840
344.174605	0.997229
344.566033	0.997429
344.957397	0.997230
345.348697	0.997329
345.739934	0.998311
346.131106	0.997451
346.522215	0.997641
346.913260	0.997031
347.304241	0.998261
347.695159	0.998701
348.086012	0.996256
348.476802	0.997647
348.867528	0.997337
349.258191	0.995507
349.648789	0.997271
350.039324	0.997204
350.429796	0.998068
350.820203	0.997910
351.210548	0.997944
351.600828	0.997728
351.991045	0.997395
352.381198	0.996908
352.771288	0.997968
353.161314	0.995542
353.551276	0.998191
353.941175	0.996618
354.331010	0.998341
354.720782	0.997610
355.110490	0.997860
355.500135	0.998423
355.889717	0.997335
356.279235	0.998402
356.668689	0.996188
357.058080	0.996962
357.447408	0.997799
357.836672	0.997894
358.225873	0.998537
358.615010	0.998783
359.004084	0.998782
359.393095	0.998102
359.782043	0.997524
360.170927	0.998884
360.559748	0.996984
360.948505	0.997709
361.337199	0.998107
361.725830	0.998080
362.114398	0.997181
362.502903	0.997875
362.891344	0.999292
363.279722	0.997170
363.668037	0.997242
364.056289	0.998881
364.444478	0.998628
364.832603	0.998037
365.220665	0.996915
365.608665	0.996996
365.996601	0.997348
366.384474	0.997592
366.772284	0.997887
367.160031	0.995903
367.547715	0.996530
367.935336	0.998038
368.322893	0.997698
368.710388	0.995724
369.097820	0.997425
369.485189	0.997394
369.872495	0.995875
370.259738	0.997032
370.646918	0.998307
371.034035	0.997959
371.421090	0.997815
371.808081	0.997029
372.195010	0.997166
372.581875	0.997705
372.968678	0.998327
373.355418	0.997487
373.742096	0.997188
374.128710	0.998128
374.515262	0.997265
374.901751	0.998111
375.288177	0.998671
375.674540	0.997667
376.060841	0.996734
376.447079	0.998146
376.833254	0.998038
377.219367	0.997804
377.605417	0.998315
377.991404	0.998005
378.377329	0.997176
378.763191	0.997599
379.148991	0.997764
379.534727	0.997792
379.920402	0.997671
380.306013	0.997784
380.691563	0.998612
381.077049	0.998451
381.462474	0.998158
381.847835	0.997886
382.233134	0.997732
382.618371	0.997194
383.003545	0.996961
383.388657	0.997312
383.773706	0.998566
384.158693	0.999102
384.543618	0.997192
384.928480	0.998445
385.313280	0.997733
385.698017	0.998475
386.082692	0.998506
386.467305	0.997903
386.851856	0.997798
387.236344	0.998080
387.620770	0.996751
388.005133	0.998525
388.389435	0.997920
388.773674	0.997817
389.157851	0.999080
389.541965	0.999039
389.926018	0.998061
390.310008	0.999570
390.693936	0.997836
391.077802	0.998884
391.461606	0.998162
391.845348	0.998409
392.229027	0.999270
392.612645	0.999028
392.996200	0.999216
393.379694	0.997919
393.763125	0.999609
394.146494	0.998757
394.529801	0.998506
394.913047	0.998522
395.296230	0.998853
395.679351	0.998746
396.062410	0.998902
396.445408	0.998139
396.828343	0.998452
397.211217	0.999200
397.594028	0.998614
397.976778	0.997701
398.359466	0.999010
398.742092	0.998159
399.124656	0.997691
399.507158	0.998610
399.889598	0.998859
400.271977	0.999189
400.654294	0.999513
401.036549	0.999029
401.418742	0.999682
401.800874	0.997955
402.182944	0.999081
402.564952	0.999288
402.946898	0.998757
403.328783	0.999457
403.710606	0.998823
404.092367	0.998510
404.474067	0.998232
404.855705	0.997559
405.237282	0.999114
405.618797	0.998507
406.000250	0.998159
406.381642	0.999000
406.762972	0.999105
407.144240	0.999317
407.525447	0.998960
407.906593	0.998554
408.287677	0.998916
408.668700	0.999637
409.049661	0.997855
409.430560	0.999408
409.811399	0.998388
410.192176	0.998175
410.572891	0.998798
410.953545	0.998743
411.334138	0.998295
411.714669	0.999467
412.095139	0.998934
412.475547	0.999217
412.855894	0.999050
413.236180	0.999067
413.616405	0.998846
413.996568	0.999525
414.376670	0.998898
414.756711	0.997741
415.136691	0.998803
415.516609	0.998573
415.896466	0.998271
416.276262	0.998102
416.655997	0.999478
417.035670	0.998757
417.415283	0.999240
417.794834	0.999459
418.174324	0.999320
418.553753	0.999329
418.933121	0.998618
419.312428	0.998731
419.691674	0.999062
420.070859	0.998931
420.449983	0.998993
420.829045	0.999055
421.208047	0.999423
421.586988	0.999468
421.965867	0.998921
422.344686	0.999586
422.723444	0.999848
423.102141	0.999293
423.480777	0.999276
423.859352	0.998815
424.237866	0.998680
424.616319	0.999164
424.994712	0.999079
425.373044	0.999514
425.751314	0.999281
426.129524	0.998411
426.507673	1.000489
426.885762	0.999400
427.263789	0.999680
427.641756	0.999469
428.019662	1.000194
428.397508	0.998860
428.775292	0.998693
429.153016	0.999080
429.530679	0.999232
429.908282	1.000108
430.285824	0.999044
430.663305	0.998461
431.040726	0.998441
431.418086	1.000673
431.795385	0.999398
432.172624	0.997569
432.549802	0.999523
432.926920	0.999948
433.303977	0.999057
433.680974	0.999992
434.057910	0.999365
434.434786	0.999435
434.811601	0.998853
435.188355	0.998932
435.565050	0.999282
435.941683	0.999645
436.318257	0.999806
436.694770	0.998968
437.071222	0.999836
437.447614	0.999515
437.823946	0.999812
438.200218	0.999711
438.576429	0.999555
438.952580	0.999909
439.328670	0.999471
439.704700	0.999338
440.080670	0.999481
440.456580	0.999123
440.832429	0.998515
441.208218	0.999197
441.583947	0.999836
441.959616	0.999747
442.335224	0.999502
442.710773	1.000095
443.086261	0.998846
443.461689	0.999112
443.837057	0.999419
444.212365	0.999014
444.587612	0.998997
444.962800	0.999623
445.337927	0.999161
445.712995	0.999811
446.088002	0.999691
446.462949	0.999532
446.837837	1.000674
447.212664	0.999167
447.587431	1.000088
447.962139	0.999974
448.336786	1.000215
448.711374	0.999813
449.085901	0.999521
449.460369	0.999838
449.834776	0.998455
450.209124	0.999762
450.583412	0.998494
450.957640	0.999358
451.331808	0.999043
451.705917	0.998758
452.079965	0.998607
452.453954	0.999757
452.827883	1.000040
453.201752	0.998863
453.575562	1.000244
453.949311	1.000534
454.323001	0.999887
454.696632	0.999348
455.070202	0.998898
455.443713	0.999079
455.817164	0.999860
456.190556	1.000022
456.563888	1.000018
456.937160	0.999838
457.310373	0.999398
457.683526	0.999738
458.056619	0.999525
458.429653	0.999625
458.802628	0.999066
459.175542	0.999436
459.548398	0.999750
459.921194	0.999431
460.293930	0.999742
460.666607	0.998583
461.039224	0.999368
461.411782	0.999889
461.784280	0.998186
462.156719	1.000015
462.529099	0.999775
462.901419	0.999152
463.273680	0.999311
463.645882	1.000116
464.018024	0.999805
464.390106	0.999383
464.762130	1.000291
465.134094	1.000181
465.505999	1.000303
465.877845	1.000288
466.249631	1.000470
466.621358	0.999786
466.993026	0.999901
467.364634	0.999152
467.736184	0.999885
468.107674	0.999988
468.479105	0.999514
468.850477	1.000167
469.221790	0.999660
469.593043	0.998979
469.964238	1.000250
470.335373	0.999451
470.706449	0.999770
471.077467	1.000686
471.448425	0.999457
471.819324	1.000565
472.190164	0.999223
472.560945	0.999866
472.931667	0.999779
473.302330	0.999333
473.672934	0.999652
474.043479	0.999347
474.413965	0.999685
474.784393	1.000307
475.154761	0.999793
475.525070	0.999063
475.895321	1.000395
476.265513	0.998951
476.635645	0.999380
477.005719	1.000405
477.375734	0.998857
477.745691	0.999742
478.115588	0.999542
478.485427	0.999790
478.855207	0.999209
479.224928	1.000038
479.594591	0.999594
479.964194	1.000296
480.333739	0.999474
480.703226	0.999436
481.072653	1.000428
481.442022	1.000028
481.811333	0.999311
482.180584	1.000552
482.549777	0.999656
482.918912	0.999359
483.287988	0.999876
483.657005	0.999787
484.025964	1.000321
484.394864	1.000378
484.763706	0.999904
485.132489	1.000081
485.501213	0.999827
485.869879	0.999542
486.238487	0.999936
486.607036	0.999923
486.975527	0.998956
487.343959	0.999859
487.712333	0.999556
488.080648	0.999709
488.448905	0.999427
488.817104	1.000052
489.185244	1.000213
489.553326	0.999636
489.921350	0.999297
490.289315	1.000601
490.657222	0.999791
491.025070	1.000098
491.392861	1.000159
491.760593	1.000591
492.128267	0.999116
492.495883	0.999650
492.863440	1.000246
493.230939	1.000286
493.598380	0.999394
493.965763	0.999755
494.333088	1.000283
494.700354	0.998793
495.067563	0.999348
495.434713	0.999405
495.801805	1.000167
496.168839	0.999916
496.535815	0.999370
496.902733	0.999235
497.269593	0.999457
497.636395	0.999918
498.003139	0.999511
498.369825	1.000690
498.736453	0.999889
499.103023	0.998259
499.469535	0.998777
499.835989	0.999133
500.202385	0.999745
500.568723	0.999420
500.935003	1.000315
501.301226	0.999924
501.667390	0.999626
502.033497	0.999630
502.399546	0.999793
502.765537	0.998638
503.131470	0.999318
503.497345	0.998675
503.863163	0.999832
504.228923	0.999908
504.594625	0.999617
504.960269	0.999472
505.325856	0.999995
505.691385	0.999529
506.056856	0.998857
506.422270	0.998953
506.787625	0.999319
507.152924	0.999014
507.518164	0.998801
507.883347	0.999193
508.248472	0.998696
508.613540	0.999210
508.978550	0.998899
509.343503	0.998261
509.708398	0.999238
510.073236	0.998528
510.438016	0.999084
510.802738	0.998762
511.167403	0.998773
511.532010	0.999085
511.896561	0.997984
512.261053	0.999413
512.625488	0.998679
512.989866	0.998526
513.354186	0.998751
513.718449	0.998846
514.082655	0.998066
514.446803	0.999024
514.810894	0.998545
515.174927	0.998868
515.538904	0.998382
515.902822	0.998210
516.266684	0.998371
516.630488	0.998389
516.994235	0.997596
517.357925	0.998090
517.721558	0.998127
518.085133	0.997332
518.448651	0.998591
518.812112	0.998098
519.175516	0.997520
519.538863	0.998584
519.902152	0.997456
520.265385	0.997615
520.628560	0.997692
520.991678	0.997692
521.354739	0.997811
521.717743	0.997644
522.080690	0.997564
522.443580	0.997055
522.806413	0.997158
523.169189	0.996538
523.531908	0.996248
523.894569	0.996794
524.257174	0.996590
524.619722	0.996608
524.982213	0.996081
525.344647	0.996557
525.707025	0.996008
526.069345	0.995135
526.431608	0.995167
526.793815	0.995226
527.155964	0.994888
527.518057	0.994532
527.880093	0.994597
528.242072	0.994225
528.603995	0.993502
528.965860	0.994326
529.327669	0.993378
529.689421	0.993310
530.051117	0.993305
530.412755	0.992168
530.774337	0.992974
531.135862	0.991138
531.497331	0.991093
531.858743	0.990977
532.220098	0.990758
532.581396	0.989924
532.942638	0.989811
533.303824	0.989609
533.664953	0.988931
534.026025	0.988194
534.387040	0.987780
534.747999	0.987243
535.108902	0.986270
535.469748	0.986413
535.830537	0.985502
536.191270	0.985282
536.551947	0.983493
536.912567	0.983736
537.273131	0.983266
537.633638	0.981456
537.994089	0.981512
538.354483	0.980258
538.714821	0.979591
539.075103	0.978711
539.435328	0.977824
539.795497	0.977239
540.155609	0.975903
540.515665	0.975327
540.875665	0.974142
541.235609	0.973091
541.595496	0.972138
541.955328	0.970512
542.315102	0.970708
542.674821	0.969035
543.034483	0.968182
543.394090	0.966115
543.753640	0.966265
544.113134	0.964585
544.472571	0.963880
544.831953	0.962332
545.191278	0.960505
545.550548	0.960147
545.909761	0.957718
546.268918	0.956512
546.628019	0.954718
546.987064	0.953273
547.346053	0.952852
547.704986	0.950856
548.063863	0.948800
548.422684	0.947909
548.781449	0.945908
549.140158	0.943078
549.498811	0.942207
549.857408	0.941270
550.215949	0.938024
550.574434	0.937012
550.932864	0.934239
551.291237	0.932989
551.649555	0.929988
552.007817	0.928638
552.366022	0.926120
552.724173	0.924474
553.082267	0.922880
553.440305	0.918958
553.798288	0.918067
554.156215	0.914737
554.514086	0.912451
554.871902	0.910955
555.229661	0.908068
555.587365	0.906335
555.945014	0.904899
556.302606	0.900224
556.660143	0.898816
557.017625	0.895583
557.375050	0.892568
557.732421	0.889650
558.089735	0.886647
558.446994	0.885336
558.804197	0.882853
559.161345	0.879281
559.518437	0.877875
559.875474	0.873107
560.232455	0.869129
560.589381	0.868180
560.946251	0.863245
561.303065	0.861958
561.659825	0.857728
562.016528	0.854945
562.373177	0.853846
562.729770	0.848535
563.086307	0.846626
563.442789	0.842895
563.799216	0.838801
564.155587	0.836259
564.511904	0.832446
564.868164	0.829030
565.224370	0.827362
565.580520	0.822129
565.936615	0.820578
566.292654	0.816248
566.648638	0.813625
567.004567	0.809435
567.360441	0.807006
567.716260	0.803645
568.072023	0.799977
568.427732	0.796067
568.783385	0.794802
569.138982	0.788819
569.494525	0.785105
569.850013	0.783164
570.205445	0.777357
570.560823	0.776202
570.916145	0.771914
571.271412	0.767843
571.626625	0.764053
571.981782	0.760304
572.336884	0.757359
572.691931	0.754219
573.046923	0.749069
573.401860	0.746575
573.756743	0.743063
574.111570	0.738997
574.466342	0.736230
574.821059	0.731546
575.175722	0.728741
575.530330	0.724782
575.884882	0.721245
576.239380	0.718018
576.593823	0.714757
576.948211	0.710516
577.302544	0.708946
577.656823	0.704560
578.011047	0.701510
578.365216	0.696839
578.719330	0.694908
579.073389	0.690209
579.427394	0.687863
579.781344	0.684336
580.135239	0.681147
580.489080	0.677610
580.842866	0.674431
581.196597	0.670674
581.550273	0.666761
581.903895	0.662046
582.257463	0.658550
582.610975	0.655155
582.964434	0.652820
583.317837	0.649750
583.671186	0.647079
584.024481	0.642140
584.377721	0.640463
584.730906	0.636686
585.084037	0.632763
585.437113	0.631270
585.790135	0.625855
586.143103	0.624079
586.496016	0.622384
586.848874	0.616303
587.201679	0.613526
587.554428	0.611450
587.907124	0.606810
588.259765	0.603894
588.612352	0.600544
588.964884	0.600011
589.317362	0.595664
589.669786	0.591534
590.022155	0.589203
590.374470	0.583860
590.726731	0.582664
591.078937	0.581034
591.431090	0.573970
591.783188	0.574907
592.135232	0.570463
592.487222	0.569292
592.839157	0.563594
593.191038	0.562652
593.542866	0.560123
593.894639	0.559385
594.246358	0.554801
594.598022	0.551171
594.949633	0.550245
595.301190	0.547364
595.652692	0.544076
596.004141	0.537372
596.355535	0.540163
596.706876	0.537205
597.058162	0.535533
597.409395	0.530719
597.760573	0.526002
598.111698	0.525393
598.462768	0.522130
598.813785	0.521420
599.164748	0.517550
599.515657	0.516172
599.866511	0.514440
600.217312	0.508967
600.568060	0.510257
600.918753	0.504269
601.269392	0.502247
601.619978	0.502143
601.970510	0.497184
602.320988	0.495200
602.671412	0.490157
603.021783	0.489911
603.372100	0.488348
603.722363	0.485223
604.072572	0.483892
604.422728	0.481030
604.772830	0.480099
605.122878	0.477075
605.472872	0.475352
605.822813	0.470557
606.172701	0.470645
606.522534	0.465991
606.872314	0.464343
607.222041	0.461454
607.571714	0.458081
607.921333	0.456742
608.270899	0.453953
608.620411	0.449414
608.969870	0.450637
609.319276	0.448268
609.668627	0.445685
610.017926	0.442695
610.367171	0.439238
610.716362	0.437653
611.065500	0.436164
611.414585	0.432777
611.763616	0.431551
612.112594	0.429826
612.461518	0.427373
612.810389	0.424325
613.159207	0.424020
613.507971	0.423926
613.856682	0.418259
614.205340	0.417850
614.553945	0.413420
614.902496	0.414885
615.250994	0.411732
615.599439	0.410780
615.947830	0.408406
616.296169	0.408253
616.644454	0.406197
616.992686	0.404640
617.340864	0.401420
617.688990	0.403112
618.037063	0.399216
618.385082	0.399461
618.733048	0.395199
619.080961	0.396175
619.428821	0.394329
619.776628	0.392099
620.124382	0.392738
620.472083	0.391297
620.819731	0.389298
621.167326	0.390990
621.514868	0.389136
621.862357	0.391786
622.209793	0.390266
622.557176	0.390067
622.904506	0.389252
623.251783	0.390244
623.599007	0.391021
623.946179	0.389276
624.293297	0.389824
624.640363	0.392100
624.987376	0.391537
625.334336	0.392350
625.681243	0.393436
626.028097	0.392956
626.374899	0.393072
626.721647	0.391744
627.068343	0.394319
627.414987	0.393678
627.761577	0.394736
628.108115	0.392589
628.454600	0.396651
628.801032	0.392931
629.147412	0.394426
629.493739	0.393793
629.840014	0.396028
630.186236	0.393010
630.532405	0.397599
630.878521	0.394290
631.224585	0.395764
631.570597	0.398981
631.916556	0.396759
632.262462	0.396367
632.608316	0.397576
632.954117	0.397178
633.299866	0.398031
633.645562	0.397679
633.991206	0.400712
634.336797	0.402970
634.682336	0.404093
635.027823	0.404760
635.373257	0.404831
635.718639	0.407513
636.063968	0.405997
636.409245	0.410811
636.754470	0.410302
637.099642	0.412681
637.444762	0.415065
637.789829	0.413944
638.134845	0.416244
638.479808	0.417118
638.824719	0.416119
639.169577	0.420414
639.514383	0.417921
639.859137	0.421812
640.203839	0.421363
640.548489	0.421486
640.893086	0.422604
641.237632	0.423871
641.582125	0.421663
641.926566	0.423209
642.270955	0.422638
642.615292	0.422879
642.959576	0.421253
643.303809	0.421713
643.647990	0.420800
643.992118	0.420909
644.336195	0.424222
644.680219	0.421925
645.024192	0.422730
645.368112	0.416204
645.711981	0.415210
646.055797	0.409956
646.399562	0.411816
646.743274	0.404359
647.086935	0.401672
647.430544	0.401743
647.774101	0.400559
648.117606	0.399643
648.461059	0.399504
648.804460	0.402138
649.147810	0.406824
649.491108	0.408678
649.834354	0.409121
650.177548	0.414636
650.520690	0.419332
650.863781	0.420627
651.206820	0.419706
651.549807	0.423849
651.892742	0.427731
652.235626	0.426946
652.578458	0.427701
652.921238	0.433298
653.263967	0.431522
653.606644	0.435215
653.949269	0.434593
654.291843	0.438298
654.634365	0.435228
654.976836	0.437967
655.319255	0.438411
655.661622	0.439488
656.003938	0.439264
656.346203	0.442205
656.688416	0.439953
657.030577	0.442948
657.372687	0.444801
657.714746	0.445544
658.056753	0.442405
658.398708	0.445792
658.740612	0.447233
659.082465	0.443617
659.424266	0.443905
659.766016	0.443198
660.107715	0.445961
660.449362	0.444715
660.790958	0.445368
661.132503	0.446157
661.473996	0.443173
661.815438	0.444415
662.156829	0.444075
662.498168	0.444593
662.839456	0.446192
663.180693	0.443957
663.521879	0.443802
663.863013	0.444493
664.204097	0.442796
664.545129	0.440013
664.886110	0.440369
665.227040	0.437348
665.567918	0.439550
665.908746	0.437580
666.249522	0.437419
666.590248	0.438821
666.930922	0.436434
667.271545	0.435514
667.612118	0.435613
667.952639	0.437140
668.293109	0.435690
668.633528	0.438743
668.973896	0.438570
669.314213	0.438728
669.654480	0.440327
669.994695	0.440581
670.334859	0.441229
670.674973	0.441314
671.015035	0.441437
671.355047	0.441546
671.695008	0.442715
672.034918	0.443942
672.374777	0.443285
672.714585	0.444846
673.054342	0.444139
673.394049	0.444654
673.733705	0.442246
674.073310	0.443173
674.412864	0.447028
674.752368	0.447313
675.091820	0.447152
675.431223	0.451423
675.770574	0.450453
676.109875	0.454307
676.449125	0.454085
676.788324	0.456749
677.127473	0.462137
677.466571	0.461783
677.805619	0.463155
678.144616	0.463633
678.483562	0.465849
678.822458	0.467949
679.161303	0.469346
679.500098	0.469900
679.838842	0.471198
680.177535	0.470385
680.516179	0.470052
680.854771	0.468313
681.193314	0.461708
681.531805	0.453150
681.870247	0.441555
682.208638	0.434301
682.546978	0.432830
682.885268	0.434894
683.223508	0.441366
683.561697	0.444809
683.899836	0.447311
684.237925	0.450685
684.575963	0.452999
684.913951	0.456234
685.251889	0.452307
685.589776	0.453911
685.927614	0.456454
686.265401	0.450676
686.603137	0.451662
686.940824	0.445993
687.278460	0.444321
687.616046	0.443552
687.953582	0.439149
688.291068	0.440143
688.628504	0.436116
688.965889	0.438381
689.303224	0.441951
689.640510	0.446127
689.977745	0.451788
690.314930	0.459517
690.652065	0.463781
690.989150	0.471112
691.326185	0.478042
691.663170	0.482308
692.000105	0.489811
692.336990	0.496767
692.673825	0.498846
693.010610	0.505895
693.347345	0.510982
693.684030	0.512592
694.020665	0.517160
694.357251	0.526258
694.693786	0.526634
695.030272	0.530072
695.366707	0.533224
695.703093	0.536487
696.039429	0.534534
696.375716	0.536018
696.711952	0.538634
697.048139	0.541302
697.384276	0.542628
697.720363	0.541092
698.056400	0.540356
698.392388	0.545685
698.728326	0.548822
699.064214	0.551711
699.400053	0.552050
699.735842	0.555742
700.071581	0.558471
700.407270	0.561340
700.742910	0.563807
701.078501	0.570979
701.414042	0.570823
701.749533	0.574212
702.084974	0.582935
702.420366	0.574829
702.755709	0.583189
703.091002	0.589991
703.426246	0.583724
703.761440	0.589820
704.096584	0.594254
704.431679	0.591141
704.766725	0.593041
705.101721	0.595533
705.436668	0.591246
705.771565	0.598305
706.106413	0.594878
706.441212	0.590368
706.775961	0.588239
707.110661	0.591848
707.445311	0.588601
707.779913	0.585400
708.114465	0.583878
708.448967	0.581041
708.783421	0.572693
709.117825	0.567064
709.452180	0.567314
709.786485	0.561630
710.120742	0.550872
710.454949	0.553444
710.789107	0.545540
711.123216	0.536795
711.457275	0.538537
711.791286	0.528916
712.125247	0.527429
712.459159	0.538676
712.793023	0.531631
713.126837	0.535860
713.460602	0.535954
713.794318	0.545312
714.127985	0.544068
714.461602	0.554226
714.795171	0.556388
715.128691	0.564930
715.462162	0.572402
715.795584	0.577756
716.128957	0.580723
716.462281	0.587515
716.795556	0.590754
717.128782	0.595764
717.461960	0.605638
717.795088	0.603933
718.128167	0.609984
718.461198	0.618763
718.794180	0.619626
719.127113	0.622119
719.459997	0.625436
719.792833	0.631941
720.125619	0.632764
720.458357	0.639385
720.791046	0.637921
721.123686	0.641325
721.456278	0.648492
721.788821	0.645293
722.121315	0.649876
722.453761	0.654151
722.786158	0.651878
723.118506	0.648791
723.450805	0.655913
723.783056	0.652552
724.115259	0.649856
724.447412	0.649845
724.779518	0.650450
725.111574	0.649583
725.443582	0.645461
725.775542	0.646642
726.107453	0.639581
726.439315	0.639191
726.771129	0.637628
727.102895	0.631463
727.434612	0.624376
727.766281	0.622080
728.097901	0.621955
728.429473	0.622248
728.760996	0.619996
729.092471	0.620553
729.423897	0.623576
729.755276	0.622799
730.086606	0.623344
730.417887	0.617523
730.749120	0.608491
731.080305	0.599135
731.411442	0.595353
731.742530	0.600057
732.073570	0.599571
732.404562	0.592154
732.735506	0.593594
733.066401	0.598432
733.397249	0.606959
733.728048	0.618158
734.058798	0.630784
734.389501	0.640458
734.720156	0.651204
735.050762	0.658511
735.381320	0.660919
735.711831	0.669837
736.042293	0.673645
736.372707	0.669602
736.703073	0.674354
737.033391	0.676760
737.363661	0.673007
737.693883	0.668230
738.024056	0.668064
738.354182	0.668168
738.684260	0.657624
739.014290	0.653734
739.344272	0.654987
739.674207	0.647738
740.004093	0.647299
740.333931	0.647566
740.663722	0.648053
740.993464	0.648571
741.323159	0.652267
741.652806	0.656619
741.982405	0.661506
742.311956	0.666805
742.641460	0.668351
742.970915	0.671640
743.300323	0.680080
743.629683	0.686697
743.958996	0.687744
744.288260	0.691848
744.617477	0.698955
744.946647	0.700076
745.275768	0.704838
745.604842	0.705225
745.933869	0.714185
746.262847	0.714874
746.591778	0.708614
746.920662	0.715262
747.249498	0.721994
747.578286	0.712552
747.907027	0.708667
748.235720	0.709484
748.564365	0.704677
748.892963	0.704096
749.221514	0.707435
749.550017	0.712360
749.878473	0.711773
750.206881	0.717924
750.535242	0.719434
750.863555	0.718665
751.191821	0.719922
751.520039	0.723471
751.848210	0.728980
752.176334	0.720994
752.504411	0.720387
752.832440	0.728155
753.160421	0.731965
753.488356	0.730470
753.816243	0.728111
754.144082	0.736100
754.471875	0.739859
754.799620	0.734787
755.127318	0.736723
755.454969	0.737107
755.782572	0.736326
756.110129	0.740569
756.437638	0.743252
756.765100	0.739839
757.092515	0.737787
757.419882	0.736178
757.747203	0.742747
758.074477	0.740669
758.401703	0.739342
758.728882	0.734645
759.056014	0.732636
759.383099	0.731932
759.710138	0.733342
760.037129	0.729826
760.364073	0.723162
760.690970	0.726289
761.017820	0.731479
761.344623	0.726563
761.671379	0.718480
761.998088	0.707139
762.324751	0.684097
762.651366	0.642809
762.977935	0.577274
763.304456	0.524712
763.630931	0.515697
763.957359	0.554343
764.283740	0.598468
764.610074	0.625421
764.936362	0.656944
765.262602	0.682309
765.588796	0.704070
765.914943	0.722010
766.241044	0.739211
766.567097	0.745828
766.893104	0.754580
767.219064	0.761315
767.544978	0.767961
767.870845	0.781685
768.196665	0.785518
768.522438	0.784117
768.848165	0.784925
769.173846	0.793559
769.499479	0.797493
769.825066	0.801091
770.150607	0.806576
770.476101	0.801511
770.801548	0.802028
771.126949	0.814349
771.452303	0.816968
771.777611	0.817327
772.102872	0.815150
772.428087	0.822425
772.753256	0.825015
773.078378	0.826470
773.403453	0.835821
773.728482	0.839529
774.053465	0.833441
774.378401	0.836230
774.703291	0.845896
775.028135	0.844292
775.352932	0.846928
775.677683	0.849691
776.002388	0.849747
776.327046	0.847961
776.651658	0.852319
776.976224	0.856091
777.300743	0.856236
777.625216	0.858249
777.949643	0.859049
778.274024	0.859669
778.598359	0.861599
778.922647	0.860223
779.246889	0.861125
779.571086	0.865552
779.895236	0.866703
780.219339	0.864960
780.543397	0.861001
780.867409	0.859219
781.191374	0.861262
781.515294	0.862865
781.839167	0.862595
782.162995	0.865767
782.486776	0.862269
782.810511	0.862795
783.134201	0.867606
783.457844	0.864892
783.781441	0.867431
784.104993	0.873911
784.428498	0.873851
784.751958	0.869675
785.075372	0.871700
785.398739	0.875643
785.722061	0.872122
786.045337	0.866653
786.368568	0.872658
786.691752	0.874789
787.014891	0.860019
787.337983	0.851331
787.661030	0.844647
787.984031	0.827391
788.306987	0.814141
788.629897	0.816915
788.952760	0.820313
789.275579	0.825244
789.598351	0.840486
789.921078	0.852418
790.243759	0.855094
790.566395	0.859499
790.888984	0.866760
791.211529	0.871458
791.534027	0.873961
791.856480	0.877209
792.178888	0.881678
792.501249	0.884316
792.823566	0.885487
793.145836	0.885889
793.468062	0.888350
793.790241	0.888068
794.112375	0.885771
794.434464	0.880780
794.756507	0.881609
795.078505	0.881303
795.400457	0.875525
795.722364	0.863555
796.044226	0.855622
796.366042	0.855595
796.687812	0.858718
797.009538	0.855556
797.331218	0.857489
797.652852	0.863606
797.974442	0.867523
798.295986	0.867432
798.617484	0.869764
798.938938	0.874277
799.260346	0.878244
799.581709	0.881700
799.903026	0.882946
800.224299	0.883394
800.545526	0.888125
800.866708	0.891682
801.187845	0.895734
801.508936	0.894456
801.829983	0.893620
802.150984	0.895323
802.471940	0.899678
802.792851	0.900281
803.113717	0.901919
803.434538	0.898297
803.755314	0.902212
804.076045	0.902631
804.396731	0.902648
804.717372	0.902227
805.037967	0.904191
805.358518	0.903040
805.679024	0.899535
805.999485	0.899071
806.319901	0.898573
806.640272	0.902022
806.960598	0.899095
807.280879	0.895713
807.601115	0.895835
807.921306	0.898572
808.241453	0.899741
808.561554	0.896544
808.881611	0.897430
809.201623	0.898477
809.521590	0.899067
809.841513	0.900892
810.161390	0.898537
810.481223	0.900519
810.801011	0.903567
811.120755	0.905532
811.440453	0.905397
811.760107	0.903649
812.079716	0.904268
812.399281	0.907188
812.718801	0.908841
813.038276	0.910685
813.357707	0.909277
813.677093	0.906819
813.996434	0.909489
814.315731	0.911071
814.634983	0.911682
814.954191	0.911071
815.273354	0.907485
815.592473	0.905209
815.911547	0.904051
816.230577	0.901854
816.549562	0.898753
816.868502	0.900793
817.187399	0.897320
817.506250	0.890995
817.825058	0.893369
818.143821	0.889598
818.462539	0.884535
818.781213	0.877189
819.099843	0.867163
819.418429	0.851000
819.736970	0.834022
820.055466	0.815089
820.373919	0.789636
820.692327	0.757380
821.010691	0.723643
821.329011	0.647601
821.647286	0.535023
821.965517	0.422780
822.283704	0.380603
822.601847	0.382519
822.919945	0.417738
823.237999	0.450534
823.556010	0.495882
823.873976	0.551521
824.191897	0.600456
824.509775	0.642622
824.827609	0.687842
825.145398	0.709597
825.463144	0.711910
825.780845	0.693530
826.098502	0.675691
826.416116	0.631600
826.733685	0.589041
827.051210	0.580936
827.368692	0.594512
827.686129	0.631536
828.003522	0.683784
828.320872	0.730174
828.638177	0.773361
828.955439	0.805594
829.272656	0.827213
829.589830	0.843557
829.906960	0.859183
830.224046	0.870288
830.541088	0.881262
830.858086	0.885533
831.175041	0.891562
831.491952	0.890198
831.808819	0.887409
832.125642	0.880517
832.442421	0.866603
832.759157	0.844949
833.075849	0.799738
833.392497	0.737927
833.709101	0.696646
834.025662	0.707135
834.342179	0.737498
834.658653	0.775115
834.975083	0.812012
835.291469	0.838128
835.607811	0.859492
835.924110	0.874437
836.240366	0.891179
836.556578	0.905240
836.872746	0.912635
837.188871	0.918772
837.504952	0.923544
837.820990	0.927526
838.136984	0.929787
838.452935	0.933133
838.768842	0.934634
839.084706	0.928148
839.400526	0.902396
839.716303	0.864238
840.032037	0.841489
840.347727	0.845320
840.663373	0.863472
840.978977	0.884445
841.294537	0.906114
841.610054	0.920925
841.925527	0.929022
842.240957	0.936213
842.556344	0.943099
842.871687	0.949531
843.186987	0.951787
843.502244	0.953172
843.817458	0.953902
844.132629	0.958405
844.447756	0.964035
844.762840	0.963557
845.077881	0.961066
845.392879	0.961053
845.707833	0.965550
846.022745	0.966343
846.337613	0.967463
846.652438	0.969042
846.967221	0.965679
847.281960	0.967101
847.596656	0.970438
847.911309	0.968605
848.225919	0.969685
848.540485	0.970183
848.855009	0.970808
849.169490	0.970189
849.483928	0.971549
849.798323	0.971733
850.112675	0.971469
850.426984	0.971090
850.741251	0.971337
851.055474	0.972846
851.369654	0.969883
851.683792	0.971372
851.997887	0.971979
852.311938	0.973460
852.625947	0.972299
852.939914	0.970199
853.253837	0.971624
853.567718	0.973083
853.881555	0.972270
854.195350	0.970118
854.509103	0.972471
854.822812	0.971950
855.136479	0.972533
855.450103	0.971434
855.763685	0.971101
856.077224	0.971004
856.390720	0.973090
856.704173	0.973347
857.017584	0.971195
857.330953	0.969326
857.644278	0.969840
857.957561	0.971175
858.270802	0.970390
858.584000	0.970936
858.897155	0.969080
859.210268	0.970189
859.523339	0.970645
859.836367	0.972420
860.149352	0.972478
860.462295	0.971201
860.775195	0.972371
861.088054	0.972032
861.400869	0.971746
861.713642	0.972728
862.026373	0.972621
862.339062	0.973009
862.651708	0.970138
862.964312	0.970202
863.276873	0.971950
863.589392	0.970801
863.901869	0.969813
864.214303	0.967122
864.526696	0.966901
864.839045	0.965972
865.151353	0.963204
865.463619	0.964648
865.775842	0.964681
866.088023	0.965077
866.400162	0.964665
866.712258	0.965161
867.024313	0.965598
867.336325	0.966191
867.648296	0.966436
867.960224	0.964164
868.272110	0.965167
868.583954	0.966565
868.895755	0.966127
869.207515	0.964110
869.519233	0.962356
869.830909	0.963946
870.142542	0.964357
870.454134	0.963597
870.765684	0.963494
871.077191	0.960819
871.388657	0.961904
871.700081	0.960329
872.011463	0.961136
872.322803	0.960887
872.634101	0.959993
872.945357	0.958386
873.256571	0.956811
873.567744	0.955560
873.878874	0.955686
874.189963	0.956123
874.501010	0.954265
874.812015	0.953076
875.122979	0.954367
875.433900	0.955727
875.744780	0.957356
876.055618	0.954135
876.366415	0.952705
876.677169	0.953952
876.987882	0.955294
877.298554	0.953896
877.609183	0.951609
877.919771	0.949365
878.230317	0.945773
878.540822	0.944659
878.851285	0.939916
879.161707	0.931213
879.472087	0.919716
879.782425	0.905110
880.092722	0.871735
880.402977	0.821744
880.713191	0.763412
881.023363	0.705691
881.333494	0.673773
881.643583	0.646256
881.953631	0.645692
882.263637	0.674421
882.573602	0.712978
882.883526	0.737485
883.193408	0.760588
883.503248	0.781697
883.813048	0.808085
884.122806	0.835672
884.432522	0.859191
884.742197	0.877256
885.051831	0.887557
885.361424	0.898137
885.670975	0.908804
885.980485	0.918718
886.289954	0.925510
886.599382	0.928436
886.908768	0.933508
887.218113	0.938556
887.527417	0.942668
887.836680	0.945776
888.145901	0.947971
888.455082	0.950320
888.764221	0.953396
889.073319	0.956366
889.382376	0.956216
889.691392	0.956485
890.000366	0.955229
890.309300	0.956892
890.618193	0.956488
890.927044	0.955661
891.235855	0.955470
891.544625	0.954599
891.853353	0.956157
892.162041	0.953201
892.470687	0.946047
892.779293	0.942206
893.087858	0.938811
893.396381	0.931008
893.704864	0.917930
894.013306	0.895753
894.321707	0.869867
894.630068	0.857194
894.938387	0.852877
895.246665	0.853750
895.554903	0.864837
895.863100	0.877917
896.171256	0.893332
896.479371	0.913533
896.787446	0.925299
897.095480	0.930117
897.403473	0.933281
897.711425	0.936987
898.019336	0.945071
898.327207	0.947541
898.635038	0.949766
898.942827	0.949585
899.250576	0.952825
899.558284	0.956765
899.865952	0.958193
900.173579	0.958653
900.481165	0.959636
900.788711	0.963204
901.096216	0.963818
901.403681	0.964093
901.711105	0.966408
902.018489	0.966181
902.325832	0.965332
902.633135	0.964572
902.940397	0.959746
903.247619	0.948476
903.554800	0.923837
903.861941	0.885481
904.169041	0.853416
904.476101	0.836748
904.783121	0.837382
905.090100	0.853682
905.397039	0.872901
905.703938	0.894071
906.010796	0.912940
906.317614	0.929073
906.624391	0.939617
906.931129	0.949277
907.237826	0.956411
907.544483	0.962087
907.851099	0.966016
908.157675	0.971184
908.464211	0.972688
908.770707	0.975660
909.077163	0.977702
909.383578	0.977870
909.689954	0.977732
909.996289	0.978749
910.302584	0.979640
910.608839	0.982321
910.915054	0.980846
911.221229	0.980069
911.527363	0.980328
911.833458	0.980362
912.139513	0.979110
912.445527	0.978337
912.751502	0.977538
913.057436	0.976017
913.363331	0.973037
913.669186	0.969508
913.975000	0.963933
914.280775	0.959425
914.586510	0.954245
914.892205	0.942162
915.197859	0.920649
915.503475	0.894068
915.809050	0.875697
916.114585	0.871569
916.420081	0.869746
916.725536	0.867014
917.030952	0.874421
917.336328	0.886730
917.641665	0.900158
917.946961	0.915382
918.252218	0.926132
918.557435	0.934296
918.862612	0.942696
919.167750	0.947684
919.472848	0.951481
919.777906	0.957461
920.082925	0.962040
920.387904	0.965296
920.692843	0.966253
920.997743	0.966587
921.302603	0.970412
921.607423	0.971701
921.912204	0.974586
922.216946	0.975564
922.521647	0.976545
922.826310	0.977447
923.130932	0.979688
923.435516	0.980905
923.740059	0.982180
924.044564	0.980472
924.349028	0.983696
924.653454	0.984600
924.957840	0.987004
925.262186	0.987176
925.566493	0.986155
925.870761	0.987830
926.174989	0.987894
926.479178	0.990769
926.783328	0.990947
927.087438	0.989817
927.391509	0.990082
927.695541	0.991927
927.999533	0.991585
928.303486	0.991634
928.607400	0.993649
928.911275	0.991002
929.215110	0.991949
929.518906	0.992015
929.822663	0.991345
930.126381	0.992495
930.430060	0.991640
930.733699	0.991657
931.037299	0.990836
931.340861	0.992968
931.644383	0.991905
931.947866	0.992033
932.251309	0.992228
932.554714	0.992529
932.858080	0.992337
933.161407	0.992335
933.464694	0.992577
933.767943	0.992146
934.071153	0.993170
934.374323	0.993621
934.677455	0.993168
934.980548	0.993043
935.283602	0.993328
935.586617	0.992321
935.889593	0.992155
936.192530	0.993514
936.495428	0.992583
936.798287	0.991897
937.101108	0.993424
937.403890	0.990206
937.706632	0.989860
938.009336	0.989155
938.312002	0.988164
938.614628	0.987232
938.917216	0.985750
939.219765	0.984178
939.522275	0.984835
939.824747	0.984599
940.127179	0.986310
940.429573	0.987073
940.731929	0.986730
941.034246	0.987717
941.336524	0.986734
941.638763	0.988928
941.940964	0.988705
942.243126	0.988778
942.545250	0.989813
942.847335	0.991071
943.149381	0.990053
943.451389	0.990667
943.753359	0.990258
944.055290	0.993088
944.357182	0.992007
944.659036	0.989701
944.960851	0.990241
945.262628	0.992242
945.564367	0.993425
945.866067	0.991208
946.167729	0.992308
946.469352	0.991764
946.770937	0.990598
947.072484	0.993030
947.373992	0.992518
947.675462	0.991779
947.976893	0.992053
948.278286	0.991938
948.579641	0.993003
948.880958	0.992653
949.182236	0.992464
949.483476	0.993438
949.784678	0.992717
950.085841	0.992292
950.386967	0.993227
950.688054	0.993130
950.989103	0.992639
951.290114	0.991122
951.591087	0.990626
951.892021	0.991702
952.192917	0.990470
952.493776	0.990038
952.794596	0.989844
953.095378	0.989913
953.396122	0.989503
953.696828	0.988717
953.997496	0.991306
954.298126	0.992480
954.598718	0.992576
954.899272	0.992695
955.199788	0.992213
955.500266	0.993205
955.800706	0.994006
956.101108	0.994120
956.401472	0.994927
956.701798	0.996142
957.002087	0.994852
957.302337	0.995195
957.602550	0.996540
957.902724	0.996420
958.202861	0.996627
958.502960	0.996008
958.803022	0.995342
959.103045	0.997956
959.403031	0.996899
959.702979	0.996021
960.002889	0.997195
960.302762	0.996149
960.602596	0.997472
960.902393	0.995336
961.202153	0.998498
961.501875	0.998718
961.801559	0.997965
962.101205	0.997266
962.400814	0.997293
962.700385	0.997131
962.999918	0.997414
963.299414	0.997505
963.598873	0.996482
963.898293	0.996187
964.197677	0.996743
964.497022	0.997910
964.796331	0.998537
965.095601	0.998809
965.394835	0.998416
965.694030	0.998457
965.993189	0.998213
966.292309	0.997034
966.591393	0.999565
966.890439	0.997427
967.189447	0.996709
967.488419	0.998577
967.787353	0.997080
968.086249	0.999080
968.385108	0.998116
968.683930	0.998554
968.982714	0.998525
969.281462	0.998785
969.580172	0.997617
969.878844	0.997954
970.177480	0.997730
970.476078	0.999134
970.774639	0.997234
971.073162	0.999099
971.371649	0.997296
971.670098	0.996998
971.968510	0.998141
972.266885	0.997068
972.565223	0.998326
972.863524	0.996771
973.161788	0.997398
973.460014	0.999385
973.758204	0.996786
974.056356	0.996395
974.354471	0.996882
974.652550	0.997207
974.950591	0.997346
975.248595	0.997503
975.546563	0.996728
975.844493	0.999279
976.142386	0.998028
976.440243	0.998173
976.738062	0.998046
977.035845	0.999288
977.333590	0.998063
977.631299	0.998913
977.928971	0.997463
978.226606	0.998057
978.524204	0.997526
978.821765	0.999082
979.119290	0.996943
979.416777	0.998603
979.714228	0.997834
980.011642	0.998054
980.309020	0.998888
980.606360	0.998059
980.903664	0.998704
981.200931	0.997891
981.498162	0.996629
981.795356	0.997222
982.092513	0.995398
982.389633	0.997051
982.686717	0.993008
982.983764	0.992636
983.280775	0.991751
983.577749	0.992635
983.874686	0.992603
984.171587	0.993424
984.468451	0.995254
984.765279	0.996984
985.062070	0.995573
985.358824	0.995805
985.655543	0.994619
985.952224	0.997919
986.248869	0.997497
986.545478	0.998042
986.842050	0.998403
987.138586	0.997207
987.435086	0.998967
987.731549	1.000141
988.027975	0.998808
988.324366	0.998092
988.620719	0.998022
988.917037	0.995927
989.213318	0.998634
989.509563	0.999575
989.805772	0.998956
990.101944	0.999514
990.398080	0.997764
990.694180	0.998873
990.990244	0.998422
991.286271	0.998940
991.582262	0.998743
991.878217	0.999280
992.174136	0.999556
992.470019	0.999706
992.765865	0.999417
993.061676	0.999085
993.357450	0.998302
993.653188	0.997778
993.948890	0.998420
994.244556	0.998332
994.540186	0.997889
994.835780	0.996580
995.131337	0.998138
995.426859	0.996931
995.722345	0.998466
996.017795	0.996732
996.313208	0.997434
996.608586	0.996821
996.903928	0.998073
997.199234	0.996581
997.494504	0.997232
997.789738	0.996659
998.084936	0.997028
998.380099	0.999437
998.675225	0.998225
998.970316	0.998740
999.265371	0.999477
999.560390	0.997828
999.855373	0.999778
1000.150320	0.999327
1000.445232	0.999390
1000.740108	0.999415
1001.034948	0.999962
1001.329752	1.000112
1001.624521	0.999020
1001.919254	0.999295
1002.213951	0.997744
1002.508613	0.999242
1002.803239	0.999461
1003.097829	0.998595
1003.392384	0.999483
1003.686903	0.999684
1003.981386	0.998719
1004.275834	1.000119
1004.570246	0.998934
1004.864623	1.000168
1005.158964	1.000607
1005.453270	0.999772
1005.747540	0.998248
1006.041775	0.998275
1006.335974	1.000481
1006.630138	1.000681
1006.924266	1.000385
1007.218359	1.001244
1007.512416	1.000806
1007.806438	1.000561
1008.100425	1.000368
1008.394376	0.999859
1008.688292	0.999577
1008.982172	1.001438
1009.276017	1.000745
1009.569827	1.000036
1009.863602	0.999463
1010.157341	0.999776
1010.451045	1.000031
1010.744714	0.999735
1011.038347	0.999118
1011.331945	0.999959
1011.625508	0.997149
1011.919036	0.999556
1012.212528	0.999768
1012.505986	0.997845
1012.799408	0.997782
1013.092795	1.000621
1013.386147	0.998376
1013.679464	1.000050
1013.972745	0.999595
1014.265992	0.998088
1014.559204	0.998773
1014.852380	0.999016
1015.145521	0.998912
1015.438628	0.999644
1015.731699	1.000046
1016.024736	0.999688
1016.317737	1.000539
1016.610703	0.999940
1016.903635	0.999851
1017.196531	0.998582
1017.489393	1.000637
1017.782219	0.998908
1018.075011	1.000162
1018.367768	1.000491
1018.660490	1.000148
1018.953177	1.000148
1019.245829	1.000148
