Dividing Wavelength (nm)	Counts (n)	Blue Motor Position (mm): 0.000000	Red Motor Position (mm): 23.800000	
326.493990	1.002116
326.888308	1.002116
327.282561	1.002116
327.676750	0.999187
328.070874	1.000233
328.464933	1.000195
328.858929	0.999867
329.252859	0.999176
329.646726	0.999255
330.040528	1.000952
330.434265	0.999776
330.827938	1.000505
331.221547	1.001258
331.615091	1.000453
332.008571	0.999612
332.401986	1.000017
332.795338	1.000061
333.188625	0.998322
333.581847	1.000242
333.975006	0.999069
334.368100	0.998541
334.761129	0.999545
335.154095	1.000813
335.546996	0.997942
335.939833	0.993814
336.332606	0.994914
336.725315	0.995430
337.117960	0.995339
337.510540	0.995073
337.903056	0.995734
338.295508	0.992882
338.687896	0.993421
339.080220	0.994520
339.472480	0.994394
339.864676	0.993732
340.256807	0.995275
340.648875	0.995456
341.040879	0.995407
341.432818	0.994309
341.824694	0.994245
342.216506	0.995241
342.608253	0.993887
342.999937	0.994299
343.391557	0.994547
343.783113	0.994718
344.174605	0.995739
344.566033	0.995102
344.957397	0.994621
345.348697	0.993965
345.739934	0.995381
346.131106	0.993966
346.522215	0.993679
346.913260	0.993847
347.304241	0.994690
347.695159	0.994854
348.086012	0.993731
348.476802	0.994198
348.867528	0.995521
349.258191	0.992987
349.648789	0.995809
350.039324	0.994332
350.429796	0.995502
350.820203	0.994009
351.210548	0.994926
351.600828	0.994390
351.991045	0.994523
352.381198	0.994589
352.771288	0.994411
353.161314	0.995115
353.551276	0.995838
353.941175	0.994689
354.331010	0.994041
354.720782	0.995159
355.110490	0.995278
355.500135	0.995373
355.889717	0.994569
356.279235	0.993509
356.668689	0.994242
357.058080	0.995105
357.447408	0.996157
357.836672	0.994896
358.225873	0.995272
358.615010	0.994768
359.004084	0.995098
359.393095	0.993567
359.782043	0.994554
360.170927	0.996026
360.559748	0.994894
360.948505	0.993025
361.337199	0.994641
361.725830	0.994281
362.114398	0.993701
362.502903	0.994795
362.891344	0.995574
363.279722	0.994510
363.668037	0.995565
364.056289	0.995342
364.444478	0.995003
364.832603	0.994540
365.220665	0.993998
365.608665	0.994861
365.996601	0.994323
366.384474	0.995339
366.772284	0.994665
367.160031	0.993332
367.547715	0.994660
367.935336	0.993881
368.322893	0.994816
368.710388	0.993635
369.097820	0.995743
369.485189	0.995286
369.872495	0.994390
370.259738	0.993060
370.646918	0.994819
371.034035	0.995183
371.421090	0.995360
371.808081	0.994347
372.195010	0.995390
372.581875	0.995399
372.968678	0.994444
373.355418	0.994681
373.742096	0.993681
374.128710	0.995872
374.515262	0.994594
374.901751	0.995110
375.288177	0.995090
375.674540	0.995191
376.060841	0.995223
376.447079	0.994696
376.833254	0.995235
377.219367	0.995113
377.605417	0.995372
377.991404	0.995441
378.377329	0.994460
378.763191	0.994433
379.148991	0.995991
379.534727	0.995402
379.920402	0.995881
380.306013	0.995566
380.691563	0.996028
381.077049	0.994263
381.462474	0.994808
381.847835	0.995372
382.233134	0.995584
382.618371	0.995131
383.003545	0.995906
383.388657	0.995562
383.773706	0.996032
384.158693	0.995677
384.543618	0.995671
384.928480	0.996560
385.313280	0.997079
385.698017	0.996258
386.082692	0.995677
386.467305	0.996479
386.851856	0.995727
387.236344	0.994838
387.620770	0.994645
388.005133	0.996031
388.389435	0.996984
388.773674	0.995831
389.157851	0.995318
389.541965	0.996229
389.926018	0.995857
390.310008	0.996729
390.693936	0.995671
391.077802	0.996618
391.461606	0.996131
391.845348	0.996327
392.229027	0.996942
392.612645	0.997048
392.996200	0.997157
393.379694	0.995303
393.763125	0.997104
394.146494	0.996489
394.529801	0.995458
394.913047	0.996161
395.296230	0.996344
395.679351	0.995738
396.062410	0.996014
396.445408	0.995825
396.828343	0.996703
397.211217	0.995647
397.594028	0.996838
397.976778	0.995610
398.359466	0.995788
398.742092	0.994852
399.124656	0.995147
399.507158	0.996164
399.889598	0.996273
400.271977	0.996459
400.654294	0.996481
401.036549	0.996368
401.418742	0.996234
401.800874	0.995609
402.182944	0.996365
402.564952	0.996204
402.946898	0.996730
403.328783	0.997175
403.710606	0.996308
404.092367	0.995426
404.474067	0.996059
404.855705	0.997122
405.237282	0.996137
405.618797	0.996264
406.000250	0.995522
406.381642	0.996253
406.762972	0.995964
407.144240	0.996477
407.525447	0.996864
407.906593	0.996291
408.287677	0.995831
408.668700	0.997058
409.049661	0.995703
409.430560	0.996821
409.811399	0.995587
410.192176	0.995701
410.572891	0.996696
410.953545	0.995539
411.334138	0.995342
411.714669	0.996607
412.095139	0.995635
412.475547	0.997569
412.855894	0.996430
413.236180	0.996781
413.616405	0.996166
413.996568	0.997302
414.376670	0.995702
414.756711	0.996026
415.136691	0.995676
415.516609	0.996156
415.896466	0.996097
416.276262	0.995413
416.655997	0.996772
417.035670	0.996284
417.415283	0.995855
417.794834	0.995852
418.174324	0.995804
418.553753	0.996076
418.933121	0.995083
419.312428	0.996356
419.691674	0.996034
420.070859	0.995742
420.449983	0.995972
420.829045	0.995399
421.208047	0.995611
421.586988	0.997434
421.965867	0.996030
422.344686	0.995912
422.723444	0.995664
423.102141	0.996288
423.480777	0.995889
423.859352	0.994877
424.237866	0.995325
424.616319	0.995484
424.994712	0.994994
425.373044	0.994391
425.751314	0.994769
426.129524	0.994127
426.507673	0.993909
426.885762	0.993985
427.263789	0.992978
427.641756	0.993184
428.019662	0.992575
428.397508	0.990380
428.775292	0.989784
429.153016	0.988818
429.530679	0.988932
429.908282	0.987795
430.285824	0.985781
430.663305	0.983717
431.040726	0.983560
431.418086	0.982626
431.795385	0.980361
432.172624	0.978107
432.549802	0.975895
432.926920	0.974377
433.303977	0.972017
433.680974	0.970142
434.057910	0.966993
434.434786	0.964688
434.811601	0.961348
435.188355	0.957340
435.565050	0.955696
435.941683	0.952355
436.318257	0.948687
436.694770	0.944429
437.071222	0.940573
437.447614	0.937408
437.823946	0.934791
438.200218	0.929219
438.576429	0.926424
438.952580	0.920941
439.328670	0.915002
439.704700	0.911579
440.080670	0.907680
440.456580	0.897950
440.832429	0.893326
441.208218	0.890787
441.583947	0.883026
441.959616	0.878003
442.335224	0.872700
442.710773	0.864955
443.086261	0.857347
443.461689	0.854382
443.837057	0.844321
444.212365	0.835721
444.587612	0.830031
444.962800	0.820185
445.337927	0.814243
445.712995	0.813985
446.088002	0.794711
446.462949	0.790330
446.837837	0.783365
447.212664	0.773808
447.587431	0.760672
447.962139	0.739625
448.336786	0.714541
448.711374	0.712489
449.085901	0.722350
449.460369	0.715462
449.834776	0.708172
450.209124	0.689140
450.583412	0.676567
450.957640	0.666818
451.331808	0.662487
451.705917	0.666235
452.079965	0.659748
452.453954	0.644401
452.827883	0.640873
453.201752	0.629204
453.575562	0.628478
453.949311	0.611921
454.323001	0.609276
454.696632	0.598593
455.070202	0.585910
455.443713	0.573015
455.817164	0.562408
456.190556	0.551479
456.563888	0.541370
456.937160	0.532700
457.310373	0.537348
457.683526	0.528580
458.056619	0.525876
458.429653	0.519440
458.802628	0.515600
459.175542	0.505316
459.548398	0.485591
459.921194	0.474247
460.293930	0.469634
460.666607	0.445747
461.039224	0.431395
461.411782	0.422115
461.784280	0.414750
462.156719	0.412389
462.529099	0.409497
462.901419	0.417095
463.273680	0.415490
463.645882	0.410559
464.018024	0.410623
464.390106	0.400505
464.762130	0.383069
465.134094	0.364985
465.505999	0.336367
465.877845	0.307037
466.249631	0.290630
466.621358	0.291279
466.993026	0.299029
467.364634	0.300372
467.736184	0.305101
468.107674	0.310274
468.479105	0.306037
468.850477	0.310709
469.221790	0.314008
469.593043	0.321032
469.964238	0.323548
470.335373	0.320929
470.706449	0.317196
471.077467	0.316336
471.448425	0.277996
471.819324	0.253260
472.190164	0.250981
472.560945	0.277525
472.931667	0.297696
473.302330	0.301021
473.672934	0.311866
474.043479	0.298412
474.413965	0.299626
474.784393	0.302394
475.154761	0.296889
475.525070	0.293157
475.895321	0.298270
476.265513	0.291903
476.635645	0.286755
477.005719	0.286623
477.375734	0.282597
477.745691	0.275640
478.115588	0.271905
478.485427	0.264801
478.855207	0.251640
479.224928	0.233798
479.594591	0.222032
479.964194	0.225146
480.333739	0.226354
480.703226	0.227329
481.072653	0.225931
481.442022	0.221508
481.811333	0.217455
482.180584	0.220635
482.549777	0.226063
482.918912	0.229394
483.287988	0.228738
483.657005	0.228335
484.025964	0.234574
484.394864	0.231749
484.763706	0.232450
485.132489	0.237137
485.501213	0.237813
485.869879	0.236184
486.238487	0.239251
486.607036	0.237072
486.975527	0.241593
487.343959	0.237525
487.712333	0.236692
488.080648	0.238032
488.448905	0.236798
488.817104	0.237914
489.185244	0.232766
489.553326	0.229380
489.921350	0.219432
490.289315	0.201915
490.657222	0.196795
491.025070	0.198163
491.392861	0.200123
491.760593	0.205697
492.128267	0.211357
492.495883	0.216914
492.863440	0.222844
493.230939	0.229304
493.598380	0.230686
493.965763	0.232766
494.333088	0.235008
494.700354	0.236678
495.067563	0.235419
495.434713	0.238610
495.801805	0.236535
496.168839	0.237960
496.535815	0.239144
496.902733	0.239314
497.269593	0.240818
497.636395	0.238439
498.003139	0.238888
498.369825	0.241593
498.736453	0.238168
499.103023	0.239475
499.469535	0.239060
499.835989	0.239094
500.202385	0.240101
500.568723	0.243041
500.935003	0.238560
501.301226	0.242682
501.667390	0.237035
502.033497	0.234947
502.399546	0.238266
502.765537	0.239809
503.131470	0.238049
503.497345	0.234712
503.863163	0.243102
504.228923	0.236136
504.594625	0.235087
504.960269	0.240358
505.325856	0.235391
505.691385	0.239690
506.056856	0.236545
506.422270	0.235891
506.787625	0.238573
507.152924	0.235854
507.518164	0.236106
507.883347	0.238087
508.248472	0.239381
508.613540	0.234676
508.978550	0.237188
509.343503	0.237622
509.708398	0.235269
510.073236	0.232932
510.438016	0.232874
510.802738	0.233700
511.167403	0.232864
511.532010	0.234718
511.896561	0.230224
512.261053	0.229054
512.625488	0.230984
512.989866	0.231273
513.354186	0.231761
513.718449	0.233323
514.082655	0.230018
514.446803	0.232206
514.810894	0.229550
515.174927	0.232470
515.538904	0.231902
515.902822	0.228710
516.266684	0.231198
516.630488	0.232636
516.994235	0.230980
517.357925	0.229796
517.721558	0.228300
518.085133	0.227751
518.448651	0.227948
518.812112	0.230073
519.175516	0.229486
519.538863	0.227368
519.902152	0.228520
520.265385	0.225734
520.628560	0.227476
520.991678	0.227778
521.354739	0.226879
521.717743	0.228198
522.080690	0.228506
522.443580	0.225633
522.806413	0.226626
523.169189	0.226233
523.531908	0.224791
523.894569	0.228605
524.257174	0.228465
524.619722	0.226190
524.982213	0.227016
525.344647	0.226207
525.707025	0.226894
526.069345	0.225229
526.431608	0.226851
526.793815	0.224712
527.155964	0.229026
527.518057	0.228024
527.880093	0.228885
528.242072	0.227489
528.603995	0.229409
528.965860	0.231103
529.327669	0.229976
529.689421	0.230928
530.051117	0.231808
530.412755	0.229266
530.774337	0.232020
531.135862	0.232098
531.497331	0.231503
531.858743	0.234399
532.220098	0.231035
532.581396	0.233352
532.942638	0.234058
533.303824	0.234822
533.664953	0.234780
534.026025	0.236264
534.387040	0.234680
534.747999	0.234505
535.108902	0.233163
535.469748	0.238175
535.830537	0.236256
536.191270	0.236496
536.551947	0.235987
536.912567	0.236223
537.273131	0.237976
537.633638	0.238084
537.994089	0.238647
538.354483	0.239397
538.714821	0.236395
539.075103	0.236117
539.435328	0.237007
539.795497	0.240745
540.155609	0.237208
540.515665	0.235476
540.875665	0.241291
541.235609	0.239726
541.595496	0.239593
541.955328	0.236332
542.315102	0.238894
542.674821	0.240089
543.034483	0.239967
543.394090	0.239784
543.753640	0.241506
544.113134	0.236892
544.472571	0.239887
544.831953	0.236834
545.191278	0.240958
545.550548	0.240281
545.909761	0.237234
546.268918	0.238090
546.628019	0.236168
546.987064	0.239075
547.346053	0.240723
547.704986	0.238577
548.063863	0.238747
548.422684	0.239005
548.781449	0.240840
549.140158	0.238678
549.498811	0.241557
549.857408	0.244603
550.215949	0.239497
550.574434	0.242589
550.932864	0.240653
551.291237	0.238987
551.649555	0.240467
552.007817	0.240009
552.366022	0.241017
552.724173	0.241324
553.082267	0.241652
553.440305	0.238567
553.798288	0.242759
554.156215	0.239160
554.514086	0.240094
554.871902	0.243399
555.229661	0.242465
555.587365	0.242829
555.945014	0.245521
556.302606	0.242542
556.660143	0.244868
557.017625	0.241253
557.375050	0.243651
557.732421	0.240898
558.089735	0.242854
558.446994	0.242774
558.804197	0.242028
559.161345	0.242325
559.518437	0.245720
559.875474	0.243218
560.232455	0.242621
560.589381	0.243602
560.946251	0.243743
561.303065	0.241592
561.659825	0.242857
562.016528	0.244295
562.373177	0.247188
562.729770	0.244366
563.086307	0.246568
563.442789	0.244411
563.799216	0.247306
564.155587	0.246056
564.511904	0.247106
564.868164	0.247081
565.224370	0.246994
565.580520	0.249239
565.936615	0.248797
566.292654	0.251708
566.648638	0.248763
567.004567	0.249658
567.360441	0.250142
567.716260	0.252153
568.072023	0.249844
568.427732	0.250721
568.783385	0.253088
569.138982	0.251284
569.494525	0.251017
569.850013	0.253667
570.205445	0.252160
570.560823	0.254702
570.916145	0.256870
571.271412	0.254913
571.626625	0.256371
571.981782	0.257123
572.336884	0.257885
572.691931	0.257479
573.046923	0.258541
573.401860	0.259791
573.756743	0.261719
574.111570	0.260586
574.466342	0.260866
574.821059	0.260100
575.175722	0.262944
575.530330	0.262707
575.884882	0.262875
576.239380	0.265280
576.593823	0.265249
576.948211	0.264894
577.302544	0.268321
577.656823	0.267987
578.011047	0.268010
578.365216	0.268477
578.719330	0.270622
579.073389	0.270659
579.427394	0.272005
579.781344	0.272270
580.135239	0.273949
580.489080	0.273829
580.842866	0.276537
581.196597	0.276717
581.550273	0.275303
581.903895	0.276076
582.257463	0.274067
582.610975	0.277709
582.964434	0.277193
583.317837	0.279593
583.671186	0.279756
584.024481	0.279884
584.377721	0.282069
584.730906	0.282929
585.084037	0.282479
585.437113	0.284140
585.790135	0.283431
586.143103	0.286261
586.496016	0.287639
586.848874	0.284845
587.201679	0.285832
587.554428	0.289124
587.907124	0.287661
588.259765	0.288282
588.612352	0.288732
588.964884	0.292900
589.317362	0.292505
589.669786	0.292183
590.022155	0.291029
590.374470	0.290191
590.726731	0.292012
591.078937	0.296976
591.431090	0.293140
591.783188	0.297471
592.135232	0.297992
592.487222	0.298025
592.839157	0.296068
593.191038	0.298500
593.542866	0.300173
593.894639	0.303991
594.246358	0.302000
594.598022	0.301571
594.949633	0.305200
595.301190	0.305418
595.652692	0.305003
596.004141	0.301204
596.355535	0.309275
596.706876	0.309806
597.058162	0.311783
597.409395	0.309093
597.760573	0.306526
598.111698	0.310198
598.462768	0.310559
598.813785	0.312273
599.164748	0.313297
599.515657	0.313482
599.866511	0.317106
600.217312	0.311917
600.568060	0.317603
600.918753	0.313767
601.269392	0.314991
601.619978	0.318259
601.970510	0.315700
602.320988	0.315861
602.671412	0.313838
603.021783	0.316156
603.372100	0.317315
603.722363	0.317008
604.072572	0.317654
604.422728	0.317554
604.772830	0.319632
605.122878	0.319424
605.472872	0.319579
605.822813	0.318182
606.172701	0.320919
606.522534	0.318272
606.872314	0.318135
607.222041	0.318996
607.571714	0.317187
607.921333	0.319069
608.270899	0.318350
608.620411	0.315317
608.969870	0.318694
609.319276	0.318805
609.668627	0.318995
610.017926	0.317590
610.367171	0.316353
610.716362	0.316897
611.065500	0.317369
611.414585	0.316109
611.763616	0.316651
612.112594	0.317001
612.461518	0.316423
612.810389	0.313835
613.159207	0.316351
613.507971	0.318058
613.856682	0.313720
614.205340	0.315906
614.553945	0.312453
614.902496	0.316013
615.250994	0.314064
615.599439	0.315012
615.947830	0.314575
616.296169	0.315168
616.644454	0.314755
616.992686	0.314865
617.340864	0.312692
617.688990	0.316185
618.037063	0.312799
618.385082	0.314768
618.733048	0.311819
619.080961	0.313962
619.428821	0.313306
619.776628	0.312756
620.124382	0.314626
620.472083	0.315174
620.819731	0.314367
621.167326	0.318531
621.514868	0.318096
621.862357	0.322420
622.209793	0.322335
622.557176	0.324560
622.904506	0.325309
623.251783	0.327891
623.599007	0.329923
623.946179	0.329393
624.293297	0.331384
624.640363	0.334959
624.987376	0.335783
625.334336	0.338413
625.681243	0.340641
626.028097	0.341188
626.374899	0.342346
626.721647	0.342363
627.068343	0.345775
627.414987	0.346440
627.761577	0.349120
628.108115	0.346934
628.454600	0.352571
628.801032	0.349546
629.147412	0.351806
629.493739	0.352122
629.840014	0.354972
630.186236	0.352963
630.532405	0.358393
630.878521	0.355696
631.224585	0.358036
631.570597	0.361469
631.916556	0.359919
632.262462	0.360334
632.608316	0.362462
632.954117	0.363154
633.299866	0.363745
633.645562	0.364315
633.991206	0.368319
634.336797	0.371302
634.682336	0.373742
635.027823	0.375365
635.373257	0.375701
635.718639	0.379328
636.063968	0.378106
636.409245	0.384522
636.754470	0.384385
637.099642	0.386954
637.444762	0.390542
637.789829	0.389819
638.134845	0.393047
638.479808	0.394401
638.824719	0.393685
639.169577	0.397953
639.514383	0.396660
639.859137	0.400926
640.203839	0.401237
640.548489	0.401432
640.893086	0.403121
641.237632	0.404484
641.582125	0.402718
641.926566	0.404535
642.270955	0.404559
642.615292	0.405413
642.959576	0.403880
643.303809	0.404529
643.647990	0.404030
643.992118	0.404246
644.336195	0.408024
644.680219	0.406207
645.024192	0.406648
645.368112	0.400330
645.711981	0.399974
646.055797	0.395366
646.399562	0.397201
646.743274	0.389748
647.086935	0.386778
647.430544	0.387138
647.774101	0.385947
648.117606	0.386051
648.461059	0.385943
648.804460	0.388482
649.147810	0.393523
649.491108	0.395818
649.834354	0.396796
650.177548	0.401874
650.520690	0.407531
650.863781	0.408832
651.206820	0.407890
651.549807	0.412697
651.892742	0.416143
652.235626	0.416937
652.578458	0.417104
652.921238	0.423493
653.263967	0.421179
653.606644	0.424890
653.949269	0.424544
654.291843	0.428683
654.634365	0.425405
654.976836	0.428941
655.319255	0.428249
655.661622	0.430369
656.003938	0.430639
656.346203	0.432961
656.688416	0.431198
657.030577	0.434397
657.372687	0.436436
657.714746	0.437076
658.056753	0.434082
658.398708	0.437699
658.740612	0.439152
659.082465	0.435482
659.424266	0.436415
659.766016	0.435447
660.107715	0.438384
660.449362	0.436895
660.790958	0.437630
661.132503	0.437982
661.473996	0.436085
661.815438	0.436812
662.156829	0.436639
662.498168	0.437439
662.839456	0.438821
663.180693	0.436874
663.521879	0.436797
663.863013	0.437540
664.204097	0.436027
664.545129	0.432850
664.886110	0.433441
665.227040	0.431058
665.567918	0.433352
665.908746	0.431451
666.249522	0.430669
666.590248	0.431827
666.930922	0.430215
667.271545	0.428962
667.612118	0.429338
667.952639	0.430905
668.293109	0.429196
668.633528	0.432747
668.973896	0.432153
669.314213	0.432585
669.654480	0.434331
669.994695	0.434280
670.334859	0.435537
670.674973	0.435855
671.015035	0.435938
671.355047	0.435839
671.695008	0.436502
672.034918	0.438537
672.374777	0.437830
672.714585	0.438909
673.054342	0.439053
673.394049	0.439254
673.733705	0.437110
674.073310	0.437542
674.412864	0.441193
674.752368	0.441372
675.091820	0.441406
675.431223	0.445774
675.770574	0.445757
676.109875	0.448801
676.449125	0.448799
676.788324	0.450909
677.127473	0.456910
677.466571	0.456365
677.805619	0.457845
678.144616	0.459188
678.483562	0.461047
678.822458	0.463294
679.161303	0.464644
679.500098	0.464539
679.838842	0.466234
680.177535	0.466139
680.516179	0.464733
680.854771	0.463664
681.193314	0.457132
681.531805	0.448342
681.870247	0.436969
682.208638	0.429229
682.546978	0.428460
682.885268	0.429809
683.223508	0.436143
683.561697	0.439796
683.899836	0.442765
684.237925	0.446117
684.575963	0.448707
684.913951	0.451578
685.251889	0.447462
685.589776	0.449316
685.927614	0.451570
686.265401	0.446103
686.603137	0.447562
686.940824	0.441425
687.278460	0.439609
687.616046	0.439084
687.953582	0.433848
688.291068	0.435493
688.628504	0.431426
688.965889	0.433368
689.303224	0.437696
689.640510	0.440994
689.977745	0.447363
690.314930	0.455457
690.652065	0.459368
690.989150	0.467239
691.326185	0.473839
691.663170	0.478228
692.000105	0.485450
692.336990	0.492157
692.673825	0.494512
693.010610	0.501480
693.347345	0.507087
693.684030	0.508435
694.020665	0.513646
694.357251	0.521794
694.693786	0.521609
695.030272	0.526257
695.366707	0.528994
695.703093	0.533016
696.039429	0.530371
696.375716	0.531757
696.711952	0.535166
697.048139	0.537139
697.384276	0.539109
697.720363	0.537355
698.056400	0.536814
698.392388	0.541635
698.728326	0.545057
699.064214	0.547463
699.400053	0.547992
699.735842	0.551575
700.071581	0.555048
700.407270	0.557737
700.742910	0.560689
701.078501	0.566484
701.414042	0.566743
701.749533	0.570198
702.084974	0.578749
702.420366	0.571208
702.755709	0.578219
703.091002	0.586548
703.426246	0.579990
703.761440	0.585927
704.096584	0.591144
704.431679	0.588278
704.766725	0.589464
705.101721	0.591088
705.436668	0.587415
705.771565	0.594747
706.106413	0.590924
706.441212	0.586784
706.775961	0.584777
707.110661	0.587681
707.445311	0.584361
707.779913	0.581144
708.114465	0.580183
708.448967	0.576476
708.783421	0.568444
709.117825	0.563588
709.452180	0.563654
709.786485	0.557288
710.120742	0.546962
710.454949	0.549384
710.789107	0.541595
711.123216	0.531992
711.457275	0.534153
711.791286	0.525001
712.125247	0.523616
712.459159	0.534644
712.793023	0.527224
713.126837	0.531236
713.460602	0.531666
713.794318	0.540753
714.127985	0.539734
714.461602	0.550019
714.795171	0.553328
715.128691	0.561374
715.462162	0.568514
715.795584	0.574019
716.128957	0.577483
716.462281	0.583389
716.795556	0.587800
717.128782	0.592008
717.461960	0.601857
717.795088	0.599822
718.128167	0.605814
718.461198	0.614886
718.794180	0.615389
719.127113	0.617938
719.459997	0.621658
719.792833	0.628683
720.125619	0.629400
720.458357	0.634778
720.791046	0.635283
721.123686	0.638773
721.456278	0.645034
721.788821	0.642678
722.121315	0.646476
722.453761	0.651732
722.786158	0.648197
723.118506	0.644988
723.450805	0.653027
723.783056	0.648884
724.115259	0.646418
724.447412	0.645674
724.779518	0.647203
725.111574	0.645952
725.443582	0.642019
725.775542	0.642950
726.107453	0.635580
726.439315	0.635889
726.771129	0.633742
727.102895	0.628522
727.434612	0.620485
727.766281	0.618638
728.097901	0.617990
728.429473	0.617798
728.760996	0.615913
729.092471	0.616196
729.423897	0.619852
729.755276	0.618683
730.086606	0.618424
730.417887	0.614031
730.749120	0.603828
731.080305	0.595291
731.411442	0.591112
731.742530	0.596007
732.073570	0.595291
732.404562	0.587768
732.735506	0.589322
733.066401	0.594038
733.397249	0.603495
733.728048	0.614559
734.058798	0.626805
734.389501	0.637901
734.720156	0.647815
735.050762	0.655952
735.381320	0.655826
735.711831	0.665823
736.042293	0.670213
736.372707	0.666271
736.703073	0.670692
737.033391	0.673007
737.363661	0.669468
737.693883	0.664541
738.024056	0.664540
738.354182	0.664540
738.684260	0.652884
739.014290	0.649872
739.344272	0.650939
739.674207	0.643776
740.004093	0.643486
740.333931	0.644201
740.663722	0.643762
740.993464	0.644717
741.323159	0.648524
741.652806	0.652203
741.982405	0.658351
742.311956	0.662409
742.641460	0.664518
742.970915	0.668894
743.300323	0.676170
743.629683	0.682498
743.958996	0.684412
744.288260	0.688330
744.617477	0.695164
744.946647	0.696722
745.275768	0.702185
745.604842	0.701312
745.933869	0.710809
746.262847	0.711470
746.591778	0.705555
746.920662	0.712547
747.249498	0.717993
747.578286	0.708815
747.907027	0.704791
748.235720	0.706245
748.564365	0.701614
748.892963	0.700425
749.221514	0.703903
749.550017	0.708550
749.878473	0.708364
750.206881	0.714924
750.535242	0.715892
750.863555	0.715657
751.191821	0.716938
751.520039	0.720403
751.848210	0.725128
752.176334	0.717602
752.504411	0.717286
752.832440	0.724088
753.160421	0.727961
753.488356	0.727300
753.816243	0.724307
754.144082	0.733063
754.471875	0.737123
754.799620	0.731581
755.127318	0.733662
755.454969	0.733039
755.782572	0.731816
756.110129	0.738131
756.437638	0.740254
756.765100	0.736326
757.092515	0.734496
757.419882	0.732828
757.747203	0.738933
758.074477	0.737888
758.401703	0.734822
758.728882	0.729893
759.056014	0.729691
759.383099	0.727273
759.710138	0.729793
760.037129	0.725922
760.364073	0.719525
760.690970	0.722243
761.017820	0.727674
761.344623	0.723704
761.671379	0.715135
761.998088	0.702680
762.324751	0.680462
762.651366	0.638754
762.977935	0.572144
763.304456	0.519967
763.630931	0.510779
763.957359	0.549429
764.283740	0.594082
764.610074	0.621129
764.936362	0.651961
765.262602	0.678727
765.588796	0.699943
765.914943	0.718012
766.241044	0.735286
766.567097	0.742065
766.893104	0.752173
767.219064	0.757886
767.544978	0.764261
767.870845	0.778669
768.196665	0.781868
768.522438	0.779677
768.848165	0.781571
769.173846	0.791181
769.499479	0.794979
769.825066	0.797913
770.150607	0.802144
770.476101	0.797834
770.801548	0.799484
771.126949	0.810883
771.452303	0.814017
771.777611	0.814564
772.102872	0.812511
772.428087	0.818441
772.753256	0.820949
773.078378	0.823239
773.403453	0.832360
773.728482	0.836418
774.053465	0.830238
774.378401	0.833382
774.703291	0.841657
775.028135	0.841805
775.352932	0.843737
775.677683	0.846047
776.002388	0.846954
776.327046	0.845606
776.651658	0.850152
776.976224	0.852556
777.300743	0.853189
777.625216	0.854980
777.949643	0.857285
778.274024	0.857330
778.598359	0.858763
778.922647	0.857341
779.246889	0.858604
779.571086	0.861705
779.895236	0.863960
780.219339	0.861123
780.543397	0.857984
780.867409	0.856683
781.191374	0.859449
781.515294	0.860316
781.839167	0.858567
782.162995	0.863928
782.486776	0.859779
782.810511	0.860088
783.134201	0.864062
783.457844	0.862153
783.781441	0.864354
784.104993	0.870970
784.428498	0.869709
784.751958	0.867094
785.075372	0.868210
785.398739	0.873141
785.722061	0.868738
786.045337	0.864556
786.368568	0.869941
786.691752	0.872919
787.014891	0.856799
787.337983	0.848423
787.661030	0.841403
787.984031	0.824138
788.306987	0.811362
788.629897	0.814068
788.952760	0.817772
789.275579	0.822215
789.598351	0.836693
789.921078	0.850173
790.243759	0.851817
790.566395	0.856542
790.888984	0.863836
791.211529	0.869106
791.534027	0.871394
791.856480	0.874793
792.178888	0.879891
792.501249	0.881642
792.823566	0.883625
793.145836	0.884402
793.468062	0.885661
793.790241	0.885217
794.112375	0.882583
794.434464	0.878484
794.756507	0.878731
795.078505	0.877288
795.400457	0.872562
795.722364	0.860208
796.044226	0.854055
796.366042	0.853357
796.687812	0.855757
797.009538	0.851054
797.331218	0.854844
797.652852	0.859728
797.974442	0.865080
798.295986	0.864859
798.617484	0.868022
798.938938	0.871709
799.260346	0.875941
799.581709	0.877705
799.903026	0.880584
800.224299	0.880382
800.545526	0.885186
800.866708	0.889050
801.187845	0.892654
801.508936	0.892171
801.829983	0.889604
802.150984	0.893620
802.471940	0.897059
802.792851	0.897065
803.113717	0.899167
803.434538	0.896875
803.755314	0.897832
804.076045	0.900345
804.396731	0.900858
804.717372	0.899924
805.037967	0.902084
805.358518	0.899954
805.679024	0.896884
805.999485	0.896841
806.319901	0.897405
806.640272	0.898392
806.960598	0.897831
807.280879	0.893596
807.601115	0.892751
807.921306	0.896213
808.241453	0.896786
808.561554	0.894468
808.881611	0.893443
809.201623	0.895852
809.521590	0.896727
809.841513	0.897551
810.161390	0.897228
810.481223	0.897591
810.801011	0.901934
811.120755	0.903298
811.440453	0.902594
811.760107	0.900984
812.079716	0.901831
812.399281	0.904654
812.718801	0.906880
813.038276	0.906755
813.357707	0.906789
813.677093	0.904314
813.996434	0.907669
814.315731	0.907992
814.634983	0.910105
814.954191	0.908872
815.273354	0.905574
815.592473	0.902497
815.911547	0.902539
816.230577	0.898059
816.549562	0.896567
816.868502	0.897891
817.187399	0.894132
817.506250	0.887755
817.825058	0.890193
818.143821	0.887193
818.462539	0.881846
818.781213	0.873540
819.099843	0.861762
819.418429	0.847350
819.736970	0.830102
820.055466	0.810443
820.373919	0.785995
820.692327	0.752030
821.010691	0.718202
821.329011	0.640650
821.647286	0.526717
821.965517	0.412866
822.283704	0.370096
822.601847	0.371586
822.919945	0.407268
823.237999	0.440953
823.556010	0.486906
823.873976	0.542889
824.191897	0.593104
824.509775	0.635786
824.827609	0.680119
825.145398	0.703989
825.463144	0.706091
825.780845	0.689367
826.098502	0.669882
826.416116	0.624921
826.733685	0.580686
827.051210	0.572332
827.368692	0.587206
827.686129	0.624417
828.003522	0.677533
828.320872	0.723835
828.638177	0.768831
828.955439	0.801218
829.272656	0.822636
829.589830	0.838945
829.906960	0.855250
830.224046	0.867894
830.541088	0.877581
830.858086	0.881601
831.175041	0.888652
831.491952	0.888231
831.808819	0.884157
832.125642	0.877274
832.442421	0.862329
832.759157	0.840980
833.075849	0.794962
833.392497	0.731705
833.709101	0.690642
834.025662	0.700659
834.342179	0.731953
834.658653	0.771051
834.975083	0.806920
835.291469	0.832231
835.607811	0.855636
835.924110	0.870984
836.240366	0.888249
836.556578	0.902832
836.872746	0.908683
837.188871	0.914944
837.504952	0.921348
837.820990	0.923804
838.136984	0.927410
838.452935	0.929923
838.768842	0.931344
839.084706	0.925350
839.400526	0.898761
839.716303	0.859227
840.032037	0.837732
840.347727	0.840880
840.663373	0.858788
840.978977	0.880713
841.294537	0.902328
841.610054	0.919463
841.925527	0.925652
842.240957	0.934189
842.556344	0.941237
842.871687	0.945834
843.186987	0.951232
843.502244	0.950548
843.817458	0.952858
844.132629	0.956252
844.447756	0.961011
844.762840	0.961139
845.077881	0.959476
845.392879	0.960702
845.707833	0.962932
846.022745	0.965324
846.337613	0.964900
846.652438	0.966579
846.967221	0.964566
847.281960	0.966197
847.596656	0.968565
847.911309	0.965995
848.225919	0.966930
848.540485	0.969220
848.855009	0.969259
849.169490	0.969030
849.483928	0.969510
849.798323	0.969905
850.112675	0.969613
850.426984	0.970512
850.741251	0.970512
851.055474	0.970648
851.369654	0.967572
851.683792	0.970037
851.997887	0.970920
852.311938	0.971634
852.625947	0.969737
852.939914	0.968994
853.253837	0.969364
853.567718	0.972083
853.881555	0.970311
854.195350	0.968768
854.509103	0.970304
854.822812	0.971111
855.136479	0.970098
855.450103	0.970311
855.763685	0.969438
856.077224	0.969256
856.390720	0.970626
856.704173	0.970623
857.017584	0.969411
857.330953	0.968052
857.644278	0.968426
857.957561	0.968288
858.270802	0.968181
858.584000	0.968578
858.897155	0.966924
859.210268	0.967282
859.523339	0.968615
859.836367	0.970478
860.149352	0.972131
860.462295	0.969642
860.775195	0.970618
861.088054	0.969670
861.400869	0.968460
861.713642	0.970635
862.026373	0.970524
862.339062	0.970576
862.651708	0.968553
862.964312	0.969090
863.276873	0.969723
863.589392	0.968610
863.901869	0.967350
864.214303	0.965959
864.526696	0.964180
864.839045	0.964185
865.151353	0.961024
865.463619	0.962565
865.775842	0.962437
866.088023	0.960995
866.400162	0.962769
866.712258	0.961932
867.024313	0.963151
867.336325	0.963437
867.648296	0.963770
867.960224	0.962702
868.272110	0.962338
868.583954	0.964137
868.895755	0.963823
869.207515	0.962565
869.519233	0.961029
869.830909	0.961313
870.142542	0.962735
870.454134	0.962257
870.765684	0.960471
871.077191	0.959300
871.388657	0.959203
871.700081	0.958912
872.011463	0.958426
872.322803	0.958306
872.634101	0.957362
872.945357	0.954335
873.256571	0.953457
873.567744	0.953437
873.878874	0.953245
874.189963	0.952651
874.501010	0.952820
874.812015	0.950288
875.122979	0.952091
875.433900	0.954065
875.744780	0.954315
876.055618	0.951616
876.366415	0.950840
876.677169	0.950445
876.987882	0.951899
877.298554	0.951310
877.609183	0.947942
877.919771	0.944384
878.230317	0.944054
878.540822	0.941361
878.851285	0.936229
879.161707	0.927260
879.472087	0.916017
879.782425	0.899395
880.092722	0.865320
880.402977	0.814797
880.713191	0.753858
881.023363	0.696004
881.333494	0.662270
881.643583	0.634140
881.953631	0.634445
882.263637	0.663407
882.573602	0.702172
882.883526	0.727495
883.193408	0.751103
883.503248	0.773304
883.813048	0.800248
884.122806	0.830220
884.432522	0.852747
884.742197	0.873060
885.051831	0.882886
885.361424	0.893542
885.670975	0.905154
885.980485	0.915125
886.289954	0.920709
886.599382	0.926370
886.908768	0.928683
887.218113	0.934428
887.527417	0.941116
887.836680	0.942720
888.145901	0.944399
888.455082	0.946198
888.764221	0.950569
889.073319	0.954035
889.382376	0.954657
889.691392	0.953305
890.000366	0.953430
890.309300	0.954155
890.618193	0.953831
890.927044	0.951405
891.235855	0.953078
891.544625	0.952087
891.853353	0.953845
892.162041	0.949788
892.470687	0.944113
892.779293	0.938602
893.087858	0.934255
893.396381	0.927568
893.704864	0.914414
894.013306	0.890952
894.321707	0.865096
894.630068	0.849720
894.938387	0.845052
895.246665	0.846016
895.554903	0.858939
895.863100	0.871544
896.171256	0.887554
896.479371	0.907362
896.787446	0.920957
897.095480	0.925317
897.403473	0.929608
897.711425	0.933138
898.019336	0.941288
898.327207	0.944179
898.635038	0.944434
898.942827	0.946519
899.250576	0.948227
899.558284	0.951672
899.865952	0.955124
900.173579	0.956463
900.481165	0.956552
900.788711	0.960549
901.096216	0.961903
901.403681	0.962751
901.711105	0.963456
902.018489	0.963239
902.325832	0.962500
902.633135	0.962762
902.940397	0.957362
903.247619	0.945014
903.554800	0.919214
903.861941	0.879970
904.169041	0.845612
904.476101	0.828442
904.783121	0.828916
905.090100	0.844956
905.397039	0.865859
905.703938	0.888186
906.010796	0.908185
906.317614	0.923720
906.624391	0.934971
906.931129	0.945156
907.237826	0.952591
907.544483	0.959665
907.851099	0.963122
908.157675	0.968602
908.464211	0.970437
908.770707	0.973815
909.077163	0.974843
909.383578	0.974762
909.689954	0.975153
909.996289	0.976015
910.302584	0.979082
910.608839	0.980568
910.915054	0.978712
911.221229	0.977988
911.527363	0.977973
911.833458	0.978000
912.139513	0.978111
912.445527	0.975381
912.751502	0.974812
913.057436	0.972449
913.363331	0.970454
913.669186	0.967123
913.975000	0.962103
914.280775	0.957059
914.586510	0.949608
914.892205	0.935872
915.197859	0.915580
915.503475	0.888086
915.809050	0.868869
916.114585	0.864237
916.420081	0.861924
916.725536	0.857070
917.030952	0.865385
917.336328	0.877790
917.641665	0.894029
917.946961	0.908954
918.252218	0.920216
918.557435	0.929289
918.862612	0.938308
919.167750	0.942546
919.472848	0.947576
919.777906	0.953077
920.082925	0.959006
920.387904	0.962450
920.692843	0.964775
920.997743	0.964467
921.302603	0.968447
921.607423	0.969493
921.912204	0.972886
922.216946	0.972471
922.521647	0.974599
922.826310	0.976208
923.130932	0.977798
923.435516	0.979492
923.740059	0.980123
924.044564	0.978947
924.349028	0.980499
924.653454	0.983775
924.957840	0.985748
925.262186	0.984522
925.566493	0.984146
925.870761	0.984569
926.174989	0.987728
926.479178	0.988037
926.783328	0.989219
927.087438	0.989248
927.391509	0.989051
927.695541	0.989670
927.999533	0.988960
928.303486	0.990469
928.607400	0.990027
928.911275	0.989414
929.215110	0.990441
929.518906	0.990334
929.822663	0.990391
930.126381	0.990677
930.430060	0.990648
930.733699	0.990398
931.037299	0.989542
931.340861	0.990257
931.644383	0.990584
931.947866	0.989397
932.251309	0.991024
932.554714	0.989984
932.858080	0.990414
933.161407	0.990279
933.464694	0.990162
933.767943	0.989736
934.071153	0.990494
934.374323	0.991946
934.677455	0.991267
934.980548	0.991903
935.283602	0.991523
935.586617	0.992154
935.889593	0.991285
936.192530	0.991586
936.495428	0.990805
936.798287	0.991644
937.101108	0.990931
937.403890	0.989164
937.706632	0.988035
938.009336	0.986961
938.312002	0.985870
938.614628	0.984461
938.917216	0.983648
939.219765	0.981642
939.522275	0.982321
939.824747	0.983016
940.127179	0.983286
940.429573	0.985822
940.731929	0.985282
941.034246	0.984168
941.336524	0.986569
941.638763	0.986777
941.940964	0.986795
942.243126	0.986930
942.545250	0.988786
942.847335	0.988571
943.149381	0.988182
943.451389	0.989667
943.753359	0.988558
944.055290	0.990935
944.357182	0.990136
944.659036	0.988596
944.960851	0.988850
945.262628	0.991021
945.564367	0.990615
945.866067	0.990462
946.167729	0.991501
946.469352	0.989392
946.770937	0.989280
947.072484	0.991054
947.373992	0.990816
947.675462	0.990089
947.976893	0.990362
948.278286	0.990575
948.579641	0.991951
948.880958	0.990255
949.182236	0.991670
949.483476	0.991410
949.784678	0.989529
950.085841	0.992136
950.386967	0.992132
950.688054	0.990979
950.989103	0.991210
951.290114	0.988797
951.591087	0.989797
951.892021	0.989385
952.192917	0.989243
952.493776	0.988959
952.794596	0.987911
953.095378	0.988593
953.396122	0.988335
953.696828	0.986545
953.997496	0.990512
954.298126	0.990594
954.598718	0.991028
954.899272	0.990771
955.199788	0.990410
955.500266	0.992203
955.800706	0.992833
956.101108	0.994222
956.401472	0.994201
956.701798	0.994487
957.002087	0.993328
957.302337	0.993847
957.602550	0.995418
957.902724	0.994776
958.202861	0.995473
958.502960	0.996586
958.803022	0.993865
959.103045	0.996196
959.403031	0.994839
959.702979	0.995429
960.002889	0.996637
960.302762	0.994287
960.602596	0.996042
960.902393	0.996779
961.202153	0.996828
961.501875	0.996919
961.801559	0.995764
962.101205	0.995412
962.400814	0.995451
962.700385	0.997295
962.999918	0.997325
963.299414	0.996479
963.598873	0.996437
963.898293	0.996475
964.197677	0.994850
964.497022	0.996836
964.796331	0.997549
965.095601	0.997180
965.394835	0.996841
965.694030	0.996955
965.993189	0.997428
966.292309	0.996928
966.591393	0.997082
966.890439	0.997536
967.189447	0.997111
967.488419	0.997623
967.787353	0.995569
968.086249	0.995992
968.385108	0.997238
968.683930	0.997433
968.982714	0.997336
969.281462	0.996888
969.580172	0.997473
969.878844	0.997721
970.177480	0.997061
970.476078	0.997200
970.774639	0.996494
971.073162	0.997111
971.371649	0.995940
971.670098	0.997292
971.968510	0.997081
972.266885	0.996141
972.565223	0.995700
972.863524	0.996061
973.161788	0.996257
973.460014	0.997795
973.758204	0.995986
974.056356	0.996392
974.354471	0.994482
974.652550	0.996966
974.950591	0.995729
975.248595	0.996501
975.546563	0.996236
975.844493	0.998226
976.142386	0.996507
976.440243	0.996942
976.738062	0.998018
977.035845	0.997798
977.333590	0.997440
977.631299	0.998227
977.928971	0.997446
978.226606	0.996804
978.524204	0.996884
978.821765	0.997966
979.119290	0.996712
979.416777	0.996897
979.714228	0.996631
980.011642	0.995619
980.309020	0.998207
980.606360	0.997046
980.903664	0.998808
981.200931	0.997145
981.498162	0.996221
981.795356	0.995562
982.092513	0.994312
982.389633	0.994009
982.686717	0.991416
982.983764	0.992067
983.280775	0.991054
983.577749	0.989288
983.874686	0.992723
984.171587	0.992375
984.468451	0.994526
984.765279	0.995611
985.062070	0.994189
985.358824	0.995014
985.655543	0.994684
985.952224	0.995936
986.248869	0.996821
986.545478	0.996492
986.842050	0.998311
987.138586	0.996173
987.435086	0.998488
987.731549	0.999372
988.027975	0.998409
988.324366	0.997901
988.620719	0.997922
988.917037	0.996187
989.213318	0.998257
989.509563	0.998911
989.805772	0.998275
990.101944	0.999373
990.398080	0.996823
990.694180	0.997629
990.990244	0.996614
991.286271	0.999338
991.582262	0.999508
991.878217	0.996996
992.174136	0.998955
992.470019	0.998822
992.765865	0.997651
993.061676	0.997889
993.357450	0.997620
993.653188	0.997337
993.948890	0.997971
994.244556	0.998108
994.540186	0.997539
994.835780	0.996901
995.131337	0.997273
995.426859	0.997275
995.722345	0.998570
996.017795	0.996828
996.313208	0.996324
996.608586	0.996668
996.903928	0.997476
997.199234	0.995428
997.494504	0.997138
997.789738	0.995588
998.084936	0.996317
998.380099	0.997582
998.675225	0.997229
998.970316	0.998194
999.265371	0.998181
999.560390	0.998314
999.855373	0.998642
1000.150320	0.998222
1000.445232	0.999374
1000.740108	0.997868
1001.034948	0.998312
1001.329752	0.999725
1001.624521	0.998311
1001.919254	0.998794
1002.213951	0.998885
1002.508613	0.997796
1002.803239	0.998670
1003.097829	0.999682
1003.392384	0.999784
1003.686903	0.998453
1003.981386	0.998269
1004.275834	0.998275
1004.570246	0.998514
1004.864623	0.999350
1005.158964	0.999749
1005.453270	0.998446
1005.747540	0.997409
1006.041775	0.998178
1006.335974	0.999457
1006.630138	0.999854
1006.924266	0.999452
1007.218359	1.000633
1007.512416	0.999420
1007.806438	0.999431
1008.100425	0.999350
1008.394376	0.998248
1008.688292	0.998668
1008.982172	1.000269
1009.276017	0.999278
1009.569827	0.999150
1009.863602	0.999053
1010.157341	0.999376
1010.451045	0.998700
1010.744714	0.999441
1011.038347	0.998448
1011.331945	0.998574
1011.625508	0.997581
1011.919036	0.999616
1012.212528	0.998845
1012.505986	0.997997
1012.799408	0.998776
1013.092795	0.999365
1013.386147	0.998258
1013.679464	1.000155
1013.972745	0.997643
1014.265992	0.997203
1014.559204	0.999673
1014.852380	1.000006
1015.145521	0.999217
1015.438628	0.999247
1015.731699	0.999382
1016.024736	0.998411
1016.317737	0.999055
1016.610703	0.998994
1016.903635	0.999897
1017.196531	0.998086
1017.489393	1.001125
1017.782219	0.999613
1018.075011	0.998505
1018.367768	0.998779
1018.660490	0.999049
1018.953177	0.999049
1019.245829	0.999049
