Dividing Wavelength (nm)	Counts (n)	Blue Motor Position (mm): 0.000000	Red Motor Position (mm): 12.000000	
326.493990	1.000504
326.888308	1.000504
327.282561	1.000504
327.676750	1.000029
328.070874	0.999761
328.464933	1.001051
328.858929	0.998693
329.252859	1.000447
329.646726	0.999721
330.040528	0.998410
330.434265	1.000435
330.827938	1.001388
331.221547	1.001188
331.615091	1.000219
332.008571	1.000592
332.401986	0.999084
332.795338	0.999690
333.188625	0.998680
333.581847	1.001455
333.975006	0.998750
334.368100	1.000112
334.761129	1.000628
335.154095	1.001226
335.546996	0.998583
335.939833	0.993331
336.332606	0.993155
336.725315	0.994560
337.117960	0.995240
337.510540	0.994571
337.903056	0.994619
338.295508	0.993272
338.687896	0.994697
339.080220	0.993612
339.472480	0.993889
339.864676	0.994834
340.256807	0.994200
340.648875	0.995162
341.040879	0.995254
341.432818	0.993274
341.824694	0.994357
342.216506	0.994170
342.608253	0.994256
342.999937	0.993061
343.391557	0.994734
343.783113	0.993482
344.174605	0.994631
344.566033	0.994157
344.957397	0.994061
345.348697	0.993576
345.739934	0.994077
346.131106	0.994194
346.522215	0.992572
346.913260	0.993284
347.304241	0.993018
347.695159	0.993801
348.086012	0.992443
348.476802	0.993807
348.867528	0.993277
349.258191	0.991870
349.648789	0.993877
350.039324	0.993964
350.429796	0.994803
350.820203	0.994229
351.210548	0.994136
351.600828	0.993827
351.991045	0.994801
352.381198	0.992428
352.771288	0.993929
353.161314	0.994776
353.551276	0.994159
353.941175	0.994549
354.331010	0.993315
354.720782	0.994408
355.110490	0.994088
355.500135	0.994504
355.889717	0.992840
356.279235	0.993076
356.668689	0.994018
357.058080	0.993275
357.447408	0.994629
357.836672	0.994252
358.225873	0.995406
358.615010	0.994735
359.004084	0.995061
359.393095	0.993857
359.782043	0.992981
360.170927	0.994632
360.559748	0.993914
360.948505	0.992947
361.337199	0.994934
361.725830	0.993685
362.114398	0.993183
362.502903	0.994155
362.891344	0.994750
363.279722	0.993287
363.668037	0.993968
364.056289	0.993247
364.444478	0.994321
364.832603	0.993617
365.220665	0.993526
365.608665	0.992487
365.996601	0.993309
366.384474	0.992801
366.772284	0.993697
367.160031	0.991463
367.547715	0.992729
367.935336	0.992301
368.322893	0.993289
368.710388	0.992761
369.097820	0.993222
369.485189	0.991382
369.872495	0.992426
370.259738	0.991377
370.646918	0.993736
371.034035	0.992891
371.421090	0.993963
371.808081	0.992816
372.195010	0.992775
372.581875	0.992715
372.968678	0.992381
373.355418	0.992248
373.742096	0.992909
374.128710	0.994340
374.515262	0.992707
374.901751	0.993020
375.288177	0.991878
375.674540	0.993461
376.060841	0.992920
376.447079	0.993466
376.833254	0.993034
377.219367	0.993309
377.605417	0.992295
377.991404	0.992817
378.377329	0.992260
378.763191	0.992714
379.148991	0.993573
379.534727	0.993476
379.920402	0.992302
380.306013	0.993241
380.691563	0.993001
381.077049	0.992050
381.462474	0.993116
381.847835	0.992514
382.233134	0.991074
382.618371	0.993488
383.003545	0.991968
383.388657	0.991112
383.773706	0.991379
384.158693	0.991217
384.543618	0.990918
384.928480	0.989550
385.313280	0.988422
385.698017	0.986822
386.082692	0.985642
386.467305	0.983074
386.851856	0.980370
387.236344	0.978725
387.620770	0.974983
388.005133	0.972206
388.389435	0.969792
388.773674	0.963941
389.157851	0.960539
389.541965	0.955246
389.926018	0.951858
390.310008	0.945848
390.693936	0.940472
391.077802	0.934424
391.461606	0.928064
391.845348	0.921030
392.229027	0.916296
392.612645	0.907844
392.996200	0.899095
393.379694	0.889261
393.763125	0.880468
394.146494	0.873349
394.529801	0.862409
394.913047	0.852642
395.296230	0.845993
395.679351	0.835134
396.062410	0.825346
396.445408	0.817454
396.828343	0.806005
397.211217	0.796489
397.594028	0.795225
397.976778	0.779484
398.359466	0.770293
398.742092	0.758496
399.124656	0.758356
399.507158	0.743522
399.889598	0.734408
400.271977	0.719949
400.654294	0.715453
401.036549	0.706361
401.418742	0.702661
401.800874	0.684822
402.182944	0.675393
402.564952	0.661567
402.946898	0.658210
403.328783	0.651120
403.710606	0.655011
404.092367	0.627522
404.474067	0.627542
404.855705	0.621279
405.237282	0.624677
405.618797	0.607585
406.000250	0.599576
406.381642	0.586625
406.762972	0.587132
407.144240	0.582706
407.525447	0.578990
407.906593	0.569391
408.287677	0.561809
408.668700	0.566914
409.049661	0.558780
409.430560	0.552167
409.811399	0.558164
410.192176	0.538683
410.572891	0.543479
410.953545	0.530259
411.334138	0.541849
411.714669	0.534423
412.095139	0.544295
412.475547	0.528772
412.855894	0.529854
413.236180	0.527909
413.616405	0.532304
413.996568	0.522980
414.376670	0.528406
414.756711	0.532463
415.136691	0.529265
415.516609	0.520772
415.896466	0.515939
416.276262	0.512023
416.655997	0.514195
417.035670	0.495675
417.415283	0.487357
417.794834	0.491846
418.174324	0.496819
418.553753	0.506117
418.933121	0.487758
419.312428	0.481371
419.691674	0.487529
420.070859	0.475632
420.449983	0.483738
420.829045	0.473009
421.208047	0.481843
421.586988	0.475585
421.965867	0.474205
422.344686	0.462970
422.723444	0.475709
423.102141	0.491815
423.480777	0.464789
423.859352	0.485723
424.237866	0.462128
424.616319	0.463569
424.994712	0.454611
425.373044	0.464406
425.751314	0.453287
426.129524	0.469192
426.507673	0.453313
426.885762	0.446451
427.263789	0.451976
427.641756	0.461929
428.019662	0.452113
428.397508	0.450797
428.775292	0.454886
429.153016	0.447669
429.530679	0.453758
429.908282	0.446225
430.285824	0.456634
430.663305	0.435777
431.040726	0.456428
431.418086	0.456708
431.795385	0.448213
432.172624	0.446634
432.549802	0.447367
432.926920	0.446584
433.303977	0.445719
433.680974	0.442792
434.057910	0.441406
434.434786	0.441089
434.811601	0.443777
435.188355	0.425843
435.565050	0.434750
435.941683	0.436555
436.318257	0.421075
436.694770	0.421535
437.071222	0.419637
437.447614	0.424042
437.823946	0.430529
438.200218	0.419862
438.576429	0.430126
438.952580	0.422463
439.328670	0.419461
439.704700	0.426371
440.080670	0.427097
440.456580	0.407941
440.832429	0.415833
441.208218	0.427087
441.583947	0.416376
441.959616	0.415767
442.335224	0.420431
442.710773	0.411394
443.086261	0.409586
443.461689	0.423459
443.837057	0.413520
444.212365	0.403279
444.587612	0.410293
444.962800	0.400576
445.337927	0.401829
445.712995	0.428476
446.088002	0.390271
446.462949	0.400456
446.837837	0.405242
447.212664	0.394321
447.587431	0.386153
447.962139	0.356438
448.336786	0.315983
448.711374	0.325965
449.085901	0.370013
449.460369	0.374399
449.834776	0.378031
450.209124	0.357227
450.583412	0.350182
450.957640	0.342987
451.331808	0.354033
451.705917	0.377800
452.079965	0.382208
452.453954	0.370490
452.827883	0.377222
453.201752	0.372183
453.575562	0.383950
453.949311	0.372134
454.323001	0.378056
454.696632	0.373538
455.070202	0.366190
455.443713	0.358080
455.817164	0.353303
456.190556	0.349095
456.563888	0.345410
456.937160	0.343743
457.310373	0.360576
457.683526	0.359734
458.056619	0.365034
458.429653	0.365807
458.802628	0.368824
459.175542	0.363293
459.548398	0.346098
459.921194	0.338494
460.293930	0.338465
460.666607	0.316000
461.039224	0.304246
461.411782	0.300409
461.784280	0.299485
462.156719	0.303558
462.529099	0.308023
462.901419	0.324026
463.273680	0.328456
463.645882	0.327798
464.018024	0.333792
464.390106	0.326687
464.762130	0.311640
465.134094	0.294434
465.505999	0.263436
465.877845	0.234482
466.249631	0.221185
466.621358	0.228621
466.993026	0.242534
467.364634	0.248671
467.736184	0.257505
468.107674	0.266287
468.479105	0.265272
468.850477	0.272048
469.221790	0.278817
469.593043	0.289053
469.964238	0.293764
470.335373	0.293150
470.706449	0.291297
471.077467	0.292197
471.448425	0.254161
471.819324	0.229946
472.190164	0.229198
472.560945	0.257833
472.931667	0.280227
473.302330	0.284072
473.672934	0.295843
474.043479	0.284243
474.413965	0.285913
474.784393	0.289641
475.154761	0.284739
475.525070	0.281579
475.895321	0.287437
476.265513	0.281401
476.635645	0.276905
477.005719	0.277179
477.375734	0.273621
477.745691	0.267061
478.115588	0.262930
478.485427	0.256796
478.855207	0.243767
479.224928	0.226237
479.594591	0.214244
479.964194	0.217664
480.333739	0.219007
480.703226	0.220313
481.072653	0.218908
481.442022	0.214450
481.811333	0.211000
482.180584	0.214554
482.549777	0.219879
482.918912	0.222932
483.287988	0.223003
483.657005	0.222519
484.025964	0.228976
484.394864	0.226246
484.763706	0.226939
485.132489	0.232012
485.501213	0.232565
485.869879	0.231035
486.238487	0.234393
486.607036	0.231879
486.975527	0.236434
487.343959	0.232565
487.712333	0.231601
488.080648	0.233009
488.448905	0.232329
488.817104	0.233514
489.185244	0.227789
489.553326	0.224961
489.921350	0.214811
490.289315	0.197181
490.657222	0.192252
491.025070	0.193832
491.392861	0.195461
491.760593	0.201426
492.128267	0.206902
492.495883	0.212501
492.863440	0.218650
493.230939	0.224845
493.598380	0.226168
493.965763	0.228640
494.333088	0.230785
494.700354	0.232081
495.067563	0.231238
495.434713	0.234353
495.801805	0.232744
496.168839	0.234090
496.535815	0.235243
496.902733	0.235218
497.269593	0.236684
497.636395	0.234883
498.003139	0.234903
498.369825	0.237887
498.736453	0.234291
499.103023	0.235780
499.469535	0.235141
499.835989	0.235557
500.202385	0.236381
500.568723	0.239492
500.935003	0.234746
501.301226	0.239260
501.667390	0.233465
502.033497	0.231256
502.399546	0.234524
502.765537	0.236241
503.131470	0.234839
503.497345	0.231037
503.863163	0.239702
504.228923	0.232399
504.594625	0.231351
504.960269	0.236972
505.325856	0.231811
505.691385	0.236233
506.056856	0.233013
506.422270	0.232468
506.787625	0.235072
507.152924	0.232332
507.518164	0.232709
507.883347	0.234528
508.248472	0.236238
508.613540	0.231408
508.978550	0.233896
509.343503	0.234223
509.708398	0.231892
510.073236	0.229702
510.438016	0.229765
510.802738	0.230404
511.167403	0.229190
511.532010	0.231346
511.896561	0.226941
512.261053	0.225560
512.625488	0.227659
512.989866	0.228129
513.354186	0.228245
513.718449	0.230135
514.082655	0.226515
514.446803	0.228754
514.810894	0.226659
515.174927	0.229131
515.538904	0.228470
515.902822	0.225415
516.266684	0.227852
516.630488	0.229181
516.994235	0.227797
517.357925	0.226710
517.721558	0.224726
518.085133	0.224372
518.448651	0.224423
518.812112	0.226333
519.175516	0.226351
519.538863	0.223919
519.902152	0.225420
520.265385	0.222524
520.628560	0.224124
520.991678	0.224747
521.354739	0.223372
521.717743	0.224861
522.080690	0.225171
522.443580	0.222605
522.806413	0.223330
523.169189	0.222609
523.531908	0.221528
523.894569	0.225063
524.257174	0.225121
524.619722	0.222728
524.982213	0.223761
525.344647	0.222862
525.707025	0.223734
526.069345	0.221847
526.431608	0.223647
526.793815	0.221482
527.155964	0.225671
527.518057	0.224672
527.880093	0.225601
528.242072	0.224216
528.603995	0.225925
528.965860	0.227783
529.327669	0.226211
529.689421	0.227468
530.051117	0.228539
530.412755	0.225996
530.774337	0.228347
531.135862	0.228785
531.497331	0.228011
531.858743	0.230860
532.220098	0.227550
532.581396	0.230106
532.942638	0.230582
533.303824	0.231776
533.664953	0.231362
534.026025	0.233333
534.387040	0.231075
534.747999	0.231066
535.108902	0.229767
535.469748	0.234862
535.830537	0.232667
536.191270	0.233446
536.551947	0.232889
536.912567	0.232723
537.273131	0.234558
537.633638	0.234787
537.994089	0.234971
538.354483	0.236060
538.714821	0.233108
539.075103	0.232684
539.435328	0.233859
539.795497	0.237369
540.155609	0.233810
540.515665	0.232006
540.875665	0.237682
541.235609	0.236460
541.595496	0.236048
541.955328	0.232868
542.315102	0.235401
542.674821	0.236422
543.034483	0.236652
543.394090	0.236227
543.753640	0.238185
544.113134	0.233218
544.472571	0.236506
544.831953	0.233398
545.191278	0.237406
545.550548	0.236818
545.909761	0.233448
546.268918	0.234488
546.628019	0.232754
546.987064	0.235805
547.346053	0.237121
547.704986	0.235107
548.063863	0.235378
548.422684	0.235838
548.781449	0.237518
549.140158	0.235040
549.498811	0.237821
549.857408	0.240878
550.215949	0.235938
550.574434	0.238830
550.932864	0.236780
551.291237	0.235195
551.649555	0.236740
552.007817	0.236661
552.366022	0.237500
552.724173	0.237445
553.082267	0.237895
553.440305	0.234973
553.798288	0.239167
554.156215	0.235949
554.514086	0.236643
554.871902	0.239623
555.229661	0.238919
555.587365	0.239634
555.945014	0.241743
556.302606	0.239060
556.660143	0.241513
557.017625	0.237980
557.375050	0.240399
557.732421	0.237572
558.089735	0.239457
558.446994	0.239407
558.804197	0.238575
559.161345	0.238659
559.518437	0.241905
559.875474	0.239276
560.232455	0.239079
560.589381	0.240393
560.946251	0.240154
561.303065	0.237802
561.659825	0.239328
562.016528	0.240851
562.373177	0.243565
562.729770	0.241044
563.086307	0.243231
563.442789	0.240999
563.799216	0.243549
564.155587	0.242421
564.511904	0.243378
564.868164	0.243645
565.224370	0.243631
565.580520	0.245328
565.936615	0.245062
566.292654	0.248012
566.648638	0.244948
567.004567	0.245816
567.360441	0.246526
567.716260	0.248662
568.072023	0.246388
568.427732	0.247204
568.783385	0.249769
569.138982	0.247807
569.494525	0.247298
569.850013	0.250005
570.205445	0.248695
570.560823	0.251119
570.916145	0.253096
571.271412	0.251109
571.626625	0.252781
571.981782	0.253114
572.336884	0.254188
572.691931	0.253997
573.046923	0.255028
573.401860	0.256459
573.756743	0.257910
574.111570	0.256880
574.466342	0.257486
574.821059	0.256569
575.175722	0.259408
575.530330	0.259581
575.884882	0.259308
576.239380	0.261955
576.593823	0.262059
576.948211	0.261351
577.302544	0.264821
577.656823	0.264396
578.011047	0.264550
578.365216	0.265128
578.719330	0.266858
579.073389	0.267046
579.427394	0.268449
579.781344	0.268529
580.135239	0.270218
580.489080	0.270076
580.842866	0.273047
581.196597	0.272790
581.550273	0.271223
581.903895	0.272439
582.257463	0.270379
582.610975	0.274360
582.964434	0.273574
583.317837	0.276008
583.671186	0.276427
584.024481	0.276355
584.377721	0.278847
584.730906	0.279325
585.084037	0.278498
585.437113	0.280441
585.790135	0.279933
586.143103	0.283004
586.496016	0.284197
586.848874	0.281415
587.201679	0.282067
587.554428	0.285510
587.907124	0.284371
588.259765	0.284697
588.612352	0.285836
588.964884	0.289435
589.317362	0.288862
589.669786	0.289026
590.022155	0.287142
590.374470	0.286974
590.726731	0.288579
591.078937	0.293318
591.431090	0.289791
591.783188	0.294174
592.135232	0.294273
592.487222	0.294635
592.839157	0.292777
593.191038	0.295183
593.542866	0.296755
593.894639	0.300290
594.246358	0.298335
594.598022	0.297603
594.949633	0.301549
595.301190	0.302123
595.652692	0.301274
596.004141	0.297950
596.355535	0.305644
596.706876	0.306096
597.058162	0.308724
597.409395	0.305754
597.760573	0.303079
598.111698	0.306879
598.462768	0.307286
598.813785	0.308577
599.164748	0.309760
599.515657	0.309801
599.866511	0.313494
600.217312	0.308662
600.568060	0.313988
600.918753	0.310621
601.269392	0.311351
601.619978	0.314652
601.970510	0.312585
602.320988	0.312584
602.671412	0.310174
603.021783	0.312809
603.372100	0.313602
603.722363	0.313968
604.072572	0.314495
604.422728	0.314550
604.772830	0.316362
605.122878	0.316060
605.472872	0.316317
605.822813	0.314793
606.172701	0.317601
606.522534	0.314774
606.872314	0.314951
607.222041	0.315806
607.571714	0.314212
607.921333	0.315508
608.270899	0.315230
608.620411	0.311659
608.969870	0.315619
609.319276	0.315828
609.668627	0.315950
610.017926	0.314371
610.367171	0.312746
610.716362	0.313584
611.065500	0.313834
611.414585	0.312281
611.763616	0.312875
612.112594	0.313141
612.461518	0.313036
612.810389	0.310613
613.159207	0.312898
613.507971	0.314660
613.856682	0.310432
614.205340	0.312104
614.553945	0.308889
614.902496	0.312848
615.250994	0.310851
615.599439	0.311530
615.947830	0.310843
616.296169	0.312161
616.644454	0.311656
616.992686	0.311562
617.340864	0.309594
617.688990	0.313102
618.037063	0.309467
618.385082	0.311700
618.733048	0.308130
619.080961	0.310929
619.428821	0.309879
619.776628	0.309705
620.124382	0.311419
620.472083	0.311795
620.819731	0.311002
621.167326	0.315157
621.514868	0.314629
621.862357	0.319108
622.209793	0.318973
622.557176	0.321079
622.904506	0.322176
623.251783	0.324348
623.599007	0.326527
623.946179	0.325977
624.293297	0.328024
624.640363	0.332196
624.987376	0.332546
625.334336	0.335132
625.681243	0.337301
626.028097	0.337906
626.374899	0.339101
626.721647	0.339433
627.068343	0.342347
627.414987	0.343367
627.761577	0.345814
628.108115	0.343793
628.454600	0.349069
628.801032	0.346493
629.147412	0.348350
629.493739	0.349084
629.840014	0.352197
630.186236	0.349634
630.532405	0.355019
630.878521	0.352430
631.224585	0.354738
631.570597	0.358662
631.916556	0.356973
632.262462	0.357072
632.608316	0.358910
632.954117	0.359901
633.299866	0.360203
633.645562	0.360927
633.991206	0.365180
634.336797	0.368356
634.682336	0.370495
635.027823	0.372379
635.373257	0.372870
635.718639	0.376166
636.063968	0.375301
636.409245	0.381224
636.754470	0.381989
637.099642	0.384233
637.444762	0.387916
637.789829	0.386577
638.134845	0.390197
638.479808	0.390936
638.824719	0.390524
639.169577	0.395230
639.514383	0.393890
639.859137	0.398305
640.203839	0.397730
640.548489	0.398164
640.893086	0.399791
641.237632	0.401417
641.582125	0.399773
641.926566	0.401073
642.270955	0.401328
642.615292	0.401932
642.959576	0.401243
643.303809	0.401545
643.647990	0.401224
643.992118	0.401390
644.336195	0.405117
644.680219	0.403667
645.024192	0.404020
645.368112	0.397041
645.711981	0.396720
646.055797	0.391830
646.399562	0.394786
646.743274	0.386601
647.086935	0.383875
647.430544	0.384542
647.774101	0.383104
648.117606	0.383099
648.461059	0.382775
648.804460	0.385536
649.147810	0.390425
649.491108	0.392751
649.834354	0.393802
650.177548	0.399514
650.520690	0.404864
650.863781	0.405916
651.206820	0.405178
651.549807	0.410036
651.892742	0.414157
652.235626	0.413641
652.578458	0.414477
652.921238	0.420176
653.263967	0.417921
653.606644	0.422089
653.949269	0.421866
654.291843	0.426325
654.634365	0.422547
654.976836	0.425741
655.319255	0.426051
655.661622	0.428093
656.003938	0.427279
656.346203	0.430529
656.688416	0.428375
657.030577	0.431936
657.372687	0.433761
657.714746	0.434502
658.056753	0.431720
658.398708	0.435426
658.740612	0.435985
659.082465	0.432635
659.424266	0.433334
659.766016	0.433015
660.107715	0.435231
660.449362	0.434403
660.790958	0.434754
661.132503	0.435419
661.473996	0.432968
661.815438	0.433664
662.156829	0.433761
662.498168	0.434923
662.839456	0.436764
663.180693	0.434373
663.521879	0.433794
663.863013	0.434765
664.204097	0.433099
664.545129	0.429947
664.886110	0.430265
665.227040	0.428059
665.567918	0.430755
665.908746	0.428284
666.249522	0.428512
666.590248	0.429256
666.930922	0.427799
667.271545	0.426152
667.612118	0.426569
667.952639	0.427758
668.293109	0.426342
668.633528	0.429677
668.973896	0.429204
669.314213	0.429411
669.654480	0.431622
669.994695	0.432315
670.334859	0.432725
670.674973	0.432775
671.015035	0.432834
671.355047	0.432705
671.695008	0.434444
672.034918	0.435650
672.374777	0.435341
672.714585	0.436534
673.054342	0.435951
673.394049	0.436364
673.733705	0.433850
674.073310	0.435462
674.412864	0.438626
674.752368	0.438702
675.091820	0.438583
675.431223	0.443554
675.770574	0.443025
676.109875	0.446162
676.449125	0.446113
676.788324	0.448322
677.127473	0.454367
677.466571	0.453632
677.805619	0.455267
678.144616	0.456092
678.483562	0.457876
678.822458	0.461094
679.161303	0.461796
679.500098	0.462023
679.838842	0.463702
680.177535	0.463578
680.516179	0.461828
680.854771	0.461109
681.193314	0.454119
681.531805	0.445755
681.870247	0.434473
682.208638	0.426296
682.546978	0.425499
682.885268	0.427534
683.223508	0.433724
683.561697	0.437281
683.899836	0.440087
684.237925	0.443402
684.575963	0.446062
684.913951	0.449351
685.251889	0.444766
685.589776	0.446801
685.927614	0.449219
686.265401	0.443491
686.603137	0.444623
686.940824	0.438650
687.278460	0.436653
687.616046	0.436340
687.953582	0.431157
688.291068	0.432485
688.628504	0.428265
688.965889	0.430373
689.303224	0.434494
689.640510	0.438493
689.977745	0.444846
690.314930	0.452044
690.652065	0.456264
690.989150	0.464581
691.326185	0.470643
691.663170	0.475749
692.000105	0.482706
692.336990	0.489940
692.673825	0.492150
693.010610	0.499005
693.347345	0.504764
693.684030	0.506134
694.020665	0.511123
694.357251	0.519784
694.693786	0.519083
695.030272	0.523710
695.366707	0.527066
695.703093	0.530686
696.039429	0.527815
696.375716	0.529763
696.711952	0.532741
697.048139	0.534607
697.384276	0.536737
697.720363	0.534734
698.056400	0.533562
698.392388	0.539310
698.728326	0.542439
699.064214	0.545732
699.400053	0.545319
699.735842	0.549185
700.071581	0.552476
700.407270	0.555696
700.742910	0.557690
701.078501	0.564399
701.414042	0.564719
701.749533	0.568086
702.084974	0.576347
702.420366	0.568820
702.755709	0.576529
703.091002	0.584099
703.426246	0.577457
703.761440	0.583833
704.096584	0.587922
704.431679	0.586196
704.766725	0.588205
705.101721	0.588912
705.436668	0.585100
705.771565	0.591904
706.106413	0.588945
706.441212	0.584448
706.775961	0.583249
707.110661	0.586421
707.445311	0.582458
707.779913	0.579475
708.114465	0.577877
708.448967	0.574052
708.783421	0.566797
709.117825	0.560651
709.452180	0.561545
709.786485	0.554838
710.120742	0.544441
710.454949	0.546559
710.789107	0.538900
711.123216	0.529605
711.457275	0.531801
711.791286	0.522357
712.125247	0.521489
712.459159	0.531720
712.793023	0.524526
713.126837	0.528588
713.460602	0.529380
713.794318	0.538669
714.127985	0.537427
714.461602	0.547523
714.795171	0.550130
715.128691	0.558848
715.462162	0.566359
715.795584	0.571721
716.128957	0.574995
716.462281	0.580866
716.795556	0.584209
717.128782	0.590108
717.461960	0.599571
717.795088	0.597678
718.128167	0.604197
718.461198	0.612745
718.794180	0.613616
719.127113	0.616550
719.459997	0.619467
719.792833	0.626389
720.125619	0.627025
720.458357	0.633077
720.791046	0.631982
721.123686	0.636799
721.456278	0.643260
721.788821	0.640423
722.121315	0.644816
722.453761	0.648578
722.786158	0.646889
723.118506	0.643116
723.450805	0.650743
723.783056	0.646425
724.115259	0.644125
724.447412	0.644428
724.779518	0.645168
725.111574	0.643866
725.443582	0.639756
725.775542	0.641638
726.107453	0.633180
726.439315	0.633996
726.771129	0.631861
727.102895	0.625375
727.434612	0.618359
727.766281	0.616257
728.097901	0.615582
728.429473	0.615577
728.760996	0.613250
729.092471	0.613621
729.423897	0.617654
729.755276	0.616696
730.086606	0.617036
730.417887	0.610543
730.749120	0.601886
731.080305	0.593270
731.411442	0.589074
731.742530	0.594339
732.073570	0.592397
732.404562	0.585493
732.735506	0.586718
733.066401	0.591540
733.397249	0.600821
733.728048	0.611747
734.058798	0.624469
734.389501	0.636307
734.720156	0.644821
735.050762	0.653348
735.381320	0.653394
735.711831	0.663259
736.042293	0.668520
736.372707	0.663856
736.703073	0.669423
737.033391	0.671422
737.363661	0.667458
737.693883	0.662294
738.024056	0.662841
738.354182	0.663161
738.684260	0.652195
739.014290	0.647913
739.344272	0.647818
739.674207	0.641946
740.004093	0.641107
740.333931	0.642206
740.663722	0.641883
740.993464	0.642681
741.323159	0.645462
741.652806	0.651610
741.982405	0.656401
742.311956	0.660029
742.641460	0.662978
742.970915	0.666392
743.300323	0.673650
743.629683	0.680487
743.958996	0.682088
744.288260	0.685808
744.617477	0.692629
744.946647	0.694290
745.275768	0.699955
745.604842	0.698631
745.933869	0.709470
746.262847	0.710056
746.591778	0.703253
746.920662	0.709821
747.249498	0.716864
747.578286	0.707364
747.907027	0.703079
748.235720	0.704078
748.564365	0.699100
748.892963	0.699100
749.221514	0.702508
749.550017	0.706318
749.878473	0.707203
750.206881	0.712370
750.535242	0.714305
750.863555	0.713807
751.191821	0.714704
751.520039	0.718397
751.848210	0.723149
752.176334	0.715579
752.504411	0.715261
752.832440	0.723259
753.160421	0.726825
753.488356	0.725531
753.816243	0.722652
754.144082	0.731983
754.471875	0.734500
754.799620	0.729502
755.127318	0.731516
755.454969	0.731172
755.782572	0.730060
756.110129	0.735565
756.437638	0.738410
756.765100	0.735077
757.092515	0.732808
757.419882	0.731336
757.747203	0.737994
758.074477	0.736073
758.401703	0.733793
758.728882	0.728346
759.056014	0.727145
759.383099	0.727103
759.710138	0.727545
760.037129	0.723967
760.364073	0.718139
760.690970	0.720697
761.017820	0.725650
761.344623	0.721848
761.671379	0.712524
761.998088	0.700217
762.324751	0.678254
762.651366	0.636046
762.977935	0.568837
763.304456	0.516822
763.630931	0.507387
763.957359	0.546290
764.283740	0.591375
764.610074	0.618242
764.936362	0.649210
765.262602	0.675515
765.588796	0.698262
765.914943	0.716248
766.241044	0.733138
766.567097	0.739635
766.893104	0.749683
767.219064	0.756623
767.544978	0.762901
767.870845	0.775642
768.196665	0.780395
768.522438	0.778349
768.848165	0.780011
769.173846	0.787583
769.499479	0.793119
769.825066	0.796572
770.150607	0.801444
770.476101	0.796508
770.801548	0.798205
771.126949	0.808155
771.452303	0.812928
771.777611	0.813416
772.102872	0.811618
772.428087	0.816734
772.753256	0.819787
773.078378	0.822354
773.403453	0.830965
773.728482	0.835365
774.053465	0.829051
774.378401	0.833031
774.703291	0.840528
775.028135	0.840523
775.352932	0.841090
775.677683	0.846057
776.002388	0.845936
776.327046	0.845056
776.651658	0.848850
776.976224	0.851659
777.300743	0.851500
777.625216	0.854054
777.949643	0.855631
778.274024	0.856180
778.598359	0.857352
778.922647	0.856547
779.246889	0.856965
779.571086	0.861275
779.895236	0.863100
780.219339	0.860039
780.543397	0.857435
780.867409	0.855862
781.191374	0.858384
781.515294	0.859941
781.839167	0.858169
782.162995	0.861547
782.486776	0.858339
782.810511	0.859079
783.134201	0.863380
783.457844	0.860372
783.781441	0.863166
784.104993	0.869045
784.428498	0.869434
784.751958	0.865473
785.075372	0.867671
785.398739	0.871794
785.722061	0.868440
786.045337	0.863556
786.368568	0.868148
786.691752	0.871635
787.014891	0.856448
787.337983	0.847559
787.661030	0.840562
787.984031	0.822461
788.306987	0.809970
788.629897	0.811152
788.952760	0.816062
789.275579	0.819176
789.598351	0.835310
789.921078	0.848284
790.243759	0.849961
790.566395	0.856362
790.888984	0.862658
791.211529	0.867325
791.534027	0.869971
791.856480	0.872807
792.178888	0.877972
792.501249	0.879801
792.823566	0.882611
793.145836	0.881316
793.468062	0.884044
793.790241	0.883729
794.112375	0.882439
794.434464	0.877834
794.756507	0.876393
795.078505	0.876126
795.400457	0.871154
795.722364	0.859541
796.044226	0.851648
796.366042	0.851263
796.687812	0.853906
797.009538	0.850988
797.331218	0.853507
797.652852	0.858558
797.974442	0.863364
798.295986	0.863538
798.617484	0.865550
798.938938	0.869609
799.260346	0.874798
799.581709	0.877474
799.903026	0.878854
800.224299	0.879439
800.545526	0.883996
800.866708	0.887922
801.187845	0.891704
801.508936	0.891673
801.829983	0.889460
802.150984	0.892595
802.471940	0.896575
802.792851	0.895464
803.113717	0.897780
803.434538	0.895851
803.755314	0.898146
804.076045	0.899889
804.396731	0.899769
804.717372	0.899827
805.037967	0.899987
805.358518	0.898459
805.679024	0.895901
805.999485	0.896381
806.319901	0.895932
806.640272	0.897090
806.960598	0.895852
807.280879	0.893000
807.601115	0.892583
807.921306	0.894771
808.241453	0.894357
808.561554	0.892667
808.881611	0.893266
809.201623	0.895373
809.521590	0.895812
809.841513	0.896931
810.161390	0.895324
810.481223	0.897267
810.801011	0.900640
811.120755	0.902356
811.440453	0.901217
811.760107	0.899723
812.079716	0.899630
812.399281	0.903386
812.718801	0.905933
813.038276	0.906052
813.357707	0.906877
813.677093	0.903734
813.996434	0.905553
814.315731	0.907796
814.634983	0.908178
814.954191	0.906448
815.273354	0.904786
815.592473	0.900264
815.911547	0.900316
816.230577	0.898128
816.549562	0.895529
816.868502	0.896211
817.187399	0.892106
817.506250	0.886788
817.825058	0.889097
818.143821	0.885572
818.462539	0.879943
818.781213	0.872061
819.099843	0.860741
819.418429	0.844642
819.736970	0.827851
820.055466	0.807679
820.373919	0.782519
820.692327	0.749898
821.010691	0.712639
821.329011	0.635593
821.647286	0.519398
821.965517	0.404546
822.283704	0.361747
822.601847	0.362717
822.919945	0.398446
823.237999	0.432466
823.556010	0.480041
823.873976	0.536167
824.191897	0.587053
824.509775	0.630434
824.827609	0.675885
825.145398	0.698071
825.463144	0.701753
825.780845	0.684941
826.098502	0.665136
826.416116	0.619613
826.733685	0.574933
827.051210	0.565958
827.368692	0.580827
827.686129	0.619246
828.003522	0.672847
828.320872	0.720809
828.638177	0.763904
828.955439	0.797815
829.272656	0.819961
829.589830	0.837409
829.906960	0.852857
830.224046	0.865608
830.541088	0.876248
830.858086	0.880573
831.175041	0.886855
831.491952	0.885224
831.808819	0.882545
832.125642	0.875570
832.442421	0.860382
832.759157	0.838335
833.075849	0.791247
833.392497	0.727803
833.709101	0.685876
834.025662	0.695949
834.342179	0.727658
834.658653	0.767368
834.975083	0.803519
835.291469	0.830493
835.607811	0.852952
835.924110	0.868853
836.240366	0.886502
836.556578	0.901122
836.872746	0.907837
837.188871	0.914346
837.504952	0.918672
837.820990	0.923616
838.136984	0.925857
838.452935	0.930046
838.768842	0.930760
839.084706	0.924222
839.400526	0.898923
839.716303	0.857860
840.032037	0.834545
840.347727	0.838347
840.663373	0.856902
840.978977	0.878734
841.294537	0.900201
841.610054	0.918453
841.925527	0.925680
842.240957	0.932975
842.556344	0.939240
842.871687	0.945590
843.186987	0.949628
843.502244	0.950296
843.817458	0.950912
844.132629	0.956075
844.447756	0.960214
844.762840	0.959402
845.077881	0.959027
845.392879	0.959504
845.707833	0.962236
846.022745	0.963603
846.337613	0.964900
846.652438	0.965489
846.967221	0.963247
847.281960	0.965177
847.596656	0.966664
847.911309	0.966281
848.225919	0.966923
848.540485	0.968797
848.855009	0.969137
849.169490	0.968668
849.483928	0.967838
849.798323	0.969727
850.112675	0.971493
850.426984	0.969580
850.741251	0.969826
851.055474	0.969982
851.369654	0.967628
851.683792	0.968478
851.997887	0.970267
852.311938	0.969496
852.625947	0.969035
852.939914	0.967653
853.253837	0.968389
853.567718	0.969589
853.881555	0.971193
854.195350	0.967784
854.509103	0.969838
854.822812	0.969458
855.136479	0.969473
855.450103	0.970265
855.763685	0.968460
856.077224	0.968623
856.390720	0.970248
856.704173	0.970217
857.017584	0.968713
857.330953	0.967361
857.644278	0.967801
857.957561	0.968486
858.270802	0.968225
858.584000	0.967762
858.897155	0.967350
859.210268	0.967214
859.523339	0.968800
859.836367	0.969966
860.149352	0.971099
860.462295	0.968700
860.775195	0.969652
861.088054	0.968304
861.400869	0.969319
861.713642	0.970688
862.026373	0.970332
862.339062	0.970999
862.651708	0.968532
862.964312	0.967573
863.276873	0.968574
863.589392	0.967425
863.901869	0.967029
864.214303	0.964809
864.526696	0.963612
864.839045	0.962930
865.151353	0.962209
865.463619	0.960796
865.775842	0.961240
866.088023	0.962564
866.400162	0.961585
866.712258	0.961577
867.024313	0.962652
867.336325	0.963726
867.648296	0.963215
867.960224	0.961206
868.272110	0.961643
868.583954	0.963082
868.895755	0.963404
869.207515	0.961366
869.519233	0.958620
869.830909	0.961128
870.142542	0.962855
870.454134	0.961354
870.765684	0.960776
871.077191	0.957929
871.388657	0.958766
871.700081	0.957173
872.011463	0.958113
872.322803	0.958018
872.634101	0.955718
872.945357	0.953643
873.256571	0.953454
873.567744	0.953112
873.878874	0.953040
874.189963	0.952201
874.501010	0.950821
874.812015	0.950144
875.122979	0.951175
875.433900	0.953134
875.744780	0.953393
876.055618	0.949643
876.366415	0.949631
876.677169	0.949387
876.987882	0.950192
877.298554	0.949781
877.609183	0.947160
877.919771	0.944078
878.230317	0.942029
878.540822	0.939878
878.851285	0.933309
879.161707	0.925948
879.472087	0.913006
879.782425	0.896374
880.092722	0.862511
880.402977	0.809194
880.713191	0.747824
881.023363	0.686927
881.333494	0.652397
881.643583	0.624785
881.953631	0.624780
882.263637	0.653479
882.573602	0.692692
882.883526	0.719523
883.193408	0.743513
883.503248	0.766228
883.813048	0.794901
884.122806	0.824315
884.432522	0.847801
884.742197	0.868503
885.051831	0.878827
885.361424	0.890166
885.670975	0.900805
885.980485	0.911672
886.289954	0.917753
886.599382	0.923696
886.908768	0.926744
887.218113	0.932826
887.527417	0.938109
887.836680	0.940526
888.145901	0.942739
888.455082	0.945129
888.764221	0.950276
889.073319	0.951909
889.382376	0.952204
889.691392	0.952699
890.000366	0.951136
890.309300	0.954135
890.618193	0.952931
890.927044	0.950747
891.235855	0.951608
891.544625	0.950073
891.853353	0.951311
892.162041	0.948895
892.470687	0.941449
892.779293	0.936465
893.087858	0.932664
893.396381	0.925590
893.704864	0.910451
894.013306	0.887811
894.321707	0.859662
894.630068	0.845625
894.938387	0.839599
895.246665	0.842086
895.554903	0.853640
895.863100	0.867923
896.171256	0.885725
896.479371	0.903844
896.787446	0.917837
897.095480	0.923231
897.403473	0.927282
897.711425	0.931432
898.019336	0.939538
898.327207	0.941753
898.635038	0.942887
898.942827	0.944076
899.250576	0.946488
899.558284	0.952078
899.865952	0.954135
900.173579	0.954482
900.481165	0.955500
900.788711	0.958877
901.096216	0.960157
901.403681	0.961343
901.711105	0.961612
902.018489	0.963145
902.325832	0.961169
902.633135	0.961683
902.940397	0.955343
903.247619	0.943271
903.554800	0.916442
903.861941	0.876172
904.169041	0.839784
904.476101	0.821046
904.783121	0.822487
905.090100	0.839171
905.397039	0.861444
905.703938	0.882998
906.010796	0.903904
906.317614	0.921582
906.624391	0.932589
906.931129	0.942147
907.237826	0.951279
907.544483	0.958799
907.851099	0.961325
908.157675	0.967621
908.464211	0.968947
908.770707	0.972298
909.077163	0.973838
909.383578	0.974178
909.689954	0.974419
909.996289	0.975899
910.302584	0.978583
910.608839	0.979861
910.915054	0.978770
911.221229	0.977275
911.527363	0.976259
911.833458	0.977420
912.139513	0.976208
912.445527	0.975321
912.751502	0.973531
913.057436	0.972178
913.363331	0.968074
913.669186	0.965516
913.975000	0.960686
914.280775	0.955227
914.586510	0.946662
914.892205	0.933628
915.197859	0.911313
915.503475	0.883920
915.809050	0.864036
916.114585	0.857930
916.420081	0.855295
916.725536	0.851949
917.030952	0.860495
917.336328	0.874661
917.641665	0.889097
917.946961	0.905526
918.252218	0.917104
918.557435	0.925717
918.862612	0.934548
919.167750	0.939893
919.472848	0.945293
919.777906	0.951675
920.082925	0.956343
920.387904	0.960524
920.692843	0.962046
920.997743	0.963177
921.302603	0.967073
921.607423	0.968697
921.912204	0.971496
922.216946	0.970897
922.521647	0.973265
922.826310	0.975474
923.130932	0.977075
923.435516	0.978268
923.740059	0.980463
924.044564	0.978848
924.349028	0.980570
924.653454	0.982477
924.957840	0.984657
925.262186	0.983253
925.566493	0.983706
925.870761	0.984405
926.174989	0.986570
926.479178	0.988240
926.783328	0.988545
927.087438	0.987840
927.391509	0.988206
927.695541	0.990090
927.999533	0.989748
928.303486	0.988934
928.607400	0.990998
928.911275	0.989714
929.215110	0.990702
929.518906	0.990786
929.822663	0.989647
930.126381	0.990868
930.430060	0.990863
930.733699	0.989814
931.037299	0.989144
931.340861	0.991310
931.644383	0.989858
931.947866	0.987931
932.251309	0.991360
932.554714	0.990087
932.858080	0.990085
933.161407	0.989864
933.464694	0.992327
933.767943	0.989963
934.071153	0.991061
934.374323	0.991072
934.677455	0.990469
934.980548	0.991841
935.283602	0.990378
935.586617	0.991431
935.889593	0.990478
936.192530	0.991523
936.495428	0.991088
936.798287	0.990184
937.101108	0.989836
937.403890	0.989371
937.706632	0.988321
938.009336	0.986714
938.312002	0.985719
938.614628	0.985029
938.917216	0.982027
939.219765	0.981826
939.522275	0.982705
939.824747	0.982380
940.127179	0.982022
940.429573	0.984047
940.731929	0.984017
941.034246	0.983840
941.336524	0.985329
941.638763	0.986189
941.940964	0.986768
942.243126	0.986760
942.545250	0.986413
942.847335	0.988055
943.149381	0.988318
943.451389	0.988347
943.753359	0.988419
944.055290	0.990470
944.357182	0.988715
944.659036	0.988062
944.960851	0.989890
945.262628	0.988431
945.564367	0.990842
945.866067	0.990177
946.167729	0.989272
946.469352	0.989478
946.770937	0.988979
947.072484	0.990839
947.373992	0.989634
947.675462	0.989822
947.976893	0.990281
948.278286	0.990117
948.579641	0.992153
948.880958	0.990158
949.182236	0.991687
949.483476	0.991505
949.784678	0.991962
950.085841	0.991316
950.386967	0.991140
950.688054	0.990577
950.989103	0.991559
951.290114	0.989151
951.591087	0.989516
951.892021	0.990440
952.192917	0.988876
952.493776	0.987750
952.794596	0.988234
953.095378	0.987292
953.396122	0.988428
953.696828	0.987542
953.997496	0.989184
954.298126	0.990566
954.598718	0.990096
954.899272	0.992022
955.199788	0.990610
955.500266	0.992623
955.800706	0.993060
956.101108	0.994095
956.401472	0.994427
956.701798	0.993807
957.002087	0.993242
957.302337	0.992609
957.602550	0.996105
957.902724	0.994562
958.202861	0.995406
958.502960	0.996282
958.803022	0.994520
959.103045	0.996295
959.403031	0.996199
959.702979	0.996165
960.002889	0.996209
960.302762	0.995092
960.602596	0.995605
960.902393	0.994887
961.202153	0.997865
961.501875	0.996231
961.801559	0.995979
962.101205	0.996557
962.400814	0.996943
962.700385	0.996327
962.999918	0.996875
963.299414	0.996278
963.598873	0.996561
963.898293	0.996568
964.197677	0.995959
964.497022	0.996402
964.796331	0.997461
965.095601	0.997984
965.394835	0.996331
965.694030	0.996882
965.993189	0.997844
966.292309	0.996581
966.591393	0.996794
966.890439	0.997766
967.189447	0.996602
967.488419	0.997166
967.787353	0.996399
968.086249	0.996483
968.385108	0.997641
968.683930	0.997541
968.982714	0.997352
969.281462	0.998094
969.580172	0.996986
969.878844	0.996837
970.177480	0.996650
970.476078	0.997740
970.774639	0.997571
971.073162	0.998090
971.371649	0.997023
971.670098	0.996142
971.968510	0.997952
972.266885	0.996620
972.565223	0.996947
972.863524	0.996602
973.161788	0.996239
973.460014	0.998374
973.758204	0.995945
974.056356	0.997226
974.354471	0.995166
974.652550	0.995841
974.950591	0.997027
975.248595	0.996412
975.546563	0.995929
975.844493	0.997164
976.142386	0.996930
976.440243	0.998884
976.738062	0.996868
977.035845	0.997712
977.333590	0.997898
977.631299	0.998718
977.928971	0.996647
978.226606	0.996923
978.524204	0.996531
978.821765	0.998381
979.119290	0.997172
979.416777	0.996958
979.714228	0.996376
980.011642	0.996217
980.309020	0.997924
980.606360	0.996606
980.903664	0.998431
981.200931	0.996573
981.498162	0.994688
981.795356	0.995426
982.092513	0.993231
982.389633	0.994620
982.686717	0.990981
982.983764	0.991661
983.280775	0.990377
983.577749	0.990379
983.874686	0.991106
984.171587	0.992272
984.468451	0.994139
984.765279	0.995050
985.062070	0.994397
985.358824	0.995506
985.655543	0.995782
985.952224	0.995280
986.248869	0.995995
986.545478	0.997074
986.842050	0.998663
987.138586	0.996156
987.435086	0.997203
987.731549	0.998941
988.027975	0.997564
988.324366	0.998179
988.620719	0.997345
988.917037	0.996527
989.213318	0.997539
989.509563	0.998845
989.805772	0.998307
990.101944	0.998623
990.398080	0.997820
990.694180	0.998045
990.990244	0.997880
991.286271	0.998294
991.582262	0.998770
991.878217	0.998539
992.174136	0.998180
992.470019	0.999423
992.765865	0.999271
993.061676	0.998382
993.357450	0.999733
993.653188	0.996613
993.948890	0.997862
994.244556	0.997793
994.540186	0.997571
994.835780	0.996611
995.131337	0.997724
995.426859	0.996383
995.722345	0.998303
996.017795	0.996201
996.313208	0.996328
996.608586	0.995871
996.903928	0.996981
997.199234	0.996898
997.494504	0.995855
997.789738	0.996137
998.084936	0.996458
998.380099	0.997903
998.675225	0.996342
998.970316	0.998323
999.265371	0.997452
999.560390	0.998377
999.855373	0.998712
1000.150320	0.997924
1000.445232	0.999257
1000.740108	0.997511
1001.034948	0.998384
1001.329752	0.999123
1001.624521	0.997960
1001.919254	0.997873
1002.213951	0.998375
1002.508613	0.997954
1002.803239	0.999781
1003.097829	0.999062
1003.392384	0.999190
1003.686903	0.999411
1003.981386	0.999557
1004.275834	0.999264
1004.570246	0.997744
1004.864623	0.999995
1005.158964	0.998993
1005.453270	0.998786
1005.747540	0.996754
1006.041775	0.998432
1006.335974	0.998757
1006.630138	1.000421
1006.924266	1.000536
1007.218359	1.001521
1007.512416	0.999553
1007.806438	0.999083
1008.100425	0.999754
1008.394376	0.999885
1008.688292	0.998519
1008.982172	1.000883
1009.276017	1.000836
1009.569827	0.999094
1009.863602	0.999630
1010.157341	1.000224
1010.451045	0.999156
1010.744714	0.999393
1011.038347	1.000542
1011.331945	0.998732
1011.625508	0.997619
1011.919036	0.998922
1012.212528	0.999761
1012.505986	0.998398
1012.799408	0.999252
1013.092795	1.000055
1013.386147	0.999581
1013.679464	0.998800
1013.972745	0.998165
1014.265992	0.998260
1014.559204	0.999098
1014.852380	0.998693
1015.145521	0.999785
1015.438628	0.998733
1015.731699	0.998564
1016.024736	0.999606
1016.317737	0.997647
1016.610703	0.999612
1016.903635	0.999396
1017.196531	0.999557
1017.489393	0.999552
1017.782219	0.998576
1018.075011	0.998775
1018.367768	1.000318
1018.660490	0.999491
1018.953177	0.999491
1019.245829	0.999491
