Dividing Wavelength (nm)	Counts (n)	Blue Motor Position (mm): 0.000000	Red Motor Position (mm): 15.800000	
326.493990	1.000440
326.888308	1.000440
327.282561	1.000440
327.676750	1.000887
328.070874	1.000692
328.464933	1.000035
328.858929	1.000420
329.252859	1.001036
329.646726	0.998406
330.040528	0.999696
330.434265	0.999551
330.827938	1.001208
331.221547	1.000953
331.615091	0.999998
332.008571	1.000102
332.401986	1.001423
332.795338	1.001318
333.188625	0.999003
333.581847	1.001282
333.975006	0.999746
334.368100	0.999853
334.761129	1.000958
335.154095	1.000385
335.546996	0.998097
335.939833	0.993892
336.332606	0.994395
336.725315	0.994999
337.117960	0.995445
337.510540	0.994899
337.903056	0.995538
338.295508	0.993238
338.687896	0.993727
339.080220	0.994548
339.472480	0.994640
339.864676	0.993223
340.256807	0.994520
340.648875	0.994850
341.040879	0.994822
341.432818	0.994402
341.824694	0.992852
342.216506	0.995551
342.608253	0.993294
342.999937	0.993691
343.391557	0.993847
343.783113	0.993980
344.174605	0.995180
344.566033	0.994654
344.957397	0.993819
345.348697	0.994333
345.739934	0.994637
346.131106	0.994436
346.522215	0.993843
346.913260	0.994042
347.304241	0.994209
347.695159	0.994114
348.086012	0.994014
348.476802	0.995652
348.867528	0.994359
349.258191	0.994134
349.648789	0.994612
350.039324	0.995269
350.429796	0.994368
350.820203	0.993583
351.210548	0.994506
351.600828	0.994862
351.991045	0.993900
352.381198	0.992842
352.771288	0.993695
353.161314	0.993444
353.551276	0.995244
353.941175	0.992947
354.331010	0.994303
354.720782	0.994920
355.110490	0.994119
355.500135	0.994373
355.889717	0.993974
356.279235	0.994689
356.668689	0.993268
357.058080	0.994160
357.447408	0.995369
357.836672	0.995430
358.225873	0.994485
358.615010	0.994547
359.004084	0.996678
359.393095	0.994433
359.782043	0.993947
360.170927	0.995069
360.559748	0.994960
360.948505	0.993896
361.337199	0.994857
361.725830	0.994721
362.114398	0.993813
362.502903	0.994315
362.891344	0.995323
363.279722	0.993043
363.668037	0.995189
364.056289	0.993758
364.444478	0.995007
364.832603	0.994985
365.220665	0.993604
365.608665	0.994647
365.996601	0.993164
366.384474	0.994007
366.772284	0.995238
367.160031	0.992466
367.547715	0.992493
367.935336	0.994182
368.322893	0.993388
368.710388	0.993084
369.097820	0.994622
369.485189	0.992979
369.872495	0.993720
370.259738	0.993048
370.646918	0.995301
371.034035	0.994683
371.421090	0.994180
371.808081	0.993752
372.195010	0.994660
372.581875	0.995165
372.968678	0.994779
373.355418	0.995121
373.742096	0.994399
374.128710	0.995362
374.515262	0.992731
374.901751	0.994395
375.288177	0.994288
375.674540	0.995103
376.060841	0.993698
376.447079	0.994543
376.833254	0.993141
377.219367	0.994002
377.605417	0.994680
377.991404	0.994225
378.377329	0.993180
378.763191	0.993902
379.148991	0.994870
379.534727	0.994201
379.920402	0.994113
380.306013	0.993802
380.691563	0.995177
381.077049	0.994437
381.462474	0.994866
381.847835	0.995253
382.233134	0.994049
382.618371	0.993402
383.003545	0.994352
383.388657	0.993954
383.773706	0.995273
384.158693	0.994318
384.543618	0.994425
384.928480	0.996075
385.313280	0.994196
385.698017	0.994129
386.082692	0.995294
386.467305	0.994621
386.851856	0.994680
387.236344	0.994407
387.620770	0.993979
388.005133	0.995062
388.389435	0.995100
388.773674	0.994445
389.157851	0.994374
389.541965	0.994942
389.926018	0.994369
390.310008	0.996243
390.693936	0.994243
391.077802	0.994768
391.461606	0.994228
391.845348	0.994145
392.229027	0.994591
392.612645	0.994949
392.996200	0.994903
393.379694	0.993216
393.763125	0.994473
394.146494	0.994456
394.529801	0.993103
394.913047	0.993091
395.296230	0.992175
395.679351	0.991699
396.062410	0.990960
396.445408	0.991237
396.828343	0.987809
397.211217	0.987288
397.594028	0.986816
397.976778	0.983327
398.359466	0.982013
398.742092	0.979040
399.124656	0.977279
399.507158	0.974598
399.889598	0.971034
400.271977	0.967681
400.654294	0.964892
401.036549	0.959478
401.418742	0.956170
401.800874	0.949735
402.182944	0.943941
402.564952	0.938603
402.946898	0.934945
403.328783	0.928678
403.710606	0.923747
404.092367	0.913700
404.474067	0.908310
404.855705	0.901931
405.237282	0.897326
405.618797	0.886760
406.000250	0.878719
406.381642	0.869625
406.762972	0.862432
407.144240	0.855527
407.525447	0.846892
407.906593	0.836495
408.287677	0.826931
408.668700	0.821890
409.049661	0.809522
409.430560	0.799400
409.811399	0.794445
410.192176	0.777009
410.572891	0.771774
410.953545	0.758025
411.334138	0.754957
411.714669	0.742575
412.095139	0.741006
412.475547	0.723621
412.855894	0.716088
413.236180	0.705639
413.616405	0.700953
413.996568	0.687034
414.376670	0.683156
414.756711	0.678316
415.136691	0.668473
415.516609	0.654339
415.896466	0.644343
416.276262	0.633547
416.655997	0.628743
417.035670	0.607173
417.415283	0.594314
417.794834	0.591600
418.174324	0.589435
418.553753	0.591060
418.933121	0.569927
419.312428	0.558268
419.691674	0.557598
420.070859	0.542919
420.449983	0.544695
420.829045	0.530165
421.208047	0.533922
421.586988	0.523659
421.965867	0.518105
422.344686	0.504309
422.723444	0.512935
423.102141	0.524722
423.480777	0.496434
423.859352	0.513040
424.237866	0.488453
424.616319	0.486965
424.994712	0.475978
425.373044	0.484357
425.751314	0.470051
426.129524	0.484402
426.507673	0.466926
426.885762	0.459756
427.263789	0.463030
427.641756	0.471464
428.019662	0.460863
428.397508	0.458634
428.775292	0.462845
429.153016	0.453802
429.530679	0.459466
429.908282	0.452593
430.285824	0.461180
430.663305	0.439660
431.040726	0.460146
431.418086	0.459975
431.795385	0.451393
432.172624	0.449223
432.549802	0.450048
432.926920	0.449090
433.303977	0.448070
433.680974	0.444773
434.057910	0.443392
434.434786	0.442983
434.811601	0.445392
435.188355	0.427587
435.565050	0.436492
435.941683	0.438228
436.318257	0.422156
436.694770	0.422709
437.071222	0.421310
437.447614	0.425306
437.823946	0.432061
438.200218	0.421319
438.576429	0.430912
438.952580	0.423721
439.328670	0.420264
439.704700	0.427020
440.080670	0.428347
440.456580	0.409776
440.832429	0.417452
441.208218	0.427544
441.583947	0.417072
441.959616	0.416808
442.335224	0.421788
442.710773	0.412533
443.086261	0.410507
443.461689	0.424470
443.837057	0.414273
444.212365	0.404327
444.587612	0.411631
444.962800	0.401446
445.337927	0.402488
445.712995	0.429183
446.088002	0.391392
446.462949	0.401866
446.837837	0.406245
447.212664	0.395040
447.587431	0.386865
447.962139	0.357532
448.336786	0.316651
448.711374	0.327175
449.085901	0.371151
449.460369	0.375322
449.834776	0.378697
450.209124	0.357942
450.583412	0.350478
450.957640	0.343798
451.331808	0.354911
451.705917	0.378606
452.079965	0.382379
452.453954	0.371162
452.827883	0.378216
453.201752	0.372958
453.575562	0.384282
453.949311	0.372898
454.323001	0.378962
454.696632	0.374581
455.070202	0.367311
455.443713	0.359297
455.817164	0.353971
456.190556	0.350290
456.563888	0.346415
456.937160	0.343966
457.310373	0.361344
457.683526	0.359878
458.056619	0.365651
458.429653	0.367477
458.802628	0.369759
459.175542	0.363972
459.548398	0.346635
459.921194	0.339717
460.293930	0.339428
460.666607	0.317158
461.039224	0.305519
461.411782	0.301192
461.784280	0.300637
462.156719	0.304597
462.529099	0.309288
462.901419	0.324615
463.273680	0.329732
463.645882	0.328976
464.018024	0.334355
464.390106	0.327807
464.762130	0.312735
465.134094	0.295600
465.505999	0.264916
465.877845	0.235241
466.249631	0.222392
466.621358	0.229962
466.993026	0.243724
467.364634	0.249832
467.736184	0.258484
468.107674	0.267344
468.479105	0.266024
468.850477	0.272961
469.221790	0.279975
469.593043	0.290196
469.964238	0.294792
470.335373	0.294236
470.706449	0.292410
471.077467	0.293316
471.448425	0.255243
471.819324	0.231201
472.190164	0.230312
472.560945	0.259164
472.931667	0.281348
473.302330	0.285677
473.672934	0.297217
474.043479	0.285459
474.413965	0.287373
474.784393	0.290854
475.154761	0.285880
475.525070	0.283030
475.895321	0.288805
476.265513	0.282780
476.635645	0.277959
477.005719	0.278173
477.375734	0.274681
477.745691	0.268356
478.115588	0.264622
478.485427	0.258189
478.855207	0.245102
479.224928	0.227450
479.594591	0.215915
479.964194	0.219156
480.333739	0.220407
480.703226	0.221979
481.072653	0.220195
481.442022	0.216081
481.811333	0.212322
482.180584	0.216086
482.549777	0.221308
482.918912	0.224507
483.287988	0.224322
483.657005	0.223729
484.025964	0.230313
484.394864	0.227723
484.763706	0.228088
485.132489	0.232885
485.501213	0.233948
485.869879	0.232323
486.238487	0.235707
486.607036	0.233508
486.975527	0.237825
487.343959	0.233800
487.712333	0.232884
488.080648	0.234108
488.448905	0.233299
488.817104	0.234631
489.185244	0.229110
489.553326	0.226247
489.921350	0.215968
490.289315	0.198511
490.657222	0.193663
491.025070	0.194794
491.392861	0.196899
491.760593	0.202448
492.128267	0.208273
492.495883	0.213662
492.863440	0.219704
493.230939	0.226148
493.598380	0.227650
493.965763	0.229784
494.333088	0.231902
494.700354	0.233375
495.067563	0.232486
495.434713	0.235573
495.801805	0.233658
496.168839	0.235050
496.535815	0.236395
496.902733	0.236281
497.269593	0.238317
497.636395	0.235829
498.003139	0.236171
498.369825	0.239124
498.736453	0.235311
499.103023	0.236878
499.469535	0.236420
499.835989	0.236794
500.202385	0.237724
500.568723	0.241073
500.935003	0.236118
501.301226	0.240207
501.667390	0.234567
502.033497	0.232589
502.399546	0.235744
502.765537	0.237481
503.131470	0.236091
503.497345	0.232116
503.863163	0.241075
504.228923	0.233860
504.594625	0.232457
504.960269	0.238332
505.325856	0.233431
505.691385	0.237602
506.056856	0.234404
506.422270	0.233646
506.787625	0.236384
507.152924	0.233338
507.518164	0.234101
507.883347	0.235801
508.248472	0.237460
508.613540	0.232465
508.978550	0.235294
509.343503	0.235497
509.708398	0.232846
510.073236	0.230778
510.438016	0.230856
510.802738	0.231718
511.167403	0.230835
511.532010	0.232776
511.896561	0.228119
512.261053	0.227075
512.625488	0.229058
512.989866	0.229214
513.354186	0.229736
513.718449	0.231350
514.082655	0.227912
514.446803	0.229798
514.810894	0.227550
515.174927	0.230243
515.538904	0.229626
515.902822	0.226657
516.266684	0.228868
516.630488	0.230262
516.994235	0.228602
517.357925	0.227708
517.721558	0.226125
518.085133	0.225438
518.448651	0.225597
518.812112	0.227895
519.175516	0.227539
519.538863	0.225080
519.902152	0.226586
520.265385	0.223548
520.628560	0.225139
520.991678	0.225694
521.354739	0.224846
521.717743	0.225558
522.080690	0.226400
522.443580	0.223538
522.806413	0.224660
523.169189	0.224019
523.531908	0.222597
523.894569	0.226477
524.257174	0.226426
524.619722	0.224171
524.982213	0.225064
525.344647	0.223904
525.707025	0.224749
526.069345	0.223018
526.431608	0.224712
526.793815	0.222446
527.155964	0.226703
527.518057	0.225591
527.880093	0.226679
528.242072	0.225213
528.603995	0.227236
528.965860	0.228845
529.327669	0.227756
529.689421	0.228578
530.051117	0.229438
530.412755	0.227231
530.774337	0.229656
531.135862	0.229539
531.497331	0.229341
531.858743	0.232028
532.220098	0.228949
532.581396	0.231238
532.942638	0.231683
533.303824	0.232534
533.664953	0.232506
534.026025	0.234137
534.387040	0.232111
534.747999	0.232465
535.108902	0.231090
535.469748	0.235875
535.830537	0.233772
536.191270	0.233968
536.551947	0.234123
536.912567	0.233814
537.273131	0.235370
537.633638	0.235539
537.994089	0.236039
538.354483	0.237222
538.714821	0.234187
539.075103	0.233675
539.435328	0.234757
539.795497	0.238373
540.155609	0.234745
540.515665	0.233140
540.875665	0.238830
541.235609	0.237228
541.595496	0.237268
541.955328	0.233861
542.315102	0.236364
542.674821	0.237411
543.034483	0.237511
543.394090	0.237505
543.753640	0.239295
544.113134	0.234031
544.472571	0.237576
544.831953	0.234338
545.191278	0.238399
545.550548	0.237892
545.909761	0.234434
546.268918	0.235271
546.628019	0.233746
546.987064	0.236381
547.346053	0.238454
547.704986	0.236260
548.063863	0.236545
548.422684	0.236704
548.781449	0.238390
549.140158	0.236287
549.498811	0.239043
549.857408	0.242110
550.215949	0.236540
550.574434	0.239927
550.932864	0.237904
551.291237	0.236756
551.649555	0.237861
552.007817	0.237600
552.366022	0.238446
552.724173	0.238780
553.082267	0.239103
553.440305	0.235834
553.798288	0.240244
554.156215	0.236898
554.514086	0.237547
554.871902	0.241158
555.229661	0.239632
555.587365	0.240494
555.945014	0.243027
556.302606	0.240152
556.660143	0.242492
557.017625	0.239035
557.375050	0.241156
557.732421	0.238033
558.089735	0.240332
558.446994	0.240434
558.804197	0.239548
559.161345	0.239540
559.518437	0.242835
559.875474	0.240695
560.232455	0.239783
560.589381	0.241481
560.946251	0.241365
561.303065	0.238857
561.659825	0.240716
562.016528	0.241843
562.373177	0.244679
562.729770	0.241884
563.086307	0.244091
563.442789	0.241924
563.799216	0.244603
564.155587	0.243417
564.511904	0.244535
564.868164	0.244736
565.224370	0.244508
565.580520	0.245884
565.936615	0.245841
566.292654	0.248948
566.648638	0.246189
567.004567	0.247033
567.360441	0.247406
567.716260	0.249767
568.072023	0.247278
568.427732	0.248087
568.783385	0.250752
569.138982	0.248690
569.494525	0.248393
569.850013	0.251295
570.205445	0.249668
570.560823	0.252384
570.916145	0.253911
571.271412	0.252294
571.626625	0.253756
571.981782	0.254345
572.336884	0.255251
572.691931	0.255060
573.046923	0.255929
573.401860	0.257144
573.756743	0.258981
574.111570	0.257647
574.466342	0.258430
574.821059	0.257512
575.175722	0.260112
575.530330	0.259961
575.884882	0.260357
576.239380	0.262677
576.593823	0.263066
576.948211	0.262510
577.302544	0.265586
577.656823	0.265279
578.011047	0.265593
578.365216	0.266017
578.719330	0.267843
579.073389	0.267826
579.427394	0.269006
579.781344	0.269778
580.135239	0.271359
580.489080	0.270970
580.842866	0.273746
581.196597	0.273724
581.550273	0.272313
581.903895	0.273387
582.257463	0.271315
582.610975	0.275091
582.964434	0.274375
583.317837	0.276964
583.671186	0.277383
584.024481	0.277335
584.377721	0.279758
584.730906	0.280570
585.084037	0.279760
585.437113	0.281537
585.790135	0.281130
586.143103	0.283606
586.496016	0.284878
586.848874	0.282394
587.201679	0.282863
587.554428	0.286382
587.907124	0.285082
588.259765	0.285713
588.612352	0.286524
588.964884	0.290232
589.317362	0.289900
589.669786	0.289613
590.022155	0.288346
590.374470	0.287445
590.726731	0.289227
591.078937	0.294361
591.431090	0.291013
591.783188	0.294890
592.135232	0.295160
592.487222	0.295323
592.839157	0.293698
593.191038	0.296005
593.542866	0.297690
593.894639	0.301406
594.246358	0.299286
594.598022	0.298751
594.949633	0.302495
595.301190	0.302950
595.652692	0.302533
596.004141	0.298707
596.355535	0.306611
596.706876	0.306865
597.058162	0.309236
597.409395	0.306488
597.760573	0.304133
598.111698	0.307619
598.462768	0.307934
598.813785	0.309652
599.164748	0.310791
599.515657	0.311286
599.866511	0.314401
600.217312	0.309351
600.568060	0.315091
600.918753	0.311518
601.269392	0.312345
601.619978	0.315700
601.970510	0.313352
602.320988	0.313342
602.671412	0.310648
603.021783	0.313352
603.372100	0.314632
603.722363	0.314450
604.072572	0.315372
604.422728	0.314751
604.772830	0.317241
605.122878	0.316416
605.472872	0.317091
605.822813	0.315431
606.172701	0.318387
606.522534	0.315722
606.872314	0.315801
607.222041	0.316457
607.571714	0.315177
607.921333	0.316112
608.270899	0.316011
608.620411	0.312827
608.969870	0.316407
609.319276	0.316783
609.668627	0.316341
610.017926	0.315450
610.367171	0.313403
610.716362	0.314536
611.065500	0.314795
611.414585	0.313421
611.763616	0.314168
612.112594	0.314623
612.461518	0.313890
612.810389	0.311302
613.159207	0.313330
613.507971	0.315742
613.856682	0.311698
614.205340	0.313095
614.553945	0.309918
614.902496	0.313773
615.250994	0.311867
615.599439	0.312271
615.947830	0.311678
616.296169	0.313004
616.644454	0.312137
616.992686	0.312574
617.340864	0.310157
617.688990	0.314070
618.037063	0.310712
618.385082	0.312308
618.733048	0.309518
619.080961	0.311769
619.428821	0.310674
619.776628	0.310601
620.124382	0.312641
620.472083	0.312644
620.819731	0.312296
621.167326	0.315931
621.514868	0.315997
621.862357	0.320337
622.209793	0.319649
622.557176	0.321858
622.904506	0.322847
623.251783	0.325323
623.599007	0.327295
623.946179	0.327168
624.293297	0.328879
624.640363	0.332899
624.987376	0.333157
625.334336	0.335925
625.681243	0.338083
626.028097	0.338698
626.374899	0.339760
626.721647	0.339853
627.068343	0.343710
627.414987	0.344564
627.761577	0.346579
628.108115	0.344633
628.454600	0.350189
628.801032	0.347059
629.147412	0.349475
629.493739	0.350007
629.840014	0.352987
630.186236	0.349865
630.532405	0.355849
630.878521	0.353265
631.224585	0.355547
631.570597	0.359122
631.916556	0.357544
632.262462	0.357570
632.608316	0.360136
632.954117	0.360748
633.299866	0.361159
633.645562	0.362439
633.991206	0.366352
634.336797	0.369210
634.682336	0.371345
635.027823	0.372890
635.373257	0.373766
635.718639	0.377445
636.063968	0.376328
636.409245	0.382366
636.754470	0.382806
637.099642	0.384903
637.444762	0.388415
637.789829	0.387231
638.134845	0.391042
638.479808	0.391812
638.824719	0.391849
639.169577	0.395894
639.514383	0.394597
639.859137	0.399133
640.203839	0.398540
640.548489	0.399058
640.893086	0.400494
641.237632	0.402045
641.582125	0.400473
641.926566	0.401997
642.270955	0.402251
642.615292	0.402466
642.959576	0.401727
643.303809	0.402404
643.647990	0.402095
643.992118	0.402345
644.336195	0.406048
644.680219	0.404092
645.024192	0.404789
645.368112	0.398763
645.711981	0.397359
646.055797	0.392762
646.399562	0.395448
646.743274	0.387918
647.086935	0.384986
647.430544	0.385183
647.774101	0.383752
648.117606	0.383793
648.461059	0.383680
648.804460	0.385712
649.147810	0.391463
649.491108	0.393539
649.834354	0.394805
650.177548	0.400326
650.520690	0.405769
650.863781	0.406590
651.206820	0.406021
651.549807	0.410679
651.892742	0.414807
652.235626	0.414355
652.578458	0.414999
652.921238	0.421100
653.263967	0.419280
653.606644	0.423244
653.949269	0.422281
654.291843	0.426992
654.634365	0.423506
654.976836	0.426354
655.319255	0.427178
655.661622	0.428119
656.003938	0.428242
656.346203	0.431311
656.688416	0.429092
657.030577	0.432998
657.372687	0.434733
657.714746	0.435367
658.056753	0.432420
658.398708	0.436420
658.740612	0.436998
659.082465	0.433757
659.424266	0.434108
659.766016	0.434142
660.107715	0.435827
660.449362	0.434693
660.790958	0.436129
661.132503	0.435872
661.473996	0.434001
661.815438	0.434763
662.156829	0.434893
662.498168	0.435406
662.839456	0.437392
663.180693	0.434860
663.521879	0.434317
663.863013	0.435565
664.204097	0.434147
664.545129	0.431245
664.886110	0.431206
665.227040	0.428665
665.567918	0.431161
665.908746	0.429243
666.249522	0.428916
666.590248	0.429774
666.930922	0.428505
667.271545	0.426806
667.612118	0.427552
667.952639	0.428722
668.293109	0.427367
668.633528	0.430178
668.973896	0.429910
669.314213	0.430495
669.654480	0.432590
669.994695	0.432422
670.334859	0.433167
670.674973	0.433782
671.015035	0.433419
671.355047	0.434020
671.695008	0.434710
672.034918	0.436593
672.374777	0.436262
672.714585	0.436931
673.054342	0.437387
673.394049	0.437129
673.733705	0.435067
674.073310	0.436440
674.412864	0.439276
674.752368	0.439975
675.091820	0.439785
675.431223	0.444028
675.770574	0.444428
676.109875	0.447301
676.449125	0.447122
676.788324	0.449610
677.127473	0.454436
677.466571	0.453896
677.805619	0.456458
678.144616	0.457204
678.483562	0.459079
678.822458	0.461597
679.161303	0.462814
679.500098	0.462478
679.838842	0.464923
680.177535	0.464222
680.516179	0.462469
680.854771	0.461389
681.193314	0.454279
681.531805	0.446257
681.870247	0.434643
682.208638	0.427329
682.546978	0.426528
682.885268	0.427978
683.223508	0.434403
683.561697	0.438045
683.899836	0.440608
684.237925	0.443971
684.575963	0.446493
684.913951	0.450065
685.251889	0.445831
685.589776	0.447368
685.927614	0.449977
686.265401	0.443969
686.603137	0.445731
686.940824	0.439757
687.278460	0.437937
687.616046	0.437111
687.953582	0.432208
688.291068	0.433903
688.628504	0.429277
688.965889	0.431296
689.303224	0.435673
689.640510	0.439111
689.977745	0.445439
690.314930	0.453449
690.652065	0.457374
690.989150	0.465636
691.326185	0.471421
691.663170	0.475568
692.000105	0.483316
692.336990	0.490305
692.673825	0.492931
693.010610	0.499961
693.347345	0.505462
693.684030	0.506641
694.020665	0.511797
694.357251	0.520486
694.693786	0.519911
695.030272	0.523989
695.366707	0.527577
695.703093	0.531324
696.039429	0.529239
696.375716	0.530463
696.711952	0.533706
697.048139	0.534957
697.384276	0.537793
697.720363	0.535478
698.056400	0.534620
698.392388	0.540238
698.728326	0.543574
699.064214	0.545968
699.400053	0.546689
699.735842	0.550813
700.071581	0.552955
700.407270	0.556292
700.742910	0.558236
701.078501	0.564873
701.414042	0.565897
701.749533	0.569060
702.084974	0.577243
702.420366	0.570095
702.755709	0.577369
703.091002	0.584846
703.426246	0.578347
703.761440	0.584483
704.096584	0.588396
704.431679	0.585885
704.766725	0.589016
705.101721	0.589795
705.436668	0.585837
705.771565	0.592096
706.106413	0.589800
706.441212	0.584714
706.775961	0.584037
707.110661	0.586744
707.445311	0.582780
707.779913	0.580163
708.114465	0.578589
708.448967	0.574924
708.783421	0.567596
709.117825	0.561998
709.452180	0.561535
709.786485	0.555317
710.120742	0.545433
710.454949	0.547478
710.789107	0.540181
711.123216	0.530722
711.457275	0.532359
711.791286	0.523609
712.125247	0.521885
712.459159	0.532546
712.793023	0.525596
713.126837	0.530168
713.460602	0.530543
713.794318	0.539487
714.127985	0.539005
714.461602	0.548070
714.795171	0.551911
715.128691	0.560003
715.462162	0.566704
715.795584	0.572824
716.128957	0.575421
716.462281	0.582215
716.795556	0.585263
717.128782	0.590855
717.461960	0.600175
717.795088	0.598407
718.128167	0.604684
718.461198	0.613322
718.794180	0.614188
719.127113	0.616654
719.459997	0.620792
719.792833	0.627415
720.125619	0.628323
720.458357	0.633988
720.791046	0.633152
721.123686	0.636488
721.456278	0.643757
721.788821	0.641111
722.121315	0.644941
722.453761	0.649458
722.786158	0.647528
723.118506	0.643392
723.450805	0.651992
723.783056	0.647187
724.115259	0.645174
724.447412	0.645100
724.779518	0.646334
725.111574	0.644571
725.443582	0.640813
725.775542	0.642432
726.107453	0.634733
726.439315	0.635135
726.771129	0.633117
727.102895	0.625604
727.434612	0.618825
727.766281	0.616871
728.097901	0.616399
728.429473	0.616921
728.760996	0.614246
729.092471	0.615010
729.423897	0.618315
729.755276	0.617790
730.086606	0.617584
730.417887	0.612339
730.749120	0.602846
731.080305	0.593736
731.411442	0.590265
731.742530	0.594774
732.073570	0.594201
732.404562	0.586533
732.735506	0.587582
733.066401	0.592084
733.397249	0.601561
733.728048	0.612847
734.058798	0.625756
734.389501	0.635881
734.720156	0.646109
735.050762	0.654382
735.381320	0.655209
735.711831	0.663907
736.042293	0.669170
736.372707	0.664809
736.703073	0.669095
737.033391	0.671257
737.363661	0.669007
737.693883	0.663878
738.024056	0.662348
738.354182	0.663451
738.684260	0.652233
739.014290	0.647892
739.344272	0.649877
739.674207	0.642140
740.004093	0.642234
740.333931	0.642453
740.663722	0.642991
740.993464	0.642926
741.323159	0.646976
741.652806	0.651822
741.982405	0.656518
742.311956	0.661571
742.641460	0.663141
742.970915	0.667019
743.300323	0.675239
743.629683	0.681229
743.958996	0.683343
744.288260	0.687600
744.617477	0.693419
744.946647	0.694640
745.275768	0.700003
745.604842	0.700264
745.933869	0.710523
746.262847	0.710364
746.591778	0.704965
746.920662	0.710631
747.249498	0.716592
747.578286	0.707429
747.907027	0.703742
748.235720	0.705360
748.564365	0.699857
748.892963	0.699930
749.221514	0.702420
749.550017	0.707429
749.878473	0.707215
750.206881	0.714228
750.535242	0.714740
750.863555	0.714763
751.191821	0.716279
751.520039	0.719545
751.848210	0.723825
752.176334	0.716861
752.504411	0.716354
752.832440	0.723524
753.160421	0.727471
753.488356	0.725804
753.816243	0.723649
754.144082	0.731086
754.471875	0.735117
754.799620	0.730425
755.127318	0.731984
755.454969	0.732424
755.782572	0.731386
756.110129	0.736570
756.437638	0.739236
756.765100	0.735646
757.092515	0.733106
757.419882	0.732007
757.747203	0.736546
758.074477	0.736864
758.401703	0.733527
758.728882	0.729113
759.056014	0.727619
759.383099	0.727326
759.710138	0.728943
760.037129	0.724266
760.364073	0.718532
760.690970	0.721472
761.017820	0.726624
761.344623	0.722366
761.671379	0.712985
761.998088	0.701258
762.324751	0.679535
762.651366	0.636956
762.977935	0.569975
763.304456	0.517652
763.630931	0.508538
763.957359	0.547586
764.283740	0.591393
764.610074	0.619500
764.936362	0.650790
765.262602	0.676859
765.588796	0.698107
765.914943	0.716300
766.241044	0.734334
766.567097	0.740762
766.893104	0.750408
767.219064	0.756407
767.544978	0.763994
767.870845	0.776617
768.196665	0.781171
768.522438	0.778935
768.848165	0.780398
769.173846	0.790050
769.499479	0.793912
769.825066	0.796744
770.150607	0.802613
770.476101	0.797134
770.801548	0.798718
771.126949	0.810096
771.452303	0.813285
771.777611	0.813354
772.102872	0.813633
772.428087	0.817112
772.753256	0.820959
773.078378	0.823125
773.403453	0.831851
773.728482	0.836671
774.053465	0.829702
774.378401	0.833553
774.703291	0.841245
775.028135	0.841048
775.352932	0.842011
775.677683	0.846312
776.002388	0.846358
776.327046	0.845336
776.651658	0.848928
776.976224	0.852442
777.300743	0.852239
777.625216	0.854048
777.949643	0.856048
778.274024	0.856699
778.598359	0.858946
778.922647	0.856351
779.246889	0.857324
779.571086	0.860727
779.895236	0.863038
780.219339	0.861214
780.543397	0.857397
780.867409	0.856715
781.191374	0.858954
781.515294	0.859592
781.839167	0.858819
782.162995	0.862038
782.486776	0.859150
782.810511	0.859809
783.134201	0.862998
783.457844	0.861676
783.781441	0.864701
784.104993	0.870320
784.428498	0.870588
784.751958	0.865763
785.075372	0.867832
785.398739	0.872858
785.722061	0.868740
786.045337	0.863844
786.368568	0.869180
786.691752	0.871865
787.014891	0.856900
787.337983	0.848261
787.661030	0.841601
787.984031	0.822896
788.306987	0.810011
788.629897	0.812562
788.952760	0.815072
789.275579	0.820934
789.598351	0.836211
789.921078	0.849351
790.243759	0.851273
790.566395	0.856865
790.888984	0.863023
791.211529	0.868944
791.534027	0.872825
791.856480	0.873987
792.178888	0.879141
792.501249	0.881127
792.823566	0.882529
793.145836	0.882170
793.468062	0.884583
793.790241	0.883914
794.112375	0.883258
794.434464	0.878065
794.756507	0.877548
795.078505	0.877396
795.400457	0.872591
795.722364	0.860139
796.044226	0.852434
796.366042	0.852526
796.687812	0.855678
797.009538	0.851247
797.331218	0.854449
797.652852	0.858439
797.974442	0.864531
798.295986	0.864778
798.617484	0.866506
798.938938	0.870491
799.260346	0.875307
799.581709	0.877899
799.903026	0.880315
800.224299	0.880607
800.545526	0.884113
800.866708	0.889611
801.187845	0.892461
801.508936	0.891646
801.829983	0.889590
802.150984	0.892305
802.471940	0.898177
802.792851	0.896406
803.113717	0.898124
803.434538	0.895501
803.755314	0.899017
804.076045	0.900192
804.396731	0.900783
804.717372	0.900061
805.037967	0.901702
805.358518	0.899433
805.679024	0.895947
805.999485	0.895860
806.319901	0.897875
806.640272	0.898603
806.960598	0.895942
807.280879	0.893406
807.601115	0.891775
807.921306	0.895616
808.241453	0.895967
808.561554	0.894419
808.881611	0.893966
809.201623	0.895658
809.521590	0.897348
809.841513	0.896851
810.161390	0.897292
810.481223	0.897025
810.801011	0.901878
811.120755	0.902504
811.440453	0.902085
811.760107	0.900738
812.079716	0.900147
812.399281	0.904137
812.718801	0.907162
813.038276	0.907640
813.357707	0.906013
813.677093	0.903854
813.996434	0.905934
814.315731	0.908571
814.634983	0.908470
814.954191	0.908820
815.273354	0.904312
815.592473	0.900067
815.911547	0.901075
816.230577	0.898617
816.549562	0.895185
816.868502	0.897211
817.187399	0.892768
817.506250	0.888190
817.825058	0.890388
818.143821	0.886394
818.462539	0.880810
818.781213	0.874187
819.099843	0.861279
819.418429	0.846279
819.736970	0.828816
820.055466	0.808527
820.373919	0.783023
820.692327	0.750691
821.010691	0.715204
821.329011	0.637202
821.647286	0.522046
821.965517	0.407943
822.283704	0.365084
822.601847	0.366126
822.919945	0.401201
823.237999	0.436068
823.556010	0.482550
823.873976	0.539014
824.191897	0.589577
824.509775	0.632473
824.827609	0.678340
825.145398	0.700322
825.463144	0.703206
825.780845	0.686008
826.098502	0.667138
826.416116	0.621724
826.733685	0.577067
827.051210	0.568599
827.368692	0.583745
827.686129	0.621055
828.003522	0.674413
828.320872	0.722137
828.638177	0.765487
828.955439	0.797992
829.272656	0.820740
829.589830	0.838338
829.906960	0.853882
830.224046	0.866773
830.541088	0.875918
830.858086	0.881328
831.175041	0.887283
831.491952	0.886098
831.808819	0.883898
832.125642	0.876187
832.442421	0.860812
832.759157	0.839918
833.075849	0.793154
833.392497	0.729225
833.709101	0.688521
834.025662	0.697835
834.342179	0.729506
834.658653	0.768572
834.975083	0.804011
835.291469	0.831252
835.607811	0.854062
835.924110	0.870432
836.240366	0.886871
836.556578	0.901440
836.872746	0.908699
837.188871	0.914760
837.504952	0.920323
837.820990	0.923560
838.136984	0.927975
838.452935	0.929290
838.768842	0.931501
839.084706	0.925356
839.400526	0.898934
839.716303	0.859300
840.032037	0.835424
840.347727	0.839919
840.663373	0.857600
840.978977	0.880470
841.294537	0.902335
841.610054	0.918050
841.925527	0.926156
842.240957	0.932219
842.556344	0.940289
842.871687	0.946577
843.186987	0.950586
843.502244	0.949832
843.817458	0.952057
844.132629	0.956034
844.447756	0.960370
844.762840	0.961814
845.077881	0.959164
845.392879	0.959921
845.707833	0.963079
846.022745	0.965278
846.337613	0.965099
846.652438	0.966236
846.967221	0.965318
847.281960	0.965322
847.596656	0.967734
847.911309	0.966432
848.225919	0.968298
848.540485	0.967964
848.855009	0.969378
849.169490	0.968587
849.483928	0.968342
849.798323	0.970398
850.112675	0.970150
850.426984	0.970535
850.741251	0.970756
851.055474	0.970540
851.369654	0.968902
851.683792	0.968995
851.997887	0.969935
852.311938	0.971677
852.625947	0.969955
852.939914	0.968656
853.253837	0.969304
853.567718	0.970732
853.881555	0.970915
854.195350	0.968925
854.509103	0.969637
854.822812	0.970440
855.136479	0.968354
855.450103	0.970757
855.763685	0.967750
856.077224	0.967979
856.390720	0.970013
856.704173	0.970223
857.017584	0.968681
857.330953	0.967027
857.644278	0.968253
857.957561	0.967504
858.270802	0.969209
858.584000	0.969178
858.897155	0.966304
859.210268	0.967504
859.523339	0.968410
859.836367	0.971717
860.149352	0.971220
860.462295	0.969346
860.775195	0.970415
861.088054	0.969029
861.400869	0.969864
861.713642	0.969757
862.026373	0.969881
862.339062	0.971447
862.651708	0.966749
862.964312	0.968210
863.276873	0.969476
863.589392	0.968586
863.901869	0.966512
864.214303	0.965290
864.526696	0.963951
864.839045	0.963791
865.151353	0.961224
865.463619	0.963200
865.775842	0.962697
866.088023	0.962534
866.400162	0.962193
866.712258	0.961316
867.024313	0.963489
867.336325	0.963905
867.648296	0.962968
867.960224	0.962128
868.272110	0.962691
868.583954	0.963611
868.895755	0.964745
869.207515	0.962418
869.519233	0.960319
869.830909	0.961151
870.142542	0.962853
870.454134	0.961498
870.765684	0.960123
871.077191	0.958068
871.388657	0.959888
871.700081	0.958197
872.011463	0.959028
872.322803	0.957892
872.634101	0.957835
872.945357	0.955221
873.256571	0.952458
873.567744	0.953244
873.878874	0.952901
874.189963	0.951875
874.501010	0.951336
874.812015	0.949830
875.122979	0.951426
875.433900	0.953403
875.744780	0.954142
876.055618	0.952076
876.366415	0.949532
876.677169	0.950152
876.987882	0.950652
877.298554	0.950864
877.609183	0.946752
877.919771	0.944882
878.230317	0.943639
878.540822	0.940451
878.851285	0.935187
879.161707	0.927485
879.472087	0.914941
879.782425	0.897957
880.092722	0.863533
880.402977	0.812254
880.713191	0.749911
881.023363	0.690961
881.333494	0.656772
881.643583	0.629082
881.953631	0.628686
882.263637	0.657357
882.573602	0.696326
882.883526	0.722964
883.193408	0.746314
883.503248	0.769524
883.813048	0.796602
884.122806	0.825949
884.432522	0.849959
884.742197	0.870299
885.051831	0.880005
885.361424	0.891682
885.670975	0.903721
885.980485	0.912855
886.289954	0.918592
886.599382	0.924673
886.908768	0.928436
887.218113	0.934533
887.527417	0.938840
887.836680	0.941779
888.145901	0.942628
888.455082	0.946826
888.764221	0.950990
889.073319	0.952725
889.382376	0.952960
889.691392	0.953582
890.000366	0.952606
890.309300	0.953398
890.618193	0.953301
890.927044	0.952090
891.235855	0.950723
891.544625	0.951479
891.853353	0.952206
892.162041	0.948583
892.470687	0.942122
892.779293	0.937707
893.087858	0.934267
893.396381	0.925390
893.704864	0.911569
894.013306	0.889162
894.321707	0.861881
894.630068	0.847825
894.938387	0.841893
895.246665	0.842690
895.554903	0.855919
895.863100	0.869882
896.171256	0.886062
896.479371	0.905979
896.787446	0.918751
897.095480	0.924978
897.403473	0.926721
897.711425	0.932502
898.019336	0.940313
898.327207	0.943187
898.635038	0.944870
898.942827	0.944476
899.250576	0.948120
899.558284	0.952384
899.865952	0.954562
900.173579	0.955624
900.481165	0.955072
900.788711	0.959380
901.096216	0.960667
901.403681	0.961557
901.711105	0.962674
902.018489	0.962876
902.325832	0.962453
902.633135	0.962196
902.940397	0.955460
903.247619	0.943727
903.554800	0.917370
903.861941	0.878307
904.169041	0.841651
904.476101	0.823558
904.783121	0.825102
905.090100	0.841975
905.397039	0.863018
905.703938	0.885481
906.010796	0.905542
906.317614	0.922933
906.624391	0.934333
906.931129	0.942874
907.237826	0.951413
907.544483	0.959869
907.851099	0.961112
908.157675	0.968396
908.464211	0.969898
908.770707	0.972835
909.077163	0.974433
909.383578	0.974518
909.689954	0.974733
909.996289	0.976167
910.302584	0.977783
910.608839	0.980378
910.915054	0.979120
911.221229	0.978338
911.527363	0.977687
911.833458	0.976929
912.139513	0.977502
912.445527	0.975244
912.751502	0.973989
913.057436	0.971916
913.363331	0.969878
913.669186	0.966719
913.975000	0.961599
914.280775	0.955242
914.586510	0.947655
914.892205	0.934594
915.197859	0.912224
915.503475	0.886339
915.809050	0.866636
916.114585	0.860574
916.420081	0.857239
916.725536	0.854997
917.030952	0.863339
917.336328	0.875032
917.641665	0.890112
917.946961	0.907577
918.252218	0.918097
918.557435	0.927335
918.862612	0.935781
919.167750	0.941947
919.472848	0.946656
919.777906	0.952826
920.082925	0.958116
920.387904	0.961772
920.692843	0.963226
920.997743	0.963777
921.302603	0.967857
921.607423	0.969144
921.912204	0.971067
922.216946	0.972251
922.521647	0.973903
922.826310	0.974618
923.130932	0.977464
923.435516	0.978737
923.740059	0.979464
924.044564	0.978210
924.349028	0.980256
924.653454	0.983835
924.957840	0.984918
925.262186	0.983975
925.566493	0.983923
925.870761	0.985061
926.174989	0.986536
926.479178	0.988117
926.783328	0.988585
927.087438	0.989444
927.391509	0.987587
927.695541	0.990325
927.999533	0.989600
928.303486	0.989518
928.607400	0.991240
928.911275	0.989811
929.215110	0.989454
929.518906	0.990678
929.822663	0.989397
930.126381	0.991554
930.430060	0.990742
930.733699	0.989257
931.037299	0.990282
931.340861	0.991516
931.644383	0.990485
931.947866	0.989568
932.251309	0.990886
932.554714	0.989305
932.858080	0.989904
933.161407	0.990648
933.464694	0.991521
933.767943	0.989854
934.071153	0.991599
934.374323	0.991827
934.677455	0.993230
934.980548	0.992506
935.283602	0.990953
935.586617	0.991770
935.889593	0.991413
936.192530	0.990800
936.495428	0.991487
936.798287	0.991175
937.101108	0.990290
937.403890	0.989826
937.706632	0.989782
938.009336	0.987027
938.312002	0.986164
938.614628	0.984097
938.917216	0.983307
939.219765	0.982900
939.522275	0.983175
939.824747	0.983204
940.127179	0.983881
940.429573	0.984594
940.731929	0.984796
941.034246	0.984628
941.336524	0.985986
941.638763	0.986175
941.940964	0.986355
942.243126	0.987500
942.545250	0.987706
942.847335	0.987641
943.149381	0.988880
943.451389	0.988921
943.753359	0.989229
944.055290	0.990938
944.357182	0.989730
944.659036	0.988399
944.960851	0.989230
945.262628	0.990904
945.564367	0.990985
945.866067	0.988601
946.167729	0.991139
946.469352	0.990504
946.770937	0.989329
947.072484	0.990637
947.373992	0.990046
947.675462	0.990892
947.976893	0.989778
948.278286	0.990374
948.579641	0.992064
948.880958	0.990852
949.182236	0.991165
949.483476	0.991782
949.784678	0.990708
950.085841	0.992400
950.386967	0.991282
950.688054	0.990843
950.989103	0.992021
951.290114	0.990326
951.591087	0.988839
951.892021	0.989817
952.192917	0.988743
952.493776	0.988628
952.794596	0.988206
953.095378	0.988122
953.396122	0.989126
953.696828	0.987276
953.997496	0.989684
954.298126	0.991532
954.598718	0.990739
954.899272	0.991810
955.199788	0.990525
955.500266	0.991843
955.800706	0.992462
956.101108	0.993857
956.401472	0.993353
956.701798	0.994461
957.002087	0.994039
957.302337	0.994528
957.602550	0.995806
957.902724	0.994453
958.202861	0.995845
958.502960	0.995970
958.803022	0.994677
959.103045	0.996338
959.403031	0.996500
959.702979	0.996342
960.002889	0.996230
960.302762	0.994880
960.602596	0.996103
960.902393	0.995333
961.202153	0.997563
961.501875	0.996889
961.801559	0.996158
962.101205	0.996431
962.400814	0.996034
962.700385	0.995959
962.999918	0.995798
963.299414	0.996510
963.598873	0.995735
963.898293	0.996272
964.197677	0.997000
964.497022	0.996531
964.796331	0.998395
965.095601	0.996491
965.394835	0.996994
965.694030	0.996923
965.993189	0.997738
966.292309	0.997083
966.591393	0.997332
966.890439	0.996867
967.189447	0.996262
967.488419	0.997102
967.787353	0.996663
968.086249	0.997484
968.385108	0.997085
968.683930	0.997852
968.982714	0.996896
969.281462	0.997445
969.580172	0.996702
969.878844	0.997131
970.177480	0.996517
970.476078	0.998399
970.774639	0.998192
971.073162	0.997877
971.371649	0.996519
971.670098	0.997148
971.968510	0.998602
972.266885	0.995954
972.565223	0.996965
972.863524	0.996632
973.161788	0.996260
973.460014	0.997955
973.758204	0.996457
974.056356	0.996580
974.354471	0.994851
974.652550	0.997344
974.950591	0.996786
975.248595	0.996255
975.546563	0.996161
975.844493	0.998577
976.142386	0.997986
976.440243	0.997587
976.738062	0.997649
977.035845	0.998374
977.333590	0.995733
977.631299	0.997904
977.928971	0.997551
978.226606	0.996971
978.524204	0.996794
978.821765	0.998105
979.119290	0.997304
979.416777	0.998198
979.714228	0.997832
980.011642	0.995651
980.309020	0.997301
980.606360	0.996511
980.903664	0.998415
981.200931	0.997202
981.498162	0.995326
981.795356	0.995026
982.092513	0.994859
982.389633	0.995586
982.686717	0.991387
982.983764	0.992622
983.280775	0.990022
983.577749	0.992478
983.874686	0.992550
984.171587	0.992290
984.468451	0.994250
984.765279	0.995577
985.062070	0.995242
985.358824	0.995542
985.655543	0.995984
985.952224	0.997307
986.248869	0.996725
986.545478	0.997797
986.842050	0.998944
987.138586	0.996242
987.435086	0.997613
987.731549	0.998077
988.027975	0.998802
988.324366	0.997943
988.620719	0.997554
988.917037	0.995949
989.213318	0.997524
989.509563	1.000135
989.805772	0.998834
990.101944	0.999704
990.398080	0.997985
990.694180	0.998980
990.990244	0.998227
991.286271	0.997497
991.582262	0.999325
991.878217	0.998217
992.174136	0.999559
992.470019	0.998450
992.765865	0.998537
993.061676	0.998598
993.357450	0.998429
993.653188	0.997192
993.948890	0.997891
994.244556	0.998806
994.540186	0.997788
994.835780	0.998007
995.131337	0.998986
995.426859	0.995570
995.722345	0.998161
996.017795	0.996131
996.313208	0.997363
996.608586	0.995960
996.903928	0.998054
997.199234	0.997350
997.494504	0.997416
997.789738	0.996927
998.084936	0.996893
998.380099	0.997986
998.675225	0.997901
998.970316	0.998491
999.265371	0.997944
999.560390	0.998165
999.855373	0.999851
1000.150320	0.997537
1000.445232	0.999671
1000.740108	0.998107
1001.034948	0.998627
1001.329752	0.999830
1001.624521	0.998647
1001.919254	0.998411
1002.213951	0.998527
1002.508613	0.998663
1002.803239	1.000424
1003.097829	0.998767
1003.392384	0.998871
1003.686903	0.999391
1003.981386	0.998989
1004.275834	1.000104
1004.570246	0.999250
1004.864623	0.999296
1005.158964	1.000387
1005.453270	0.999444
1005.747540	0.998386
1006.041775	0.998394
1006.335974	1.000401
1006.630138	0.999725
1006.924266	1.000575
1007.218359	1.002343
1007.512416	0.999190
1007.806438	0.999696
1008.100425	0.999670
1008.394376	0.998260
1008.688292	0.998923
1008.982172	1.000436
1009.276017	0.999127
1009.569827	0.999044
1009.863602	0.998976
1010.157341	1.000281
1010.451045	0.999623
1010.744714	0.998484
1011.038347	0.999344
1011.331945	0.999225
1011.625508	0.997651
1011.919036	0.999487
1012.212528	0.998391
1012.505986	0.999106
1012.799408	0.998445
1013.092795	0.999820
1013.386147	0.999808
1013.679464	1.000079
1013.972745	0.999588
1014.265992	0.997800
1014.559204	0.999870
1014.852380	0.999216
1015.145521	0.998929
1015.438628	0.998961
1015.731699	0.999858
1016.024736	0.999547
1016.317737	1.000822
1016.610703	1.000275
1016.903635	1.000057
1017.196531	0.998452
1017.489393	1.000497
1017.782219	1.000179
1018.075011	0.998759
1018.367768	0.999185
1018.660490	0.999730
1018.953177	0.999730
1019.245829	0.999730
