Dividing Wavelength (nm)	Counts (n)	Blue Motor Position (mm): 0.000000	Red Motor Position (mm): 16.700000	
326.493990	1.000608
326.888308	1.000608
327.282561	1.000608
327.676750	0.999924
328.070874	1.000870
328.464933	1.000028
328.858929	0.999686
329.252859	1.001525
329.646726	0.999525
330.040528	1.001195
330.434265	0.999121
330.827938	1.001228
331.221547	1.000460
331.615091	1.000454
332.008571	1.001224
332.401986	1.000064
332.795338	1.001138
333.188625	0.999079
333.581847	1.001433
333.975006	0.999816
334.368100	1.000480
334.761129	1.000489
335.154095	1.000477
335.546996	0.998656
335.939833	0.992916
336.332606	0.994554
336.725315	0.995794
337.117960	0.995892
337.510540	0.994371
337.903056	0.995334
338.295508	0.993451
338.687896	0.994869
339.080220	0.994647
339.472480	0.995269
339.864676	0.994475
340.256807	0.994746
340.648875	0.995898
341.040879	0.995056
341.432818	0.994510
341.824694	0.994663
342.216506	0.995118
342.608253	0.995370
342.999937	0.994284
343.391557	0.994207
343.783113	0.994373
344.174605	0.993726
344.566033	0.995663
344.957397	0.994465
345.348697	0.995385
345.739934	0.994456
346.131106	0.994407
346.522215	0.994090
346.913260	0.994989
347.304241	0.993881
347.695159	0.994592
348.086012	0.993999
348.476802	0.993896
348.867528	0.995427
349.258191	0.993528
349.648789	0.995132
350.039324	0.993367
350.429796	0.995704
350.820203	0.993954
351.210548	0.994630
351.600828	0.994018
351.991045	0.993498
352.381198	0.994391
352.771288	0.993866
353.161314	0.994910
353.551276	0.994023
353.941175	0.995713
354.331010	0.993544
354.720782	0.995374
355.110490	0.995552
355.500135	0.994740
355.889717	0.995033
356.279235	0.994151
356.668689	0.994597
357.058080	0.993704
357.447408	0.995787
357.836672	0.995928
358.225873	0.994735
358.615010	0.994127
359.004084	0.994931
359.393095	0.995066
359.782043	0.994787
360.170927	0.996012
360.559748	0.994878
360.948505	0.993342
361.337199	0.994324
361.725830	0.994580
362.114398	0.994078
362.502903	0.993702
362.891344	0.995769
363.279722	0.992797
363.668037	0.994294
364.056289	0.994555
364.444478	0.995818
364.832603	0.995575
365.220665	0.994710
365.608665	0.994119
365.996601	0.995601
366.384474	0.994663
366.772284	0.994552
367.160031	0.993591
367.547715	0.993868
367.935336	0.994367
368.322893	0.994070
368.710388	0.993925
369.097820	0.993193
369.485189	0.994383
369.872495	0.993794
370.259738	0.993772
370.646918	0.994993
371.034035	0.995942
371.421090	0.993818
371.808081	0.994457
372.195010	0.995166
372.581875	0.995675
372.968678	0.994380
373.355418	0.994769
373.742096	0.994767
374.128710	0.995387
374.515262	0.993879
374.901751	0.994298
375.288177	0.994335
375.674540	0.995895
376.060841	0.993671
376.447079	0.995114
376.833254	0.994303
377.219367	0.994807
377.605417	0.995298
377.991404	0.995448
378.377329	0.993819
378.763191	0.994460
379.148991	0.995833
379.534727	0.995132
379.920402	0.995578
380.306013	0.995269
380.691563	0.995594
381.077049	0.994321
381.462474	0.995534
381.847835	0.995989
382.233134	0.994998
382.618371	0.995276
383.003545	0.995161
383.388657	0.993900
383.773706	0.995158
384.158693	0.994739
384.543618	0.994859
384.928480	0.995706
385.313280	0.995618
385.698017	0.995785
386.082692	0.996251
386.467305	0.994736
386.851856	0.994891
387.236344	0.994357
387.620770	0.995096
388.005133	0.995066
388.389435	0.995745
388.773674	0.994940
389.157851	0.994898
389.541965	0.995758
389.926018	0.994343
390.310008	0.995389
390.693936	0.995011
391.077802	0.995185
391.461606	0.994733
391.845348	0.995868
392.229027	0.995879
392.612645	0.995223
392.996200	0.996287
393.379694	0.993880
393.763125	0.995347
394.146494	0.995391
394.529801	0.994068
394.913047	0.994658
395.296230	0.994999
395.679351	0.995155
396.062410	0.994748
396.445408	0.995312
396.828343	0.993719
397.211217	0.993064
397.594028	0.994370
397.976778	0.992615
398.359466	0.993065
398.742092	0.990737
399.124656	0.991168
399.507158	0.990931
399.889598	0.988973
400.271977	0.988410
400.654294	0.987097
401.036549	0.985205
401.418742	0.983165
401.800874	0.979722
402.182944	0.976743
402.564952	0.973911
402.946898	0.972183
403.328783	0.967721
403.710606	0.965413
404.092367	0.959224
404.474067	0.955818
404.855705	0.952029
405.237282	0.948089
405.618797	0.941703
406.000250	0.934862
406.381642	0.929751
406.762972	0.924187
407.144240	0.918916
407.525447	0.913738
407.906593	0.905365
408.287677	0.898586
408.668700	0.894144
409.049661	0.884216
409.430560	0.876732
409.811399	0.870354
410.192176	0.859060
410.572891	0.853180
410.953545	0.840809
411.334138	0.836966
411.714669	0.827389
412.095139	0.823192
412.475547	0.809357
412.855894	0.801100
413.236180	0.791774
413.616405	0.785722
413.996568	0.772781
414.376670	0.766457
414.756711	0.760982
415.136691	0.750632
415.516609	0.736705
415.896466	0.727257
416.276262	0.715289
416.655997	0.709063
417.035670	0.688611
417.415283	0.675568
417.794834	0.669618
418.174324	0.665155
418.553753	0.663875
418.933121	0.642948
419.312428	0.629615
419.691674	0.625670
420.070859	0.610606
420.449983	0.608628
420.829045	0.593225
421.208047	0.594044
421.586988	0.581444
421.965867	0.573966
422.344686	0.557614
422.723444	0.562499
423.102141	0.570759
423.480777	0.542739
423.859352	0.554537
424.237866	0.529077
424.616319	0.525508
424.994712	0.512823
425.373044	0.517762
425.751314	0.502655
426.129524	0.513055
426.507673	0.495128
426.885762	0.485552
427.263789	0.487179
427.641756	0.493624
428.019662	0.481446
428.397508	0.477439
428.775292	0.479137
429.153016	0.469570
429.530679	0.473692
429.908282	0.464802
430.285824	0.472722
430.663305	0.450448
431.040726	0.469234
431.418086	0.468165
431.795385	0.459022
432.172624	0.456364
432.549802	0.456704
432.926920	0.454152
433.303977	0.452415
433.680974	0.449397
434.057910	0.447092
434.434786	0.446600
434.811601	0.448666
435.188355	0.430519
435.565050	0.439405
435.941683	0.440518
436.318257	0.424241
436.694770	0.424385
437.071222	0.422338
437.447614	0.426876
437.823946	0.433032
438.200218	0.422664
438.576429	0.432119
438.952580	0.424886
439.328670	0.421225
439.704700	0.427731
440.080670	0.428580
440.456580	0.410213
440.832429	0.418006
441.208218	0.428765
441.583947	0.417744
441.959616	0.417565
442.335224	0.422599
442.710773	0.413353
443.086261	0.411259
443.461689	0.425423
443.837057	0.414985
444.212365	0.404998
444.587612	0.411844
444.962800	0.401337
445.337927	0.403248
445.712995	0.429222
446.088002	0.391893
446.462949	0.402339
446.837837	0.406086
447.212664	0.395713
447.587431	0.387139
447.962139	0.357545
448.336786	0.316974
448.711374	0.327681
449.085901	0.371110
449.460369	0.376052
449.834776	0.379179
450.209124	0.358539
450.583412	0.351064
450.957640	0.344190
451.331808	0.355275
451.705917	0.378453
452.079965	0.383172
452.453954	0.371479
452.827883	0.378097
453.201752	0.373134
453.575562	0.384427
453.949311	0.373127
454.323001	0.378967
454.696632	0.374712
455.070202	0.367700
455.443713	0.359071
455.817164	0.354357
456.190556	0.350565
456.563888	0.346932
456.937160	0.344668
457.310373	0.361865
457.683526	0.360924
458.056619	0.366022
458.429653	0.367289
458.802628	0.370364
459.175542	0.364397
459.548398	0.347209
459.921194	0.339756
460.293930	0.339702
460.666607	0.317290
461.039224	0.305644
461.411782	0.301387
461.784280	0.300730
462.156719	0.304981
462.529099	0.309384
462.901419	0.325064
463.273680	0.329610
463.645882	0.329235
464.018024	0.335086
464.390106	0.327943
464.762130	0.312845
465.134094	0.295737
465.505999	0.265135
465.877845	0.235195
466.249631	0.222636
466.621358	0.230079
466.993026	0.243798
467.364634	0.249889
467.736184	0.258838
468.107674	0.267614
468.479105	0.266463
468.850477	0.273187
469.221790	0.280367
469.593043	0.290656
469.964238	0.295274
470.335373	0.294749
470.706449	0.292995
471.077467	0.293466
471.448425	0.255755
471.819324	0.231096
472.190164	0.230704
472.560945	0.259325
472.931667	0.281852
473.302330	0.285677
473.672934	0.297868
474.043479	0.285537
474.413965	0.287975
474.784393	0.291198
475.154761	0.286419
475.525070	0.283198
475.895321	0.289265
476.265513	0.283264
476.635645	0.278673
477.005719	0.278636
477.375734	0.275433
477.745691	0.268711
478.115588	0.265193
478.485427	0.258565
478.855207	0.245423
479.224928	0.228102
479.594591	0.216311
479.964194	0.219571
480.333739	0.220681
480.703226	0.222069
481.072653	0.220672
481.442022	0.216325
481.811333	0.212588
482.180584	0.216188
482.549777	0.221593
482.918912	0.224921
483.287988	0.224574
483.657005	0.224337
484.025964	0.230584
484.394864	0.228169
484.763706	0.228469
485.132489	0.233474
485.501213	0.234399
485.869879	0.232662
486.238487	0.235953
486.607036	0.233501
486.975527	0.238049
487.343959	0.234275
487.712333	0.233045
488.080648	0.234594
488.448905	0.233979
488.817104	0.234986
489.185244	0.229443
489.553326	0.226234
489.921350	0.216243
490.289315	0.198993
490.657222	0.194011
491.025070	0.195047
491.392861	0.197012
491.760593	0.202793
492.128267	0.208167
492.495883	0.213721
492.863440	0.220174
493.230939	0.226605
493.598380	0.227701
493.965763	0.229839
494.333088	0.231960
494.700354	0.233730
495.067563	0.232789
495.434713	0.235851
495.801805	0.233867
496.168839	0.235569
496.535815	0.236569
496.902733	0.236906
497.269593	0.238230
497.636395	0.235898
498.003139	0.236494
498.369825	0.239467
498.736453	0.235874
499.103023	0.237330
499.469535	0.236701
499.835989	0.237021
500.202385	0.237890
500.568723	0.241010
500.935003	0.236332
501.301226	0.240803
501.667390	0.234918
502.033497	0.232931
502.399546	0.235970
502.765537	0.237570
503.131470	0.236206
503.497345	0.232540
503.863163	0.241241
504.228923	0.234178
504.594625	0.232919
504.960269	0.238338
505.325856	0.233785
505.691385	0.237748
506.056856	0.234618
506.422270	0.234032
506.787625	0.236479
507.152924	0.234002
507.518164	0.234257
507.883347	0.236121
508.248472	0.237850
508.613540	0.232771
508.978550	0.235379
509.343503	0.235547
509.708398	0.233654
510.073236	0.230805
510.438016	0.231015
510.802738	0.231940
511.167403	0.231165
511.532010	0.232983
511.896561	0.228308
512.261053	0.227082
512.625488	0.229403
512.989866	0.229515
513.354186	0.229846
513.718449	0.231583
514.082655	0.228108
514.446803	0.230412
514.810894	0.227864
515.174927	0.230719
515.538904	0.229937
515.902822	0.226993
516.266684	0.229271
516.630488	0.230227
516.994235	0.229299
517.357925	0.228000
517.721558	0.226297
518.085133	0.225760
518.448651	0.225898
518.812112	0.227996
519.175516	0.227832
519.538863	0.225498
519.902152	0.226995
520.265385	0.223590
520.628560	0.225844
520.991678	0.226304
521.354739	0.224938
521.717743	0.225970
522.080690	0.226861
522.443580	0.223918
522.806413	0.225117
523.169189	0.224351
523.531908	0.223040
523.894569	0.226793
524.257174	0.226567
524.619722	0.224307
524.982213	0.225283
525.344647	0.224442
525.707025	0.225096
526.069345	0.223452
526.431608	0.225040
526.793815	0.222895
527.155964	0.226928
527.518057	0.225893
527.880093	0.227253
528.242072	0.225404
528.603995	0.227375
528.965860	0.229324
529.327669	0.228112
529.689421	0.228946
530.051117	0.229903
530.412755	0.227437
530.774337	0.229851
531.135862	0.230301
531.497331	0.229607
531.858743	0.232350
532.220098	0.228981
532.581396	0.231912
532.942638	0.232185
533.303824	0.233035
533.664953	0.232944
534.026025	0.234561
534.387040	0.232520
534.747999	0.232295
535.108902	0.231363
535.469748	0.236289
535.830537	0.234079
536.191270	0.234554
536.551947	0.234102
536.912567	0.234244
537.273131	0.235853
537.633638	0.235941
537.994089	0.236356
538.354483	0.237545
538.714821	0.234390
539.075103	0.234208
539.435328	0.234873
539.795497	0.238662
540.155609	0.235242
540.515665	0.233555
540.875665	0.239115
541.235609	0.237315
541.595496	0.237578
541.955328	0.234107
542.315102	0.237006
542.674821	0.238137
543.034483	0.237819
543.394090	0.237660
543.753640	0.239420
544.113134	0.234801
544.472571	0.237884
544.831953	0.234788
545.191278	0.238954
545.550548	0.238356
545.909761	0.235314
546.268918	0.235704
546.628019	0.234030
546.987064	0.236676
547.346053	0.238690
547.704986	0.236412
548.063863	0.236756
548.422684	0.236984
548.781449	0.238792
549.140158	0.236264
549.498811	0.239240
549.857408	0.242518
550.215949	0.237229
550.574434	0.240327
550.932864	0.238135
551.291237	0.236784
551.649555	0.238305
552.007817	0.237958
552.366022	0.238809
552.724173	0.239069
553.082267	0.239451
553.440305	0.236200
553.798288	0.240612
554.156215	0.237223
554.514086	0.237946
554.871902	0.241023
555.229661	0.240245
555.587365	0.240707
555.945014	0.243444
556.302606	0.240139
556.660143	0.242946
557.017625	0.239126
557.375050	0.241521
557.732421	0.238601
558.089735	0.240578
558.446994	0.240714
558.804197	0.239953
559.161345	0.239823
559.518437	0.243282
559.875474	0.240969
560.232455	0.240388
560.589381	0.241671
560.946251	0.241585
561.303065	0.239224
561.659825	0.240690
562.016528	0.241892
562.373177	0.245226
562.729770	0.242249
563.086307	0.244397
563.442789	0.242331
563.799216	0.244765
564.155587	0.243755
564.511904	0.244968
564.868164	0.245144
565.224370	0.244908
565.580520	0.246556
565.936615	0.246608
566.292654	0.249300
566.648638	0.246113
567.004567	0.247226
567.360441	0.247964
567.716260	0.250048
568.072023	0.247804
568.427732	0.248536
568.783385	0.250960
569.138982	0.249090
569.494525	0.248823
569.850013	0.251439
570.205445	0.250051
570.560823	0.252465
570.916145	0.254354
571.271412	0.252789
571.626625	0.254154
571.981782	0.254870
572.336884	0.255572
572.691931	0.255296
573.046923	0.256643
573.401860	0.257715
573.756743	0.259472
574.111570	0.258207
574.466342	0.258604
574.821059	0.257857
575.175722	0.260522
575.530330	0.260608
575.884882	0.260632
576.239380	0.262757
576.593823	0.263382
576.948211	0.262601
577.302544	0.266136
577.656823	0.265127
578.011047	0.265688
578.365216	0.266111
578.719330	0.268406
579.073389	0.268131
579.427394	0.269466
579.781344	0.270308
580.135239	0.271675
580.489080	0.271361
580.842866	0.274564
581.196597	0.274145
581.550273	0.272647
581.903895	0.273931
582.257463	0.271792
582.610975	0.275562
582.964434	0.274917
583.317837	0.276787
583.671186	0.277703
584.024481	0.277504
584.377721	0.280364
584.730906	0.280746
585.084037	0.280123
585.437113	0.281746
585.790135	0.281266
586.143103	0.284206
586.496016	0.285209
586.848874	0.282854
587.201679	0.283304
587.554428	0.286767
587.907124	0.285493
588.259765	0.286082
588.612352	0.287069
588.964884	0.290367
589.317362	0.290247
589.669786	0.290073
590.022155	0.288788
590.374470	0.287816
590.726731	0.289641
591.078937	0.294577
591.431090	0.291006
591.783188	0.295477
592.135232	0.295459
592.487222	0.295300
592.839157	0.293976
593.191038	0.296279
593.542866	0.298201
593.894639	0.301675
594.246358	0.299760
594.598022	0.298906
594.949633	0.302811
595.301190	0.303379
595.652692	0.302598
596.004141	0.298799
596.355535	0.306687
596.706876	0.307344
597.058162	0.309524
597.409395	0.307006
597.760573	0.304778
598.111698	0.307466
598.462768	0.308554
598.813785	0.310051
599.164748	0.310382
599.515657	0.310951
599.866511	0.314720
600.217312	0.309891
600.568060	0.315351
600.918753	0.311528
601.269392	0.312440
601.619978	0.315731
601.970510	0.313432
602.320988	0.313637
602.671412	0.311269
603.021783	0.313911
603.372100	0.315158
603.722363	0.314508
604.072572	0.315731
604.422728	0.315219
604.772830	0.317550
605.122878	0.316981
605.472872	0.317663
605.822813	0.315458
606.172701	0.318499
606.522534	0.315704
606.872314	0.315744
607.222041	0.316966
607.571714	0.315339
607.921333	0.316563
608.270899	0.316089
608.620411	0.313066
608.969870	0.316650
609.319276	0.316903
609.668627	0.317080
610.017926	0.315526
610.367171	0.314194
610.716362	0.314771
611.065500	0.314584
611.414585	0.313399
611.763616	0.313832
612.112594	0.314728
612.461518	0.314084
612.810389	0.311784
613.159207	0.313893
613.507971	0.315820
613.856682	0.311673
614.205340	0.313079
614.553945	0.309965
614.902496	0.313953
615.250994	0.311973
615.599439	0.312975
615.947830	0.311860
616.296169	0.313290
616.644454	0.312445
616.992686	0.312493
617.340864	0.310568
617.688990	0.314340
618.037063	0.310746
618.385082	0.312730
618.733048	0.309343
619.080961	0.312126
619.428821	0.310981
619.776628	0.310798
620.124382	0.312918
620.472083	0.312855
620.819731	0.312482
621.167326	0.316355
621.514868	0.315834
621.862357	0.320181
622.209793	0.320014
622.557176	0.322357
622.904506	0.323140
623.251783	0.325378
623.599007	0.327467
623.946179	0.327459
624.293297	0.329375
624.640363	0.332793
624.987376	0.334028
625.334336	0.336268
625.681243	0.338375
626.028097	0.338850
626.374899	0.340121
626.721647	0.340191
627.068343	0.343585
627.414987	0.344445
627.761577	0.346911
628.108115	0.345154
628.454600	0.350394
628.801032	0.347652
629.147412	0.349475
629.493739	0.350077
629.840014	0.353284
630.186236	0.350658
630.532405	0.356139
630.878521	0.353106
631.224585	0.355336
631.570597	0.359505
631.916556	0.357683
632.262462	0.358126
632.608316	0.360183
632.954117	0.361019
633.299866	0.361590
633.645562	0.362294
633.991206	0.366591
634.336797	0.369040
634.682336	0.371635
635.027823	0.373026
635.373257	0.373741
635.718639	0.377585
636.063968	0.376236
636.409245	0.382460
636.754470	0.382683
637.099642	0.385597
637.444762	0.388189
637.789829	0.387468
638.134845	0.391426
638.479808	0.392288
638.824719	0.391950
639.169577	0.396108
639.514383	0.394514
639.859137	0.398987
640.203839	0.399093
640.548489	0.399705
640.893086	0.401056
641.237632	0.402672
641.582125	0.400919
641.926566	0.402114
642.270955	0.402781
642.615292	0.403053
642.959576	0.401908
643.303809	0.402755
643.647990	0.402340
643.992118	0.402554
644.336195	0.406425
644.680219	0.404538
645.024192	0.405222
645.368112	0.398591
645.711981	0.397960
646.055797	0.392997
646.399562	0.395744
646.743274	0.387566
647.086935	0.384910
647.430544	0.385436
647.774101	0.384093
648.117606	0.383733
648.461059	0.384279
648.804460	0.386060
649.147810	0.391854
649.491108	0.393918
649.834354	0.394666
650.177548	0.400457
650.520690	0.405947
650.863781	0.406666
651.206820	0.406476
651.549807	0.411036
651.892742	0.415039
652.235626	0.414556
652.578458	0.415375
652.921238	0.421833
653.263967	0.419518
653.606644	0.423244
653.949269	0.422991
654.291843	0.427069
654.634365	0.423527
654.976836	0.426910
655.319255	0.427190
655.661622	0.428556
656.003938	0.428803
656.346203	0.431752
656.688416	0.429388
657.030577	0.432927
657.372687	0.434977
657.714746	0.435645
658.056753	0.432623
658.398708	0.436328
658.740612	0.437501
659.082465	0.433630
659.424266	0.434220
659.766016	0.433851
660.107715	0.436268
660.449362	0.434963
660.790958	0.436279
661.132503	0.436403
661.473996	0.434207
661.815438	0.435257
662.156829	0.435090
662.498168	0.435882
662.839456	0.437088
663.180693	0.435026
663.521879	0.434623
663.863013	0.436273
664.204097	0.434905
664.545129	0.431322
664.886110	0.431698
665.227040	0.429148
665.567918	0.431931
665.908746	0.429156
666.249522	0.429292
666.590248	0.430357
666.930922	0.429021
667.271545	0.427273
667.612118	0.427438
667.952639	0.429137
668.293109	0.427315
668.633528	0.430868
668.973896	0.430638
669.314213	0.431216
669.654480	0.432364
669.994695	0.432797
670.334859	0.433580
670.674973	0.433805
671.015035	0.433788
671.355047	0.433822
671.695008	0.434305
672.034918	0.437469
672.374777	0.436234
672.714585	0.437195
673.054342	0.437374
673.394049	0.437259
673.733705	0.435265
674.073310	0.435911
674.412864	0.439611
674.752368	0.439912
675.091820	0.439897
675.431223	0.444648
675.770574	0.444300
676.109875	0.447068
676.449125	0.447414
676.788324	0.449247
677.127473	0.455150
677.466571	0.454709
677.805619	0.456073
678.144616	0.457212
678.483562	0.459113
678.822458	0.461577
679.161303	0.462811
679.500098	0.463248
679.838842	0.465196
680.177535	0.463890
680.516179	0.462929
680.854771	0.461829
681.193314	0.455367
681.531805	0.446671
681.870247	0.435101
682.208638	0.427374
682.546978	0.426502
682.885268	0.428069
683.223508	0.434848
683.561697	0.438343
683.899836	0.441404
684.237925	0.444529
684.575963	0.446363
684.913951	0.450079
685.251889	0.445896
685.589776	0.447978
685.927614	0.450357
686.265401	0.444716
686.603137	0.445943
686.940824	0.439648
687.278460	0.438590
687.616046	0.437074
687.953582	0.432110
688.291068	0.433664
688.628504	0.429340
688.965889	0.431636
689.303224	0.435840
689.640510	0.439869
689.977745	0.445163
690.314930	0.453389
690.652065	0.457686
690.989150	0.465843
691.326185	0.472230
691.663170	0.476688
692.000105	0.483520
692.336990	0.490433
692.673825	0.493258
693.010610	0.499999
693.347345	0.505379
693.684030	0.507232
694.020665	0.512455
694.357251	0.520495
694.693786	0.519759
695.030272	0.524760
695.366707	0.527387
695.703093	0.531887
696.039429	0.529168
696.375716	0.531119
696.711952	0.533313
697.048139	0.535490
697.384276	0.537543
697.720363	0.535698
698.056400	0.534756
698.392388	0.541018
698.728326	0.543929
699.064214	0.546233
699.400053	0.546834
699.735842	0.551241
700.071581	0.553123
700.407270	0.556813
700.742910	0.558783
701.078501	0.565445
701.414042	0.566130
701.749533	0.568363
702.084974	0.577858
702.420366	0.570194
702.755709	0.578077
703.091002	0.584883
703.426246	0.579107
703.761440	0.584643
704.096584	0.588987
704.431679	0.586312
704.766725	0.587813
705.101721	0.590150
705.436668	0.585846
705.771565	0.593102
706.106413	0.589277
706.441212	0.585201
706.775961	0.584039
707.110661	0.587336
707.445311	0.583308
707.779913	0.580673
708.114465	0.578839
708.448967	0.575239
708.783421	0.566716
709.117825	0.562090
709.452180	0.562250
709.786485	0.555619
710.120742	0.545753
710.454949	0.547682
710.789107	0.540126
711.123216	0.530962
711.457275	0.532913
711.791286	0.523645
712.125247	0.522655
712.459159	0.533162
712.793023	0.526171
713.126837	0.529713
713.460602	0.530338
713.794318	0.539405
714.127985	0.538996
714.461602	0.548801
714.795171	0.552327
715.128691	0.559681
715.462162	0.567481
715.795584	0.572635
716.128957	0.576129
716.462281	0.582242
716.795556	0.586427
717.128782	0.590280
717.461960	0.600452
717.795088	0.598378
718.128167	0.604641
718.461198	0.613280
718.794180	0.614201
719.127113	0.617374
719.459997	0.620932
719.792833	0.627107
720.125619	0.628103
720.458357	0.634567
720.791046	0.633790
721.123686	0.637394
721.456278	0.643638
721.788821	0.641436
722.121315	0.645690
722.453761	0.650228
722.786158	0.647863
723.118506	0.643918
723.450805	0.651900
723.783056	0.647989
724.115259	0.645432
724.447412	0.644958
724.779518	0.645627
725.111574	0.645213
725.443582	0.639623
725.775542	0.642217
726.107453	0.634531
726.439315	0.634932
726.771129	0.633391
727.102895	0.626622
727.434612	0.619493
727.766281	0.617832
728.097901	0.616545
728.429473	0.616685
728.760996	0.614716
729.092471	0.614990
729.423897	0.619327
729.755276	0.618175
730.086606	0.617696
730.417887	0.612207
730.749120	0.603577
731.080305	0.593857
731.411442	0.590243
731.742530	0.595308
732.073570	0.594491
732.404562	0.586158
732.735506	0.588444
733.066401	0.592207
733.397249	0.601872
733.728048	0.613447
734.058798	0.625904
734.389501	0.636753
734.720156	0.645850
735.050762	0.654265
735.381320	0.654973
735.711831	0.664274
736.042293	0.668872
736.372707	0.665133
736.703073	0.669671
737.033391	0.672303
737.363661	0.667888
737.693883	0.663568
738.024056	0.662963
738.354182	0.663234
738.684260	0.652645
739.014290	0.649175
739.344272	0.649196
739.674207	0.642083
740.004093	0.641919
740.333931	0.642848
740.663722	0.643145
740.993464	0.643423
741.323159	0.646836
741.652806	0.651931
741.982405	0.657558
742.311956	0.662315
742.641460	0.663203
742.970915	0.667403
743.300323	0.674958
743.629683	0.682200
743.958996	0.682977
744.288260	0.687329
744.617477	0.693871
744.946647	0.695312
745.275768	0.700037
745.604842	0.700131
745.933869	0.710252
746.262847	0.710500
746.591778	0.704852
746.920662	0.710915
747.249498	0.716549
747.578286	0.708178
747.907027	0.704433
748.235720	0.705777
748.564365	0.699432
748.892963	0.699627
749.221514	0.703012
749.550017	0.707515
749.878473	0.707667
750.206881	0.713494
750.535242	0.715121
750.863555	0.715269
751.191821	0.716211
751.520039	0.718872
751.848210	0.724169
752.176334	0.717387
752.504411	0.715963
752.832440	0.723722
753.160421	0.726833
753.488356	0.725905
753.816243	0.724359
754.144082	0.731964
754.471875	0.735870
754.799620	0.730691
755.127318	0.732168
755.454969	0.732670
755.782572	0.731715
756.110129	0.737637
756.437638	0.739446
756.765100	0.735706
757.092515	0.734027
757.419882	0.733110
757.747203	0.737858
758.074477	0.737870
758.401703	0.734401
758.728882	0.729685
759.056014	0.728168
759.383099	0.727329
759.710138	0.728499
760.037129	0.725673
760.364073	0.718629
760.690970	0.721564
761.017820	0.727567
761.344623	0.722505
761.671379	0.713189
761.998088	0.701896
762.324751	0.678972
762.651366	0.637819
762.977935	0.570605
763.304456	0.518121
763.630931	0.508254
763.957359	0.547752
764.283740	0.592117
764.610074	0.620137
764.936362	0.650279
765.262602	0.677430
765.588796	0.697790
765.914943	0.716309
766.241044	0.734563
766.567097	0.741553
766.893104	0.750995
767.219064	0.757269
767.544978	0.764061
767.870845	0.777302
768.196665	0.781399
768.522438	0.778924
768.848165	0.780383
769.173846	0.789739
769.499479	0.792878
769.825066	0.796868
770.150607	0.802453
770.476101	0.797353
770.801548	0.798090
771.126949	0.810169
771.452303	0.814504
771.777611	0.813510
772.102872	0.812989
772.428087	0.817554
772.753256	0.821922
773.078378	0.823016
773.403453	0.832238
773.728482	0.836106
774.053465	0.829811
774.378401	0.833305
774.703291	0.841673
775.028135	0.840248
775.352932	0.841844
775.677683	0.845364
776.002388	0.846889
776.327046	0.845713
776.651658	0.849442
776.976224	0.853080
777.300743	0.852982
777.625216	0.854715
777.949643	0.857143
778.274024	0.857654
778.598359	0.859056
778.922647	0.857282
779.246889	0.858673
779.571086	0.861546
779.895236	0.863565
780.219339	0.861586
780.543397	0.857729
780.867409	0.856013
781.191374	0.858846
781.515294	0.860505
781.839167	0.860144
782.162995	0.862009
782.486776	0.859602
782.810511	0.859366
783.134201	0.863341
783.457844	0.861445
783.781441	0.863340
784.104993	0.871047
784.428498	0.869707
784.751958	0.866553
785.075372	0.869346
785.398739	0.872550
785.722061	0.868707
786.045337	0.864531
786.368568	0.869119
786.691752	0.872133
787.014891	0.857205
787.337983	0.848616
787.661030	0.840430
787.984031	0.823456
788.306987	0.810342
788.629897	0.812709
788.952760	0.816752
789.275579	0.821247
789.598351	0.836416
789.921078	0.848707
790.243759	0.851306
790.566395	0.856340
790.888984	0.863585
791.211529	0.868135
791.534027	0.872449
791.856480	0.874251
792.178888	0.878758
792.501249	0.881157
792.823566	0.882758
793.145836	0.883185
793.468062	0.884722
793.790241	0.885159
794.112375	0.882822
794.434464	0.877942
794.756507	0.878088
795.078505	0.877127
795.400457	0.872476
795.722364	0.859093
796.044226	0.853273
796.366042	0.851961
796.687812	0.855133
797.009538	0.851285
797.331218	0.855094
797.652852	0.859415
797.974442	0.864267
798.295986	0.864135
798.617484	0.866793
798.938938	0.870835
799.260346	0.876517
799.581709	0.878106
799.903026	0.879805
800.224299	0.879860
800.545526	0.884269
800.866708	0.888347
801.187845	0.892463
801.508936	0.892019
801.829983	0.890072
802.150984	0.892353
802.471940	0.897011
802.792851	0.897234
803.113717	0.897790
803.434538	0.895954
803.755314	0.898783
804.076045	0.899153
804.396731	0.900970
804.717372	0.899896
805.037967	0.902160
805.358518	0.899791
805.679024	0.896966
805.999485	0.896540
806.319901	0.896707
806.640272	0.898859
806.960598	0.896822
807.280879	0.892696
807.601115	0.892114
807.921306	0.896162
808.241453	0.896382
808.561554	0.894165
808.881611	0.893243
809.201623	0.896622
809.521590	0.896441
809.841513	0.897198
810.161390	0.896134
810.481223	0.896511
810.801011	0.901731
811.120755	0.903079
811.440453	0.901139
811.760107	0.899693
812.079716	0.899856
812.399281	0.904011
812.718801	0.906423
813.038276	0.906235
813.357707	0.906326
813.677093	0.903882
813.996434	0.907418
814.315731	0.908944
814.634983	0.909179
814.954191	0.908358
815.273354	0.904764
815.592473	0.900514
815.911547	0.901231
816.230577	0.898573
816.549562	0.896420
816.868502	0.896817
817.187399	0.893622
817.506250	0.887878
817.825058	0.890287
818.143821	0.886049
818.462539	0.881036
818.781213	0.872687
819.099843	0.862244
819.418429	0.845792
819.736970	0.829448
820.055466	0.809207
820.373919	0.784981
820.692327	0.750885
821.010691	0.716440
821.329011	0.637229
821.647286	0.522729
821.965517	0.408336
822.283704	0.365587
822.601847	0.366700
822.919945	0.402213
823.237999	0.435787
823.556010	0.483273
823.873976	0.539125
824.191897	0.589541
824.509775	0.632970
824.827609	0.677402
825.145398	0.700982
825.463144	0.703298
825.780845	0.686724
826.098502	0.668108
826.416116	0.622340
826.733685	0.578044
827.051210	0.568948
827.368692	0.583836
827.686129	0.621995
828.003522	0.674056
828.320872	0.722202
828.638177	0.766112
828.955439	0.798653
829.272656	0.820810
829.589830	0.838682
829.906960	0.854307
830.224046	0.865851
830.541088	0.877026
830.858086	0.880143
831.175041	0.887609
831.491952	0.886386
831.808819	0.883460
832.125642	0.877554
832.442421	0.861882
832.759157	0.839737
833.075849	0.793279
833.392497	0.729310
833.709101	0.688688
834.025662	0.698631
834.342179	0.730090
834.658653	0.769103
834.975083	0.805030
835.291469	0.830846
835.607811	0.855060
835.924110	0.869897
836.240366	0.887249
836.556578	0.902224
836.872746	0.909092
837.188871	0.914359
837.504952	0.919571
837.820990	0.924104
838.136984	0.927196
838.452935	0.929937
838.768842	0.931629
839.084706	0.924221
839.400526	0.899636
839.716303	0.859605
840.032037	0.836328
840.347727	0.840052
840.663373	0.857795
840.978977	0.879165
841.294537	0.902939
841.610054	0.919302
841.925527	0.926585
842.240957	0.933190
842.556344	0.939139
842.871687	0.945691
843.186987	0.950501
843.502244	0.951246
843.817458	0.951464
844.132629	0.955850
844.447756	0.960053
844.762840	0.960583
845.077881	0.961267
845.392879	0.960993
845.707833	0.962569
846.022745	0.965010
846.337613	0.965543
846.652438	0.966013
846.967221	0.965154
847.281960	0.965800
847.596656	0.967411
847.911309	0.966307
848.225919	0.967921
848.540485	0.968888
848.855009	0.970663
849.169490	0.969305
849.483928	0.968658
849.798323	0.969284
850.112675	0.969446
850.426984	0.971158
850.741251	0.970624
851.055474	0.971892
851.369654	0.968692
851.683792	0.970001
851.997887	0.969972
852.311938	0.971264
852.625947	0.971438
852.939914	0.969014
853.253837	0.970187
853.567718	0.971549
853.881555	0.971921
854.195350	0.968159
854.509103	0.970623
854.822812	0.970385
855.136479	0.970288
855.450103	0.970495
855.763685	0.968913
856.077224	0.969911
856.390720	0.970496
856.704173	0.971777
857.017584	0.969919
857.330953	0.967438
857.644278	0.967515
857.957561	0.968932
858.270802	0.969884
858.584000	0.967530
858.897155	0.966639
859.210268	0.968549
859.523339	0.967497
859.836367	0.970132
860.149352	0.970372
860.462295	0.969094
860.775195	0.970578
861.088054	0.969797
861.400869	0.969617
861.713642	0.970576
862.026373	0.970648
862.339062	0.970738
862.651708	0.968535
862.964312	0.967318
863.276873	0.970285
863.589392	0.969086
863.901869	0.966648
864.214303	0.964969
864.526696	0.964942
864.839045	0.964375
865.151353	0.962094
865.463619	0.963392
865.775842	0.963593
866.088023	0.963021
866.400162	0.963438
866.712258	0.962804
867.024313	0.963223
867.336325	0.963294
867.648296	0.963330
867.960224	0.961661
868.272110	0.962245
868.583954	0.964492
868.895755	0.963193
869.207515	0.961670
869.519233	0.960595
869.830909	0.960464
870.142542	0.962081
870.454134	0.962592
870.765684	0.962401
871.077191	0.958617
871.388657	0.960165
871.700081	0.956597
872.011463	0.958864
872.322803	0.958649
872.634101	0.957069
872.945357	0.955278
873.256571	0.953572
873.567744	0.953242
873.878874	0.954425
874.189963	0.952730
874.501010	0.951212
874.812015	0.949287
875.122979	0.951110
875.433900	0.952865
875.744780	0.954100
876.055618	0.951828
876.366415	0.949931
876.677169	0.951542
876.987882	0.951630
877.298554	0.951982
877.609183	0.948064
877.919771	0.945029
878.230317	0.942858
878.540822	0.939786
878.851285	0.935731
879.161707	0.926566
879.472087	0.915478
879.782425	0.898928
880.092722	0.864176
880.402977	0.811437
880.713191	0.750711
881.023363	0.690773
881.333494	0.656689
881.643583	0.629564
881.953631	0.629460
882.263637	0.658241
882.573602	0.697011
882.883526	0.723451
883.193408	0.746469
883.503248	0.769373
883.813048	0.797280
884.122806	0.826895
884.432522	0.850333
884.742197	0.870983
885.051831	0.881525
885.361424	0.891000
885.670975	0.904153
885.980485	0.914396
886.289954	0.919139
886.599382	0.925530
886.908768	0.930196
887.218113	0.934033
887.527417	0.939077
887.836680	0.942055
888.145901	0.943806
888.455082	0.946748
888.764221	0.951414
889.073319	0.953620
889.382376	0.952098
889.691392	0.953799
890.000366	0.953216
890.309300	0.954185
890.618193	0.952940
890.927044	0.951278
891.235855	0.952190
891.544625	0.952355
891.853353	0.952073
892.162041	0.949177
892.470687	0.943418
892.779293	0.938757
893.087858	0.933583
893.396381	0.926173
893.704864	0.912693
894.013306	0.888724
894.321707	0.862263
894.630068	0.847870
894.938387	0.842134
895.246665	0.843979
895.554903	0.855723
895.863100	0.869698
896.171256	0.886864
896.479371	0.906201
896.787446	0.919776
897.095480	0.925139
897.403473	0.928722
897.711425	0.932934
898.019336	0.940207
898.327207	0.941901
898.635038	0.944905
898.942827	0.945134
899.250576	0.948910
899.558284	0.953131
899.865952	0.954122
900.173579	0.955110
900.481165	0.956853
900.788711	0.958769
901.096216	0.961314
901.403681	0.962880
901.711105	0.962981
902.018489	0.963176
902.325832	0.961996
902.633135	0.962087
902.940397	0.955557
903.247619	0.944018
903.554800	0.918451
903.861941	0.878849
904.169041	0.842998
904.476101	0.825103
904.783121	0.826340
905.090100	0.841730
905.397039	0.864315
905.703938	0.886170
906.010796	0.906085
906.317614	0.922864
906.624391	0.933738
906.931129	0.944036
907.237826	0.952001
907.544483	0.959759
907.851099	0.962425
908.157675	0.968120
908.464211	0.970541
908.770707	0.973606
909.077163	0.974584
909.383578	0.974749
909.689954	0.975908
909.996289	0.976608
910.302584	0.978361
910.608839	0.980438
910.915054	0.977626
911.221229	0.978127
911.527363	0.978013
911.833458	0.977725
912.139513	0.976402
912.445527	0.976028
912.751502	0.972844
913.057436	0.972168
913.363331	0.971362
913.669186	0.966704
913.975000	0.960465
914.280775	0.955240
914.586510	0.948829
914.892205	0.935227
915.197859	0.912728
915.503475	0.886501
915.809050	0.866871
916.114585	0.861692
916.420081	0.858243
916.725536	0.854283
917.030952	0.863889
917.336328	0.876444
917.641665	0.891748
917.946961	0.907939
918.252218	0.918348
918.557435	0.928116
918.862612	0.936594
919.167750	0.942031
919.472848	0.947049
919.777906	0.952492
920.082925	0.957614
920.387904	0.961953
920.692843	0.963276
920.997743	0.963360
921.302603	0.967272
921.607423	0.969953
921.912204	0.972522
922.216946	0.972302
922.521647	0.974537
922.826310	0.974729
923.130932	0.977108
923.435516	0.978546
923.740059	0.980056
924.044564	0.978739
924.349028	0.981270
924.653454	0.982877
924.957840	0.985554
925.262186	0.984925
925.566493	0.984794
925.870761	0.985215
926.174989	0.986870
926.479178	0.989241
926.783328	0.989630
927.087438	0.989542
927.391509	0.988574
927.695541	0.990421
927.999533	0.989829
928.303486	0.990417
928.607400	0.992151
928.911275	0.990894
929.215110	0.990691
929.518906	0.992019
929.822663	0.990325
930.126381	0.991400
930.430060	0.990950
930.733699	0.991170
931.037299	0.989553
931.340861	0.991734
931.644383	0.989504
931.947866	0.989642
932.251309	0.991410
932.554714	0.989805
932.858080	0.990449
933.161407	0.991149
933.464694	0.991576
933.767943	0.990588
934.071153	0.990716
934.374323	0.991511
934.677455	0.991544
934.980548	0.992060
935.283602	0.991003
935.586617	0.992003
935.889593	0.990781
936.192530	0.991011
936.495428	0.991624
936.798287	0.991124
937.101108	0.990230
937.403890	0.989454
937.706632	0.989425
938.009336	0.986495
938.312002	0.985771
938.614628	0.985703
938.917216	0.983449
939.219765	0.982765
939.522275	0.984166
939.824747	0.983779
940.127179	0.983493
940.429573	0.984683
940.731929	0.984956
941.034246	0.984954
941.336524	0.986043
941.638763	0.986997
941.940964	0.986248
942.243126	0.987474
942.545250	0.987760
942.847335	0.988956
943.149381	0.988771
943.451389	0.988772
943.753359	0.987656
944.055290	0.991579
944.357182	0.989639
944.659036	0.988797
944.960851	0.990551
945.262628	0.990272
945.564367	0.990786
945.866067	0.990533
946.167729	0.990305
946.469352	0.990661
946.770937	0.990164
947.072484	0.991124
947.373992	0.991128
947.675462	0.990514
947.976893	0.990189
948.278286	0.990727
948.579641	0.992104
948.880958	0.992067
949.182236	0.991744
949.483476	0.991974
949.784678	0.990828
950.085841	0.991144
950.386967	0.990569
950.688054	0.991708
950.989103	0.991215
951.290114	0.989615
951.591087	0.989406
951.892021	0.991055
952.192917	0.990779
952.493776	0.988158
952.794596	0.988287
953.095378	0.988808
953.396122	0.987857
953.696828	0.988014
953.997496	0.990307
954.298126	0.990997
954.598718	0.991551
954.899272	0.990927
955.199788	0.991674
955.500266	0.991102
955.800706	0.992400
956.101108	0.994431
956.401472	0.993673
956.701798	0.995046
957.002087	0.993200
957.302337	0.994706
957.602550	0.995774
957.902724	0.995428
958.202861	0.995020
958.502960	0.995582
958.803022	0.995055
959.103045	0.996450
959.403031	0.996769
959.702979	0.995841
960.002889	0.996438
960.302762	0.994765
960.602596	0.997222
960.902393	0.995056
961.202153	0.996829
961.501875	0.997081
961.801559	0.996215
962.101205	0.996666
962.400814	0.997980
962.700385	0.998510
962.999918	0.997286
963.299414	0.996040
963.598873	0.996159
963.898293	0.996658
964.197677	0.996505
964.497022	0.997483
964.796331	0.998190
965.095601	0.996937
965.394835	0.998003
965.694030	0.997056
965.993189	0.998736
966.292309	0.997318
966.591393	0.997763
966.890439	0.997321
967.189447	0.997131
967.488419	0.998461
967.787353	0.995808
968.086249	0.997222
968.385108	0.997352
968.683930	0.997483
968.982714	0.996856
969.281462	0.997335
969.580172	0.996421
969.878844	0.998154
970.177480	0.996996
970.476078	0.996638
970.774639	0.998227
971.073162	0.997764
971.371649	0.996206
971.670098	0.996909
971.968510	0.997436
972.266885	0.996304
972.565223	0.996365
972.863524	0.997089
973.161788	0.995747
973.460014	0.997869
973.758204	0.996582
974.056356	0.997338
974.354471	0.995398
974.652550	0.997026
974.950591	0.996594
975.248595	0.997164
975.546563	0.996499
975.844493	0.998097
976.142386	0.997525
976.440243	0.997810
976.738062	0.998460
977.035845	0.997956
977.333590	0.998441
977.631299	0.998567
977.928971	0.997881
978.226606	0.996882
978.524204	0.996707
978.821765	0.999077
979.119290	0.997060
979.416777	0.996642
979.714228	0.997849
980.011642	0.996721
980.309020	0.998398
980.606360	0.996629
980.903664	0.999066
981.200931	0.996650
981.498162	0.996775
981.795356	0.995461
982.092513	0.994909
982.389633	0.994460
982.686717	0.991722
982.983764	0.991912
983.280775	0.991830
983.577749	0.990747
983.874686	0.991954
984.171587	0.991977
984.468451	0.995286
984.765279	0.994680
985.062070	0.994623
985.358824	0.995720
985.655543	0.995687
985.952224	0.996785
986.248869	0.997198
986.545478	0.997563
986.842050	0.999056
987.138586	0.996498
987.435086	0.998458
987.731549	0.999580
988.027975	0.999006
988.324366	0.997792
988.620719	0.997699
988.917037	0.995854
989.213318	0.997971
989.509563	0.999079
989.805772	0.999441
990.101944	0.998680
990.398080	0.997660
990.694180	0.998160
990.990244	0.998822
991.286271	0.997193
991.582262	0.998867
991.878217	0.998248
992.174136	0.998753
992.470019	0.999768
992.765865	0.997712
993.061676	0.998440
993.357450	0.997736
993.653188	0.997651
993.948890	0.998360
994.244556	0.998777
994.540186	0.998481
994.835780	0.997306
995.131337	0.997603
995.426859	0.997067
995.722345	0.998282
996.017795	0.996713
996.313208	0.996974
996.608586	0.996991
996.903928	0.995828
997.199234	0.996217
997.494504	0.997919
997.789738	0.997176
998.084936	0.997070
998.380099	0.998992
998.675225	0.997670
998.970316	0.999372
999.265371	0.998614
999.560390	0.998373
999.855373	1.000500
1000.150320	0.997782
1000.445232	0.998604
1000.740108	0.998121
1001.034948	0.999624
1001.329752	0.999338
1001.624521	1.000079
1001.919254	0.998710
1002.213951	0.998160
1002.508613	0.998084
1002.803239	0.998643
1003.097829	0.999266
1003.392384	1.000638
1003.686903	0.999003
1003.981386	0.999460
1004.275834	0.999550
1004.570246	0.999131
1004.864623	0.999108
1005.158964	1.000477
1005.453270	0.999072
1005.747540	0.998254
1006.041775	0.998618
1006.335974	0.999955
1006.630138	0.999431
1006.924266	0.999898
1007.218359	1.001055
1007.512416	1.000745
1007.806438	0.999551
1008.100425	1.000730
1008.394376	0.998346
1008.688292	0.998571
1008.982172	1.000995
1009.276017	0.999696
1009.569827	0.999206
1009.863602	0.999583
1010.157341	1.001218
1010.451045	0.999861
1010.744714	1.000793
1011.038347	0.999464
1011.331945	1.000274
1011.625508	0.998890
1011.919036	1.000518
1012.212528	0.999206
1012.505986	0.998561
1012.799408	0.999914
1013.092795	0.998956
1013.386147	0.999034
1013.679464	0.999579
1013.972745	0.998713
1014.265992	0.998473
1014.559204	0.999832
1014.852380	0.999657
1015.145521	0.999663
1015.438628	0.999517
1015.731699	1.000341
1016.024736	0.999435
1016.317737	0.999497
1016.610703	0.999005
1016.903635	0.999213
1017.196531	0.999265
1017.489393	0.999695
1017.782219	1.000128
1018.075011	0.998744
1018.367768	0.999910
1018.660490	0.999563
1018.953177	0.999563
1019.245829	0.999563
