Dividing Wavelength (nm)	Counts (n)	Blue Motor Position (mm): 0.000000	Red Motor Position (mm): 10.800000	
326.493990	1.000692
326.888308	1.000692
327.282561	1.000692
327.676750	0.999427
328.070874	0.998413
328.464933	1.000114
328.858929	0.998883
329.252859	0.999305
329.646726	1.000203
330.040528	1.000445
330.434265	0.999848
330.827938	1.000419
331.221547	0.999759
331.615091	0.999977
332.008571	1.000283
332.401986	1.000283
332.795338	1.000320
333.188625	0.998817
333.581847	1.001473
333.975006	0.999622
334.368100	0.998349
334.761129	1.001150
335.154095	1.002148
335.546996	0.997470
335.939833	0.992740
336.332606	0.993402
336.725315	0.994420
337.117960	0.995245
337.510540	0.993574
337.903056	0.993878
338.295508	0.992730
338.687896	0.993894
339.080220	0.993763
339.472480	0.993636
339.864676	0.992482
340.256807	0.993615
340.648875	0.994201
341.040879	0.995007
341.432818	0.993698
341.824694	0.993938
342.216506	0.993758
342.608253	0.994241
342.999937	0.993973
343.391557	0.993251
343.783113	0.992886
344.174605	0.993423
344.566033	0.993555
344.957397	0.992916
345.348697	0.993633
345.739934	0.994774
346.131106	0.992508
346.522215	0.993485
346.913260	0.993593
347.304241	0.992809
347.695159	0.993342
348.086012	0.991657
348.476802	0.993184
348.867528	0.993229
349.258191	0.992508
349.648789	0.994207
350.039324	0.993531
350.429796	0.994965
350.820203	0.993960
351.210548	0.994433
351.600828	0.993607
351.991045	0.993229
352.381198	0.991844
352.771288	0.993819
353.161314	0.993749
353.551276	0.995501
353.941175	0.992971
354.331010	0.992807
354.720782	0.993732
355.110490	0.993419
355.500135	0.994600
355.889717	0.993091
356.279235	0.993034
356.668689	0.991845
357.058080	0.993669
357.447408	0.993764
357.836672	0.994500
358.225873	0.993531
358.615010	0.993289
359.004084	0.994398
359.393095	0.993231
359.782043	0.994257
360.170927	0.993512
360.559748	0.994666
360.948505	0.992356
361.337199	0.992725
361.725830	0.994082
362.114398	0.992970
362.502903	0.993733
362.891344	0.994174
363.279722	0.991919
363.668037	0.994352
364.056289	0.991676
364.444478	0.993519
364.832603	0.992652
365.220665	0.991699
365.608665	0.992925
365.996601	0.993411
366.384474	0.992106
366.772284	0.993022
367.160031	0.991730
367.547715	0.991844
367.935336	0.992073
368.322893	0.993176
368.710388	0.991748
369.097820	0.991841
369.485189	0.990774
369.872495	0.991400
370.259738	0.989953
370.646918	0.992016
371.034035	0.992882
371.421090	0.991223
371.808081	0.992585
372.195010	0.991921
372.581875	0.992027
372.968678	0.992705
373.355418	0.991257
373.742096	0.991726
374.128710	0.992987
374.515262	0.991302
374.901751	0.992307
375.288177	0.992395
375.674540	0.993399
376.060841	0.992056
376.447079	0.993268
376.833254	0.992045
377.219367	0.992471
377.605417	0.992881
377.991404	0.992606
378.377329	0.992414
378.763191	0.992116
379.148991	0.993769
379.534727	0.991884
379.920402	0.992203
380.306013	0.991396
380.691563	0.991801
381.077049	0.989602
381.462474	0.989952
381.847835	0.990071
382.233134	0.987131
382.618371	0.986534
383.003545	0.984130
383.388657	0.982610
383.773706	0.980851
384.158693	0.977684
384.543618	0.973389
384.928480	0.970738
385.313280	0.967132
385.698017	0.962718
386.082692	0.958946
386.467305	0.953686
386.851856	0.948334
387.236344	0.943014
387.620770	0.936724
388.005133	0.931477
388.389435	0.924529
388.773674	0.918328
389.157851	0.911061
389.541965	0.903961
389.926018	0.899624
390.310008	0.890309
390.693936	0.881317
391.077802	0.872345
391.461606	0.864985
391.845348	0.853236
392.229027	0.847795
392.612645	0.838015
392.996200	0.824942
393.379694	0.813668
393.763125	0.801703
394.146494	0.795757
394.529801	0.781665
394.913047	0.769338
395.296230	0.763953
395.679351	0.751581
396.062410	0.740999
396.445408	0.735506
396.828343	0.724822
397.211217	0.713720
397.594028	0.716154
397.976778	0.700463
398.359466	0.691136
398.742092	0.680955
399.124656	0.685564
399.507158	0.669688
399.889598	0.661801
400.271977	0.649257
400.654294	0.647736
401.036549	0.641637
401.418742	0.641118
401.800874	0.623177
402.182944	0.617219
402.564952	0.604693
402.946898	0.604426
403.328783	0.601049
403.710606	0.608218
404.092367	0.581716
404.474067	0.583897
404.855705	0.580020
405.237282	0.587329
405.618797	0.571990
406.000250	0.565608
406.381642	0.555271
406.762972	0.558868
407.144240	0.556902
407.525447	0.555556
407.906593	0.547195
408.287677	0.541493
408.668700	0.549293
409.049661	0.541768
409.430560	0.537415
409.811399	0.545215
410.192176	0.526815
410.572891	0.533337
410.953545	0.521867
411.334138	0.533784
411.714669	0.527187
412.095139	0.538674
412.475547	0.523327
412.855894	0.525253
413.236180	0.523296
413.616405	0.529235
413.996568	0.519527
414.376670	0.525525
414.756711	0.530263
415.136691	0.526939
415.516609	0.518469
415.896466	0.514564
416.276262	0.510784
416.655997	0.513209
417.035670	0.494117
417.415283	0.486007
417.794834	0.490380
418.174324	0.495619
418.553753	0.505220
418.933121	0.487013
419.312428	0.480709
419.691674	0.486968
420.070859	0.475720
420.449983	0.483012
420.829045	0.472567
421.208047	0.481003
421.586988	0.474958
421.965867	0.473521
422.344686	0.462652
422.723444	0.474902
423.102141	0.491318
423.480777	0.464758
423.859352	0.485113
424.237866	0.462152
424.616319	0.463437
424.994712	0.453533
425.373044	0.464411
425.751314	0.451976
426.129524	0.468614
426.507673	0.452826
426.885762	0.446516
427.263789	0.451718
427.641756	0.461153
428.019662	0.451635
428.397508	0.450759
428.775292	0.454681
429.153016	0.447354
429.530679	0.453673
429.908282	0.446278
430.285824	0.456254
430.663305	0.434373
431.040726	0.456179
431.418086	0.456152
431.795385	0.447555
432.172624	0.446191
432.549802	0.446913
432.926920	0.445994
433.303977	0.445788
433.680974	0.442883
434.057910	0.441173
434.434786	0.440450
434.811601	0.442878
435.188355	0.425393
435.565050	0.434464
435.941683	0.436119
436.318257	0.420412
436.694770	0.420942
437.071222	0.419122
437.447614	0.423582
437.823946	0.430156
438.200218	0.419467
438.576429	0.429944
438.952580	0.422409
439.328670	0.418548
439.704700	0.425914
440.080670	0.426968
440.456580	0.407840
440.832429	0.416017
441.208218	0.426672
441.583947	0.416044
441.959616	0.415778
442.335224	0.420443
442.710773	0.411680
443.086261	0.409061
443.461689	0.423039
443.837057	0.412463
444.212365	0.402991
444.587612	0.410410
444.962800	0.399891
445.337927	0.401608
445.712995	0.427847
446.088002	0.390068
446.462949	0.400251
446.837837	0.405115
447.212664	0.394466
447.587431	0.385316
447.962139	0.356647
448.336786	0.315509
448.711374	0.325814
449.085901	0.369747
449.460369	0.373854
449.834776	0.377505
450.209124	0.357084
450.583412	0.349471
450.957640	0.342682
451.331808	0.353896
451.705917	0.377223
452.079965	0.381771
452.453954	0.370234
452.827883	0.376746
453.201752	0.371942
453.575562	0.383409
453.949311	0.372069
454.323001	0.377455
454.696632	0.373080
455.070202	0.366169
455.443713	0.357914
455.817164	0.353151
456.190556	0.348944
456.563888	0.345344
456.937160	0.343272
457.310373	0.360893
457.683526	0.359000
458.056619	0.365007
458.429653	0.365372
458.802628	0.368694
459.175542	0.363019
459.548398	0.345537
459.921194	0.338154
460.293930	0.338850
460.666607	0.315865
461.039224	0.304352
461.411782	0.300021
461.784280	0.299368
462.156719	0.303300
462.529099	0.307832
462.901419	0.323312
463.273680	0.328140
463.645882	0.327487
464.018024	0.333103
464.390106	0.326405
464.762130	0.311344
465.134094	0.294345
465.505999	0.263166
465.877845	0.233664
466.249631	0.221133
466.621358	0.228152
466.993026	0.241982
467.364634	0.248202
467.736184	0.257220
468.107674	0.265714
468.479105	0.264525
468.850477	0.271464
469.221790	0.278256
469.593043	0.288714
469.964238	0.293568
470.335373	0.292827
470.706449	0.290793
471.077467	0.291768
471.448425	0.253872
471.819324	0.229041
472.190164	0.228554
472.560945	0.257522
472.931667	0.279754
473.302330	0.283704
473.672934	0.296149
474.043479	0.283991
474.413965	0.285583
474.784393	0.289080
475.154761	0.284050
475.525070	0.281459
475.895321	0.287054
476.265513	0.281325
476.635645	0.276652
477.005719	0.276740
477.375734	0.273111
477.745691	0.266283
478.115588	0.262927
478.485427	0.256474
478.855207	0.243126
479.224928	0.225723
479.594591	0.213977
479.964194	0.217615
480.333739	0.218401
480.703226	0.219989
481.072653	0.218358
481.442022	0.213945
481.811333	0.210556
482.180584	0.214175
482.549777	0.219302
482.918912	0.222803
483.287988	0.222427
483.657005	0.222116
484.025964	0.228676
484.394864	0.225970
484.763706	0.226373
485.132489	0.231340
485.501213	0.232360
485.869879	0.230510
486.238487	0.233844
486.607036	0.231650
486.975527	0.235985
487.343959	0.232159
487.712333	0.231176
488.080648	0.232712
488.448905	0.231904
488.817104	0.233115
489.185244	0.227537
489.553326	0.224470
489.921350	0.214299
490.289315	0.197000
490.657222	0.192057
491.025070	0.193437
491.392861	0.195019
491.760593	0.200975
492.128267	0.206329
492.495883	0.212298
492.863440	0.218522
493.230939	0.224849
493.598380	0.225952
493.965763	0.228113
494.333088	0.230596
494.700354	0.231736
495.067563	0.231001
495.434713	0.234295
495.801805	0.231865
496.168839	0.233590
496.535815	0.235013
496.902733	0.234993
497.269593	0.236513
497.636395	0.234305
498.003139	0.234415
498.369825	0.237487
498.736453	0.233996
499.103023	0.235485
499.469535	0.234807
499.835989	0.235148
500.202385	0.236000
500.568723	0.239395
500.935003	0.234651
501.301226	0.238894
501.667390	0.233036
502.033497	0.231014
502.399546	0.234212
502.765537	0.235669
503.131470	0.234433
503.497345	0.230761
503.863163	0.239286
504.228923	0.232269
504.594625	0.230842
504.960269	0.236386
505.325856	0.231591
505.691385	0.236234
506.056856	0.232637
506.422270	0.232159
506.787625	0.234623
507.152924	0.232332
507.518164	0.232471
507.883347	0.234008
508.248472	0.235915
508.613540	0.231126
508.978550	0.233394
509.343503	0.233977
509.708398	0.231661
510.073236	0.229327
510.438016	0.229317
510.802738	0.230171
511.167403	0.229141
511.532010	0.231047
511.896561	0.226268
512.261053	0.225216
512.625488	0.227380
512.989866	0.227629
513.354186	0.228006
513.718449	0.229603
514.082655	0.226135
514.446803	0.228473
514.810894	0.226028
515.174927	0.228822
515.538904	0.228152
515.902822	0.224906
516.266684	0.227420
516.630488	0.228680
516.994235	0.227352
517.357925	0.226013
517.721558	0.224488
518.085133	0.223736
518.448651	0.224092
518.812112	0.226296
519.175516	0.225948
519.538863	0.223646
519.902152	0.225424
520.265385	0.222087
520.628560	0.223679
520.991678	0.224362
521.354739	0.223152
521.717743	0.224239
522.080690	0.224355
522.443580	0.221894
522.806413	0.223026
523.169189	0.222484
523.531908	0.221189
523.894569	0.224931
524.257174	0.224614
524.619722	0.222480
524.982213	0.223422
525.344647	0.222298
525.707025	0.223448
526.069345	0.221550
526.431608	0.223155
526.793815	0.221195
527.155964	0.225255
527.518057	0.224146
527.880093	0.225171
528.242072	0.223806
528.603995	0.225762
528.965860	0.227377
529.327669	0.226283
529.689421	0.227130
530.051117	0.227821
530.412755	0.225403
530.774337	0.227927
531.135862	0.228496
531.497331	0.227467
531.858743	0.230721
532.220098	0.227155
532.581396	0.229881
532.942638	0.230356
533.303824	0.231359
533.664953	0.231043
534.026025	0.232636
534.387040	0.230905
534.747999	0.230560
535.108902	0.229694
535.469748	0.234552
535.830537	0.232419
536.191270	0.232833
536.551947	0.232240
536.912567	0.232413
537.273131	0.234174
537.633638	0.234299
537.994089	0.234656
538.354483	0.235478
538.714821	0.232768
539.075103	0.232460
539.435328	0.232995
539.795497	0.236883
540.155609	0.233540
540.515665	0.231756
540.875665	0.237675
541.235609	0.235828
541.595496	0.235977
541.955328	0.232622
542.315102	0.235316
542.674821	0.236034
543.034483	0.236505
543.394090	0.235975
543.753640	0.238021
544.113134	0.232769
544.472571	0.236141
544.831953	0.232990
545.191278	0.237080
545.550548	0.236498
545.909761	0.233213
546.268918	0.233966
546.628019	0.232349
546.987064	0.235052
547.346053	0.236769
547.704986	0.234733
548.063863	0.235275
548.422684	0.235130
548.781449	0.237171
549.140158	0.234828
549.498811	0.237535
549.857408	0.240567
550.215949	0.235516
550.574434	0.238504
550.932864	0.236293
551.291237	0.235095
551.649555	0.236736
552.007817	0.236113
552.366022	0.237258
552.724173	0.237309
553.082267	0.237460
553.440305	0.234668
553.798288	0.238968
554.156215	0.235756
554.514086	0.236103
554.871902	0.239414
555.229661	0.238585
555.587365	0.239253
555.945014	0.241655
556.302606	0.238659
556.660143	0.241105
557.017625	0.237690
557.375050	0.239907
557.732421	0.236904
558.089735	0.239016
558.446994	0.239045
558.804197	0.238149
559.161345	0.238121
559.518437	0.241823
559.875474	0.239140
560.232455	0.238821
560.589381	0.239718
560.946251	0.240194
561.303065	0.237559
561.659825	0.238987
562.016528	0.240577
562.373177	0.243333
562.729770	0.240433
563.086307	0.242640
563.442789	0.240452
563.799216	0.243045
564.155587	0.242046
564.511904	0.243154
564.868164	0.243422
565.224370	0.243207
565.580520	0.244762
565.936615	0.244807
566.292654	0.248017
566.648638	0.244823
567.004567	0.245632
567.360441	0.246029
567.716260	0.248188
568.072023	0.246136
568.427732	0.246737
568.783385	0.249414
569.138982	0.247300
569.494525	0.246985
569.850013	0.249689
570.205445	0.248459
570.560823	0.250682
570.916145	0.253017
571.271412	0.251064
571.626625	0.252448
571.981782	0.252991
572.336884	0.253726
572.691931	0.253505
573.046923	0.254770
573.401860	0.255786
573.756743	0.257658
574.111570	0.256760
574.466342	0.257189
574.821059	0.256284
575.175722	0.259083
575.530330	0.258785
575.884882	0.258928
576.239380	0.261297
576.593823	0.261737
576.948211	0.261065
577.302544	0.264166
577.656823	0.263902
578.011047	0.263942
578.365216	0.264665
578.719330	0.266818
579.073389	0.266528
579.427394	0.267758
579.781344	0.268789
580.135239	0.270184
580.489080	0.269836
580.842866	0.272611
581.196597	0.272474
581.550273	0.271315
581.903895	0.272251
582.257463	0.270235
582.610975	0.273829
582.964434	0.272949
583.317837	0.275696
583.671186	0.275919
584.024481	0.275925
584.377721	0.278495
584.730906	0.279146
585.084037	0.278482
585.437113	0.280350
585.790135	0.279733
586.143103	0.282412
586.496016	0.283518
586.848874	0.281181
587.201679	0.281862
587.554428	0.285157
587.907124	0.283777
588.259765	0.284488
588.612352	0.285141
588.964884	0.288822
589.317362	0.288444
589.669786	0.288191
590.022155	0.286887
590.374470	0.286488
590.726731	0.288033
591.078937	0.293266
591.431090	0.289186
591.783188	0.293673
592.135232	0.294213
592.487222	0.294116
592.839157	0.292051
593.191038	0.294787
593.542866	0.296546
593.894639	0.300303
594.246358	0.298117
594.598022	0.297488
594.949633	0.301264
595.301190	0.302155
595.652692	0.301216
596.004141	0.297193
596.355535	0.305380
596.706876	0.305714
597.058162	0.307898
597.409395	0.305449
597.760573	0.303044
598.111698	0.306441
598.462768	0.306738
598.813785	0.308172
599.164748	0.309552
599.515657	0.309862
599.866511	0.312927
600.217312	0.308237
600.568060	0.313836
600.918753	0.310094
601.269392	0.311058
601.619978	0.314166
601.970510	0.311877
602.320988	0.311896
602.671412	0.309605
603.021783	0.312052
603.372100	0.313942
603.722363	0.313233
604.072572	0.313894
604.422728	0.313640
604.772830	0.315753
605.122878	0.315403
605.472872	0.315971
605.822813	0.314569
606.172701	0.317213
606.522534	0.314697
606.872314	0.314389
607.222041	0.315227
607.571714	0.313560
607.921333	0.314633
608.270899	0.314752
608.620411	0.311350
608.969870	0.315690
609.319276	0.315632
609.668627	0.315423
610.017926	0.313927
610.367171	0.312405
610.716362	0.313152
611.065500	0.313466
611.414585	0.312074
611.763616	0.312681
612.112594	0.313370
612.461518	0.313050
612.810389	0.310552
613.159207	0.312480
613.507971	0.314420
613.856682	0.310250
614.205340	0.311543
614.553945	0.308148
614.902496	0.312682
615.250994	0.310147
615.599439	0.311246
615.947830	0.310630
616.296169	0.311573
616.644454	0.311260
616.992686	0.310744
617.340864	0.308758
617.688990	0.312525
618.037063	0.309310
618.385082	0.311318
618.733048	0.307583
619.080961	0.310202
619.428821	0.309500
619.776628	0.309558
620.124382	0.311151
620.472083	0.311264
620.819731	0.310702
621.167326	0.314404
621.514868	0.314677
621.862357	0.318838
622.209793	0.318204
622.557176	0.320691
622.904506	0.321818
623.251783	0.324172
623.599007	0.326153
623.946179	0.326016
624.293297	0.327786
624.640363	0.331659
624.987376	0.332263
625.334336	0.334784
625.681243	0.336904
626.028097	0.337628
626.374899	0.338916
626.721647	0.339217
627.068343	0.342147
627.414987	0.343279
627.761577	0.345234
628.108115	0.343820
628.454600	0.348578
628.801032	0.346208
629.147412	0.348155
629.493739	0.348765
629.840014	0.351647
630.186236	0.348961
630.532405	0.354627
630.878521	0.352011
631.224585	0.354375
631.570597	0.358242
631.916556	0.356210
632.262462	0.356386
632.608316	0.358479
632.954117	0.359458
633.299866	0.359943
633.645562	0.360545
633.991206	0.364858
634.336797	0.367626
634.682336	0.370347
635.027823	0.371498
635.373257	0.372149
635.718639	0.376045
636.063968	0.375014
636.409245	0.381014
636.754470	0.381379
637.099642	0.383762
637.444762	0.387220
637.789829	0.386102
638.134845	0.389780
638.479808	0.390360
638.824719	0.390583
639.169577	0.394813
639.514383	0.393583
639.859137	0.397770
640.203839	0.397332
640.548489	0.397736
640.893086	0.399834
641.237632	0.400894
641.582125	0.399272
641.926566	0.401083
642.270955	0.401199
642.615292	0.401315
642.959576	0.400819
643.303809	0.401121
643.647990	0.400795
643.992118	0.401291
644.336195	0.404629
644.680219	0.402844
645.024192	0.403785
645.368112	0.397521
645.711981	0.396547
646.055797	0.391473
646.399562	0.394007
646.743274	0.385686
647.086935	0.383748
647.430544	0.383543
647.774101	0.382663
648.117606	0.382174
648.461059	0.382876
648.804460	0.384693
649.147810	0.390187
649.491108	0.392204
649.834354	0.393666
650.177548	0.398849
650.520690	0.404323
650.863781	0.405447
651.206820	0.404756
651.549807	0.409464
651.892742	0.413407
652.235626	0.413100
652.578458	0.414499
652.921238	0.420202
653.263967	0.417565
653.606644	0.421694
653.949269	0.421948
654.291843	0.425912
654.634365	0.422347
654.976836	0.426009
655.319255	0.425400
655.661622	0.427044
656.003938	0.427148
656.346203	0.430059
656.688416	0.428029
657.030577	0.431831
657.372687	0.433220
657.714746	0.434155
658.056753	0.431454
658.398708	0.434805
658.740612	0.436103
659.082465	0.432051
659.424266	0.432871
659.766016	0.432470
660.107715	0.434964
660.449362	0.433951
660.790958	0.435173
661.132503	0.435062
661.473996	0.432436
661.815438	0.433642
662.156829	0.433595
662.498168	0.434419
662.839456	0.435858
663.180693	0.433615
663.521879	0.433644
663.863013	0.434723
664.204097	0.433062
664.545129	0.430052
664.886110	0.430838
665.227040	0.427762
665.567918	0.430427
665.908746	0.428516
666.249522	0.427963
666.590248	0.429198
666.930922	0.427084
667.271545	0.426100
667.612118	0.426089
667.952639	0.427804
668.293109	0.426303
668.633528	0.429300
668.973896	0.429164
669.314213	0.429523
669.654480	0.430943
669.994695	0.431617
670.334859	0.432297
670.674973	0.432591
671.015035	0.432470
671.355047	0.432746
671.695008	0.434279
672.034918	0.435545
672.374777	0.434456
672.714585	0.435724
673.054342	0.436315
673.394049	0.435932
673.733705	0.433558
674.073310	0.435072
674.412864	0.437923
674.752368	0.438499
675.091820	0.438786
675.431223	0.442880
675.770574	0.442968
676.109875	0.445891
676.449125	0.445932
676.788324	0.447958
677.127473	0.453538
677.466571	0.453229
677.805619	0.454875
678.144616	0.455827
678.483562	0.457252
678.822458	0.459925
679.161303	0.461041
679.500098	0.461474
679.838842	0.463650
680.177535	0.462845
680.516179	0.461716
680.854771	0.460417
681.193314	0.454153
681.531805	0.445177
681.870247	0.433577
682.208638	0.426408
682.546978	0.424875
682.885268	0.426863
683.223508	0.432841
683.561697	0.437049
683.899836	0.439997
684.237925	0.442666
684.575963	0.445462
684.913951	0.448346
685.251889	0.443894
685.589776	0.446239
685.927614	0.448433
686.265401	0.443338
686.603137	0.444360
686.940824	0.438208
687.278460	0.436481
687.616046	0.435956
687.953582	0.430660
688.291068	0.432034
688.628504	0.428189
688.965889	0.430162
689.303224	0.434445
689.640510	0.438296
689.977745	0.444188
690.314930	0.451794
690.652065	0.456731
690.989150	0.463998
691.326185	0.470331
691.663170	0.475051
692.000105	0.482484
692.336990	0.489172
692.673825	0.491181
693.010610	0.498469
693.347345	0.504422
693.684030	0.505464
694.020665	0.510489
694.357251	0.518980
694.693786	0.518887
695.030272	0.523532
695.366707	0.526734
695.703093	0.530143
696.039429	0.527582
696.375716	0.528992
696.711952	0.532171
697.048139	0.534467
697.384276	0.536009
697.720363	0.534256
698.056400	0.533637
698.392388	0.538563
698.728326	0.542482
699.064214	0.544777
699.400053	0.545471
699.735842	0.549126
700.071581	0.552362
700.407270	0.554791
700.742910	0.557375
701.078501	0.564322
701.414042	0.564413
701.749533	0.567498
702.084974	0.576169
702.420366	0.568164
702.755709	0.576165
703.091002	0.583650
703.426246	0.577850
703.761440	0.582746
704.096584	0.588096
704.431679	0.584740
704.766725	0.586722
705.101721	0.588722
705.436668	0.584869
705.771565	0.591602
706.106413	0.587930
706.441212	0.583637
706.775961	0.582823
707.110661	0.585546
707.445311	0.581796
707.779913	0.578749
708.114465	0.577588
708.448967	0.574363
708.783421	0.566345
709.117825	0.560838
709.452180	0.560737
709.786485	0.554193
710.120742	0.544006
710.454949	0.546729
710.789107	0.538564
711.123216	0.529838
711.457275	0.531778
711.791286	0.521578
712.125247	0.521351
712.459159	0.531526
712.793023	0.524371
713.126837	0.528790
713.460602	0.528997
713.794318	0.538165
714.127985	0.537833
714.461602	0.547091
714.795171	0.550402
715.128691	0.558126
715.462162	0.565534
715.795584	0.571070
716.128957	0.574884
716.462281	0.580608
716.795556	0.583853
717.128782	0.589213
717.461960	0.599375
717.795088	0.597288
718.128167	0.603622
718.461198	0.611977
718.794180	0.613385
719.127113	0.615383
719.459997	0.619840
719.792833	0.625511
720.125619	0.626734
720.458357	0.632798
720.791046	0.632379
721.123686	0.636467
721.456278	0.642112
721.788821	0.639828
722.121315	0.644873
722.453761	0.648231
722.786158	0.646804
723.118506	0.643146
723.450805	0.651048
723.783056	0.646392
724.115259	0.643775
724.447412	0.643298
724.779518	0.645156
725.111574	0.644454
725.443582	0.638931
725.775542	0.641482
726.107453	0.633606
726.439315	0.633387
726.771129	0.631849
727.102895	0.625339
727.434612	0.618495
727.766281	0.615928
728.097901	0.615623
728.429473	0.614858
728.760996	0.613982
729.092471	0.613623
729.423897	0.617389
729.755276	0.616851
730.086606	0.616732
730.417887	0.610484
730.749120	0.601002
731.080305	0.592049
731.411442	0.588823
731.742530	0.593803
732.073570	0.592557
732.404562	0.585365
732.735506	0.586828
733.066401	0.591503
733.397249	0.600424
733.728048	0.611225
734.058798	0.624595
734.389501	0.634912
734.720156	0.645324
735.050762	0.652980
735.381320	0.653047
735.711831	0.663960
736.042293	0.667101
736.372707	0.663493
736.703073	0.668070
737.033391	0.670534
737.363661	0.667713
737.693883	0.662392
738.024056	0.661228
738.354182	0.661820
738.684260	0.651324
739.014290	0.647541
739.344272	0.647225
739.674207	0.642010
740.004093	0.640927
740.333931	0.641414
740.663722	0.641146
740.993464	0.641575
741.323159	0.644793
741.652806	0.650946
741.982405	0.654905
742.311956	0.660381
742.641460	0.662164
742.970915	0.665698
743.300323	0.673444
743.629683	0.679744
743.958996	0.681538
744.288260	0.686333
744.617477	0.691712
744.946647	0.693915
745.275768	0.699574
745.604842	0.699889
745.933869	0.708270
746.262847	0.710045
746.591778	0.703097
746.920662	0.709638
747.249498	0.715514
747.578286	0.706894
747.907027	0.702420
748.235720	0.704082
748.564365	0.698819
748.892963	0.699090
749.221514	0.702221
749.550017	0.705466
749.878473	0.706214
750.206881	0.712719
750.535242	0.713983
750.863555	0.714033
751.191821	0.715563
751.520039	0.718198
751.848210	0.723389
752.176334	0.715865
752.504411	0.713901
752.832440	0.722736
753.160421	0.726104
753.488356	0.724956
753.816243	0.722696
754.144082	0.729568
754.471875	0.734056
754.799620	0.729658
755.127318	0.730441
755.454969	0.730978
755.782572	0.730175
756.110129	0.735548
756.437638	0.737204
756.765100	0.734261
757.092515	0.731899
757.419882	0.731159
757.747203	0.736627
758.074477	0.736593
758.401703	0.733023
758.728882	0.727725
759.056014	0.727426
759.383099	0.726192
759.710138	0.728063
760.037129	0.723024
760.364073	0.717535
760.690970	0.720382
761.017820	0.726021
761.344623	0.720971
761.671379	0.711795
761.998088	0.701422
762.324751	0.677475
762.651366	0.635669
762.977935	0.568805
763.304456	0.515680
763.630931	0.506881
763.957359	0.545985
764.283740	0.590289
764.610074	0.617881
764.936362	0.648961
765.262602	0.676601
765.588796	0.697663
765.914943	0.714388
766.241044	0.733760
766.567097	0.739837
766.893104	0.749985
767.219064	0.755527
767.544978	0.762687
767.870845	0.776367
768.196665	0.779783
768.522438	0.778135
768.848165	0.779251
769.173846	0.788195
769.499479	0.793206
769.825066	0.795787
770.150607	0.801315
770.476101	0.796290
770.801548	0.797989
771.126949	0.808047
771.452303	0.811949
771.777611	0.811499
772.102872	0.811462
772.428087	0.816442
772.753256	0.819497
773.078378	0.821199
773.403453	0.830849
773.728482	0.835357
774.053465	0.828755
774.378401	0.831572
774.703291	0.840558
775.028135	0.839444
775.352932	0.842015
775.677683	0.845729
776.002388	0.844501
776.327046	0.845117
776.651658	0.848133
776.976224	0.851556
777.300743	0.851685
777.625216	0.854806
777.949643	0.855626
778.274024	0.855133
778.598359	0.857742
778.922647	0.856661
779.246889	0.855992
779.571086	0.860829
779.895236	0.863123
780.219339	0.858448
780.543397	0.856081
780.867409	0.855283
781.191374	0.858193
781.515294	0.859147
781.839167	0.858170
782.162995	0.860490
782.486776	0.858272
782.810511	0.859100
783.134201	0.862416
783.457844	0.860746
783.781441	0.863500
784.104993	0.869485
784.428498	0.869219
784.751958	0.864337
785.075372	0.867220
785.398739	0.871519
785.722061	0.867722
786.045337	0.862831
786.368568	0.868433
786.691752	0.870386
787.014891	0.855965
787.337983	0.847388
787.661030	0.839021
787.984031	0.822161
788.306987	0.809238
788.629897	0.811257
788.952760	0.815830
789.275579	0.819552
789.598351	0.835324
789.921078	0.847181
790.243759	0.850506
790.566395	0.855105
790.888984	0.862363
791.211529	0.867616
791.534027	0.870997
791.856480	0.873016
792.178888	0.878032
792.501249	0.879981
792.823566	0.881606
793.145836	0.881414
793.468062	0.884259
793.790241	0.883153
794.112375	0.881036
794.434464	0.877158
794.756507	0.876495
795.078505	0.876170
795.400457	0.869931
795.722364	0.858233
796.044226	0.851760
796.366042	0.850522
796.687812	0.854543
797.009538	0.850876
797.331218	0.852759
797.652852	0.858003
797.974442	0.863093
798.295986	0.863415
798.617484	0.865896
798.938938	0.869711
799.260346	0.874449
799.581709	0.877085
799.903026	0.878608
800.224299	0.879543
800.545526	0.882552
800.866708	0.888055
801.187845	0.891895
801.508936	0.891045
801.829983	0.888959
802.150984	0.891946
802.471940	0.896405
802.792851	0.896261
803.113717	0.897292
803.434538	0.894900
803.755314	0.898159
804.076045	0.898507
804.396731	0.899143
804.717372	0.898836
805.037967	0.899327
805.358518	0.898935
805.679024	0.895329
805.999485	0.895333
806.319901	0.896318
806.640272	0.896639
806.960598	0.894885
807.280879	0.892517
807.601115	0.891221
807.921306	0.895354
808.241453	0.895875
808.561554	0.893029
808.881611	0.892500
809.201623	0.894373
809.521590	0.894906
809.841513	0.896266
810.161390	0.895382
810.481223	0.897034
810.801011	0.899810
811.120755	0.901161
811.440453	0.900702
811.760107	0.898678
812.079716	0.899760
812.399281	0.903040
812.718801	0.905192
813.038276	0.905746
813.357707	0.905388
813.677093	0.903366
813.996434	0.905521
814.315731	0.906981
814.634983	0.908169
814.954191	0.906891
815.273354	0.904426
815.592473	0.899334
815.911547	0.900173
816.230577	0.897395
816.549562	0.894753
816.868502	0.896397
817.187399	0.891575
817.506250	0.886595
817.825058	0.888035
818.143821	0.885395
818.462539	0.879528
818.781213	0.871521
819.099843	0.860407
819.418429	0.843940
819.736970	0.826966
820.055466	0.806861
820.373919	0.781754
820.692327	0.748485
821.010691	0.713155
821.329011	0.635037
821.647286	0.518744
821.965517	0.404356
822.283704	0.360855
822.601847	0.361974
822.919945	0.397685
823.237999	0.431923
823.556010	0.479065
823.873976	0.535083
824.191897	0.587058
824.509775	0.630268
824.827609	0.674717
825.145398	0.698129
825.463144	0.700957
825.780845	0.684213
826.098502	0.666060
826.416116	0.619066
826.733685	0.573905
827.051210	0.565714
827.368692	0.580669
827.686129	0.618452
828.003522	0.671575
828.320872	0.719724
828.638177	0.764272
828.955439	0.797313
829.272656	0.819280
829.589830	0.836450
829.906960	0.852893
830.224046	0.864653
830.541088	0.875924
830.858086	0.878551
831.175041	0.885141
831.491952	0.885246
831.808819	0.882610
832.125642	0.876310
832.442421	0.860198
832.759157	0.838574
833.075849	0.790887
833.392497	0.727299
833.709101	0.686363
834.025662	0.695290
834.342179	0.727184
834.658653	0.766994
834.975083	0.803315
835.291469	0.829130
835.607811	0.852315
835.924110	0.868617
836.240366	0.885915
836.556578	0.899499
836.872746	0.907346
837.188871	0.914373
837.504952	0.919058
837.820990	0.923109
838.136984	0.926087
838.452935	0.929512
838.768842	0.929619
839.084706	0.923585
839.400526	0.897367
839.716303	0.857439
840.032037	0.834708
840.347727	0.838908
840.663373	0.856801
840.978977	0.878195
841.294537	0.900874
841.610054	0.916740
841.925527	0.924728
842.240957	0.931304
842.556344	0.939413
842.871687	0.944343
843.186987	0.949271
843.502244	0.948275
843.817458	0.951921
844.132629	0.955221
844.447756	0.959744
844.762840	0.959153
845.077881	0.959096
845.392879	0.960208
845.707833	0.962343
846.022745	0.964721
846.337613	0.964387
846.652438	0.964769
846.967221	0.963676
847.281960	0.964130
847.596656	0.967155
847.911309	0.965643
848.225919	0.967111
848.540485	0.966959
848.855009	0.968886
849.169490	0.967578
849.483928	0.968824
849.798323	0.968370
850.112675	0.969955
850.426984	0.968275
850.741251	0.969866
851.055474	0.969213
851.369654	0.967697
851.683792	0.969679
851.997887	0.968620
852.311938	0.970098
852.625947	0.969533
852.939914	0.967954
853.253837	0.969277
853.567718	0.969396
853.881555	0.969651
854.195350	0.967541
854.509103	0.969716
854.822812	0.968381
855.136479	0.970317
855.450103	0.969370
855.763685	0.966486
856.077224	0.968085
856.390720	0.970486
856.704173	0.969539
857.017584	0.968414
857.330953	0.966002
857.644278	0.968058
857.957561	0.968597
858.270802	0.967638
858.584000	0.968404
858.897155	0.966546
859.210268	0.966661
859.523339	0.967757
859.836367	0.969233
860.149352	0.970707
860.462295	0.968410
860.775195	0.970366
861.088054	0.969590
861.400869	0.969574
861.713642	0.970697
862.026373	0.969711
862.339062	0.969669
862.651708	0.968031
862.964312	0.967198
863.276873	0.968634
863.589392	0.968193
863.901869	0.965898
864.214303	0.963934
864.526696	0.962906
864.839045	0.963814
865.151353	0.961652
865.463619	0.961752
865.775842	0.962410
866.088023	0.961500
866.400162	0.961453
866.712258	0.961869
867.024313	0.962616
867.336325	0.963373
867.648296	0.962853
867.960224	0.961762
868.272110	0.961254
868.583954	0.963228
868.895755	0.963680
869.207515	0.961436
869.519233	0.959210
869.830909	0.959965
870.142542	0.962049
870.454134	0.961695
870.765684	0.960848
871.077191	0.957572
871.388657	0.958049
871.700081	0.956851
872.011463	0.957669
872.322803	0.957534
872.634101	0.955643
872.945357	0.953446
873.256571	0.951791
873.567744	0.951974
873.878874	0.952647
874.189963	0.951280
874.501010	0.950834
874.812015	0.948098
875.122979	0.950237
875.433900	0.951516
875.744780	0.953933
876.055618	0.950510
876.366415	0.949155
876.677169	0.948978
876.987882	0.948622
877.298554	0.949011
877.609183	0.947578
877.919771	0.943286
878.230317	0.940167
878.540822	0.940415
878.851285	0.933429
879.161707	0.925734
879.472087	0.912600
879.782425	0.896326
880.092722	0.861974
880.402977	0.809020
880.713191	0.746882
881.023363	0.686100
881.333494	0.651338
881.643583	0.624632
881.953631	0.623591
882.263637	0.652870
882.573602	0.691934
882.883526	0.717197
883.193408	0.743480
883.503248	0.765519
883.813048	0.793027
884.122806	0.824245
884.432522	0.846183
884.742197	0.868338
885.051831	0.878527
885.361424	0.889500
885.670975	0.901898
885.980485	0.911296
886.289954	0.916661
886.599382	0.923204
886.908768	0.927213
887.218113	0.933386
887.527417	0.937224
887.836680	0.940764
888.145901	0.942066
888.455082	0.944760
888.764221	0.949278
889.073319	0.951848
889.382376	0.952206
889.691392	0.952728
890.000366	0.951455
890.309300	0.952232
890.618193	0.951122
890.927044	0.949950
891.235855	0.950896
891.544625	0.950736
891.853353	0.951316
892.162041	0.947748
892.470687	0.941425
892.779293	0.936872
893.087858	0.932207
893.396381	0.924739
893.704864	0.910254
894.013306	0.886728
894.321707	0.858672
894.630068	0.843764
894.938387	0.840385
895.246665	0.840304
895.554903	0.853133
895.863100	0.866891
896.171256	0.884672
896.479371	0.904256
896.787446	0.917646
897.095480	0.924032
897.403473	0.926369
897.711425	0.930391
898.019336	0.939169
898.327207	0.940903
898.635038	0.943431
898.942827	0.943183
899.250576	0.946705
899.558284	0.951142
899.865952	0.952366
900.173579	0.953688
900.481165	0.953720
900.788711	0.958042
901.096216	0.960175
901.403681	0.960834
901.711105	0.961480
902.018489	0.962089
902.325832	0.961830
902.633135	0.960302
902.940397	0.953361
903.247619	0.941115
903.554800	0.915199
903.861941	0.876752
904.169041	0.838832
904.476101	0.820540
904.783121	0.821155
905.090100	0.837419
905.397039	0.860324
905.703938	0.882579
906.010796	0.901953
906.317614	0.921222
906.624391	0.932119
906.931129	0.943476
907.237826	0.950127
907.544483	0.957873
907.851099	0.960939
908.157675	0.967761
908.464211	0.968652
908.770707	0.971946
909.077163	0.973322
909.383578	0.974200
909.689954	0.974383
909.996289	0.974446
910.302584	0.976650
910.608839	0.978063
910.915054	0.977432
911.221229	0.977622
911.527363	0.975807
911.833458	0.975731
912.139513	0.976294
912.445527	0.975158
912.751502	0.972438
913.057436	0.971945
913.363331	0.968741
913.669186	0.964526
913.975000	0.960015
914.280775	0.954195
914.586510	0.946753
914.892205	0.933305
915.197859	0.912213
915.503475	0.883561
915.809050	0.863085
916.114585	0.858103
916.420081	0.853869
916.725536	0.851147
917.030952	0.859761
917.336328	0.872688
917.641665	0.888199
917.946961	0.904496
918.252218	0.915429
918.557435	0.925724
918.862612	0.935296
919.167750	0.941144
919.472848	0.945000
919.777906	0.950700
920.082925	0.955592
920.387904	0.961265
920.692843	0.961988
920.997743	0.963545
921.302603	0.966249
921.607423	0.968947
921.912204	0.970049
922.216946	0.971290
922.521647	0.972300
922.826310	0.974822
923.130932	0.976666
923.435516	0.975829
923.740059	0.979248
924.044564	0.978491
924.349028	0.979926
924.653454	0.982610
924.957840	0.984730
925.262186	0.984010
925.566493	0.983321
925.870761	0.984844
926.174989	0.984619
926.479178	0.986852
926.783328	0.987603
927.087438	0.988015
927.391509	0.988111
927.695541	0.990367
927.999533	0.989370
928.303486	0.989065
928.607400	0.991204
928.911275	0.988230
929.215110	0.989981
929.518906	0.991448
929.822663	0.988493
930.126381	0.990867
930.430060	0.989770
930.733699	0.989335
931.037299	0.988974
931.340861	0.990396
931.644383	0.988540
931.947866	0.988826
932.251309	0.989650
932.554714	0.989587
932.858080	0.989517
933.161407	0.989475
933.464694	0.989489
933.767943	0.989552
934.071153	0.990151
934.374323	0.991822
934.677455	0.989754
934.980548	0.992335
935.283602	0.989471
935.586617	0.991139
935.889593	0.990077
936.192530	0.990030
936.495428	0.989724
936.798287	0.989955
937.101108	0.990031
937.403890	0.989938
937.706632	0.988904
938.009336	0.985927
938.312002	0.985515
938.614628	0.983733
938.917216	0.983122
939.219765	0.980152
939.522275	0.981672
939.824747	0.982445
940.127179	0.981941
940.429573	0.984010
940.731929	0.983783
941.034246	0.983587
941.336524	0.984683
941.638763	0.984421
941.940964	0.985859
942.243126	0.984966
942.545250	0.987025
942.847335	0.988053
943.149381	0.987157
943.451389	0.987037
943.753359	0.987587
944.055290	0.990696
944.357182	0.989366
944.659036	0.988479
944.960851	0.989237
945.262628	0.989940
945.564367	0.990431
945.866067	0.989148
946.167729	0.990666
946.469352	0.988928
946.770937	0.988973
947.072484	0.990806
947.373992	0.989344
947.675462	0.989764
947.976893	0.989612
948.278286	0.989576
948.579641	0.990882
948.880958	0.989846
949.182236	0.991244
949.483476	0.990791
949.784678	0.990717
950.085841	0.991198
950.386967	0.990546
950.688054	0.990172
950.989103	0.990759
951.290114	0.988888
951.591087	0.988320
951.892021	0.989497
952.192917	0.987970
952.493776	0.988177
952.794596	0.987534
953.095378	0.987916
953.396122	0.987420
953.696828	0.987053
953.997496	0.988995
954.298126	0.989244
954.598718	0.990087
954.899272	0.990153
955.199788	0.990068
955.500266	0.992063
955.800706	0.991996
956.101108	0.992390
956.401472	0.994261
956.701798	0.994091
957.002087	0.993517
957.302337	0.993603
957.602550	0.994367
957.902724	0.995200
958.202861	0.994483
958.502960	0.995027
958.803022	0.994182
959.103045	0.995255
959.403031	0.995485
959.702979	0.995467
960.002889	0.995900
960.302762	0.994551
960.602596	0.996330
960.902393	0.994952
961.202153	0.995306
961.501875	0.996788
961.801559	0.994690
962.101205	0.995052
962.400814	0.996426
962.700385	0.996400
962.999918	0.996071
963.299414	0.996141
963.598873	0.995543
963.898293	0.995623
964.197677	0.995877
964.497022	0.996570
964.796331	0.996979
965.095601	0.996888
965.394835	0.997203
965.694030	0.997101
965.993189	0.997132
966.292309	0.996381
966.591393	0.997524
966.890439	0.997300
967.189447	0.995092
967.488419	0.997091
967.787353	0.996535
968.086249	0.996848
968.385108	0.996783
968.683930	0.997220
968.982714	0.998291
969.281462	0.996051
969.580172	0.996598
969.878844	0.996700
970.177480	0.996198
970.476078	0.997409
970.774639	0.996088
971.073162	0.998179
971.371649	0.996321
971.670098	0.995278
971.968510	0.998528
972.266885	0.995490
972.565223	0.996251
972.863524	0.995791
973.161788	0.997104
973.460014	0.996429
973.758204	0.995267
974.056356	0.996769
974.354471	0.994380
974.652550	0.996528
974.950591	0.995501
975.248595	0.996066
975.546563	0.996371
975.844493	0.998756
976.142386	0.997441
976.440243	0.997085
976.738062	0.998269
977.035845	0.999120
977.333590	0.997248
977.631299	0.998261
977.928971	0.996390
978.226606	0.997360
978.524204	0.995133
978.821765	0.998602
979.119290	0.997135
979.416777	0.996987
979.714228	0.998502
980.011642	0.996276
980.309020	0.997603
980.606360	0.997430
980.903664	0.997466
981.200931	0.997498
981.498162	0.994720
981.795356	0.994341
982.092513	0.992620
982.389633	0.993972
982.686717	0.991049
982.983764	0.991590
983.280775	0.990266
983.577749	0.989888
983.874686	0.990990
984.171587	0.991499
984.468451	0.993104
984.765279	0.994139
985.062070	0.993883
985.358824	0.994963
985.655543	0.994005
985.952224	0.996775
986.248869	0.996614
986.545478	0.997390
986.842050	0.997174
987.138586	0.995921
987.435086	0.996455
987.731549	0.998581
988.027975	0.997714
988.324366	0.996594
988.620719	0.996882
988.917037	0.995762
989.213318	0.997891
989.509563	0.998370
989.805772	0.999417
990.101944	0.998118
990.398080	0.998291
990.694180	0.997171
990.990244	0.997349
991.286271	0.998057
991.582262	0.998310
991.878217	0.998379
992.174136	0.998258
992.470019	0.998357
992.765865	0.997340
993.061676	0.996860
993.357450	0.998057
993.653188	0.996556
993.948890	0.998023
994.244556	0.998043
994.540186	0.997582
994.835780	0.995704
995.131337	0.997219
995.426859	0.997073
995.722345	0.997061
996.017795	0.995873
996.313208	0.995911
996.608586	0.996106
996.903928	0.997092
997.199234	0.996723
997.494504	0.995853
997.789738	0.995966
998.084936	0.997054
998.380099	0.997969
998.675225	0.996617
998.970316	0.997989
999.265371	0.998100
999.560390	0.998310
999.855373	0.998937
1000.150320	0.998586
1000.445232	0.999297
1000.740108	0.997797
1001.034948	0.998354
1001.329752	0.999765
1001.624521	0.998550
1001.919254	0.998046
1002.213951	0.996998
1002.508613	0.997118
1002.803239	0.998709
1003.097829	0.999038
1003.392384	0.999671
1003.686903	0.999528
1003.981386	0.998992
1004.275834	1.000276
1004.570246	0.999239
1004.864623	0.999104
1005.158964	0.999987
1005.453270	0.997879
1005.747540	0.999421
1006.041775	0.998254
1006.335974	0.998427
1006.630138	0.998500
1006.924266	0.999361
1007.218359	1.000247
1007.512416	0.999490
1007.806438	0.999398
1008.100425	0.999867
1008.394376	0.998585
1008.688292	0.998917
1008.982172	1.000606
1009.276017	0.998663
1009.569827	0.998682
1009.863602	0.998851
1010.157341	1.000481
1010.451045	0.998408
1010.744714	0.997955
1011.038347	1.000030
1011.331945	0.999572
1011.625508	0.998174
1011.919036	0.998989
1012.212528	0.998917
1012.505986	0.997977
1012.799408	0.999208
1013.092795	0.998392
1013.386147	0.998944
1013.679464	0.998933
1013.972745	0.998049
1014.265992	0.997186
1014.559204	0.999478
1014.852380	0.998533
1015.145521	0.999178
1015.438628	0.999326
1015.731699	0.998717
1016.024736	0.999441
1016.317737	0.998687
1016.610703	0.998014
1016.903635	1.000722
1017.196531	0.997342
1017.489393	0.999359
1017.782219	0.997532
1018.075011	0.998804
1018.367768	1.000570
1018.660490	1.000483
1018.953177	1.000483
1019.245829	1.000483
