Dividing Wavelength (nm)	Counts (n)	Blue Motor Position (mm): 0.000000	Red Motor Position (mm): 18.100000	
326.493990	1.003440
326.888308	1.003440
327.282561	1.003440
327.676750	1.000640
328.070874	1.000553
328.464933	1.001203
328.858929	1.000073
329.252859	1.000880
329.646726	1.000318
330.040528	0.999891
330.434265	1.000385
330.827938	1.002306
331.221547	1.002158
331.615091	1.001524
332.008571	1.000964
332.401986	1.001567
332.795338	1.000501
333.188625	0.998792
333.581847	1.001333
333.975006	1.000028
334.368100	1.000158
334.761129	1.000736
335.154095	1.000469
335.546996	0.998271
335.939833	0.994094
336.332606	0.994922
336.725315	0.995962
337.117960	0.996503
337.510540	0.995690
337.903056	0.995751
338.295508	0.993973
338.687896	0.994693
339.080220	0.995517
339.472480	0.995569
339.864676	0.994863
340.256807	0.995274
340.648875	0.995820
341.040879	0.994994
341.432818	0.994715
341.824694	0.995630
342.216506	0.995284
342.608253	0.994834
342.999937	0.994541
343.391557	0.995343
343.783113	0.994479
344.174605	0.996657
344.566033	0.995707
344.957397	0.993111
345.348697	0.993915
345.739934	0.995184
346.131106	0.995142
346.522215	0.994333
346.913260	0.994778
347.304241	0.993448
347.695159	0.994026
348.086012	0.993646
348.476802	0.994644
348.867528	0.995033
349.258191	0.993231
349.648789	0.995318
350.039324	0.994513
350.429796	0.994969
350.820203	0.996123
351.210548	0.994344
351.600828	0.994947
351.991045	0.994945
352.381198	0.994960
352.771288	0.994453
353.161314	0.995037
353.551276	0.995106
353.941175	0.994122
354.331010	0.993685
354.720782	0.994630
355.110490	0.994569
355.500135	0.995849
355.889717	0.994797
356.279235	0.995105
356.668689	0.995105
357.058080	0.994545
357.447408	0.996000
357.836672	0.995706
358.225873	0.995121
358.615010	0.994741
359.004084	0.995251
359.393095	0.994948
359.782043	0.995732
360.170927	0.995900
360.559748	0.996103
360.948505	0.994742
361.337199	0.994476
361.725830	0.995012
362.114398	0.994495
362.502903	0.994880
362.891344	0.994762
363.279722	0.994613
363.668037	0.995388
364.056289	0.994350
364.444478	0.995956
364.832603	0.995056
365.220665	0.993606
365.608665	0.994304
365.996601	0.994619
366.384474	0.994861
366.772284	0.995135
367.160031	0.994232
367.547715	0.993580
367.935336	0.994320
368.322893	0.994376
368.710388	0.993201
369.097820	0.994336
369.485189	0.993697
369.872495	0.993111
370.259738	0.992573
370.646918	0.994952
371.034035	0.995831
371.421090	0.994119
371.808081	0.994114
372.195010	0.995816
372.581875	0.994468
372.968678	0.993677
373.355418	0.995307
373.742096	0.994746
374.128710	0.995962
374.515262	0.993531
374.901751	0.995604
375.288177	0.995213
375.674540	0.994733
376.060841	0.994511
376.447079	0.995774
376.833254	0.994552
377.219367	0.994921
377.605417	0.995222
377.991404	0.994994
378.377329	0.995190
378.763191	0.995275
379.148991	0.995437
379.534727	0.995222
379.920402	0.995331
380.306013	0.996094
380.691563	0.996833
381.077049	0.995171
381.462474	0.995432
381.847835	0.995705
382.233134	0.995188
382.618371	0.996106
383.003545	0.994893
383.388657	0.995153
383.773706	0.996572
384.158693	0.995884
384.543618	0.995404
384.928480	0.996556
385.313280	0.995781
385.698017	0.996999
386.082692	0.996204
386.467305	0.995702
386.851856	0.995326
387.236344	0.995397
387.620770	0.994514
388.005133	0.996384
388.389435	0.996918
388.773674	0.995438
389.157851	0.995198
389.541965	0.995873
389.926018	0.995959
390.310008	0.995926
390.693936	0.995147
391.077802	0.995769
391.461606	0.996027
391.845348	0.996080
392.229027	0.995476
392.612645	0.995970
392.996200	0.997668
393.379694	0.995511
393.763125	0.997753
394.146494	0.996592
394.529801	0.996142
394.913047	0.996569
395.296230	0.995595
395.679351	0.995754
396.062410	0.995577
396.445408	0.995947
396.828343	0.995833
397.211217	0.995240
397.594028	0.995816
397.976778	0.995718
398.359466	0.994889
398.742092	0.995195
399.124656	0.995078
399.507158	0.995028
399.889598	0.995077
400.271977	0.995301
400.654294	0.995184
401.036549	0.995289
401.418742	0.995597
401.800874	0.994017
402.182944	0.994337
402.564952	0.993391
402.946898	0.994062
403.328783	0.992645
403.710606	0.992196
404.092367	0.991084
404.474067	0.989996
404.855705	0.989149
405.237282	0.988396
405.618797	0.985733
406.000250	0.983451
406.381642	0.981748
406.762972	0.980414
407.144240	0.978158
407.525447	0.976677
407.906593	0.972986
408.287677	0.969154
408.668700	0.967208
409.049661	0.961213
409.430560	0.958345
409.811399	0.954668
410.192176	0.949180
410.572891	0.944493
410.953545	0.939201
411.334138	0.935209
411.714669	0.930200
412.095139	0.927116
412.475547	0.919229
412.855894	0.913360
413.236180	0.907818
413.616405	0.902560
413.996568	0.894728
414.376670	0.888278
414.756711	0.883628
415.136691	0.876450
415.516609	0.867055
415.896466	0.858820
416.276262	0.849096
416.655997	0.842924
417.035670	0.828042
417.415283	0.817866
417.794834	0.811047
418.174324	0.805546
418.553753	0.800936
418.933121	0.784271
419.312428	0.772785
419.691674	0.766534
420.070859	0.752547
420.449983	0.747580
420.829045	0.732852
421.208047	0.729232
421.586988	0.716158
421.965867	0.706060
422.344686	0.690574
422.723444	0.689916
423.102141	0.691403
423.480777	0.666655
423.859352	0.670402
424.237866	0.646312
424.616319	0.639031
424.994712	0.625316
425.373044	0.624625
425.751314	0.607228
426.129524	0.610979
426.507673	0.591505
426.885762	0.580242
427.263789	0.576259
427.641756	0.577865
428.019662	0.562859
428.397508	0.555265
428.775292	0.552363
429.153016	0.539664
429.530679	0.539468
429.908282	0.527729
430.285824	0.531974
430.663305	0.507351
431.040726	0.521212
431.418086	0.517036
431.795385	0.504831
432.172624	0.498988
432.549802	0.495910
432.926920	0.491357
433.303977	0.486929
433.680974	0.481078
434.057910	0.476388
434.434786	0.473131
434.811601	0.472430
435.188355	0.453375
435.565050	0.459902
435.941683	0.459401
436.318257	0.442296
436.694770	0.440461
437.071222	0.437096
437.447614	0.439489
437.823946	0.444263
438.200218	0.432886
438.576429	0.441315
438.952580	0.433414
439.328670	0.429191
439.704700	0.434419
440.080670	0.435260
440.456580	0.415453
440.832429	0.422808
441.208218	0.432878
441.583947	0.421704
441.959616	0.421133
442.335224	0.425966
442.710773	0.416412
443.086261	0.413652
443.461689	0.427651
443.837057	0.417239
444.212365	0.406794
444.587612	0.413493
444.962800	0.403540
445.337927	0.404659
445.712995	0.430788
446.088002	0.393588
446.462949	0.403325
446.837837	0.407656
447.212664	0.397107
447.587431	0.388230
447.962139	0.358905
448.336786	0.318162
448.711374	0.328296
449.085901	0.372220
449.460369	0.376355
449.834776	0.379634
450.209124	0.359259
450.583412	0.351579
450.957640	0.344978
451.331808	0.356214
451.705917	0.379546
452.079965	0.383893
452.453954	0.372048
452.827883	0.378636
453.201752	0.373774
453.575562	0.384999
453.949311	0.373874
454.323001	0.379819
454.696632	0.375513
455.070202	0.368174
455.443713	0.360057
455.817164	0.354844
456.190556	0.350808
456.563888	0.347382
456.937160	0.345001
457.310373	0.362280
457.683526	0.360755
458.056619	0.366717
458.429653	0.367291
458.802628	0.370528
459.175542	0.365192
459.548398	0.347671
459.921194	0.340179
460.293930	0.340127
460.666607	0.317860
461.039224	0.305739
461.411782	0.301859
461.784280	0.301244
462.156719	0.305346
462.529099	0.309478
462.901419	0.325450
463.273680	0.329922
463.645882	0.329787
464.018024	0.335474
464.390106	0.328267
464.762130	0.313184
465.134094	0.296186
465.505999	0.265519
465.877845	0.236003
466.249631	0.223158
466.621358	0.230586
466.993026	0.244184
467.364634	0.250442
467.736184	0.259124
468.107674	0.268056
468.479105	0.266918
468.850477	0.273874
469.221790	0.280274
469.593043	0.291144
469.964238	0.295623
470.335373	0.295037
470.706449	0.293083
471.077467	0.294022
471.448425	0.256025
471.819324	0.231942
472.190164	0.231348
472.560945	0.259944
472.931667	0.282011
473.302330	0.285964
473.672934	0.298009
474.043479	0.286098
474.413965	0.287808
474.784393	0.291697
475.154761	0.287262
475.525070	0.283624
475.895321	0.289575
476.265513	0.283723
476.635645	0.279208
477.005719	0.278998
477.375734	0.275387
477.745691	0.268741
478.115588	0.265745
478.485427	0.259063
478.855207	0.246060
479.224928	0.228528
479.594591	0.216710
479.964194	0.219993
480.333739	0.221275
480.703226	0.222870
481.072653	0.221308
481.442022	0.217058
481.811333	0.213249
482.180584	0.216953
482.549777	0.222218
482.918912	0.225685
483.287988	0.225370
483.657005	0.224789
484.025964	0.231168
484.394864	0.228529
484.763706	0.229319
485.132489	0.234115
485.501213	0.234897
485.869879	0.233099
486.238487	0.236703
486.607036	0.234345
486.975527	0.238762
487.343959	0.234735
487.712333	0.233693
488.080648	0.235150
488.448905	0.234270
488.817104	0.235531
489.185244	0.230000
489.553326	0.226772
489.921350	0.216858
490.289315	0.199360
490.657222	0.194449
491.025070	0.195646
491.392861	0.197585
491.760593	0.203282
492.128267	0.209007
492.495883	0.214165
492.863440	0.220420
493.230939	0.227022
493.598380	0.228393
493.965763	0.230334
494.333088	0.232743
494.700354	0.234199
495.067563	0.233025
495.434713	0.236254
495.801805	0.234320
496.168839	0.235652
496.535815	0.237161
496.902733	0.237021
497.269593	0.238530
497.636395	0.236495
498.003139	0.236820
498.369825	0.239805
498.736453	0.236389
499.103023	0.237875
499.469535	0.237121
499.835989	0.237518
500.202385	0.238144
500.568723	0.241576
500.935003	0.236786
501.301226	0.240905
501.667390	0.235180
502.033497	0.233207
502.399546	0.236350
502.765537	0.238135
503.131470	0.236833
503.497345	0.232941
503.863163	0.241460
504.228923	0.234694
504.594625	0.233241
504.960269	0.238699
505.325856	0.234098
505.691385	0.238418
506.056856	0.235066
506.422270	0.234217
506.787625	0.236796
507.152924	0.234449
507.518164	0.234649
507.883347	0.236569
508.248472	0.237915
508.613540	0.233230
508.978550	0.235886
509.343503	0.236194
509.708398	0.233949
510.073236	0.231548
510.438016	0.231751
510.802738	0.232543
511.167403	0.231512
511.532010	0.233680
511.896561	0.228780
512.261053	0.227651
512.625488	0.229606
512.989866	0.229987
513.354186	0.230347
513.718449	0.232208
514.082655	0.228342
514.446803	0.230745
514.810894	0.228546
515.174927	0.230694
515.538904	0.230570
515.902822	0.227243
516.266684	0.229455
516.630488	0.230965
516.994235	0.229848
517.357925	0.228648
517.721558	0.226881
518.085133	0.226243
518.448651	0.226386
518.812112	0.228777
519.175516	0.228285
519.538863	0.225956
519.902152	0.227597
520.265385	0.224537
520.628560	0.226249
520.991678	0.226494
521.354739	0.225453
521.717743	0.226753
522.080690	0.227121
522.443580	0.224506
522.806413	0.225590
523.169189	0.224609
523.531908	0.223689
523.894569	0.227284
524.257174	0.227225
524.619722	0.224844
524.982213	0.225766
525.344647	0.224922
525.707025	0.225709
526.069345	0.223860
526.431608	0.225648
526.793815	0.223473
527.155964	0.227581
527.518057	0.226474
527.880093	0.227825
528.242072	0.226035
528.603995	0.228055
528.965860	0.229560
529.327669	0.228642
529.689421	0.229249
530.051117	0.230316
530.412755	0.227896
530.774337	0.230425
531.135862	0.230760
531.497331	0.229839
531.858743	0.232923
532.220098	0.229577
532.581396	0.232171
532.942638	0.232657
533.303824	0.233518
533.664953	0.233300
534.026025	0.234854
534.387040	0.232881
534.747999	0.232924
535.108902	0.231999
535.469748	0.236953
535.830537	0.234694
536.191270	0.235145
536.551947	0.234552
536.912567	0.234515
537.273131	0.236604
537.633638	0.236464
537.994089	0.236845
538.354483	0.237967
538.714821	0.234914
539.075103	0.234626
539.435328	0.235634
539.795497	0.239285
540.155609	0.235519
540.515665	0.233804
540.875665	0.239688
541.235609	0.238209
541.595496	0.238355
541.955328	0.234798
542.315102	0.237332
542.674821	0.238329
543.034483	0.238483
543.394090	0.238264
543.753640	0.240000
544.113134	0.235051
544.472571	0.238582
544.831953	0.235202
545.191278	0.239268
545.550548	0.238809
545.909761	0.235438
546.268918	0.236076
546.628019	0.234690
546.987064	0.237277
547.346053	0.238832
547.704986	0.237036
548.063863	0.237268
548.422684	0.237765
548.781449	0.239396
549.140158	0.237046
549.498811	0.239927
549.857408	0.242916
550.215949	0.237485
550.574434	0.240872
550.932864	0.238662
551.291237	0.237338
551.649555	0.239098
552.007817	0.238455
552.366022	0.239179
552.724173	0.239596
553.082267	0.239909
553.440305	0.236691
553.798288	0.241098
554.156215	0.237417
554.514086	0.238422
554.871902	0.241614
555.229661	0.240962
555.587365	0.241131
555.945014	0.243930
556.302606	0.240569
556.660143	0.243164
557.017625	0.239747
557.375050	0.242188
557.732421	0.239009
558.089735	0.241044
558.446994	0.241112
558.804197	0.240311
559.161345	0.240180
559.518437	0.243821
559.875474	0.241219
560.232455	0.240826
560.589381	0.242191
560.946251	0.242285
561.303065	0.239788
561.659825	0.241222
562.016528	0.242619
562.373177	0.245533
562.729770	0.242780
563.086307	0.244904
563.442789	0.242624
563.799216	0.245349
564.155587	0.244202
564.511904	0.245457
564.868164	0.245528
565.224370	0.245414
565.580520	0.247092
565.936615	0.246988
566.292654	0.249935
566.648638	0.247135
567.004567	0.247997
567.360441	0.248429
567.716260	0.250534
568.072023	0.248243
568.427732	0.248893
568.783385	0.251461
569.138982	0.249312
569.494525	0.249241
569.850013	0.251642
570.205445	0.250496
570.560823	0.253001
570.916145	0.254917
571.271412	0.253122
571.626625	0.254882
571.981782	0.254956
572.336884	0.255843
572.691931	0.255494
573.046923	0.256787
573.401860	0.258260
573.756743	0.259885
574.111570	0.258606
574.466342	0.259362
574.821059	0.258433
575.175722	0.261177
575.530330	0.260935
575.884882	0.261236
576.239380	0.263164
576.593823	0.263725
576.948211	0.263215
577.302544	0.266605
577.656823	0.266308
578.011047	0.266312
578.365216	0.266783
578.719330	0.268869
579.073389	0.268626
579.427394	0.270098
579.781344	0.271089
580.135239	0.272033
580.489080	0.271979
580.842866	0.274692
581.196597	0.274559
581.550273	0.273282
581.903895	0.274217
582.257463	0.272230
582.610975	0.275874
582.964434	0.275179
583.317837	0.277692
583.671186	0.277973
584.024481	0.278063
584.377721	0.280706
584.730906	0.281095
585.084037	0.280123
585.437113	0.282280
585.790135	0.281793
586.143103	0.284443
586.496016	0.285637
586.848874	0.283133
587.201679	0.284091
587.554428	0.287075
587.907124	0.286054
588.259765	0.286665
588.612352	0.287300
588.964884	0.290937
589.317362	0.290360
589.669786	0.290223
590.022155	0.288841
590.374470	0.288076
590.726731	0.290478
591.078937	0.294825
591.431090	0.291721
591.783188	0.295922
592.135232	0.295801
592.487222	0.296221
592.839157	0.294513
593.191038	0.296475
593.542866	0.298229
593.894639	0.301973
594.246358	0.299979
594.598022	0.299398
594.949633	0.303684
595.301190	0.303746
595.652692	0.302801
596.004141	0.299199
596.355535	0.307473
596.706876	0.307602
597.058162	0.310334
597.409395	0.307239
597.760573	0.304828
598.111698	0.308350
598.462768	0.308736
598.813785	0.310382
599.164748	0.311595
599.515657	0.311401
599.866511	0.315035
600.217312	0.310284
600.568060	0.315602
600.918753	0.312120
601.269392	0.312989
601.619978	0.316272
601.970510	0.313783
602.320988	0.313885
602.671412	0.312146
603.021783	0.314218
603.372100	0.315428
603.722363	0.315292
604.072572	0.316203
604.422728	0.315432
604.772830	0.317927
605.122878	0.317567
605.472872	0.317846
605.822813	0.316602
606.172701	0.319046
606.522534	0.316427
606.872314	0.316166
607.222041	0.317185
607.571714	0.315640
607.921333	0.316735
608.270899	0.316496
608.620411	0.313286
608.969870	0.317534
609.319276	0.317590
609.668627	0.317337
610.017926	0.315883
610.367171	0.314250
610.716362	0.315217
611.065500	0.315188
611.414585	0.314198
611.763616	0.314519
612.112594	0.315199
612.461518	0.314334
612.810389	0.312080
613.159207	0.314237
613.507971	0.316447
613.856682	0.312085
614.205340	0.313615
614.553945	0.310351
614.902496	0.314206
615.250994	0.312302
615.599439	0.313008
615.947830	0.312504
616.296169	0.313270
616.644454	0.312781
616.992686	0.313270
617.340864	0.310940
617.688990	0.314719
618.037063	0.311205
618.385082	0.312888
618.733048	0.310113
619.080961	0.312498
619.428821	0.311551
619.776628	0.310858
620.124382	0.313368
620.472083	0.313556
620.819731	0.312864
621.167326	0.316809
621.514868	0.316317
621.862357	0.320684
622.209793	0.320121
622.557176	0.322702
622.904506	0.323672
623.251783	0.325931
623.599007	0.328395
623.946179	0.328277
624.293297	0.329751
624.640363	0.333331
624.987376	0.333877
625.334336	0.337042
625.681243	0.338899
626.028097	0.339402
626.374899	0.340659
626.721647	0.340564
627.068343	0.343868
627.414987	0.345120
627.761577	0.347140
628.108115	0.345392
628.454600	0.350518
628.801032	0.348250
629.147412	0.350078
629.493739	0.350041
629.840014	0.353722
630.186236	0.350846
630.532405	0.356738
630.878521	0.353814
631.224585	0.356005
631.570597	0.359964
631.916556	0.358169
632.262462	0.358317
632.608316	0.360367
632.954117	0.361304
633.299866	0.362254
633.645562	0.362555
633.991206	0.366514
634.336797	0.369938
634.682336	0.372407
635.027823	0.373692
635.373257	0.373932
635.718639	0.377743
636.063968	0.376831
636.409245	0.382825
636.754470	0.383280
637.099642	0.385693
637.444762	0.389288
637.789829	0.387884
638.134845	0.391334
638.479808	0.392780
638.824719	0.392463
639.169577	0.396392
639.514383	0.395234
639.859137	0.399503
640.203839	0.399215
640.548489	0.400106
640.893086	0.400903
641.237632	0.402511
641.582125	0.401174
641.926566	0.402993
642.270955	0.402955
642.615292	0.403585
642.959576	0.402430
643.303809	0.403126
643.647990	0.402365
643.992118	0.403632
644.336195	0.406401
644.680219	0.404789
645.024192	0.405671
645.368112	0.399125
645.711981	0.398351
646.055797	0.394060
646.399562	0.396154
646.743274	0.388076
647.086935	0.385902
647.430544	0.385703
647.774101	0.384438
648.117606	0.384130
648.461059	0.384709
648.804460	0.386732
649.147810	0.392034
649.491108	0.394121
649.834354	0.395804
650.177548	0.400889
650.520690	0.406241
650.863781	0.407099
651.206820	0.406285
651.549807	0.411442
651.892742	0.415433
652.235626	0.414309
652.578458	0.415388
652.921238	0.422092
653.263967	0.419614
653.606644	0.423582
653.949269	0.423172
654.291843	0.427589
654.634365	0.424030
654.976836	0.427286
655.319255	0.426905
655.661622	0.429180
656.003938	0.428760
656.346203	0.431733
656.688416	0.429880
657.030577	0.433719
657.372687	0.435065
657.714746	0.436671
658.056753	0.433240
658.398708	0.436972
658.740612	0.438318
659.082465	0.434095
659.424266	0.434989
659.766016	0.433925
660.107715	0.437062
660.449362	0.435642
660.790958	0.436117
661.132503	0.436515
661.473996	0.434598
661.815438	0.435104
662.156829	0.435359
662.498168	0.436449
662.839456	0.438061
663.180693	0.435631
663.521879	0.435474
663.863013	0.436627
664.204097	0.434897
664.545129	0.431731
664.886110	0.432230
665.227040	0.429601
665.567918	0.431949
665.908746	0.430074
666.249522	0.429868
666.590248	0.430895
666.930922	0.429338
667.271545	0.427760
667.612118	0.427680
667.952639	0.429550
668.293109	0.428346
668.633528	0.431000
668.973896	0.430883
669.314213	0.431357
669.654480	0.432715
669.994695	0.433468
670.334859	0.434216
670.674973	0.434180
671.015035	0.434081
671.355047	0.434134
671.695008	0.435351
672.034918	0.437065
672.374777	0.436456
672.714585	0.437773
673.054342	0.437803
673.394049	0.437962
673.733705	0.435394
674.073310	0.436897
674.412864	0.439642
674.752368	0.440260
675.091820	0.440546
675.431223	0.444861
675.770574	0.444583
676.109875	0.447368
676.449125	0.447986
676.788324	0.450137
677.127473	0.455300
677.466571	0.454916
677.805619	0.456824
678.144616	0.457912
678.483562	0.459272
678.822458	0.461932
679.161303	0.463077
679.500098	0.463154
679.838842	0.465002
680.177535	0.464818
680.516179	0.463135
680.854771	0.462347
681.193314	0.455951
681.531805	0.446815
681.870247	0.435669
682.208638	0.427901
682.546978	0.427652
682.885268	0.428981
683.223508	0.435223
683.561697	0.439045
683.899836	0.441184
684.237925	0.444979
684.575963	0.446849
684.913951	0.450739
685.251889	0.446256
685.589776	0.448523
685.927614	0.450592
686.265401	0.444844
686.603137	0.446182
686.940824	0.439775
687.278460	0.438668
687.616046	0.437631
687.953582	0.432405
688.291068	0.433955
688.628504	0.430230
688.965889	0.432188
689.303224	0.436025
689.640510	0.440043
689.977745	0.445996
690.314930	0.453422
690.652065	0.458126
690.989150	0.466182
691.326185	0.472194
691.663170	0.476727
692.000105	0.483735
692.336990	0.490831
692.673825	0.493191
693.010610	0.500074
693.347345	0.505772
693.684030	0.507495
694.020665	0.511913
694.357251	0.521364
694.693786	0.520727
695.030272	0.525117
695.366707	0.528366
695.703093	0.531958
696.039429	0.529837
696.375716	0.531605
696.711952	0.533744
697.048139	0.535347
697.384276	0.538055
697.720363	0.536115
698.056400	0.535625
698.392388	0.540780
698.728326	0.543394
699.064214	0.546011
699.400053	0.547385
699.735842	0.550567
700.071581	0.553650
700.407270	0.556608
700.742910	0.559175
701.078501	0.565124
701.414042	0.565940
701.749533	0.569397
702.084974	0.577693
702.420366	0.569999
702.755709	0.577336
703.091002	0.585175
703.426246	0.578827
703.761440	0.584577
704.096584	0.589846
704.431679	0.586963
704.766725	0.588625
705.101721	0.590654
705.436668	0.586622
705.771565	0.592909
706.106413	0.589520
706.441212	0.585434
706.775961	0.584171
707.110661	0.586800
707.445311	0.583325
707.779913	0.580642
708.114465	0.579238
708.448967	0.575926
708.783421	0.567876
709.117825	0.562167
709.452180	0.563711
709.786485	0.556860
710.120742	0.546079
710.454949	0.548683
710.789107	0.540475
711.123216	0.531557
711.457275	0.533065
711.791286	0.523774
712.125247	0.522493
712.459159	0.533938
712.793023	0.526006
713.126837	0.530505
713.460602	0.531274
713.794318	0.540144
714.127985	0.538375
714.461602	0.549496
714.795171	0.552518
715.128691	0.560293
715.462162	0.567823
715.795584	0.572495
716.128957	0.576253
716.462281	0.583018
716.795556	0.586109
717.128782	0.591136
717.461960	0.600629
717.795088	0.599071
718.128167	0.605109
718.461198	0.614041
718.794180	0.614071
719.127113	0.618062
719.459997	0.620674
719.792833	0.627984
720.125619	0.628974
720.458357	0.634308
720.791046	0.633007
721.123686	0.637846
721.456278	0.644082
721.788821	0.642175
722.121315	0.644995
722.453761	0.649558
722.786158	0.647910
723.118506	0.643680
723.450805	0.652548
723.783056	0.648222
724.115259	0.645506
724.447412	0.644862
724.779518	0.646818
725.111574	0.645090
725.443582	0.641402
725.775542	0.642572
726.107453	0.635075
726.439315	0.635072
726.771129	0.633439
727.102895	0.627668
727.434612	0.619492
727.766281	0.617411
728.097901	0.616477
728.429473	0.617050
728.760996	0.615931
729.092471	0.615329
729.423897	0.618792
729.755276	0.617789
730.086606	0.617946
730.417887	0.612506
730.749120	0.603676
731.080305	0.594852
731.411442	0.589477
731.742530	0.595009
732.073570	0.594029
732.404562	0.585943
732.735506	0.588102
733.066401	0.593671
733.397249	0.601977
733.728048	0.613312
734.058798	0.626083
734.389501	0.636736
734.720156	0.646828
735.050762	0.654033
735.381320	0.655429
735.711831	0.664545
736.042293	0.669967
736.372707	0.665565
736.703073	0.670046
737.033391	0.672580
737.363661	0.668414
737.693883	0.664263
738.024056	0.663069
738.354182	0.663972
738.684260	0.652642
739.014290	0.648578
739.344272	0.650028
739.674207	0.643083
740.004093	0.642649
740.333931	0.643597
740.663722	0.643152
740.993464	0.643418
741.323159	0.646867
741.652806	0.652072
741.982405	0.656934
742.311956	0.661659
742.641460	0.664276
742.970915	0.667596
743.300323	0.675609
743.629683	0.682099
743.958996	0.683992
744.288260	0.687778
744.617477	0.693948
744.946647	0.695317
745.275768	0.700681
745.604842	0.700609
745.933869	0.711173
746.262847	0.711118
746.591778	0.704536
746.920662	0.710649
747.249498	0.717545
747.578286	0.708391
747.907027	0.704164
748.235720	0.704765
748.564365	0.699693
748.892963	0.700548
749.221514	0.703711
749.550017	0.708276
749.878473	0.708098
750.206881	0.714519
750.535242	0.716123
750.863555	0.715719
751.191821	0.716557
751.520039	0.719729
751.848210	0.723997
752.176334	0.717336
752.504411	0.716512
752.832440	0.724619
753.160421	0.727969
753.488356	0.726872
753.816243	0.723540
754.144082	0.732201
754.471875	0.735227
754.799620	0.730875
755.127318	0.732999
755.454969	0.732621
755.782572	0.731996
756.110129	0.736791
756.437638	0.739803
756.765100	0.735564
757.092515	0.733508
757.419882	0.732851
757.747203	0.738366
758.074477	0.736844
758.401703	0.734880
758.728882	0.730607
759.056014	0.728532
759.383099	0.727223
759.710138	0.729088
760.037129	0.725215
760.364073	0.720047
760.690970	0.721754
761.017820	0.727637
761.344623	0.722873
761.671379	0.713654
761.998088	0.701931
762.324751	0.679051
762.651366	0.637925
762.977935	0.570835
763.304456	0.518524
763.630931	0.509617
763.957359	0.547803
764.283740	0.592559
764.610074	0.619649
764.936362	0.650862
765.262602	0.677498
765.588796	0.699480
765.914943	0.716550
766.241044	0.735363
766.567097	0.741521
766.893104	0.752068
767.219064	0.757744
767.544978	0.764310
767.870845	0.778137
768.196665	0.781028
768.522438	0.779563
768.848165	0.780645
769.173846	0.789564
769.499479	0.794139
769.825066	0.797842
770.150607	0.802919
770.476101	0.797250
770.801548	0.799179
771.126949	0.809881
771.452303	0.813386
771.777611	0.814534
772.102872	0.813085
772.428087	0.818477
772.753256	0.821171
773.078378	0.823859
773.403453	0.832404
773.728482	0.837074
774.053465	0.830760
774.378401	0.833680
774.703291	0.843053
775.028135	0.841574
775.352932	0.842755
775.677683	0.846476
776.002388	0.847153
776.327046	0.846077
776.651658	0.849630
776.976224	0.852282
777.300743	0.853123
777.625216	0.855289
777.949643	0.856890
778.274024	0.856666
778.598359	0.858069
778.922647	0.857259
779.246889	0.858087
779.571086	0.861342
779.895236	0.865095
780.219339	0.861763
780.543397	0.858461
780.867409	0.857204
781.191374	0.859236
781.515294	0.860551
781.839167	0.858729
782.162995	0.862036
782.486776	0.859465
782.810511	0.860476
783.134201	0.864200
783.457844	0.862211
783.781441	0.864475
784.104993	0.871528
784.428498	0.871386
784.751958	0.866089
785.075372	0.869767
785.398739	0.872854
785.722061	0.869227
786.045337	0.863818
786.368568	0.869012
786.691752	0.872297
787.014891	0.857207
787.337983	0.848783
787.661030	0.841718
787.984031	0.823923
788.306987	0.810923
788.629897	0.812712
788.952760	0.817605
789.275579	0.821553
789.598351	0.836636
789.921078	0.850164
790.243759	0.851113
790.566395	0.856554
790.888984	0.862802
791.211529	0.869479
791.534027	0.871778
791.856480	0.874307
792.178888	0.879139
792.501249	0.882807
792.823566	0.882678
793.145836	0.882380
793.468062	0.884749
793.790241	0.885390
794.112375	0.883219
794.434464	0.878180
794.756507	0.878196
795.078505	0.876877
795.400457	0.872362
795.722364	0.860458
796.044226	0.852957
796.366042	0.852360
796.687812	0.855603
797.009538	0.851931
797.331218	0.854875
797.652852	0.860072
797.974442	0.864521
798.295986	0.865107
798.617484	0.867428
798.938938	0.871725
799.260346	0.875254
799.581709	0.877746
799.903026	0.880346
800.224299	0.880886
800.545526	0.885281
800.866708	0.889138
801.187845	0.893087
801.508936	0.892125
801.829983	0.889489
802.150984	0.893581
802.471940	0.898658
802.792851	0.897842
803.113717	0.899570
803.434538	0.896568
803.755314	0.898448
804.076045	0.900353
804.396731	0.900646
804.717372	0.900202
805.037967	0.901971
805.358518	0.899737
805.679024	0.896518
805.999485	0.896803
806.319901	0.896845
806.640272	0.898881
806.960598	0.896880
807.280879	0.894442
807.601115	0.892651
807.921306	0.896036
808.241453	0.896905
808.561554	0.894626
808.881611	0.894720
809.201623	0.895740
809.521590	0.896449
809.841513	0.898650
810.161390	0.897088
810.481223	0.898202
810.801011	0.901831
811.120755	0.904436
811.440453	0.902322
811.760107	0.900904
812.079716	0.900694
812.399281	0.903309
812.718801	0.907015
813.038276	0.906856
813.357707	0.907045
813.677093	0.904711
813.996434	0.908373
814.315731	0.908404
814.634983	0.909263
814.954191	0.909027
815.273354	0.905362
815.592473	0.900828
815.911547	0.902692
816.230577	0.898420
816.549562	0.895860
816.868502	0.897384
817.187399	0.893368
817.506250	0.887897
817.825058	0.889827
818.143821	0.887117
818.462539	0.882066
818.781213	0.873446
819.099843	0.862243
819.418429	0.846346
819.736970	0.829792
820.055466	0.809236
820.373919	0.784114
820.692327	0.751300
821.010691	0.716768
821.329011	0.638680
821.647286	0.523359
821.965517	0.409644
822.283704	0.366531
822.601847	0.367765
822.919945	0.403473
823.237999	0.436885
823.556010	0.484409
823.873976	0.539592
824.191897	0.590834
824.509775	0.632950
824.827609	0.678788
825.145398	0.701466
825.463144	0.704229
825.780845	0.687047
826.098502	0.668975
826.416116	0.622099
826.733685	0.579034
827.051210	0.569907
827.368692	0.584184
827.686129	0.622160
828.003522	0.675574
828.320872	0.723627
828.638177	0.767021
828.955439	0.799983
829.272656	0.822106
829.589830	0.838532
829.906960	0.855139
830.224046	0.867370
830.541088	0.876302
830.858086	0.881568
831.175041	0.888033
831.491952	0.886188
831.808819	0.883675
832.125642	0.877210
832.442421	0.862347
832.759157	0.840903
833.075849	0.793925
833.392497	0.730576
833.709101	0.689373
834.025662	0.699128
834.342179	0.730355
834.658653	0.769819
834.975083	0.806193
835.291469	0.831069
835.607811	0.854782
835.924110	0.870723
836.240366	0.888071
836.556578	0.901320
836.872746	0.909329
837.188871	0.915359
837.504952	0.920544
837.820990	0.922982
838.136984	0.927689
838.452935	0.930528
838.768842	0.931761
839.084706	0.925627
839.400526	0.899218
839.716303	0.859038
840.032037	0.837142
840.347727	0.840217
840.663373	0.858946
840.978977	0.879443
841.294537	0.902589
841.610054	0.918899
841.925527	0.927077
842.240957	0.933276
842.556344	0.940781
842.871687	0.946874
843.186987	0.951540
843.502244	0.951293
843.817458	0.951876
844.132629	0.956028
844.447756	0.960608
844.762840	0.960797
845.077881	0.959365
845.392879	0.961258
845.707833	0.963260
846.022745	0.965420
846.337613	0.965809
846.652438	0.965771
846.967221	0.965298
847.281960	0.966041
847.596656	0.968435
847.911309	0.965854
848.225919	0.968659
848.540485	0.969260
848.855009	0.969888
849.169490	0.969801
849.483928	0.970959
849.798323	0.970667
850.112675	0.970189
850.426984	0.970479
850.741251	0.971049
851.055474	0.970656
851.369654	0.969162
851.683792	0.970210
851.997887	0.970436
852.311938	0.971585
852.625947	0.970485
852.939914	0.968591
853.253837	0.969381
853.567718	0.972008
853.881555	0.970214
854.195350	0.968710
854.509103	0.969922
854.822812	0.970716
855.136479	0.971277
855.450103	0.971297
855.763685	0.969201
856.077224	0.968354
856.390720	0.970788
856.704173	0.971220
857.017584	0.968518
857.330953	0.967596
857.644278	0.969047
857.957561	0.967809
858.270802	0.969429
858.584000	0.968255
858.897155	0.967444
859.210268	0.968483
859.523339	0.968667
859.836367	0.969768
860.149352	0.970686
860.462295	0.968579
860.775195	0.971863
861.088054	0.969379
861.400869	0.970796
861.713642	0.971558
862.026373	0.970288
862.339062	0.970918
862.651708	0.967953
862.964312	0.968949
863.276873	0.970258
863.589392	0.968960
863.901869	0.966970
864.214303	0.966066
864.526696	0.963821
864.839045	0.963760
865.151353	0.962911
865.463619	0.962982
865.775842	0.962873
866.088023	0.963408
866.400162	0.961821
866.712258	0.964001
867.024313	0.963136
867.336325	0.964312
867.648296	0.963802
867.960224	0.963275
868.272110	0.962931
868.583954	0.964904
868.895755	0.964756
869.207515	0.963040
869.519233	0.959516
869.830909	0.961510
870.142542	0.963272
870.454134	0.961823
870.765684	0.961906
871.077191	0.959201
871.388657	0.959910
871.700081	0.958456
872.011463	0.959429
872.322803	0.959394
872.634101	0.955698
872.945357	0.955770
873.256571	0.953044
873.567744	0.954419
873.878874	0.953855
874.189963	0.952949
874.501010	0.951451
874.812015	0.949336
875.122979	0.951862
875.433900	0.953706
875.744780	0.954820
876.055618	0.950723
876.366415	0.950660
876.677169	0.950907
876.987882	0.950934
877.298554	0.952688
877.609183	0.948162
877.919771	0.946042
878.230317	0.943399
878.540822	0.941798
878.851285	0.935426
879.161707	0.927212
879.472087	0.916122
879.782425	0.899362
880.092722	0.865423
880.402977	0.813085
880.713191	0.752042
881.023363	0.693027
881.333494	0.658472
881.643583	0.630863
881.953631	0.630304
882.263637	0.659744
882.573602	0.699019
882.883526	0.724540
883.193408	0.747432
883.503248	0.770147
883.813048	0.798396
884.122806	0.827220
884.432522	0.851606
884.742197	0.871043
885.051831	0.881531
885.361424	0.892538
885.670975	0.903315
885.980485	0.914044
886.289954	0.920205
886.599382	0.924363
886.908768	0.928849
887.218113	0.934952
887.527417	0.940360
887.836680	0.942378
888.145901	0.944360
888.455082	0.946234
888.764221	0.951068
889.073319	0.954169
889.382376	0.952429
889.691392	0.954535
890.000366	0.953396
890.309300	0.954643
890.618193	0.953780
890.927044	0.952211
891.235855	0.952273
891.544625	0.951120
891.853353	0.951780
892.162041	0.950170
892.470687	0.943027
892.779293	0.937042
893.087858	0.935175
893.396381	0.926865
893.704864	0.912616
894.013306	0.889909
894.321707	0.862683
894.630068	0.848466
894.938387	0.843779
895.246665	0.844958
895.554903	0.857063
895.863100	0.870209
896.171256	0.887597
896.479371	0.906627
896.787446	0.919339
897.095480	0.925114
897.403473	0.928396
897.711425	0.933485
898.019336	0.940045
898.327207	0.943292
898.635038	0.944891
898.942827	0.945172
899.250576	0.949438
899.558284	0.952671
899.865952	0.955941
900.173579	0.955716
900.481165	0.957178
900.788711	0.960525
901.096216	0.962052
901.403681	0.961374
901.711105	0.964007
902.018489	0.964003
902.325832	0.963248
902.633135	0.962208
902.940397	0.955592
903.247619	0.943264
903.554800	0.918046
903.861941	0.878948
904.169041	0.843281
904.476101	0.825235
904.783121	0.826906
905.090100	0.843383
905.397039	0.864928
905.703938	0.886167
906.010796	0.906674
906.317614	0.923458
906.624391	0.935516
906.931129	0.943827
907.237826	0.952652
907.544483	0.960489
907.851099	0.963234
908.157675	0.968081
908.464211	0.970803
908.770707	0.971983
909.077163	0.975673
909.383578	0.975163
909.689954	0.975574
909.996289	0.976755
910.302584	0.978769
910.608839	0.981092
910.915054	0.978685
911.221229	0.978244
911.527363	0.977436
911.833458	0.977931
912.139513	0.977634
912.445527	0.976115
912.751502	0.974427
913.057436	0.973408
913.363331	0.971180
913.669186	0.967000
913.975000	0.961841
914.280775	0.955076
914.586510	0.948087
914.892205	0.936749
915.197859	0.914728
915.503475	0.887133
915.809050	0.867589
916.114585	0.861953
916.420081	0.858607
916.725536	0.855410
917.030952	0.864797
917.336328	0.878329
917.641665	0.893664
917.946961	0.906875
918.252218	0.919114
918.557435	0.928590
918.862612	0.935847
919.167750	0.942469
919.472848	0.948286
919.777906	0.952935
920.082925	0.956972
920.387904	0.962556
920.692843	0.963347
920.997743	0.964559
921.302603	0.967310
921.607423	0.968791
921.912204	0.972424
922.216946	0.972772
922.521647	0.972586
922.826310	0.975944
923.130932	0.977171
923.435516	0.979779
923.740059	0.980466
924.044564	0.979943
924.349028	0.982231
924.653454	0.983450
924.957840	0.985501
925.262186	0.986324
925.566493	0.983876
925.870761	0.985673
926.174989	0.987401
926.479178	0.989898
926.783328	0.988051
927.087438	0.989739
927.391509	0.988956
927.695541	0.991067
927.999533	0.989305
928.303486	0.990283
928.607400	0.991762
928.911275	0.990244
929.215110	0.990189
929.518906	0.991968
929.822663	0.990567
930.126381	0.991317
930.430060	0.991604
930.733699	0.991311
931.037299	0.990612
931.340861	0.991129
931.644383	0.990473
931.947866	0.989827
932.251309	0.991090
932.554714	0.991130
932.858080	0.991296
933.161407	0.990737
933.464694	0.991526
933.767943	0.990513
934.071153	0.991640
934.374323	0.992590
934.677455	0.991857
934.980548	0.992863
935.283602	0.991573
935.586617	0.991057
935.889593	0.991914
936.192530	0.990820
936.495428	0.991936
936.798287	0.991935
937.101108	0.990673
937.403890	0.990144
937.706632	0.989901
938.009336	0.988169
938.312002	0.987253
938.614628	0.985399
938.917216	0.984481
939.219765	0.981798
939.522275	0.984360
939.824747	0.983923
940.127179	0.983467
940.429573	0.985209
940.731929	0.985356
941.034246	0.985458
941.336524	0.986095
941.638763	0.986924
941.940964	0.986597
942.243126	0.987491
942.545250	0.988630
942.847335	0.990314
943.149381	0.989279
943.451389	0.989522
943.753359	0.989004
944.055290	0.991704
944.357182	0.990044
944.659036	0.989199
944.960851	0.990595
945.262628	0.991506
945.564367	0.991071
945.866067	0.991069
946.167729	0.990838
946.469352	0.990846
946.770937	0.989214
947.072484	0.991374
947.373992	0.991380
947.675462	0.990796
947.976893	0.990049
948.278286	0.991242
948.579641	0.992088
948.880958	0.991595
949.182236	0.991707
949.483476	0.991709
949.784678	0.990833
950.085841	0.991904
950.386967	0.991525
950.688054	0.991541
950.989103	0.990964
951.290114	0.990046
951.591087	0.989999
951.892021	0.990348
952.192917	0.989586
952.493776	0.989395
952.794596	0.988492
953.095378	0.988298
953.396122	0.988154
953.696828	0.987483
953.997496	0.991400
954.298126	0.991060
954.598718	0.990636
954.899272	0.991846
955.199788	0.990744
955.500266	0.993226
955.800706	0.993576
956.101108	0.994225
956.401472	0.993972
956.701798	0.994702
957.002087	0.993208
957.302337	0.995556
957.602550	0.995676
957.902724	0.995492
958.202861	0.995538
958.502960	0.996105
958.803022	0.994379
959.103045	0.996084
959.403031	0.995963
959.702979	0.995661
960.002889	0.996756
960.302762	0.994932
960.602596	0.997107
960.902393	0.995846
961.202153	0.996702
961.501875	0.996606
961.801559	0.996525
962.101205	0.996154
962.400814	0.997047
962.700385	0.997228
962.999918	0.996733
963.299414	0.996880
963.598873	0.996739
963.898293	0.996613
964.197677	0.996167
964.497022	0.997265
964.796331	0.998635
965.095601	0.997505
965.394835	0.997345
965.694030	0.998234
965.993189	0.997302
966.292309	0.996770
966.591393	0.998873
966.890439	0.998529
967.189447	0.997411
967.488419	0.997092
967.787353	0.997414
968.086249	0.997294
968.385108	0.997291
968.683930	0.998282
968.982714	0.997436
969.281462	0.996714
969.580172	0.996884
969.878844	0.998038
970.177480	0.997457
970.476078	0.997901
970.774639	0.996524
971.073162	0.998029
971.371649	0.997868
971.670098	0.995769
971.968510	0.997800
972.266885	0.995523
972.565223	0.997266
972.863524	0.997446
973.161788	0.997533
973.460014	0.998502
973.758204	0.995863
974.056356	0.997235
974.354471	0.994594
974.652550	0.997134
974.950591	0.996179
975.248595	0.997668
975.546563	0.996903
975.844493	0.998802
976.142386	0.997076
976.440243	0.999048
976.738062	0.998464
977.035845	0.999099
977.333590	0.998712
977.631299	0.998168
977.928971	0.997850
978.226606	0.996443
978.524204	0.996975
978.821765	0.999222
979.119290	0.997043
979.416777	0.997605
979.714228	0.997837
980.011642	0.997421
980.309020	0.998984
980.606360	0.997753
980.903664	0.998149
981.200931	0.996983
981.498162	0.995652
981.795356	0.996180
982.092513	0.994669
982.389633	0.995538
982.686717	0.991350
982.983764	0.992279
983.280775	0.991572
983.577749	0.991862
983.874686	0.993178
984.171587	0.992733
984.468451	0.995481
984.765279	0.995880
985.062070	0.995775
985.358824	0.996186
985.655543	0.995188
985.952224	0.997537
986.248869	0.997425
986.545478	0.997594
986.842050	0.998548
987.138586	0.996341
987.435086	0.997268
987.731549	0.998766
988.027975	0.997883
988.324366	0.998947
988.620719	0.998984
988.917037	0.996505
989.213318	0.999515
989.509563	0.999393
989.805772	0.999099
990.101944	1.000269
990.398080	0.998018
990.694180	0.999818
990.990244	0.998026
991.286271	0.998296
991.582262	0.998563
991.878217	0.998521
992.174136	0.999229
992.470019	0.998645
992.765865	0.998174
993.061676	0.999827
993.357450	0.998280
993.653188	0.998422
993.948890	0.997791
994.244556	0.998727
994.540186	0.997916
994.835780	0.997299
995.131337	0.998528
995.426859	0.997159
995.722345	0.997658
996.017795	0.997982
996.313208	0.996033
996.608586	0.996347
996.903928	0.997145
997.199234	0.996035
997.494504	0.998039
997.789738	0.996896
998.084936	0.997634
998.380099	0.998323
998.675225	0.998287
998.970316	0.998689
999.265371	0.999199
999.560390	0.997399
999.855373	0.999576
1000.150320	0.999741
1000.445232	0.999634
1000.740108	0.998708
1001.034948	0.999063
1001.329752	0.999355
1001.624521	0.999751
1001.919254	0.998992
1002.213951	0.998718
1002.508613	0.998066
1002.803239	0.999603
1003.097829	0.999860
1003.392384	1.000055
1003.686903	0.999814
1003.981386	0.999122
1004.275834	0.999422
1004.570246	0.998753
1004.864623	0.999005
1005.158964	1.000409
1005.453270	0.998903
1005.747540	0.998234
1006.041775	0.998566
1006.335974	0.999528
1006.630138	1.000473
1006.924266	1.000056
1007.218359	1.001059
1007.512416	0.999788
1007.806438	0.999592
1008.100425	0.999822
1008.394376	0.999662
1008.688292	0.999832
1008.982172	1.001657
1009.276017	0.999643
1009.569827	0.998981
1009.863602	0.998448
1010.157341	0.999528
1010.451045	1.000023
1010.744714	0.999493
1011.038347	1.000170
1011.331945	1.000573
1011.625508	0.998768
1011.919036	0.999503
1012.212528	0.998734
1012.505986	0.999489
1012.799408	0.998866
1013.092795	0.998781
1013.386147	1.000585
1013.679464	0.998879
1013.972745	1.000132
1014.265992	0.998522
1014.559204	0.998718
1014.852380	1.000030
1015.145521	0.999356
1015.438628	1.000610
1015.731699	0.998703
1016.024736	0.999297
1016.317737	0.998665
1016.610703	1.000583
1016.903635	1.000850
1017.196531	1.000019
1017.489393	0.999878
1017.782219	0.999157
1018.075011	0.999126
1018.367768	1.000074
1018.660490	1.000440
1018.953177	1.000440
1019.245829	1.000440
