Dividing Wavelength (nm)	Counts (n)	Blue Motor Position (mm): 0.000000	Red Motor Position (mm): 13.800000	
326.493990	1.001226
326.888308	1.001226
327.282561	1.001226
327.676750	1.000215
328.070874	0.999515
328.464933	1.000482
328.858929	0.999944
329.252859	1.000527
329.646726	0.999247
330.040528	1.000007
330.434265	0.999040
330.827938	1.001344
331.221547	1.002627
331.615091	1.000309
332.008571	1.002100
332.401986	0.999619
332.795338	0.999752
333.188625	0.999064
333.581847	1.000050
333.975006	1.000344
334.368100	0.998583
334.761129	0.999960
335.154095	1.001231
335.546996	0.998770
335.939833	0.992371
336.332606	0.993883
336.725315	0.995279
337.117960	0.995510
337.510540	0.994711
337.903056	0.994563
338.295508	0.993198
338.687896	0.993586
339.080220	0.993812
339.472480	0.992934
339.864676	0.994225
340.256807	0.994528
340.648875	0.995409
341.040879	0.995377
341.432818	0.993108
341.824694	0.993199
342.216506	0.995733
342.608253	0.994693
342.999937	0.993599
343.391557	0.994505
343.783113	0.994154
344.174605	0.995045
344.566033	0.994539
344.957397	0.993624
345.348697	0.993762
345.739934	0.994403
346.131106	0.994973
346.522215	0.993354
346.913260	0.992021
347.304241	0.993485
347.695159	0.992160
348.086012	0.993766
348.476802	0.994251
348.867528	0.994438
349.258191	0.992177
349.648789	0.994995
350.039324	0.995163
350.429796	0.995224
350.820203	0.994656
351.210548	0.994101
351.600828	0.994559
351.991045	0.994404
352.381198	0.992626
352.771288	0.993404
353.161314	0.993812
353.551276	0.995007
353.941175	0.993508
354.331010	0.993994
354.720782	0.994387
355.110490	0.994420
355.500135	0.995276
355.889717	0.994029
356.279235	0.993343
356.668689	0.993303
357.058080	0.994466
357.447408	0.995261
357.836672	0.993562
358.225873	0.995205
358.615010	0.993667
359.004084	0.995332
359.393095	0.995273
359.782043	0.994829
360.170927	0.994951
360.559748	0.993832
360.948505	0.993652
361.337199	0.993359
361.725830	0.995540
362.114398	0.993791
362.502903	0.993873
362.891344	0.994431
363.279722	0.994547
363.668037	0.994161
364.056289	0.994692
364.444478	0.995448
364.832603	0.994175
365.220665	0.993810
365.608665	0.993241
365.996601	0.994044
366.384474	0.993583
366.772284	0.993639
367.160031	0.991591
367.547715	0.992737
367.935336	0.993926
368.322893	0.993394
368.710388	0.993482
369.097820	0.993954
369.485189	0.993485
369.872495	0.992866
370.259738	0.992251
370.646918	0.993662
371.034035	0.994236
371.421090	0.993604
371.808081	0.993061
372.195010	0.993789
372.581875	0.993014
372.968678	0.994454
373.355418	0.994059
373.742096	0.992919
374.128710	0.994353
374.515262	0.993268
374.901751	0.994005
375.288177	0.993419
375.674540	0.993580
376.060841	0.993352
376.447079	0.993933
376.833254	0.993576
377.219367	0.993529
377.605417	0.994628
377.991404	0.994698
378.377329	0.992491
378.763191	0.993043
379.148991	0.993618
379.534727	0.994795
379.920402	0.993931
380.306013	0.993704
380.691563	0.993339
381.077049	0.993285
381.462474	0.993415
381.847835	0.994059
382.233134	0.993082
382.618371	0.993097
383.003545	0.993310
383.388657	0.993713
383.773706	0.994332
384.158693	0.994352
384.543618	0.993496
384.928480	0.993609
385.313280	0.993438
385.698017	0.994278
386.082692	0.994198
386.467305	0.994253
386.851856	0.993473
387.236344	0.993780
387.620770	0.991741
388.005133	0.994040
388.389435	0.993758
388.773674	0.992947
389.157851	0.992477
389.541965	0.991601
389.926018	0.991537
390.310008	0.990639
390.693936	0.989005
391.077802	0.988215
391.461606	0.985973
391.845348	0.983971
392.229027	0.982441
392.612645	0.979288
392.996200	0.976456
393.379694	0.972467
393.763125	0.968795
394.146494	0.964595
394.529801	0.958345
394.913047	0.954517
395.296230	0.949943
395.679351	0.943983
396.062410	0.937181
396.445408	0.933372
396.828343	0.926067
397.211217	0.919546
397.594028	0.915190
397.976778	0.906104
398.359466	0.898969
398.742092	0.890938
399.124656	0.886183
399.507158	0.875927
399.889598	0.868091
400.271977	0.857156
400.654294	0.850678
401.036549	0.842276
401.418742	0.835681
401.800874	0.820430
402.182944	0.810600
402.564952	0.797584
402.946898	0.790620
403.328783	0.782018
403.710606	0.778870
404.092367	0.757104
404.474067	0.751220
404.855705	0.741438
405.237282	0.739514
405.618797	0.722406
406.000250	0.710855
406.381642	0.696963
406.762972	0.691995
407.144240	0.683343
407.525447	0.675583
407.906593	0.663337
408.287677	0.651851
408.668700	0.651497
409.049661	0.639231
409.430560	0.629578
409.811399	0.629204
410.192176	0.607758
410.572891	0.607920
410.953545	0.592428
411.334138	0.598060
411.714669	0.587221
412.095139	0.592201
412.475547	0.574089
412.855894	0.572094
413.236180	0.566374
413.616405	0.567496
413.996568	0.555456
414.376670	0.556979
414.756711	0.558846
415.136691	0.553277
415.516609	0.542083
415.896466	0.536548
416.276262	0.530439
416.655997	0.530010
417.035670	0.509758
417.415283	0.500725
417.794834	0.503013
418.174324	0.506953
418.553753	0.514726
418.933121	0.496018
419.312428	0.488668
419.691674	0.493531
420.070859	0.481301
420.449983	0.488595
420.829045	0.477621
421.208047	0.485803
421.586988	0.478833
421.965867	0.477198
422.344686	0.465718
422.723444	0.477531
423.102141	0.494025
423.480777	0.467259
423.859352	0.486796
424.237866	0.464574
424.616319	0.464798
424.994712	0.456370
425.373044	0.465565
425.751314	0.453935
426.129524	0.470047
426.507673	0.453408
426.885762	0.447277
427.263789	0.453037
427.641756	0.462461
428.019662	0.452973
428.397508	0.451318
428.775292	0.455897
429.153016	0.448003
429.530679	0.454372
429.908282	0.446916
430.285824	0.457273
430.663305	0.435815
431.040726	0.456602
431.418086	0.457008
431.795385	0.448530
432.172624	0.446903
432.549802	0.447804
432.926920	0.446645
433.303977	0.445588
433.680974	0.443644
434.057910	0.441950
434.434786	0.440968
434.811601	0.443846
435.188355	0.425839
435.565050	0.435220
435.941683	0.436905
436.318257	0.421448
436.694770	0.421659
437.071222	0.419995
437.447614	0.424464
437.823946	0.430995
438.200218	0.420105
438.576429	0.430173
438.952580	0.423021
439.328670	0.419704
439.704700	0.426807
440.080670	0.427244
440.456580	0.408248
440.832429	0.416066
441.208218	0.427626
441.583947	0.416598
441.959616	0.416509
442.335224	0.421320
442.710773	0.411810
443.086261	0.410033
443.461689	0.424183
443.837057	0.413594
444.212365	0.403755
444.587612	0.410917
444.962800	0.400769
445.337927	0.401919
445.712995	0.428246
446.088002	0.391082
446.462949	0.401054
446.837837	0.405738
447.212664	0.394850
447.587431	0.386317
447.962139	0.356966
448.336786	0.316136
448.711374	0.326392
449.085901	0.370589
449.460369	0.375022
449.834776	0.378458
450.209124	0.357699
450.583412	0.350366
450.957640	0.343173
451.331808	0.354695
451.705917	0.378012
452.079965	0.382150
452.453954	0.370829
452.827883	0.377407
453.201752	0.372153
453.575562	0.383852
453.949311	0.372133
454.323001	0.378276
454.696632	0.374301
455.070202	0.366828
455.443713	0.358700
455.817164	0.354233
456.190556	0.349438
456.563888	0.346113
456.937160	0.343832
457.310373	0.361099
457.683526	0.359868
458.056619	0.365700
458.429653	0.366072
458.802628	0.369286
459.175542	0.363826
459.548398	0.346278
459.921194	0.338611
460.293930	0.338925
460.666607	0.316875
461.039224	0.304990
461.411782	0.300445
461.784280	0.299937
462.156719	0.304271
462.529099	0.308661
462.901419	0.324386
463.273680	0.328814
463.645882	0.328462
464.018024	0.334274
464.390106	0.327386
464.762130	0.312090
465.134094	0.294852
465.505999	0.264213
465.877845	0.234710
466.249631	0.221701
466.621358	0.229282
466.993026	0.243348
467.364634	0.248982
467.736184	0.257869
468.107674	0.266804
468.479105	0.266016
468.850477	0.272577
469.221790	0.279596
469.593043	0.289704
469.964238	0.294496
470.335373	0.294103
470.706449	0.292085
471.077467	0.292652
471.448425	0.254651
471.819324	0.230463
472.190164	0.229916
472.560945	0.258532
472.931667	0.280755
473.302330	0.284929
473.672934	0.296917
474.043479	0.284815
474.413965	0.286807
474.784393	0.289997
475.154761	0.285565
475.525070	0.282389
475.895321	0.287859
476.265513	0.282368
476.635645	0.277710
477.005719	0.277692
477.375734	0.274072
477.745691	0.267286
478.115588	0.263993
478.485427	0.257599
478.855207	0.244383
479.224928	0.226727
479.594591	0.214901
479.964194	0.218367
480.333739	0.219806
480.703226	0.221084
481.072653	0.219507
481.442022	0.215130
481.811333	0.211603
482.180584	0.215299
482.549777	0.220486
482.918912	0.223554
483.287988	0.223492
483.657005	0.222961
484.025964	0.229492
484.394864	0.227189
484.763706	0.227616
485.132489	0.232254
485.501213	0.233283
485.869879	0.231528
486.238487	0.235032
486.607036	0.232546
486.975527	0.237214
487.343959	0.233152
487.712333	0.232298
488.080648	0.233454
488.448905	0.232790
488.817104	0.234101
489.185244	0.228787
489.553326	0.225482
489.921350	0.215369
490.289315	0.197882
490.657222	0.192930
491.025070	0.194167
491.392861	0.196163
491.760593	0.201794
492.128267	0.207610
492.495883	0.213029
492.863440	0.219141
493.230939	0.225647
493.598380	0.226663
493.965763	0.229016
494.333088	0.231483
494.700354	0.232731
495.067563	0.231756
495.434713	0.235112
495.801805	0.232890
496.168839	0.234600
496.535815	0.235545
496.902733	0.235761
497.269593	0.237316
497.636395	0.235107
498.003139	0.235506
498.369825	0.238276
498.736453	0.234725
499.103023	0.236538
499.469535	0.235639
499.835989	0.236328
500.202385	0.237074
500.568723	0.240195
500.935003	0.235285
501.301226	0.239475
501.667390	0.234148
502.033497	0.232246
502.399546	0.235131
502.765537	0.236588
503.131470	0.235321
503.497345	0.231694
503.863163	0.240186
504.228923	0.233171
504.594625	0.231837
504.960269	0.237316
505.325856	0.232838
505.691385	0.236988
506.056856	0.233492
506.422270	0.232774
506.787625	0.235539
507.152924	0.232956
507.518164	0.233373
507.883347	0.235074
508.248472	0.236875
508.613540	0.231914
508.978550	0.234554
509.343503	0.235048
509.708398	0.232368
510.073236	0.230204
510.438016	0.230186
510.802738	0.230785
511.167403	0.230076
511.532010	0.231832
511.896561	0.227500
512.261053	0.226091
512.625488	0.228329
512.989866	0.228018
513.354186	0.228919
513.718449	0.230961
514.082655	0.227143
514.446803	0.229258
514.810894	0.226960
515.174927	0.229812
515.538904	0.228879
515.902822	0.225977
516.266684	0.228465
516.630488	0.229373
516.994235	0.228332
517.357925	0.226945
517.721558	0.225075
518.085133	0.224798
518.448651	0.225002
518.812112	0.226888
519.175516	0.226753
519.538863	0.224144
519.902152	0.226138
520.265385	0.222897
520.628560	0.224746
520.991678	0.224783
521.354739	0.223982
521.717743	0.225303
522.080690	0.225591
522.443580	0.222919
522.806413	0.224016
523.169189	0.223200
523.531908	0.221900
523.894569	0.225881
524.257174	0.225787
524.619722	0.223344
524.982213	0.224414
525.344647	0.223043
525.707025	0.223987
526.069345	0.222450
526.431608	0.224132
526.793815	0.221842
527.155964	0.225994
527.518057	0.225121
527.880093	0.225966
528.242072	0.224754
528.603995	0.226475
528.965860	0.228424
529.327669	0.227186
529.689421	0.227939
530.051117	0.228942
530.412755	0.226571
530.774337	0.228535
531.135862	0.229063
531.497331	0.228589
531.858743	0.231500
532.220098	0.228192
532.581396	0.230597
532.942638	0.231092
533.303824	0.232142
533.664953	0.231886
534.026025	0.233278
534.387040	0.231430
534.747999	0.231270
535.108902	0.230257
535.469748	0.235248
535.830537	0.233172
536.191270	0.233516
536.551947	0.233145
536.912567	0.233091
537.273131	0.235125
537.633638	0.235096
537.994089	0.235137
538.354483	0.236221
538.714821	0.233349
539.075103	0.233239
539.435328	0.233777
539.795497	0.238017
540.155609	0.234399
540.515665	0.232392
540.875665	0.238301
541.235609	0.236521
541.595496	0.236743
541.955328	0.233102
542.315102	0.235937
542.674821	0.236835
543.034483	0.237309
543.394090	0.236711
543.753640	0.238676
544.113134	0.233662
544.472571	0.236935
544.831953	0.233895
545.191278	0.237893
545.550548	0.237408
545.909761	0.234262
546.268918	0.234789
546.628019	0.233046
546.987064	0.235981
547.346053	0.237568
547.704986	0.235939
548.063863	0.235826
548.422684	0.236101
548.781449	0.238146
549.140158	0.235976
549.498811	0.238691
549.857408	0.241560
550.215949	0.236124
550.574434	0.239544
550.932864	0.237256
551.291237	0.235898
551.649555	0.237354
552.007817	0.236975
552.366022	0.238020
552.724173	0.238030
553.082267	0.238346
553.440305	0.235300
553.798288	0.239770
554.156215	0.236369
554.514086	0.237002
554.871902	0.240098
555.229661	0.239690
555.587365	0.239754
555.945014	0.242552
556.302606	0.239652
556.660143	0.241834
557.017625	0.238269
557.375050	0.240714
557.732421	0.237488
558.089735	0.239774
558.446994	0.239690
558.804197	0.238749
559.161345	0.238908
559.518437	0.242476
559.875474	0.239955
560.232455	0.239235
560.589381	0.240648
560.946251	0.240659
561.303065	0.238300
561.659825	0.239643
562.016528	0.241187
562.373177	0.244225
562.729770	0.241441
563.086307	0.243359
563.442789	0.241230
563.799216	0.244144
564.155587	0.242524
564.511904	0.243866
564.868164	0.243778
565.224370	0.243823
565.580520	0.245535
565.936615	0.245696
566.292654	0.248659
566.648638	0.245329
567.004567	0.246593
567.360441	0.246946
567.716260	0.249063
568.072023	0.246863
568.427732	0.247562
568.783385	0.250214
569.138982	0.248494
569.494525	0.247945
569.850013	0.250700
570.205445	0.249015
570.560823	0.251673
570.916145	0.253468
571.271412	0.251943
571.626625	0.253291
571.981782	0.253724
572.336884	0.254781
572.691931	0.254475
573.046923	0.255714
573.401860	0.256715
573.756743	0.258465
574.111570	0.257539
574.466342	0.257957
574.821059	0.256891
575.175722	0.259885
575.530330	0.259644
575.884882	0.259745
576.239380	0.261937
576.593823	0.262729
576.948211	0.261666
577.302544	0.265172
577.656823	0.264719
578.011047	0.265021
578.365216	0.265481
578.719330	0.267495
579.073389	0.267232
579.427394	0.268799
579.781344	0.269136
580.135239	0.270930
580.489080	0.270755
580.842866	0.273337
581.196597	0.273186
581.550273	0.272087
581.903895	0.272744
582.257463	0.270911
582.610975	0.274503
582.964434	0.273618
583.317837	0.276189
583.671186	0.276499
584.024481	0.276629
584.377721	0.279020
584.730906	0.279729
585.084037	0.278991
585.437113	0.280809
585.790135	0.280137
586.143103	0.283494
586.496016	0.284755
586.848874	0.282118
587.201679	0.282527
587.554428	0.285747
587.907124	0.284638
588.259765	0.285008
588.612352	0.285930
588.964884	0.289737
589.317362	0.289204
589.669786	0.289059
590.022155	0.287990
590.374470	0.287231
590.726731	0.289025
591.078937	0.293828
591.431090	0.289992
591.783188	0.294259
592.135232	0.294705
592.487222	0.294888
592.839157	0.292919
593.191038	0.295665
593.542866	0.297105
593.894639	0.301042
594.246358	0.298795
594.598022	0.298176
594.949633	0.302214
595.301190	0.302466
595.652692	0.301655
596.004141	0.297995
596.355535	0.306019
596.706876	0.306432
597.058162	0.308688
597.409395	0.306334
597.760573	0.303761
598.111698	0.306979
598.462768	0.307757
598.813785	0.308924
599.164748	0.310480
599.515657	0.310302
599.866511	0.314023
600.217312	0.309225
600.568060	0.314401
600.918753	0.310789
601.269392	0.311639
601.619978	0.315531
601.970510	0.312595
602.320988	0.312822
602.671412	0.310542
603.021783	0.312893
603.372100	0.314523
603.722363	0.314154
604.072572	0.314772
604.422728	0.314667
604.772830	0.316732
605.122878	0.315994
605.472872	0.316707
605.822813	0.315068
606.172701	0.317632
606.522534	0.315634
606.872314	0.315190
607.222041	0.316323
607.571714	0.314257
607.921333	0.315812
608.270899	0.315251
608.620411	0.312154
608.969870	0.315965
609.319276	0.316268
609.668627	0.315736
610.017926	0.314773
610.367171	0.313007
610.716362	0.313778
611.065500	0.314230
611.414585	0.312794
611.763616	0.313508
612.112594	0.313726
612.461518	0.313227
612.810389	0.311092
613.159207	0.313439
613.507971	0.314918
613.856682	0.310605
614.205340	0.312200
614.553945	0.309469
614.902496	0.313041
615.250994	0.311125
615.599439	0.311955
615.947830	0.311302
616.296169	0.312823
616.644454	0.311872
616.992686	0.311888
617.340864	0.309518
617.688990	0.313325
618.037063	0.310114
618.385082	0.311862
618.733048	0.308530
619.080961	0.311134
619.428821	0.310399
619.776628	0.309715
620.124382	0.312002
620.472083	0.312387
620.819731	0.311659
621.167326	0.315375
621.514868	0.315383
621.862357	0.319381
622.209793	0.318883
622.557176	0.321062
622.904506	0.322512
623.251783	0.324800
623.599007	0.327160
623.946179	0.326513
624.293297	0.328722
624.640363	0.332383
624.987376	0.332940
625.334336	0.335753
625.681243	0.337398
626.028097	0.338212
626.374899	0.339571
626.721647	0.339482
627.068343	0.342631
627.414987	0.344092
627.761577	0.345964
628.108115	0.344250
628.454600	0.349123
628.801032	0.346599
629.147412	0.348725
629.493739	0.349105
629.840014	0.352563
630.186236	0.349785
630.532405	0.355241
630.878521	0.352693
631.224585	0.354526
631.570597	0.358771
631.916556	0.357447
632.262462	0.357049
632.608316	0.359392
632.954117	0.360633
633.299866	0.361112
633.645562	0.361428
633.991206	0.365852
634.336797	0.368558
634.682336	0.370822
635.027823	0.372437
635.373257	0.372882
635.718639	0.377145
636.063968	0.375894
636.409245	0.381394
636.754470	0.382125
637.099642	0.384471
637.444762	0.387768
637.789829	0.386703
638.134845	0.390750
638.479808	0.391661
638.824719	0.390976
639.169577	0.395144
639.514383	0.394013
639.859137	0.398284
640.203839	0.398344
640.548489	0.398683
640.893086	0.400136
641.237632	0.401627
641.582125	0.400227
641.926566	0.402112
642.270955	0.402117
642.615292	0.402092
642.959576	0.401550
643.303809	0.401697
643.647990	0.401793
643.992118	0.402054
644.336195	0.405575
644.680219	0.403650
645.024192	0.404729
645.368112	0.398446
645.711981	0.397441
646.055797	0.392337
646.399562	0.394753
646.743274	0.387007
647.086935	0.384079
647.430544	0.384646
647.774101	0.383589
648.117606	0.382926
648.461059	0.383477
648.804460	0.385472
649.147810	0.390640
649.491108	0.392860
649.834354	0.394161
650.177548	0.399503
650.520690	0.405209
650.863781	0.406853
651.206820	0.405505
651.549807	0.410511
651.892742	0.414313
652.235626	0.414070
652.578458	0.414698
652.921238	0.421205
653.263967	0.418315
653.606644	0.422597
653.949269	0.422152
654.291843	0.426258
654.634365	0.423197
654.976836	0.426260
655.319255	0.426167
655.661622	0.427825
656.003938	0.427860
656.346203	0.430953
656.688416	0.428715
657.030577	0.432226
657.372687	0.434017
657.714746	0.434864
658.056753	0.432458
658.398708	0.435723
658.740612	0.437018
659.082465	0.433170
659.424266	0.433751
659.766016	0.432857
660.107715	0.435859
660.449362	0.434714
660.790958	0.435189
661.132503	0.435412
661.473996	0.433302
661.815438	0.434212
662.156829	0.434535
662.498168	0.435309
662.839456	0.436209
663.180693	0.435211
663.521879	0.434089
663.863013	0.435078
664.204097	0.433774
664.545129	0.430749
664.886110	0.431006
665.227040	0.428604
665.567918	0.431138
665.908746	0.429092
666.249522	0.428627
666.590248	0.429707
666.930922	0.428233
667.271545	0.426893
667.612118	0.426682
667.952639	0.428520
668.293109	0.427173
668.633528	0.430206
668.973896	0.429507
669.314213	0.430502
669.654480	0.431709
669.994695	0.432878
670.334859	0.433049
670.674973	0.433145
671.015035	0.433407
671.355047	0.433270
671.695008	0.434341
672.034918	0.435971
672.374777	0.435002
672.714585	0.436529
673.054342	0.436368
673.394049	0.436635
673.733705	0.434692
674.073310	0.435513
674.412864	0.438755
674.752368	0.439039
675.091820	0.439130
675.431223	0.443365
675.770574	0.443927
676.109875	0.446788
676.449125	0.446672
676.788324	0.448722
677.127473	0.454384
677.466571	0.454290
677.805619	0.455811
678.144616	0.456717
678.483562	0.458171
678.822458	0.460845
679.161303	0.461916
679.500098	0.461964
679.838842	0.463989
680.177535	0.463691
680.516179	0.462719
680.854771	0.460936
681.193314	0.454809
681.531805	0.445995
681.870247	0.434557
682.208638	0.427100
682.546978	0.425995
682.885268	0.427758
683.223508	0.434139
683.561697	0.437547
683.899836	0.440094
684.237925	0.443602
684.575963	0.446630
684.913951	0.449181
685.251889	0.444934
685.589776	0.447027
685.927614	0.449785
686.265401	0.443368
686.603137	0.445313
686.940824	0.438830
687.278460	0.437173
687.616046	0.436821
687.953582	0.431350
688.291068	0.433237
688.628504	0.428742
688.965889	0.430614
689.303224	0.434949
689.640510	0.439072
689.977745	0.445046
690.314930	0.452775
690.652065	0.456614
690.989150	0.465434
691.326185	0.471476
691.663170	0.475691
692.000105	0.483231
692.336990	0.489828
692.673825	0.492443
693.010610	0.499283
693.347345	0.505084
693.684030	0.506409
694.020665	0.511180
694.357251	0.519982
694.693786	0.520016
695.030272	0.524220
695.366707	0.526747
695.703093	0.530303
696.039429	0.528750
696.375716	0.530024
696.711952	0.533393
697.048139	0.535339
697.384276	0.537176
697.720363	0.534777
698.056400	0.534338
698.392388	0.540032
698.728326	0.543030
699.064214	0.545231
699.400053	0.546403
699.735842	0.549726
700.071581	0.552329
700.407270	0.556222
700.742910	0.557987
701.078501	0.564267
701.414042	0.564943
701.749533	0.568519
702.084974	0.576263
702.420366	0.569241
702.755709	0.577327
703.091002	0.584877
703.426246	0.577895
703.761440	0.583823
704.096584	0.588751
704.431679	0.585683
704.766725	0.587350
705.101721	0.588787
705.436668	0.585845
705.771565	0.592846
706.106413	0.589438
706.441212	0.584048
706.775961	0.582980
707.110661	0.586078
707.445311	0.581769
707.779913	0.579522
708.114465	0.577927
708.448967	0.574700
708.783421	0.566864
709.117825	0.561290
709.452180	0.561836
709.786485	0.554914
710.120742	0.544598
710.454949	0.547443
710.789107	0.539477
711.123216	0.530692
711.457275	0.532564
711.791286	0.522628
712.125247	0.522078
712.459159	0.532599
712.793023	0.525266
713.126837	0.530123
713.460602	0.529729
713.794318	0.539493
714.127985	0.537799
714.461602	0.548135
714.795171	0.551228
715.128691	0.559344
715.462162	0.566497
715.795584	0.571673
716.128957	0.574598
716.462281	0.581865
716.795556	0.585284
717.128782	0.590679
717.461960	0.600381
717.795088	0.597907
718.128167	0.604535
718.461198	0.612887
718.794180	0.613456
719.127113	0.616715
719.459997	0.620014
719.792833	0.626599
720.125619	0.627412
720.458357	0.633670
720.791046	0.633450
721.123686	0.636008
721.456278	0.642901
721.788821	0.640640
722.121315	0.645067
722.453761	0.649034
722.786158	0.646389
723.118506	0.643969
723.450805	0.650910
723.783056	0.647588
724.115259	0.644759
724.447412	0.643858
724.779518	0.645748
725.111574	0.644436
725.443582	0.640667
725.775542	0.642222
726.107453	0.634129
726.439315	0.634152
726.771129	0.632907
727.102895	0.625874
727.434612	0.618285
727.766281	0.616531
728.097901	0.615962
728.429473	0.616374
728.760996	0.614028
729.092471	0.614539
729.423897	0.617947
729.755276	0.617377
730.086606	0.617046
730.417887	0.611573
730.749120	0.602595
731.080305	0.593355
731.411442	0.588343
731.742530	0.593837
732.073570	0.593438
732.404562	0.585508
732.735506	0.586903
733.066401	0.591981
733.397249	0.601243
733.728048	0.612123
734.058798	0.624916
734.389501	0.636042
734.720156	0.645209
735.050762	0.653466
735.381320	0.654500
735.711831	0.663446
736.042293	0.669185
736.372707	0.663498
736.703073	0.668432
737.033391	0.671651
737.363661	0.667848
737.693883	0.663078
738.024056	0.662146
738.354182	0.661857
738.684260	0.652037
739.014290	0.647116
739.344272	0.648509
739.674207	0.641916
740.004093	0.641344
740.333931	0.641675
740.663722	0.642710
740.993464	0.642114
741.323159	0.646806
741.652806	0.651862
741.982405	0.655931
742.311956	0.661037
742.641460	0.663182
742.970915	0.666699
743.300323	0.675264
743.629683	0.680497
743.958996	0.683127
744.288260	0.687252
744.617477	0.693003
744.946647	0.694986
745.275768	0.699585
745.604842	0.699814
745.933869	0.709977
746.262847	0.710888
746.591778	0.704055
746.920662	0.710293
747.249498	0.716481
747.578286	0.707068
747.907027	0.703488
748.235720	0.704718
748.564365	0.699447
748.892963	0.699117
749.221514	0.702143
749.550017	0.706963
749.878473	0.706843
750.206881	0.713321
750.535242	0.714418
750.863555	0.714951
751.191821	0.715852
751.520039	0.718920
751.848210	0.724045
752.176334	0.716377
752.504411	0.715724
752.832440	0.723416
753.160421	0.727136
753.488356	0.724906
753.816243	0.722990
754.144082	0.731580
754.471875	0.735032
754.799620	0.730007
755.127318	0.731639
755.454969	0.732081
755.782572	0.731689
756.110129	0.736139
756.437638	0.737705
756.765100	0.734632
757.092515	0.734046
757.419882	0.731319
757.747203	0.737325
758.074477	0.736468
758.401703	0.734204
758.728882	0.729164
759.056014	0.727580
759.383099	0.726579
759.710138	0.728402
760.037129	0.724185
760.364073	0.717746
760.690970	0.720683
761.017820	0.726653
761.344623	0.721994
761.671379	0.712818
761.998088	0.700996
762.324751	0.679105
762.651366	0.636786
762.977935	0.569892
763.304456	0.517069
763.630931	0.508078
763.957359	0.546572
764.283740	0.591604
764.610074	0.618907
764.936362	0.649514
765.262602	0.676153
765.588796	0.698271
765.914943	0.715593
766.241044	0.733142
766.567097	0.740729
766.893104	0.749971
767.219064	0.757119
767.544978	0.763362
767.870845	0.777585
768.196665	0.781011
768.522438	0.779565
768.848165	0.780335
769.173846	0.789929
769.499479	0.793716
769.825066	0.796940
770.150607	0.802581
770.476101	0.796893
770.801548	0.798482
771.126949	0.809995
771.452303	0.813849
771.777611	0.812625
772.102872	0.812128
772.428087	0.817213
772.753256	0.820340
773.078378	0.822050
773.403453	0.831364
773.728482	0.836453
774.053465	0.828431
774.378401	0.832256
774.703291	0.841632
775.028135	0.840955
775.352932	0.842354
775.677683	0.846499
776.002388	0.846196
776.327046	0.844586
776.651658	0.848307
776.976224	0.851896
777.300743	0.852510
777.625216	0.855323
777.949643	0.855693
778.274024	0.856162
778.598359	0.857743
778.922647	0.857314
779.246889	0.856607
779.571086	0.861253
779.895236	0.863788
780.219339	0.861299
780.543397	0.858638
780.867409	0.856820
781.191374	0.857822
781.515294	0.859700
781.839167	0.858542
782.162995	0.862645
782.486776	0.859642
782.810511	0.859384
783.134201	0.863056
783.457844	0.860714
783.781441	0.863277
784.104993	0.869829
784.428498	0.870328
784.751958	0.866036
785.075372	0.868133
785.398739	0.871614
785.722061	0.868080
786.045337	0.862882
786.368568	0.868774
786.691752	0.870580
787.014891	0.856399
787.337983	0.847828
787.661030	0.840547
787.984031	0.822664
788.306987	0.809987
788.629897	0.811600
788.952760	0.816421
789.275579	0.820888
789.598351	0.835420
789.921078	0.848965
790.243759	0.850982
790.566395	0.855901
790.888984	0.862988
791.211529	0.867348
791.534027	0.871386
791.856480	0.873629
792.178888	0.878201
792.501249	0.881556
792.823566	0.882163
793.145836	0.881244
793.468062	0.884336
793.790241	0.884921
794.112375	0.882368
794.434464	0.877804
794.756507	0.877654
795.078505	0.876877
795.400457	0.871735
795.722364	0.859407
796.044226	0.852320
796.366042	0.850855
796.687812	0.855006
797.009538	0.850994
797.331218	0.853557
797.652852	0.859817
797.974442	0.864239
798.295986	0.863546
798.617484	0.866145
798.938938	0.870306
799.260346	0.875239
799.581709	0.877051
799.903026	0.879281
800.224299	0.879868
800.545526	0.883849
800.866708	0.888337
801.187845	0.892828
801.508936	0.891288
801.829983	0.889698
802.150984	0.891979
802.471940	0.896694
802.792851	0.896033
803.113717	0.896468
803.434538	0.895322
803.755314	0.898308
804.076045	0.899500
804.396731	0.899819
804.717372	0.898952
805.037967	0.901776
805.358518	0.898700
805.679024	0.896367
805.999485	0.896828
806.319901	0.896876
806.640272	0.897817
806.960598	0.895421
807.280879	0.893406
807.601115	0.891474
807.921306	0.895704
808.241453	0.895114
808.561554	0.893839
808.881611	0.893464
809.201623	0.895419
809.521590	0.895698
809.841513	0.896086
810.161390	0.895374
810.481223	0.897601
810.801011	0.901305
811.120755	0.902355
811.440453	0.902143
811.760107	0.900298
812.079716	0.900575
812.399281	0.902882
812.718801	0.906295
813.038276	0.907101
813.357707	0.906024
813.677093	0.902307
813.996434	0.907482
814.315731	0.908538
814.634983	0.909384
814.954191	0.907190
815.273354	0.904766
815.592473	0.901218
815.911547	0.900316
816.230577	0.898407
816.549562	0.895491
816.868502	0.896597
817.187399	0.892815
817.506250	0.887482
817.825058	0.889494
818.143821	0.885798
818.462539	0.880530
818.781213	0.872525
819.099843	0.860854
819.418429	0.844767
819.736970	0.828977
820.055466	0.808112
820.373919	0.782179
820.692327	0.749942
821.010691	0.714949
821.329011	0.635822
821.647286	0.520378
821.965517	0.406002
822.283704	0.363245
822.601847	0.364429
822.919945	0.399997
823.237999	0.434099
823.556010	0.481613
823.873976	0.537831
824.191897	0.588648
824.509775	0.630709
824.827609	0.677101
825.145398	0.699242
825.463144	0.703055
825.780845	0.685655
826.098502	0.667111
826.416116	0.621277
826.733685	0.575940
827.051210	0.567177
827.368692	0.582134
827.686129	0.620109
828.003522	0.672993
828.320872	0.720774
828.638177	0.764927
828.955439	0.797573
829.272656	0.820364
829.589830	0.837986
829.906960	0.853156
830.224046	0.866464
830.541088	0.877092
830.858086	0.881512
831.175041	0.887382
831.491952	0.886153
831.808819	0.882963
832.125642	0.875862
832.442421	0.860929
832.759157	0.837566
833.075849	0.791861
833.392497	0.727475
833.709101	0.687315
834.025662	0.697320
834.342179	0.728276
834.658653	0.768107
834.975083	0.804801
835.291469	0.830356
835.607811	0.853677
835.924110	0.868997
836.240366	0.885918
836.556578	0.900229
836.872746	0.908625
837.188871	0.914255
837.504952	0.920529
837.820990	0.923884
838.136984	0.926575
838.452935	0.930455
838.768842	0.931603
839.084706	0.924356
839.400526	0.898482
839.716303	0.858498
840.032037	0.835413
840.347727	0.838424
840.663373	0.857871
840.978977	0.878837
841.294537	0.901205
841.610054	0.917811
841.925527	0.925401
842.240957	0.932287
842.556344	0.939848
842.871687	0.945840
843.186987	0.949863
843.502244	0.950175
843.817458	0.951768
844.132629	0.955837
844.447756	0.960008
844.762840	0.960098
845.077881	0.960332
845.392879	0.959749
845.707833	0.962331
846.022745	0.963594
846.337613	0.964226
846.652438	0.966737
846.967221	0.965085
847.281960	0.964829
847.596656	0.966675
847.911309	0.965913
848.225919	0.968252
848.540485	0.968287
848.855009	0.969274
849.169490	0.968710
849.483928	0.968280
849.798323	0.968768
850.112675	0.969187
850.426984	0.970319
850.741251	0.970085
851.055474	0.970881
851.369654	0.968875
851.683792	0.969481
851.997887	0.969894
852.311938	0.970973
852.625947	0.970038
852.939914	0.968902
853.253837	0.970014
853.567718	0.971517
853.881555	0.969875
854.195350	0.968032
854.509103	0.969925
854.822812	0.969506
855.136479	0.970124
855.450103	0.969852
855.763685	0.969099
856.077224	0.969413
856.390720	0.970542
856.704173	0.970377
857.017584	0.967726
857.330953	0.967342
857.644278	0.968033
857.957561	0.968569
858.270802	0.968514
858.584000	0.967817
858.897155	0.966846
859.210268	0.966662
859.523339	0.968183
859.836367	0.969428
860.149352	0.971137
860.462295	0.968632
860.775195	0.969542
861.088054	0.969139
861.400869	0.969279
861.713642	0.971306
862.026373	0.970189
862.339062	0.971074
862.651708	0.967642
862.964312	0.968307
863.276873	0.970532
863.589392	0.968589
863.901869	0.967026
864.214303	0.964977
864.526696	0.964279
864.839045	0.963057
865.151353	0.961924
865.463619	0.962511
865.775842	0.963070
866.088023	0.962732
866.400162	0.961317
866.712258	0.963205
867.024313	0.963318
867.336325	0.964395
867.648296	0.962748
867.960224	0.962438
868.272110	0.962483
868.583954	0.963694
868.895755	0.963289
869.207515	0.961964
869.519233	0.959366
869.830909	0.961976
870.142542	0.961932
870.454134	0.960879
870.765684	0.960445
871.077191	0.956884
871.388657	0.958218
871.700081	0.958093
872.011463	0.958679
872.322803	0.958199
872.634101	0.956574
872.945357	0.954252
873.256571	0.952733
873.567744	0.952626
873.878874	0.952460
874.189963	0.951270
874.501010	0.951310
874.812015	0.949491
875.122979	0.950012
875.433900	0.952323
875.744780	0.954796
876.055618	0.949985
876.366415	0.949917
876.677169	0.949494
876.987882	0.951493
877.298554	0.950436
877.609183	0.948381
877.919771	0.944782
878.230317	0.942545
878.540822	0.940103
878.851285	0.934896
879.161707	0.926128
879.472087	0.914460
879.782425	0.897470
880.092722	0.862943
880.402977	0.810310
880.713191	0.749424
881.023363	0.689007
881.333494	0.654733
881.643583	0.626569
881.953631	0.627233
882.263637	0.655723
882.573602	0.695254
882.883526	0.721313
883.193408	0.744757
883.503248	0.768809
883.813048	0.795941
884.122806	0.825828
884.432522	0.849073
884.742197	0.868767
885.051831	0.879001
885.361424	0.889912
885.670975	0.901783
885.980485	0.912614
886.289954	0.918777
886.599382	0.923163
886.908768	0.928495
887.218113	0.933220
887.527417	0.938202
887.836680	0.941046
888.145901	0.944068
888.455082	0.945629
888.764221	0.950144
889.073319	0.952238
889.382376	0.953025
889.691392	0.952386
890.000366	0.951497
890.309300	0.954082
890.618193	0.953627
890.927044	0.950681
891.235855	0.951791
891.544625	0.950560
891.853353	0.951562
892.162041	0.948760
892.470687	0.942489
892.779293	0.937467
893.087858	0.933045
893.396381	0.925284
893.704864	0.913007
894.013306	0.888636
894.321707	0.859722
894.630068	0.846411
894.938387	0.840482
895.246665	0.842545
895.554903	0.854993
895.863100	0.868419
896.171256	0.886363
896.479371	0.905402
896.787446	0.918075
897.095480	0.923857
897.403473	0.927922
897.711425	0.931878
898.019336	0.939948
898.327207	0.942049
898.635038	0.944563
898.942827	0.944045
899.250576	0.948106
899.558284	0.951514
899.865952	0.954034
900.173579	0.955178
900.481165	0.954615
900.788711	0.960055
901.096216	0.961403
901.403681	0.961640
901.711105	0.961858
902.018489	0.963312
902.325832	0.961791
902.633135	0.962772
902.940397	0.955054
903.247619	0.942061
903.554800	0.916974
903.861941	0.877201
904.169041	0.842239
904.476101	0.823166
904.783121	0.824234
905.090100	0.840853
905.397039	0.862679
905.703938	0.883866
906.010796	0.905087
906.317614	0.921862
906.624391	0.932509
906.931129	0.943802
907.237826	0.951360
907.544483	0.957401
907.851099	0.963060
908.157675	0.968157
908.464211	0.969857
908.770707	0.972162
909.077163	0.974750
909.383578	0.974544
909.689954	0.974690
909.996289	0.975099
910.302584	0.977852
910.608839	0.979008
910.915054	0.977884
911.221229	0.977230
911.527363	0.976579
911.833458	0.977762
912.139513	0.975727
912.445527	0.975420
912.751502	0.974399
913.057436	0.970581
913.363331	0.969103
913.669186	0.965985
913.975000	0.960871
914.280775	0.954640
914.586510	0.947715
914.892205	0.933685
915.197859	0.912023
915.503475	0.884641
915.809050	0.864615
916.114585	0.858973
916.420081	0.856175
916.725536	0.852473
917.030952	0.860772
917.336328	0.874733
917.641665	0.889335
917.946961	0.906289
918.252218	0.917600
918.557435	0.926103
918.862612	0.935347
919.167750	0.940589
919.472848	0.946412
919.777906	0.952221
920.082925	0.957501
920.387904	0.961014
920.692843	0.962506
920.997743	0.962832
921.302603	0.967863
921.607423	0.968275
921.912204	0.971569
922.216946	0.971014
922.521647	0.973058
922.826310	0.975008
923.130932	0.976598
923.435516	0.979280
923.740059	0.979203
924.044564	0.977945
924.349028	0.980409
924.653454	0.981759
924.957840	0.984978
925.262186	0.984338
925.566493	0.983307
925.870761	0.984661
926.174989	0.986063
926.479178	0.987813
926.783328	0.988628
927.087438	0.989227
927.391509	0.987423
927.695541	0.990273
927.999533	0.989341
928.303486	0.990286
928.607400	0.990391
928.911275	0.988480
929.215110	0.989666
929.518906	0.990546
929.822663	0.990798
930.126381	0.991680
930.430060	0.989933
930.733699	0.990871
931.037299	0.989898
931.340861	0.990948
931.644383	0.989429
931.947866	0.988884
932.251309	0.991116
932.554714	0.990481
932.858080	0.990614
933.161407	0.990608
933.464694	0.992166
933.767943	0.989739
934.071153	0.990549
934.374323	0.991591
934.677455	0.991166
934.980548	0.992235
935.283602	0.990803
935.586617	0.991440
935.889593	0.990167
936.192530	0.990415
936.495428	0.991197
936.798287	0.991523
937.101108	0.991556
937.403890	0.989619
937.706632	0.988685
938.009336	0.987697
938.312002	0.985806
938.614628	0.984802
938.917216	0.984019
939.219765	0.980792
939.522275	0.982572
939.824747	0.982103
940.127179	0.982801
940.429573	0.984555
940.731929	0.984124
941.034246	0.983252
941.336524	0.985124
941.638763	0.986987
941.940964	0.985683
942.243126	0.985876
942.545250	0.986787
942.847335	0.988810
943.149381	0.988114
943.451389	0.988659
943.753359	0.987925
944.055290	0.990756
944.357182	0.990360
944.659036	0.988757
944.960851	0.990012
945.262628	0.990408
945.564367	0.990656
945.866067	0.990570
946.167729	0.990867
946.469352	0.989734
946.770937	0.988407
947.072484	0.991697
947.373992	0.989181
947.675462	0.990471
947.976893	0.990108
948.278286	0.990715
948.579641	0.992135
948.880958	0.991149
949.182236	0.991379
949.483476	0.991423
949.784678	0.990351
950.085841	0.992323
950.386967	0.991212
950.688054	0.990442
950.989103	0.991127
951.290114	0.989401
951.591087	0.989994
951.892021	0.990115
952.192917	0.987867
952.493776	0.988809
952.794596	0.987943
953.095378	0.987070
953.396122	0.988455
953.696828	0.987174
953.997496	0.990394
954.298126	0.990743
954.598718	0.989771
954.899272	0.990144
955.199788	0.992058
955.500266	0.991456
955.800706	0.992653
956.101108	0.993031
956.401472	0.994225
956.701798	0.994444
957.002087	0.992326
957.302337	0.993803
957.602550	0.996476
957.902724	0.994902
958.202861	0.996058
958.502960	0.995935
958.803022	0.994539
959.103045	0.996749
959.403031	0.996976
959.702979	0.995612
960.002889	0.995939
960.302762	0.994908
960.602596	0.996534
960.902393	0.994127
961.202153	0.995951
961.501875	0.997420
961.801559	0.996307
962.101205	0.996329
962.400814	0.996287
962.700385	0.997263
962.999918	0.995846
963.299414	0.995684
963.598873	0.995752
963.898293	0.996365
964.197677	0.996786
964.497022	0.997059
964.796331	0.998278
965.095601	0.997012
965.394835	0.996644
965.694030	0.996697
965.993189	0.998647
966.292309	0.995803
966.591393	0.996793
966.890439	0.997548
967.189447	0.996830
967.488419	0.997337
967.787353	0.996780
968.086249	0.996558
968.385108	0.997893
968.683930	0.997916
968.982714	0.997442
969.281462	0.997360
969.580172	0.997422
969.878844	0.998090
970.177480	0.996832
970.476078	0.996983
970.774639	0.997312
971.073162	0.996614
971.371649	0.997145
971.670098	0.997048
971.968510	0.997251
972.266885	0.995695
972.565223	0.995735
972.863524	0.996483
973.161788	0.996119
973.460014	0.998446
973.758204	0.995876
974.056356	0.997185
974.354471	0.993668
974.652550	0.996049
974.950591	0.995489
975.248595	0.996125
975.546563	0.996591
975.844493	0.998319
976.142386	0.997366
976.440243	0.996928
976.738062	0.996791
977.035845	0.998016
977.333590	0.998460
977.631299	0.998124
977.928971	0.996961
978.226606	0.997218
978.524204	0.995265
978.821765	0.998032
979.119290	0.995791
979.416777	0.997744
979.714228	0.997362
980.011642	0.996807
980.309020	0.997163
980.606360	0.996799
980.903664	0.998775
981.200931	0.995918
981.498162	0.995938
981.795356	0.994515
982.092513	0.993480
982.389633	0.994852
982.686717	0.992114
982.983764	0.991768
983.280775	0.991085
983.577749	0.990610
983.874686	0.991345
984.171587	0.991914
984.468451	0.993500
984.765279	0.995070
985.062070	0.994574
985.358824	0.996104
985.655543	0.995293
985.952224	0.996709
986.248869	0.996575
986.545478	0.996560
986.842050	0.997963
987.138586	0.996135
987.435086	0.997054
987.731549	0.998521
988.027975	0.998884
988.324366	0.998287
988.620719	0.998183
988.917037	0.997239
989.213318	0.999142
989.509563	0.998605
989.805772	0.999316
990.101944	0.998462
990.398080	0.998109
990.694180	0.999106
990.990244	0.997531
991.286271	0.998281
991.582262	0.998457
991.878217	0.997977
992.174136	0.999831
992.470019	0.998537
992.765865	0.998372
993.061676	0.998418
993.357450	0.997964
993.653188	0.997617
993.948890	0.998075
994.244556	0.998996
994.540186	0.997299
994.835780	0.995865
995.131337	0.998573
995.426859	0.996578
995.722345	0.998661
996.017795	0.996393
996.313208	0.996642
996.608586	0.996090
996.903928	0.996395
997.199234	0.996101
997.494504	0.996326
997.789738	0.996437
998.084936	0.997298
998.380099	0.998410
998.675225	0.997783
998.970316	0.998333
999.265371	0.998324
999.560390	0.998753
999.855373	0.998872
1000.150320	0.997667
1000.445232	0.998471
1000.740108	0.998335
1001.034948	0.998355
1001.329752	0.999528
1001.624521	0.999378
1001.919254	0.998739
1002.213951	0.998676
1002.508613	0.998961
1002.803239	0.998683
1003.097829	0.999220
1003.392384	0.998210
1003.686903	0.999413
1003.981386	0.999124
1004.275834	1.000219
1004.570246	0.998882
1004.864623	0.999252
1005.158964	1.000437
1005.453270	0.998244
1005.747540	0.997914
1006.041775	0.999267
1006.335974	1.000764
1006.630138	0.999312
1006.924266	0.999686
1007.218359	1.000357
1007.512416	1.000023
1007.806438	1.000284
1008.100425	0.999306
1008.394376	0.999529
1008.688292	0.997973
1008.982172	0.999908
1009.276017	0.999553
1009.569827	0.998673
1009.863602	0.999771
1010.157341	0.999786
1010.451045	0.999152
1010.744714	0.999282
1011.038347	0.999314
1011.331945	0.999369
1011.625508	0.998061
1011.919036	0.999600
1012.212528	0.999017
1012.505986	0.998018
1012.799408	0.998720
1013.092795	0.999828
1013.386147	0.998902
1013.679464	1.000297
1013.972745	0.998035
1014.265992	0.997869
1014.559204	0.999173
1014.852380	0.998525
1015.145521	0.999289
1015.438628	1.000293
1015.731699	0.998563
1016.024736	0.998835
1016.317737	0.999037
1016.610703	0.998961
1016.903635	1.000920
1017.196531	0.999042
1017.489393	0.999931
1017.782219	0.999148
1018.075011	0.999170
1018.367768	0.999229
1018.660490	0.999051
1018.953177	0.999051
1019.245829	0.999051
