Dividing Wavelength (nm)	Counts (n)	Blue Motor Position (mm): 0.000000	Red Motor Position (mm): 40.900000	
326.493990	1.000887
326.888308	1.000887
327.282561	1.000887
327.676750	1.001445
328.070874	0.999228
328.464933	1.000415
328.858929	0.999351
329.252859	1.000222
329.646726	1.000314
330.040528	0.999204
330.434265	0.999991
330.827938	1.000784
331.221547	1.001408
331.615091	0.999189
332.008571	1.000456
332.401986	1.000684
332.795338	1.000215
333.188625	0.998410
333.581847	0.999883
333.975006	0.999901
334.368100	0.998335
334.761129	0.999982
335.154095	1.000357
335.546996	0.998585
335.939833	0.995855
336.332606	0.997725
336.725315	0.997933
337.117960	0.998803
337.510540	0.996374
337.903056	0.998165
338.295508	0.996571
338.687896	0.997251
339.080220	0.998431
339.472480	0.996881
339.864676	0.997033
340.256807	0.998318
340.648875	0.998770
341.040879	0.997825
341.432818	0.996903
341.824694	0.997722
342.216506	0.998648
342.608253	0.998598
342.999937	0.996944
343.391557	0.997394
343.783113	0.997229
344.174605	0.998485
344.566033	0.998910
344.957397	0.997029
345.348697	0.998008
345.739934	0.997518
346.131106	0.998511
346.522215	0.997255
346.913260	0.997409
347.304241	0.996919
347.695159	0.997250
348.086012	0.996447
348.476802	0.998243
348.867528	0.998239
349.258191	0.996363
349.648789	0.998692
350.039324	0.996673
350.429796	0.998648
350.820203	0.997960
351.210548	0.998147
351.600828	0.998163
351.991045	0.996878
352.381198	0.997105
352.771288	0.997663
353.161314	0.997464
353.551276	0.997979
353.941175	0.997598
354.331010	0.997570
354.720782	0.997856
355.110490	0.997095
355.500135	0.997594
355.889717	0.997441
356.279235	0.996824
356.668689	0.997851
357.058080	0.997145
357.447408	0.998536
357.836672	0.998767
358.225873	0.997652
358.615010	0.998064
359.004084	0.999424
359.393095	0.998419
359.782043	0.998268
360.170927	0.998864
360.559748	0.998811
360.948505	0.997978
361.337199	0.997894
361.725830	0.998097
362.114398	0.997949
362.502903	0.998898
362.891344	0.999033
363.279722	0.998123
363.668037	0.998690
364.056289	0.998525
364.444478	0.999631
364.832603	0.998811
365.220665	0.998415
365.608665	0.997573
365.996601	0.997913
366.384474	0.997324
366.772284	0.998385
367.160031	0.997250
367.547715	0.997314
367.935336	0.998928
368.322893	0.997082
368.710388	0.998130
369.097820	0.997172
369.485189	0.997403
369.872495	0.997549
370.259738	0.996672
370.646918	0.998251
371.034035	0.997396
371.421090	0.997532
371.808081	0.997981
372.195010	0.998253
372.581875	0.998271
372.968678	0.997530
373.355418	0.998573
373.742096	0.997705
374.128710	0.998477
374.515262	0.996942
374.901751	0.998471
375.288177	0.997801
375.674540	0.998832
376.060841	0.997440
376.447079	0.999081
376.833254	0.997526
377.219367	0.998192
377.605417	0.997780
377.991404	0.998264
378.377329	0.997835
378.763191	0.998168
379.148991	0.999126
379.534727	0.998082
379.920402	0.998574
380.306013	0.998478
380.691563	0.999075
381.077049	0.998392
381.462474	0.998849
381.847835	0.998993
382.233134	0.998061
382.618371	0.998575
383.003545	0.998700
383.388657	0.997803
383.773706	0.999055
384.158693	0.999510
384.543618	0.998488
384.928480	0.998612
385.313280	0.999643
385.698017	0.999711
386.082692	0.999327
386.467305	0.998642
386.851856	0.998088
387.236344	0.998537
387.620770	0.997178
388.005133	0.998711
388.389435	0.998491
388.773674	0.999452
389.157851	0.998864
389.541965	0.998383
389.926018	0.998383
390.310008	1.000362
390.693936	0.998338
391.077802	0.998710
391.461606	0.999068
391.845348	0.999511
392.229027	1.001078
392.612645	0.999812
392.996200	1.000393
393.379694	0.999073
393.763125	1.000209
394.146494	0.999477
394.529801	0.998527
394.913047	0.999365
395.296230	0.999063
395.679351	0.999295
396.062410	0.998127
396.445408	0.999099
396.828343	0.998218
397.211217	0.998940
397.594028	0.999174
397.976778	0.999539
398.359466	0.999576
398.742092	0.999115
399.124656	0.998955
399.507158	0.999030
399.889598	0.999191
400.271977	0.999419
400.654294	0.999298
401.036549	0.999319
401.418742	0.999718
401.800874	0.998304
402.182944	0.999112
402.564952	0.998406
402.946898	1.000365
403.328783	0.999645
403.710606	0.999525
404.092367	0.999186
404.474067	0.999249
404.855705	0.999424
405.237282	0.999427
405.618797	0.999001
406.000250	0.999305
406.381642	0.999931
406.762972	0.998910
407.144240	1.000510
407.525447	0.999583
407.906593	0.999571
408.287677	0.998917
408.668700	1.000108
409.049661	0.999143
409.430560	0.999174
409.811399	0.998739
410.192176	0.999261
410.572891	0.998937
410.953545	0.999158
411.334138	0.997700
411.714669	0.999714
412.095139	0.999104
412.475547	1.000027
412.855894	1.000116
413.236180	0.999590
413.616405	0.999720
413.996568	1.000212
414.376670	0.999364
414.756711	0.999071
415.136691	0.999870
415.516609	0.999802
415.896466	0.999526
416.276262	0.998404
416.655997	0.999928
417.035670	0.998627
417.415283	0.999981
417.794834	0.999306
418.174324	0.998898
418.553753	1.000186
418.933121	0.999140
419.312428	0.999695
419.691674	0.998659
420.070859	1.000060
420.449983	0.999859
420.829045	1.000157
421.208047	1.000962
421.586988	1.000076
421.965867	0.998482
422.344686	1.001194
422.723444	0.999607
423.102141	0.999619
423.480777	0.999355
423.859352	0.998899
424.237866	0.999006
424.616319	1.000142
424.994712	0.999513
425.373044	0.999640
425.751314	0.999730
426.129524	0.999484
426.507673	0.999644
426.885762	1.000380
427.263789	0.999875
427.641756	0.999818
428.019662	1.000496
428.397508	0.999405
428.775292	0.998983
429.153016	0.999015
429.530679	0.999216
429.908282	1.000848
430.285824	0.999864
430.663305	0.998890
431.040726	0.999169
431.418086	1.000724
431.795385	0.999779
432.172624	0.999351
432.549802	0.999925
432.926920	1.000105
433.303977	0.998684
433.680974	1.000301
434.057910	0.999712
434.434786	0.999221
434.811601	0.999198
435.188355	0.998991
435.565050	1.000125
435.941683	0.999337
436.318257	1.000665
436.694770	0.998784
437.071222	1.000728
437.447614	1.000067
437.823946	0.998794
438.200218	0.999516
438.576429	1.000041
438.952580	1.001057
439.328670	0.999861
439.704700	0.999385
440.080670	0.999789
440.456580	0.999285
440.832429	0.999486
441.208218	0.999809
441.583947	1.000005
441.959616	1.000019
442.335224	0.999850
442.710773	1.001238
443.086261	0.999299
443.461689	0.998952
443.837057	0.999650
444.212365	0.999751
444.587612	0.999707
444.962800	0.999477
445.337927	0.999539
445.712995	0.999836
446.088002	1.000626
446.462949	0.998901
446.837837	0.999980
447.212664	1.000078
447.587431	1.000000
447.962139	0.999314
448.336786	0.999940
448.711374	0.999781
449.085901	0.999287
449.460369	1.000299
449.834776	0.999522
450.209124	0.999947
450.583412	0.999586
450.957640	0.999999
451.331808	0.999602
451.705917	0.999047
452.079965	0.999343
452.453954	0.999966
452.827883	0.999787
453.201752	1.000510
453.575562	1.000061
453.949311	0.999743
454.323001	0.999779
454.696632	0.999837
455.070202	0.999343
455.443713	0.998695
455.817164	1.000326
456.190556	1.000265
456.563888	0.999486
456.937160	1.000638
457.310373	1.000118
457.683526	0.999645
458.056619	0.999462
458.429653	1.000427
458.802628	0.999504
459.175542	0.999432
459.548398	0.999791
459.921194	0.999852
460.293930	0.999630
460.666607	0.999678
461.039224	0.998698
461.411782	0.999678
461.784280	0.999105
462.156719	1.000652
462.529099	1.000384
462.901419	1.000552
463.273680	0.999811
463.645882	0.999924
464.018024	0.999222
464.390106	0.999582
464.762130	1.000890
465.134094	0.999772
465.505999	0.999867
465.877845	0.999676
466.249631	0.999764
466.621358	1.000052
466.993026	1.000048
467.364634	1.000097
467.736184	1.000450
468.107674	1.000330
468.479105	0.999371
468.850477	1.000075
469.221790	1.000207
469.593043	1.000278
469.964238	1.000932
470.335373	1.000253
470.706449	1.000582
471.077467	1.000826
471.448425	1.000086
471.819324	1.000361
472.190164	1.000157
472.560945	1.000772
472.931667	1.000941
473.302330	0.999622
473.672934	1.000255
474.043479	1.000014
474.413965	0.999382
474.784393	1.000855
475.154761	1.000253
475.525070	0.999691
475.895321	1.000686
476.265513	1.000387
476.635645	0.999544
477.005719	1.000214
477.375734	0.999703
477.745691	1.000239
478.115588	0.999858
478.485427	1.000176
478.855207	1.000055
479.224928	0.999730
479.594591	0.999744
479.964194	1.000167
480.333739	1.000120
480.703226	0.999770
481.072653	1.001080
481.442022	1.000770
481.811333	0.999626
482.180584	1.000498
482.549777	1.000103
482.918912	1.000175
483.287988	1.000574
483.657005	0.999680
484.025964	1.000313
484.394864	1.001023
484.763706	1.000395
485.132489	1.000417
485.501213	1.000118
485.869879	1.000532
486.238487	1.000232
486.607036	1.000931
486.975527	0.999779
487.343959	1.000395
487.712333	0.999643
488.080648	1.000250
488.448905	1.000028
488.817104	1.000506
489.185244	1.001163
489.553326	1.000097
489.921350	1.000022
490.289315	1.000482
490.657222	0.999747
491.025070	1.000513
491.392861	1.000335
491.760593	1.000560
492.128267	1.000104
492.495883	1.000623
492.863440	1.000181
493.230939	1.000073
493.598380	1.000018
493.965763	0.999690
494.333088	1.000165
494.700354	0.999757
495.067563	1.000175
495.434713	1.000186
495.801805	1.000839
496.168839	1.000118
496.535815	0.999598
496.902733	0.999026
497.269593	1.000029
497.636395	1.000116
498.003139	1.000211
498.369825	1.000370
498.736453	1.000208
499.103023	0.999654
499.469535	0.999825
499.835989	0.999791
500.202385	1.000333
500.568723	1.000217
500.935003	1.000252
501.301226	1.000343
501.667390	1.000171
502.033497	0.999937
502.399546	1.000576
502.765537	0.999613
503.131470	0.999918
503.497345	0.999693
503.863163	1.000615
504.228923	1.000256
504.594625	0.999994
504.960269	1.001155
505.325856	1.000616
505.691385	0.999668
506.056856	0.999919
506.422270	1.000294
506.787625	1.000430
507.152924	0.999773
507.518164	0.999349
507.883347	1.000112
508.248472	0.999769
508.613540	1.000305
508.978550	1.000393
509.343503	0.999307
509.708398	0.999934
510.073236	0.999562
510.438016	0.999774
510.802738	0.999698
511.167403	1.000193
511.532010	0.999393
511.896561	0.999619
512.261053	1.001068
512.625488	1.000076
512.989866	1.000059
513.354186	0.999858
513.718449	0.999882
514.082655	1.000261
514.446803	0.999452
514.810894	1.000051
515.174927	0.999391
515.538904	0.999760
515.902822	0.999431
516.266684	1.000076
516.630488	1.000247
516.994235	0.999416
517.357925	0.999829
517.721558	0.999786
518.085133	0.999276
518.448651	1.000264
518.812112	0.999451
519.175516	0.999185
519.538863	0.999914
519.902152	0.999849
520.265385	0.999906
520.628560	0.999183
520.991678	0.999373
521.354739	0.999310
521.717743	0.998637
522.080690	0.999808
522.443580	0.999369
522.806413	0.999897
523.169189	0.999169
523.531908	0.999373
523.894569	0.999334
524.257174	0.999863
524.619722	0.999812
524.982213	0.999606
525.344647	0.999475
525.707025	0.998986
526.069345	0.998599
526.431608	0.998982
526.793815	0.998654
527.155964	0.999828
527.518057	0.999690
527.880093	0.999641
528.242072	0.999275
528.603995	0.999038
528.965860	0.999325
529.327669	0.999059
529.689421	0.998874
530.051117	0.999750
530.412755	0.999025
530.774337	0.999305
531.135862	0.998864
531.497331	0.998859
531.858743	0.998498
532.220098	0.999417
532.581396	0.999088
532.942638	0.999241
533.303824	0.999044
533.664953	0.998491
534.026025	0.998579
534.387040	0.998349
534.747999	0.998720
535.108902	0.998719
535.469748	0.998459
535.830537	0.998435
536.191270	0.998068
536.551947	0.998761
536.912567	0.998518
537.273131	0.999605
537.633638	0.997946
537.994089	0.998797
538.354483	0.998399
538.714821	0.997966
539.075103	0.998274
539.435328	0.998125
539.795497	0.998636
540.155609	0.997708
540.515665	0.998279
540.875665	0.998502
541.235609	0.998296
541.595496	0.997777
541.955328	0.998063
542.315102	0.998501
542.674821	0.998185
543.034483	0.997537
543.394090	0.997628
543.753640	0.998781
544.113134	0.998141
544.472571	0.998438
544.831953	0.998340
545.191278	0.998188
545.550548	0.998924
545.909761	0.997671
546.268918	0.997804
546.628019	0.998167
546.987064	0.998189
547.346053	0.998522
547.704986	0.998405
548.063863	0.998437
548.422684	0.997964
548.781449	0.998653
549.140158	0.997309
549.498811	0.998201
549.857408	0.998716
550.215949	0.998114
550.574434	0.997669
550.932864	0.997798
551.291237	0.997771
551.649555	0.998247
552.007817	0.997711
552.366022	0.998095
552.724173	0.997866
553.082267	0.998087
553.440305	0.998179
553.798288	0.997710
554.156215	0.998157
554.514086	0.998503
554.871902	0.997502
555.229661	0.998497
555.587365	0.997349
555.945014	0.998880
556.302606	0.997279
556.660143	0.997412
557.017625	0.997132
557.375050	0.998153
557.732421	0.997723
558.089735	0.998156
558.446994	0.998415
558.804197	0.998629
559.161345	0.998770
559.518437	0.998831
559.875474	0.997731
560.232455	0.997526
560.589381	0.998264
560.946251	0.997374
561.303065	0.997779
561.659825	0.997868
562.016528	0.997168
562.373177	0.997292
562.729770	0.997598
563.086307	0.998031
563.442789	0.997315
563.799216	0.997603
564.155587	0.997228
564.511904	0.996973
564.868164	0.997079
565.224370	0.997287
565.580520	0.997707
565.936615	0.996830
566.292654	0.997493
566.648638	0.997144
567.004567	0.996564
567.360441	0.997860
567.716260	0.997338
568.072023	0.997329
568.427732	0.996861
568.783385	0.997593
569.138982	0.997971
569.494525	0.996557
569.850013	0.997030
570.205445	0.996576
570.560823	0.997051
570.916145	0.996627
571.271412	0.996993
571.626625	0.996050
571.981782	0.996062
572.336884	0.997439
572.691931	0.996430
573.046923	0.995671
573.401860	0.996112
573.756743	0.995845
574.111570	0.996309
574.466342	0.996061
574.821059	0.996122
575.175722	0.995570
575.530330	0.995895
575.884882	0.995365
576.239380	0.995571
576.593823	0.995465
576.948211	0.994975
577.302544	0.995117
577.656823	0.994697
578.011047	0.994959
578.365216	0.995181
578.719330	0.994106
579.073389	0.995096
579.427394	0.995001
579.781344	0.994612
580.135239	0.994109
580.489080	0.993801
580.842866	0.994248
581.196597	0.992694
581.550273	0.992871
581.903895	0.993281
582.257463	0.993179
582.610975	0.992801
582.964434	0.992716
583.317837	0.992921
583.671186	0.992523
584.024481	0.991921
584.377721	0.991509
584.730906	0.991779
585.084037	0.991420
585.437113	0.990970
585.790135	0.990934
586.143103	0.990122
586.496016	0.990932
586.848874	0.989465
587.201679	0.989643
587.554428	0.989192
587.907124	0.988790
588.259765	0.988921
588.612352	0.988648
588.964884	0.988548
589.317362	0.987561
589.669786	0.987924
590.022155	0.987706
590.374470	0.986171
590.726731	0.986098
591.078937	0.985424
591.431090	0.984468
591.783188	0.984866
592.135232	0.984438
592.487222	0.984522
592.839157	0.982800
593.191038	0.983726
593.542866	0.982196
593.894639	0.983090
594.246358	0.981378
594.598022	0.980600
594.949633	0.980643
595.301190	0.979674
595.652692	0.980431
596.004141	0.979789
596.355535	0.978956
596.706876	0.977683
597.058162	0.977837
597.409395	0.976488
597.760573	0.975726
598.111698	0.976129
598.462768	0.974597
598.813785	0.974409
599.164748	0.974229
599.515657	0.973034
599.866511	0.972239
600.217312	0.971083
600.568060	0.970808
600.918753	0.970266
601.269392	0.969579
601.619978	0.968709
601.970510	0.967101
602.320988	0.966926
602.671412	0.965346
603.021783	0.965132
603.372100	0.964546
603.722363	0.963090
604.072572	0.962138
604.422728	0.961085
604.772830	0.959604
605.122878	0.959541
605.472872	0.958776
605.822813	0.956952
606.172701	0.956252
606.522534	0.955185
606.872314	0.954262
607.222041	0.952229
607.571714	0.952334
607.921333	0.950136
608.270899	0.949102
608.620411	0.948091
608.969870	0.947126
609.319276	0.945054
609.668627	0.944770
610.017926	0.943162
610.367171	0.941060
610.716362	0.939644
611.065500	0.937895
611.414585	0.936030
611.763616	0.935677
612.112594	0.933737
612.461518	0.931816
612.810389	0.930851
613.159207	0.929635
613.507971	0.927971
613.856682	0.926539
614.205340	0.924735
614.553945	0.921646
614.902496	0.920902
615.250994	0.919154
615.599439	0.917893
615.947830	0.915775
616.296169	0.914049
616.644454	0.911866
616.992686	0.909679
617.340864	0.907251
617.688990	0.906143
618.037063	0.904540
618.385082	0.901781
618.733048	0.899791
619.080961	0.898242
619.428821	0.896585
619.776628	0.893639
620.124382	0.892165
620.472083	0.889486
620.819731	0.889857
621.167326	0.887572
621.514868	0.886266
621.862357	0.885731
622.209793	0.884387
622.557176	0.881418
622.904506	0.880684
623.251783	0.879922
623.599007	0.878914
623.946179	0.876970
624.293297	0.875628
624.640363	0.874847
624.987376	0.872005
625.334336	0.871837
625.681243	0.870440
626.028097	0.869156
626.374899	0.867911
626.721647	0.865129
627.068343	0.864589
627.414987	0.861636
627.761577	0.860202
628.108115	0.858293
628.454600	0.858076
628.801032	0.853361
629.147412	0.853220
629.493739	0.850557
629.840014	0.849270
630.186236	0.846399
630.532405	0.844765
630.878521	0.842762
631.224585	0.840691
631.570597	0.839865
631.916556	0.836661
632.262462	0.835699
632.608316	0.833258
632.954117	0.831045
633.299866	0.829001
633.645562	0.826998
633.991206	0.826967
634.336797	0.825632
634.682336	0.824199
635.027823	0.822190
635.373257	0.821099
635.718639	0.820147
636.063968	0.817267
636.409245	0.817792
636.754470	0.814962
637.099642	0.814846
637.444762	0.813147
637.789829	0.810297
638.134845	0.809927
638.479808	0.807568
638.824719	0.806752
639.169577	0.805504
639.514383	0.803560
639.859137	0.802253
640.203839	0.801784
640.548489	0.798027
640.893086	0.797589
641.237632	0.796752
641.582125	0.793084
641.926566	0.791550
642.270955	0.789997
642.615292	0.788558
642.959576	0.785076
643.303809	0.783478
643.647990	0.780768
643.992118	0.779322
644.336195	0.779494
644.680219	0.776020
645.024192	0.774761
645.368112	0.768389
645.711981	0.767335
646.055797	0.763571
646.399562	0.761564
646.743274	0.755245
647.086935	0.752494
647.430544	0.751771
647.774101	0.747987
648.117606	0.746964
648.461059	0.744278
648.804460	0.743051
649.147810	0.744536
649.491108	0.742574
649.834354	0.741169
650.177548	0.742113
650.520690	0.742867
650.863781	0.740537
651.206820	0.738185
651.549807	0.738949
651.892742	0.737971
652.235626	0.735574
652.578458	0.734047
652.921238	0.735310
653.263967	0.733147
653.606644	0.732695
653.949269	0.729389
654.291843	0.730123
654.634365	0.726490
654.976836	0.725782
655.319255	0.724733
655.661622	0.723437
656.003938	0.720152
656.346203	0.721171
656.688416	0.716574
657.030577	0.717564
657.372687	0.716036
657.714746	0.714376
658.056753	0.712088
658.398708	0.711625
658.740612	0.711579
659.082465	0.706362
659.424266	0.705771
659.766016	0.703004
660.107715	0.702163
660.449362	0.700596
660.790958	0.699443
661.132503	0.696939
661.473996	0.693523
661.815438	0.693148
662.156829	0.691218
662.498168	0.689550
662.839456	0.690024
663.180693	0.685953
663.521879	0.684672
663.863013	0.684129
664.204097	0.680157
664.545129	0.678149
664.886110	0.675373
665.227040	0.671476
665.567918	0.672884
665.908746	0.669011
666.249522	0.667272
666.590248	0.666695
666.930922	0.664403
667.271545	0.661697
667.612118	0.660701
667.952639	0.659649
668.293109	0.656808
668.633528	0.657303
668.973896	0.656181
669.314213	0.653810
669.654480	0.653360
669.994695	0.652118
670.334859	0.650481
670.674973	0.648400
671.015035	0.647441
671.355047	0.645227
671.695008	0.643937
672.034918	0.644376
672.374777	0.642633
672.714585	0.641841
673.054342	0.640788
673.394049	0.639288
673.733705	0.635760
674.073310	0.634183
674.412864	0.635734
674.752368	0.634404
675.091820	0.632618
675.431223	0.633337
675.770574	0.631075
676.109875	0.632709
676.449125	0.630112
676.788324	0.630147
677.127473	0.633377
677.466571	0.631211
677.805619	0.629615
678.144616	0.629261
678.483562	0.628597
678.822458	0.628648
679.161303	0.628555
679.500098	0.626502
679.838842	0.627344
680.177535	0.626298
680.516179	0.623682
680.854771	0.621133
681.193314	0.615635
681.531805	0.609191
681.870247	0.599034
682.208638	0.593582
682.546978	0.591385
682.885268	0.590762
683.223508	0.593306
683.561697	0.594722
683.899836	0.595972
684.237925	0.597343
684.575963	0.597943
684.913951	0.599685
685.251889	0.594427
685.589776	0.596113
685.927614	0.597089
686.265401	0.591191
686.603137	0.591807
686.940824	0.586279
687.278460	0.585074
687.616046	0.583655
687.953582	0.579679
688.291068	0.580007
688.628504	0.575496
688.965889	0.576569
689.303224	0.578913
689.640510	0.579645
689.977745	0.582750
690.314930	0.586445
690.652065	0.588644
690.989150	0.592740
691.326185	0.596145
691.663170	0.597732
692.000105	0.601849
692.336990	0.605837
692.673825	0.605944
693.010610	0.610648
693.347345	0.614157
693.684030	0.612809
694.020665	0.616064
694.357251	0.622919
694.693786	0.620898
695.030272	0.623280
695.366707	0.624695
695.703093	0.626877
696.039429	0.624039
696.375716	0.624430
696.711952	0.626546
697.048139	0.627599
697.384276	0.627721
697.720363	0.626782
698.056400	0.624167
698.392388	0.628691
698.728326	0.631225
699.064214	0.631773
699.400053	0.631378
699.735842	0.633102
700.071581	0.633616
700.407270	0.635461
700.742910	0.636378
701.078501	0.641370
701.414042	0.640098
701.749533	0.642230
702.084974	0.649373
702.420366	0.641299
702.755709	0.647692
703.091002	0.652640
703.426246	0.646043
703.761440	0.650813
704.096584	0.654498
704.431679	0.650164
704.766725	0.651253
705.101721	0.652487
705.436668	0.648449
705.771565	0.653670
706.106413	0.650425
706.441212	0.645320
706.775961	0.643609
707.110661	0.646689
707.445311	0.642841
707.779913	0.639024
708.114465	0.637808
708.448967	0.634566
708.783421	0.627226
709.117825	0.622550
709.452180	0.622121
709.786485	0.617224
710.120742	0.608552
710.454949	0.610081
710.789107	0.603554
711.123216	0.595619
711.457275	0.598270
711.791286	0.589870
712.125247	0.588598
712.459159	0.598711
712.793023	0.591366
713.126837	0.593170
713.460602	0.592650
713.794318	0.599788
714.127985	0.597168
714.461602	0.605179
714.795171	0.607584
715.128691	0.612973
715.462162	0.618366
715.795584	0.622360
716.128957	0.624529
716.462281	0.629710
716.795556	0.632274
717.128782	0.635580
717.461960	0.643288
717.795088	0.641300
718.128167	0.646752
718.461198	0.654447
718.794180	0.654771
719.127113	0.655983
719.459997	0.659072
719.792833	0.664541
720.125619	0.665617
720.458357	0.670498
720.791046	0.669799
721.123686	0.672733
721.456278	0.678026
721.788821	0.675696
722.121315	0.679082
722.453761	0.683212
722.786158	0.679639
723.118506	0.677249
723.450805	0.684093
723.783056	0.679767
724.115259	0.677243
724.447412	0.676468
724.779518	0.677948
725.111574	0.676468
725.443582	0.671468
725.775542	0.673919
726.107453	0.666862
726.439315	0.666330
726.771129	0.665248
727.102895	0.659471
727.434612	0.651768
727.766281	0.650245
728.097901	0.650177
728.429473	0.649427
728.760996	0.647701
729.092471	0.646894
729.423897	0.650268
729.755276	0.648907
730.086606	0.648798
730.417887	0.643668
730.749120	0.634358
731.080305	0.625268
731.411442	0.621664
731.742530	0.625680
732.073570	0.624465
732.404562	0.616544
732.735506	0.618663
733.066401	0.622666
733.397249	0.630044
733.728048	0.640294
734.058798	0.651026
734.389501	0.660634
734.720156	0.669543
735.050762	0.677348
735.381320	0.677395
735.711831	0.686863
736.042293	0.690835
736.372707	0.686244
736.703073	0.691090
737.033391	0.693711
737.363661	0.690094
737.693883	0.685435
738.024056	0.684306
738.354182	0.684779
738.684260	0.675088
739.014290	0.671671
739.344272	0.672411
739.674207	0.666084
740.004093	0.665759
740.333931	0.666511
740.663722	0.665301
740.993464	0.665843
741.323159	0.669317
741.652806	0.673671
741.982405	0.678282
742.311956	0.681467
742.641460	0.683383
742.970915	0.687140
743.300323	0.692810
743.629683	0.699366
743.958996	0.701921
744.288260	0.704576
744.617477	0.709812
744.946647	0.711477
745.275768	0.715841
745.604842	0.716665
745.933869	0.725885
746.262847	0.726438
746.591778	0.719596
746.920662	0.726054
747.249498	0.732224
747.578286	0.722711
747.907027	0.719639
748.235720	0.721297
748.564365	0.714972
748.892963	0.715031
749.221514	0.716769
749.550017	0.723231
749.878473	0.722079
750.206881	0.728605
750.535242	0.729483
750.863555	0.728678
751.191821	0.729288
751.520039	0.733871
751.848210	0.737270
752.176334	0.730085
752.504411	0.729245
752.832440	0.737026
753.160421	0.741106
753.488356	0.738874
753.816243	0.736325
754.144082	0.745149
754.471875	0.747596
754.799620	0.743093
755.127318	0.745075
755.454969	0.744858
755.782572	0.743381
756.110129	0.748398
756.437638	0.751594
756.765100	0.747861
757.092515	0.745878
757.419882	0.744825
757.747203	0.750115
758.074477	0.748802
758.401703	0.746276
758.728882	0.742301
759.056014	0.740756
759.383099	0.739701
759.710138	0.741481
760.037129	0.737264
760.364073	0.731421
760.690970	0.733329
761.017820	0.739763
761.344623	0.735111
761.671379	0.725680
761.998088	0.714260
762.324751	0.692931
762.651366	0.652531
762.977935	0.588316
763.304456	0.537672
763.630931	0.527850
763.957359	0.566145
764.283740	0.609611
764.610074	0.635367
764.936362	0.664614
765.262602	0.690662
765.588796	0.711228
765.914943	0.727801
766.241044	0.745124
766.567097	0.751438
766.893104	0.760393
767.219064	0.767143
767.544978	0.774015
767.870845	0.786136
768.196665	0.790041
768.522438	0.787251
768.848165	0.788097
769.173846	0.797355
769.499479	0.802224
769.825066	0.805734
770.150607	0.810874
770.476101	0.806386
770.801548	0.806159
771.126949	0.818005
771.452303	0.821050
771.777611	0.820135
772.102872	0.819784
772.428087	0.824159
772.753256	0.828240
773.078378	0.829622
773.403453	0.837589
773.728482	0.842529
774.053465	0.836625
774.378401	0.840031
774.703291	0.848026
775.028135	0.847598
775.352932	0.850175
775.677683	0.851157
776.002388	0.853234
776.327046	0.851892
776.651658	0.855412
776.976224	0.858479
777.300743	0.858144
777.625216	0.860233
777.949643	0.862591
778.274024	0.862273
778.598359	0.864513
778.922647	0.862076
779.246889	0.863239
779.571086	0.867177
779.895236	0.869689
780.219339	0.866608
780.543397	0.863146
780.867409	0.862574
781.191374	0.864292
781.515294	0.865879
781.839167	0.864840
782.162995	0.867803
782.486776	0.864843
782.810511	0.865415
783.134201	0.869193
783.457844	0.866751
783.781441	0.868399
784.104993	0.875835
784.428498	0.876139
784.751958	0.870939
785.075372	0.874076
785.398739	0.877090
785.722061	0.873595
786.045337	0.869432
786.368568	0.874377
786.691752	0.877214
787.014891	0.863306
787.337983	0.853752
787.661030	0.847443
787.984031	0.830882
788.306987	0.817645
788.629897	0.820054
788.952760	0.823105
789.275579	0.826943
789.598351	0.843149
789.921078	0.855237
790.243759	0.856656
790.566395	0.862328
790.888984	0.868919
791.211529	0.874072
791.534027	0.876189
791.856480	0.878477
792.178888	0.883862
792.501249	0.886117
792.823566	0.887817
793.145836	0.887763
793.468062	0.889045
793.790241	0.890036
794.112375	0.887629
794.434464	0.882383
794.756507	0.882486
795.078505	0.882651
795.400457	0.877949
795.722364	0.865602
796.044226	0.858754
796.366042	0.857852
796.687812	0.861553
797.009538	0.856258
797.331218	0.859329
797.652852	0.865233
797.974442	0.870265
798.295986	0.868139
798.617484	0.871655
798.938938	0.876075
799.260346	0.880808
799.581709	0.882145
799.903026	0.885355
800.224299	0.885073
800.545526	0.889119
800.866708	0.893350
801.187845	0.897283
801.508936	0.896925
801.829983	0.894766
802.150984	0.897294
802.471940	0.901657
802.792851	0.901737
803.113717	0.902616
803.434538	0.900143
803.755314	0.902462
804.076045	0.905025
804.396731	0.903853
804.717372	0.904123
805.037967	0.906020
805.358518	0.904103
805.679024	0.900760
805.999485	0.900510
806.319901	0.901823
806.640272	0.902604
806.960598	0.900980
807.280879	0.897618
807.601115	0.896524
807.921306	0.900743
808.241453	0.900632
808.561554	0.897433
808.881611	0.898573
809.201623	0.900352
809.521590	0.900723
809.841513	0.901016
810.161390	0.900161
810.481223	0.902030
810.801011	0.904983
811.120755	0.907300
811.440453	0.906250
811.760107	0.904680
812.079716	0.906020
812.399281	0.907843
812.718801	0.910010
813.038276	0.910784
813.357707	0.910897
813.677093	0.907398
813.996434	0.912000
814.315731	0.912332
814.634983	0.913498
814.954191	0.912310
815.273354	0.909516
815.592473	0.904545
815.911547	0.905852
816.230577	0.903506
816.549562	0.899972
816.868502	0.901450
817.187399	0.898162
817.506250	0.892502
817.825058	0.894816
818.143821	0.890627
818.462539	0.886584
818.781213	0.878595
819.099843	0.867888
819.418429	0.853436
819.736970	0.836160
820.055466	0.816883
820.373919	0.792048
820.692327	0.759614
821.010691	0.727347
821.329011	0.652488
821.647286	0.540915
821.965517	0.429837
822.283704	0.388142
822.601847	0.390657
822.919945	0.425282
823.237999	0.456988
823.556010	0.502181
823.873976	0.556941
824.191897	0.605210
824.509775	0.646725
824.827609	0.690712
825.145398	0.712785
825.463144	0.715010
825.780845	0.698670
826.098502	0.680039
826.416116	0.636138
826.733685	0.593087
827.051210	0.585271
827.368692	0.599103
827.686129	0.635740
828.003522	0.687227
828.320872	0.732851
828.638177	0.775742
828.955439	0.807349
829.272656	0.828996
829.589830	0.845677
829.906960	0.860474
830.224046	0.872161
830.541088	0.882239
830.858086	0.886277
831.175041	0.893074
831.491952	0.891597
831.808819	0.888617
832.125642	0.882896
832.442421	0.867317
832.759157	0.847854
833.075849	0.802322
833.392497	0.740772
833.709101	0.700523
834.025662	0.710082
834.342179	0.740231
834.658653	0.779418
834.975083	0.814212
835.291469	0.839145
835.607811	0.861155
835.924110	0.876343
836.240366	0.892610
836.556578	0.906442
836.872746	0.913680
837.188871	0.919438
837.504952	0.924898
837.820990	0.926976
838.136984	0.931412
838.452935	0.934370
838.768842	0.936133
839.084706	0.929602
839.400526	0.904380
839.716303	0.865060
840.032037	0.844009
840.347727	0.847121
840.663373	0.864976
840.978977	0.885145
841.294537	0.908015
841.610054	0.922743
841.925527	0.930396
842.240957	0.937225
842.556344	0.944075
842.871687	0.949654
843.186987	0.953780
843.502244	0.953710
843.817458	0.956015
844.132629	0.957814
844.447756	0.963240
844.762840	0.963851
845.077881	0.962499
845.392879	0.962592
845.707833	0.965963
846.022745	0.968781
846.337613	0.968681
846.652438	0.969133
846.967221	0.967166
847.281960	0.967560
847.596656	0.970787
847.911309	0.968100
848.225919	0.969811
848.540485	0.971942
848.855009	0.971091
849.169490	0.971500
849.483928	0.972817
849.798323	0.972849
850.112675	0.973380
850.426984	0.972556
850.741251	0.973151
851.055474	0.974258
851.369654	0.971129
851.683792	0.973166
851.997887	0.972225
852.311938	0.975090
852.625947	0.973088
852.939914	0.971581
853.253837	0.973251
853.567718	0.974469
853.881555	0.974777
854.195350	0.969985
854.509103	0.972368
854.822812	0.972221
855.136479	0.972948
855.450103	0.973001
855.763685	0.970679
856.077224	0.971209
856.390720	0.973018
856.704173	0.972354
857.017584	0.971130
857.330953	0.970203
857.644278	0.970994
857.957561	0.971901
858.270802	0.971166
858.584000	0.971139
858.897155	0.970363
859.210268	0.970397
859.523339	0.971563
859.836367	0.973599
860.149352	0.973139
860.462295	0.971123
860.775195	0.973125
861.088054	0.972357
861.400869	0.972747
861.713642	0.973969
862.026373	0.972493
862.339062	0.974657
862.651708	0.971016
862.964312	0.970909
863.276873	0.972549
863.589392	0.970671
863.901869	0.968952
864.214303	0.968441
864.526696	0.968123
864.839045	0.967603
865.151353	0.964482
865.463619	0.965766
865.775842	0.966045
866.088023	0.965307
866.400162	0.965239
866.712258	0.965701
867.024313	0.966499
867.336325	0.966544
867.648296	0.966347
867.960224	0.966031
868.272110	0.964969
868.583954	0.967222
868.895755	0.966704
869.207515	0.964640
869.519233	0.963363
869.830909	0.964685
870.142542	0.966646
870.454134	0.965733
870.765684	0.964105
871.077191	0.961213
871.388657	0.962721
871.700081	0.961318
872.011463	0.961927
872.322803	0.961293
872.634101	0.961042
872.945357	0.957969
873.256571	0.956962
873.567744	0.957700
873.878874	0.958164
874.189963	0.956536
874.501010	0.954962
874.812015	0.954124
875.122979	0.955825
875.433900	0.957589
875.744780	0.957190
876.055618	0.954515
876.366415	0.954737
876.677169	0.954531
876.987882	0.955463
877.298554	0.954803
877.609183	0.951681
877.919771	0.948266
878.230317	0.947481
878.540822	0.944749
878.851285	0.940003
879.161707	0.932412
879.472087	0.921587
879.782425	0.906733
880.092722	0.873541
880.402977	0.823645
880.713191	0.765968
881.023363	0.710621
881.333494	0.678603
881.643583	0.650651
881.953631	0.650345
882.263637	0.678003
882.573602	0.716973
882.883526	0.741347
883.193408	0.763012
883.503248	0.783909
883.813048	0.810049
884.122806	0.838101
884.432522	0.861119
884.742197	0.880135
885.051831	0.889697
885.361424	0.899479
885.670975	0.910472
885.980485	0.920841
886.289954	0.925488
886.599382	0.930168
886.908768	0.933885
887.218113	0.939814
887.527417	0.944338
887.836680	0.947557
888.145901	0.948895
888.455082	0.951493
888.764221	0.955363
889.073319	0.958419
889.382376	0.957055
889.691392	0.957094
890.000366	0.957554
890.309300	0.958532
890.618193	0.957863
890.927044	0.956608
891.235855	0.956495
891.544625	0.956198
891.853353	0.955878
892.162041	0.954845
892.470687	0.948583
892.779293	0.943549
893.087858	0.940142
893.396381	0.932329
893.704864	0.920995
894.013306	0.898244
894.321707	0.872768
894.630068	0.860476
894.938387	0.855894
895.246665	0.855611
895.554903	0.867580
895.863100	0.879698
896.171256	0.896805
896.479371	0.914600
896.787446	0.925232
897.095480	0.932104
897.403473	0.934891
897.711425	0.938585
898.019336	0.945895
898.327207	0.948174
898.635038	0.950906
898.942827	0.949196
899.250576	0.953659
899.558284	0.956909
899.865952	0.959164
900.173579	0.959445
900.481165	0.959458
900.788711	0.964549
901.096216	0.966122
901.403681	0.965599
901.711105	0.967583
902.018489	0.967508
902.325832	0.967234
902.633135	0.966479
902.940397	0.961332
903.247619	0.949282
903.554800	0.925634
903.861941	0.888378
904.169041	0.855846
904.476101	0.839096
904.783121	0.840805
905.090100	0.855350
905.397039	0.875578
905.703938	0.896050
906.010796	0.914069
906.317614	0.930299
906.624391	0.940920
906.931129	0.949653
907.237826	0.957287
907.544483	0.963964
907.851099	0.967244
908.157675	0.973307
908.464211	0.974619
908.770707	0.977136
909.077163	0.977910
909.383578	0.978345
909.689954	0.978731
909.996289	0.979348
910.302584	0.981628
910.608839	0.982901
910.915054	0.982612
911.221229	0.981552
911.527363	0.980696
911.833458	0.980527
912.139513	0.981593
912.445527	0.979360
912.751502	0.977530
913.057436	0.976030
913.363331	0.974086
913.669186	0.969769
913.975000	0.965611
914.280775	0.960137
914.586510	0.954703
914.892205	0.942802
915.197859	0.922866
915.503475	0.896993
915.809050	0.878094
916.114585	0.874301
916.420081	0.873143
916.725536	0.868461
917.030952	0.876006
917.336328	0.887370
917.641665	0.903080
917.946961	0.917808
918.252218	0.926991
918.557435	0.934849
918.862612	0.943540
919.167750	0.948688
919.472848	0.952368
919.777906	0.957487
920.082925	0.963123
920.387904	0.967441
920.692843	0.968320
920.997743	0.968243
921.302603	0.971122
921.607423	0.973481
921.912204	0.975053
922.216946	0.976193
922.521647	0.977750
922.826310	0.979757
923.130932	0.980221
923.435516	0.981002
923.740059	0.982727
924.044564	0.981237
924.349028	0.983747
924.653454	0.986800
924.957840	0.988389
925.262186	0.986663
925.566493	0.987270
925.870761	0.986667
926.174989	0.989294
926.479178	0.990468
926.783328	0.990432
927.087438	0.991279
927.391509	0.990810
927.695541	0.992147
927.999533	0.993082
928.303486	0.992155
928.607400	0.993622
928.911275	0.992219
929.215110	0.992381
929.518906	0.993714
929.822663	0.992312
930.126381	0.994909
930.430060	0.992771
930.733699	0.993384
931.037299	0.992817
931.340861	0.994305
931.644383	0.991998
931.947866	0.991951
932.251309	0.993020
932.554714	0.994143
932.858080	0.993246
933.161407	0.992705
933.464694	0.993678
933.767943	0.992385
934.071153	0.993330
934.374323	0.993120
934.677455	0.994138
934.980548	0.994233
935.283602	0.993222
935.586617	0.993744
935.889593	0.992883
936.192530	0.993075
936.495428	0.992924
936.798287	0.993039
937.101108	0.993572
937.403890	0.992001
937.706632	0.992431
938.009336	0.989505
938.312002	0.988991
938.614628	0.987671
938.917216	0.987315
939.219765	0.984795
939.522275	0.986469
939.824747	0.985865
940.127179	0.987133
940.429573	0.988859
940.731929	0.987122
941.034246	0.987590
941.336524	0.989225
941.638763	0.990022
941.940964	0.989453
942.243126	0.989243
942.545250	0.990566
942.847335	0.991015
943.149381	0.991613
943.451389	0.990952
943.753359	0.990141
944.055290	0.993916
944.357182	0.992876
944.659036	0.991335
944.960851	0.992422
945.262628	0.992205
945.564367	0.993131
945.866067	0.992219
946.167729	0.992313
946.469352	0.992763
946.770937	0.991369
947.072484	0.994411
947.373992	0.992505
947.675462	0.993631
947.976893	0.991968
948.278286	0.992290
948.579641	0.995058
948.880958	0.992526
949.182236	0.994750
949.483476	0.993914
949.784678	0.992692
950.085841	0.993722
950.386967	0.993924
950.688054	0.993139
950.989103	0.993878
951.290114	0.992346
951.591087	0.991822
951.892021	0.992889
952.192917	0.991508
952.493776	0.990795
952.794596	0.991515
953.095378	0.990128
953.396122	0.990818
953.696828	0.990522
953.997496	0.992276
954.298126	0.992890
954.598718	0.993273
954.899272	0.993532
955.199788	0.992899
955.500266	0.995069
955.800706	0.995113
956.101108	0.995597
956.401472	0.995145
956.701798	0.996055
957.002087	0.995113
957.302337	0.995251
957.602550	0.998604
957.902724	0.997595
958.202861	0.996152
958.502960	0.996742
958.803022	0.996201
959.103045	0.998480
959.403031	0.997052
959.702979	0.995959
960.002889	0.997730
960.302762	0.996411
960.602596	0.996810
960.902393	0.996823
961.202153	0.998636
961.501875	0.998553
961.801559	0.997518
962.101205	0.999176
962.400814	0.998056
962.700385	0.998246
962.999918	0.997098
963.299414	0.998437
963.598873	0.997460
963.898293	0.998323
964.197677	0.997885
964.497022	0.998310
964.796331	0.999014
965.095601	0.997891
965.394835	0.997741
965.694030	0.999877
965.993189	0.998975
966.292309	0.997688
966.591393	1.000157
966.890439	0.998877
967.189447	0.998091
967.488419	0.998991
967.787353	0.997876
968.086249	0.997499
968.385108	0.998751
968.683930	0.998451
968.982714	0.998340
969.281462	0.998913
969.580172	0.998682
969.878844	0.998966
970.177480	0.997925
970.476078	0.999164
970.774639	0.997341
971.073162	0.999029
971.371649	0.997801
971.670098	0.998118
971.968510	0.998994
972.266885	0.997458
972.565223	0.997520
972.863524	0.997522
973.161788	0.997344
973.460014	0.998746
973.758204	0.997243
974.056356	0.997969
974.354471	0.996315
974.652550	0.997480
974.950591	0.998557
975.248595	0.996838
975.546563	0.998188
975.844493	0.999113
976.142386	0.998893
976.440243	0.999167
976.738062	0.998552
977.035845	1.000420
977.333590	0.998038
977.631299	0.998719
977.928971	0.997108
978.226606	0.998055
978.524204	0.997425
978.821765	0.999592
979.119290	0.997920
979.416777	0.998739
979.714228	0.999265
980.011642	0.997427
980.309020	0.999531
980.606360	0.998069
980.903664	0.998922
981.200931	0.998161
981.498162	0.996680
981.795356	0.996782
982.092513	0.995426
982.389633	0.996501
982.686717	0.993303
982.983764	0.993994
983.280775	0.991763
983.577749	0.992984
983.874686	0.993198
984.171587	0.992997
984.468451	0.996565
984.765279	0.997590
985.062070	0.995850
985.358824	0.996713
985.655543	0.996514
985.952224	0.996985
986.248869	0.996832
986.545478	0.998891
986.842050	0.999259
987.138586	0.997719
987.435086	0.998624
987.731549	0.999758
988.027975	0.998637
988.324366	0.998803
988.620719	0.997991
988.917037	0.997182
989.213318	0.999428
989.509563	0.999630
989.805772	0.999141
990.101944	0.998958
990.398080	0.997592
990.694180	0.998638
990.990244	0.999583
991.286271	0.999282
991.582262	1.000323
991.878217	0.999500
992.174136	0.999243
992.470019	0.999742
992.765865	0.998228
993.061676	0.999161
993.357450	0.999564
993.653188	0.998603
993.948890	0.997966
994.244556	0.999488
994.540186	0.999040
994.835780	0.997106
995.131337	0.998918
995.426859	0.997688
995.722345	0.999171
996.017795	0.997992
996.313208	0.998306
996.608586	0.997227
996.903928	0.998114
997.199234	0.996043
997.494504	0.998444
997.789738	0.998466
998.084936	0.996893
998.380099	0.999039
998.675225	0.998683
998.970316	0.998577
999.265371	0.999604
999.560390	0.999078
999.855373	0.999569
1000.150320	0.999498
1000.445232	1.000191
1000.740108	0.999028
1001.034948	0.999360
1001.329752	0.999997
1001.624521	0.999652
1001.919254	0.999593
1002.213951	0.998945
1002.508613	1.000599
1002.803239	0.999858
1003.097829	0.999159
1003.392384	0.999503
1003.686903	0.999009
1003.981386	0.998452
1004.275834	0.999713
1004.570246	0.999400
1004.864623	0.999733
1005.158964	1.000203
1005.453270	0.999624
1005.747540	0.998030
1006.041775	0.999433
1006.335974	1.000664
1006.630138	0.999842
1006.924266	1.000233
1007.218359	1.001454
1007.512416	1.000621
1007.806438	0.999630
1008.100425	1.000334
1008.394376	1.000059
1008.688292	0.999748
1008.982172	1.002095
1009.276017	1.000269
1009.569827	0.999755
1009.863602	1.000436
1010.157341	1.000751
1010.451045	0.999364
1010.744714	1.000137
1011.038347	0.999959
1011.331945	1.000062
1011.625508	0.998527
1011.919036	0.999429
1012.212528	0.999307
1012.505986	0.998668
1012.799408	1.000188
1013.092795	1.000416
1013.386147	1.000551
1013.679464	0.999020
1013.972745	0.998985
1014.265992	0.998293
1014.559204	1.000534
1014.852380	0.999424
1015.145521	0.999657
1015.438628	0.999923
1015.731699	0.999258
1016.024736	0.999857
1016.317737	0.999221
1016.610703	0.998947
1016.903635	1.000967
1017.196531	0.998153
1017.489393	1.000503
1017.782219	1.000371
1018.075011	0.999253
1018.367768	0.998762
1018.660490	0.999490
1018.953177	0.999490
1019.245829	0.999490
