Dividing Wavelength (nm)	Counts (n)	Blue Motor Position (mm): 0.000000	Red Motor Position (mm): 42.200000	
326.493990	1.000685
326.888308	1.000685
327.282561	1.000685
327.676750	0.999761
328.070874	0.999291
328.464933	0.999868
328.858929	0.999677
329.252859	0.999546
329.646726	0.999106
330.040528	0.999794
330.434265	0.999614
330.827938	1.001206
331.221547	0.999537
331.615091	1.000615
332.008571	0.999764
332.401986	1.000364
332.795338	1.000385
333.188625	0.997820
333.581847	1.000086
333.975006	0.999471
334.368100	0.998699
334.761129	1.000050
335.154095	1.000463
335.546996	0.998357
335.939833	0.997543
336.332606	0.996661
336.725315	0.997898
337.117960	0.998991
337.510540	0.997832
337.903056	0.998776
338.295508	0.997648
338.687896	0.998154
339.080220	0.998875
339.472480	0.998867
339.864676	0.996576
340.256807	0.998350
340.648875	0.999369
341.040879	0.998057
341.432818	0.997724
341.824694	0.997369
342.216506	0.998629
342.608253	0.998521
342.999937	0.997322
343.391557	0.998293
343.783113	0.998015
344.174605	0.997914
344.566033	0.998900
344.957397	0.996805
345.348697	0.998687
345.739934	0.997776
346.131106	0.998275
346.522215	0.998412
346.913260	0.998250
347.304241	0.997435
347.695159	0.999102
348.086012	0.996312
348.476802	0.999530
348.867528	0.997383
349.258191	0.996939
349.648789	0.998864
350.039324	0.997351
350.429796	0.999176
350.820203	0.998305
351.210548	0.997416
351.600828	0.997428
351.991045	0.998043
352.381198	0.997785
352.771288	0.998261
353.161314	0.997924
353.551276	0.997991
353.941175	0.998262
354.331010	0.996905
354.720782	0.999118
355.110490	0.998433
355.500135	0.998648
355.889717	0.998916
356.279235	0.998004
356.668689	0.998556
357.058080	0.997700
357.447408	0.999680
357.836672	0.998238
358.225873	0.998372
358.615010	0.998365
359.004084	0.999230
359.393095	0.998884
359.782043	0.998776
360.170927	0.999094
360.559748	0.998868
360.948505	0.998168
361.337199	0.998884
361.725830	0.999437
362.114398	0.997104
362.502903	0.998825
362.891344	0.999233
363.279722	0.998705
363.668037	0.998287
364.056289	0.998958
364.444478	0.999002
364.832603	0.998618
365.220665	0.997484
365.608665	0.998185
365.996601	0.997683
366.384474	0.998384
366.772284	0.998534
367.160031	0.998335
367.547715	0.997559
367.935336	0.998112
368.322893	0.997997
368.710388	0.997795
369.097820	0.999411
369.485189	0.996712
369.872495	0.998152
370.259738	0.996674
370.646918	0.998889
371.034035	0.998876
371.421090	0.997828
371.808081	0.997366
372.195010	0.998409
372.581875	0.998259
372.968678	0.999002
373.355418	0.999030
373.742096	0.996805
374.128710	0.998951
374.515262	0.998515
374.901751	0.998433
375.288177	0.998076
375.674540	0.998635
376.060841	0.997846
376.447079	0.999377
376.833254	0.997829
377.219367	0.997954
377.605417	0.998228
377.991404	0.998955
378.377329	0.997529
378.763191	0.998373
379.148991	0.999045
379.534727	0.998685
379.920402	0.998820
380.306013	0.998146
380.691563	0.999311
381.077049	0.998005
381.462474	0.998253
381.847835	0.999139
382.233134	0.998095
382.618371	0.999325
383.003545	0.998391
383.388657	0.998552
383.773706	0.998877
384.158693	0.998997
384.543618	0.998990
384.928480	0.999917
385.313280	0.998861
385.698017	0.998234
386.082692	0.999381
386.467305	0.998505
386.851856	0.998415
387.236344	0.998689
387.620770	0.998687
388.005133	0.999218
388.389435	1.000088
388.773674	0.998448
389.157851	0.998032
389.541965	0.998926
389.926018	0.998852
390.310008	0.999270
390.693936	0.998583
391.077802	0.999858
391.461606	0.998642
391.845348	0.999788
392.229027	0.999658
392.612645	1.000218
392.996200	1.001237
393.379694	0.999336
393.763125	0.999873
394.146494	1.000086
394.529801	0.999132
394.913047	0.999799
395.296230	0.999335
395.679351	0.999621
396.062410	0.999825
396.445408	0.999445
396.828343	0.999396
397.211217	0.999461
397.594028	0.999805
397.976778	0.999105
398.359466	0.999235
398.742092	0.998439
399.124656	0.998730
399.507158	0.999844
399.889598	0.999324
400.271977	0.999492
400.654294	1.000067
401.036549	0.999894
401.418742	0.999411
401.800874	0.998302
402.182944	0.999987
402.564952	0.999827
402.946898	0.999588
403.328783	0.999336
403.710606	0.999078
404.092367	0.999345
404.474067	0.999976
404.855705	0.998951
405.237282	1.000138
405.618797	0.999303
406.000250	0.999776
406.381642	0.999803
406.762972	0.999964
407.144240	1.000524
407.525447	0.999367
407.906593	0.999982
408.287677	1.000180
408.668700	1.000052
409.049661	0.998553
409.430560	0.999277
409.811399	0.999407
410.192176	0.998755
410.572891	0.998721
410.953545	0.998911
411.334138	0.998640
411.714669	0.999341
412.095139	0.998814
412.475547	1.000218
412.855894	0.998656
413.236180	0.999238
413.616405	1.000090
413.996568	1.000121
414.376670	0.999547
414.756711	0.998192
415.136691	0.999219
415.516609	0.999528
415.896466	0.998832
416.276262	0.998858
416.655997	1.000036
417.035670	0.998371
417.415283	0.999633
417.794834	0.999291
418.174324	1.000033
418.553753	0.999537
418.933121	0.999080
419.312428	0.999344
419.691674	0.999415
420.070859	1.000059
420.449983	0.999499
420.829045	0.999491
421.208047	1.000266
421.586988	1.000273
421.965867	0.999224
422.344686	1.000546
422.723444	0.999930
423.102141	0.999818
423.480777	0.999902
423.859352	0.999413
424.237866	0.999077
424.616319	0.999618
424.994712	0.999376
425.373044	1.000006
425.751314	0.999855
426.129524	0.999297
426.507673	0.999598
426.885762	1.000640
427.263789	1.000042
427.641756	0.999684
428.019662	1.000397
428.397508	0.999502
428.775292	0.999259
429.153016	1.000064
429.530679	1.000014
429.908282	1.000247
430.285824	0.999557
430.663305	0.999504
431.040726	0.999643
431.418086	1.000312
431.795385	1.000349
432.172624	0.998981
432.549802	0.999470
432.926920	1.000243
433.303977	0.999288
433.680974	1.000588
434.057910	0.999521
434.434786	1.000389
434.811601	1.000049
435.188355	0.999323
435.565050	0.999613
435.941683	1.000203
436.318257	1.001114
436.694770	0.999331
437.071222	1.000371
437.447614	0.999880
437.823946	0.999552
438.200218	0.999800
438.576429	0.999997
438.952580	0.999915
439.328670	0.999414
439.704700	1.000535
440.080670	0.999599
440.456580	0.999641
440.832429	0.999416
441.208218	0.999969
441.583947	1.000204
441.959616	1.000236
442.335224	1.000316
442.710773	1.000478
443.086261	0.998904
443.461689	0.999808
443.837057	0.999713
444.212365	1.000081
444.587612	0.999750
444.962800	0.999421
445.337927	0.999616
445.712995	0.999901
446.088002	1.000575
446.462949	0.999795
446.837837	1.000274
447.212664	1.000555
447.587431	1.000123
447.962139	1.000605
448.336786	0.999346
448.711374	1.000192
449.085901	0.999295
449.460369	1.000512
449.834776	0.999849
450.209124	1.000101
450.583412	0.999277
450.957640	0.999717
451.331808	1.000161
451.705917	0.999697
452.079965	0.999380
452.453954	0.999662
452.827883	0.999580
453.201752	1.000366
453.575562	1.000386
453.949311	1.000291
454.323001	0.999940
454.696632	0.999822
455.070202	0.999780
455.443713	0.999331
455.817164	0.999906
456.190556	0.999935
456.563888	0.999441
456.937160	0.999691
457.310373	0.999506
457.683526	0.998880
458.056619	0.999929
458.429653	1.000073
458.802628	0.999706
459.175542	0.999850
459.548398	1.000133
459.921194	0.999724
460.293930	1.000173
460.666607	0.998938
461.039224	0.998512
461.411782	1.000691
461.784280	0.999380
462.156719	1.000504
462.529099	0.999892
462.901419	1.000061
463.273680	1.000163
463.645882	0.999637
464.018024	0.999833
464.390106	0.999923
464.762130	1.000616
465.134094	1.000133
465.505999	1.000470
465.877845	1.000132
466.249631	1.000728
466.621358	1.000250
466.993026	1.000448
467.364634	1.000131
467.736184	1.000908
468.107674	0.999810
468.479105	0.999469
468.850477	1.000611
469.221790	0.999943
469.593043	1.000367
469.964238	1.000756
470.335373	0.999936
470.706449	0.999364
471.077467	1.000669
471.448425	1.000324
471.819324	1.000544
472.190164	1.000227
472.560945	1.000400
472.931667	1.000087
473.302330	0.999731
473.672934	1.000625
474.043479	1.000309
474.413965	0.999596
474.784393	0.999762
475.154761	1.000251
475.525070	0.999851
475.895321	1.000103
476.265513	0.999808
476.635645	0.999988
477.005719	1.000569
477.375734	0.999639
477.745691	1.000203
478.115588	1.000222
478.485427	1.000159
478.855207	0.999594
479.224928	1.000575
479.594591	1.000744
479.964194	1.000003
480.333739	1.000034
480.703226	0.999436
481.072653	1.000786
481.442022	1.000736
481.811333	0.999419
482.180584	1.001119
482.549777	0.999755
482.918912	0.999554
483.287988	1.000785
483.657005	1.000115
484.025964	1.000689
484.394864	1.000299
484.763706	1.000340
485.132489	1.000553
485.501213	0.999995
485.869879	1.000238
486.238487	1.000747
486.607036	1.000308
486.975527	0.999550
487.343959	0.999648
487.712333	1.000156
488.080648	0.999896
488.448905	1.000258
488.817104	1.000216
489.185244	1.000483
489.553326	1.000778
489.921350	1.000134
490.289315	1.000733
490.657222	1.000464
491.025070	1.000584
491.392861	1.001063
491.760593	1.000748
492.128267	1.000075
492.495883	0.999974
492.863440	1.000582
493.230939	1.000574
493.598380	0.999969
493.965763	0.999823
494.333088	1.000127
494.700354	0.999810
495.067563	0.999821
495.434713	0.999491
495.801805	1.000389
496.168839	1.000362
496.535815	0.999656
496.902733	1.000124
497.269593	0.999842
497.636395	1.000821
498.003139	1.000311
498.369825	1.000962
498.736453	1.000723
499.103023	0.999190
499.469535	0.999901
499.835989	1.000488
500.202385	1.000160
500.568723	1.000047
500.935003	0.999937
501.301226	1.000461
501.667390	1.000458
502.033497	0.999835
502.399546	1.000528
502.765537	0.999546
503.131470	0.999686
503.497345	1.000208
503.863163	1.001172
504.228923	1.000322
504.594625	1.000154
504.960269	1.000916
505.325856	1.000410
505.691385	0.999839
506.056856	0.999607
506.422270	0.999699
506.787625	1.000401
507.152924	1.000601
507.518164	0.999892
507.883347	0.999879
508.248472	1.000070
508.613540	1.000053
508.978550	1.000267
509.343503	1.000159
509.708398	1.000473
510.073236	1.000151
510.438016	1.000699
510.802738	1.000146
511.167403	1.000066
511.532010	1.000211
511.896561	1.000017
512.261053	1.001169
512.625488	0.999634
512.989866	1.000337
513.354186	1.000050
513.718449	1.000101
514.082655	0.999782
514.446803	0.999739
514.810894	1.000478
515.174927	1.000480
515.538904	0.999765
515.902822	1.000468
516.266684	1.000387
516.630488	1.000724
516.994235	0.999953
517.357925	0.999866
517.721558	1.000376
518.085133	0.999087
518.448651	1.000980
518.812112	1.000293
519.175516	0.999533
519.538863	1.000183
519.902152	0.999894
520.265385	0.999753
520.628560	1.000207
520.991678	1.000300
521.354739	1.000139
521.717743	0.999752
522.080690	1.000024
522.443580	0.999908
522.806413	1.000221
523.169189	0.999372
523.531908	0.998889
523.894569	0.999706
524.257174	0.999739
524.619722	0.999700
524.982213	1.000091
525.344647	1.000437
525.707025	0.999531
526.069345	0.999359
526.431608	0.999483
526.793815	1.000280
527.155964	0.999300
527.518057	1.000075
527.880093	0.999778
528.242072	0.999695
528.603995	0.999030
528.965860	0.999875
529.327669	0.999878
529.689421	0.999179
530.051117	1.000558
530.412755	0.999883
530.774337	0.999747
531.135862	0.999164
531.497331	0.999648
531.858743	0.999914
532.220098	1.000024
532.581396	0.999536
532.942638	0.999909
533.303824	0.999370
533.664953	0.999718
534.026025	0.999355
534.387040	0.999020
534.747999	0.999235
535.108902	0.999587
535.469748	0.998590
535.830537	0.999100
536.191270	0.999026
536.551947	0.999514
536.912567	0.999148
537.273131	0.999306
537.633638	0.998719
537.994089	0.998974
538.354483	0.999428
538.714821	0.999091
539.075103	0.999446
539.435328	0.999106
539.795497	0.999056
540.155609	0.998246
540.515665	0.998897
540.875665	0.998880
541.235609	0.999297
541.595496	0.998431
541.955328	0.998036
542.315102	0.998843
542.674821	0.998890
543.034483	0.998144
543.394090	0.998084
543.753640	0.998823
544.113134	0.998942
544.472571	0.999002
544.831953	0.998922
545.191278	0.998742
545.550548	0.999387
545.909761	0.998596
546.268918	0.999650
546.628019	0.999336
546.987064	0.997998
547.346053	0.998630
547.704986	0.999297
548.063863	0.998563
548.422684	0.998401
548.781449	0.999716
549.140158	0.997554
549.498811	0.999237
549.857408	0.998771
550.215949	0.998819
550.574434	0.998655
550.932864	0.998235
551.291237	0.998843
551.649555	0.998686
552.007817	0.998038
552.366022	0.998145
552.724173	0.999033
553.082267	0.999095
553.440305	0.998646
553.798288	0.998620
554.156215	0.998450
554.514086	0.999100
554.871902	0.998784
555.229661	0.998784
555.587365	0.998577
555.945014	0.999506
556.302606	0.997668
556.660143	0.998973
557.017625	0.998604
557.375050	0.998334
557.732421	0.998742
558.089735	0.999039
558.446994	0.999450
558.804197	0.999574
559.161345	0.999340
559.518437	0.999443
559.875474	0.997892
560.232455	0.999041
560.589381	0.998373
560.946251	0.997878
561.303065	0.998708
561.659825	0.998584
562.016528	0.998934
562.373177	0.998520
562.729770	0.998640
563.086307	0.999039
563.442789	0.998937
563.799216	0.998466
564.155587	0.998319
564.511904	0.998027
564.868164	0.997538
565.224370	0.998431
565.580520	0.998663
565.936615	0.998117
566.292654	0.998295
566.648638	0.998310
567.004567	0.997814
567.360441	0.999209
567.716260	0.998917
568.072023	0.998823
568.427732	0.998480
568.783385	0.998440
569.138982	0.998787
569.494525	0.998071
569.850013	0.998463
570.205445	0.998906
570.560823	0.998980
570.916145	0.998854
571.271412	0.998425
571.626625	0.998820
571.981782	0.998041
572.336884	0.999349
572.691931	0.998859
573.046923	0.997882
573.401860	0.998422
573.756743	0.997848
574.111570	0.999368
574.466342	0.999024
574.821059	0.998303
575.175722	0.997978
575.530330	0.999249
575.884882	0.997968
576.239380	0.999287
576.593823	0.999402
576.948211	0.998334
577.302544	0.998451
577.656823	0.998360
578.011047	0.998554
578.365216	0.998690
578.719330	0.997952
579.073389	0.998506
579.427394	0.997933
579.781344	0.998899
580.135239	0.997605
580.489080	0.998280
580.842866	0.998593
581.196597	0.997836
581.550273	0.997973
581.903895	0.997693
582.257463	0.998324
582.610975	0.998044
582.964434	0.998362
583.317837	0.999109
583.671186	0.997949
584.024481	0.998273
584.377721	0.998222
584.730906	0.998495
585.084037	0.998247
585.437113	0.998120
585.790135	0.997973
586.143103	0.997285
586.496016	0.998759
586.848874	0.997036
587.201679	0.997901
587.554428	0.997949
587.907124	0.997227
588.259765	0.997703
588.612352	0.998856
588.964884	0.998028
589.317362	0.997954
589.669786	0.997482
590.022155	0.996886
590.374470	0.997277
590.726731	0.997490
591.078937	0.996624
591.431090	0.996926
591.783188	0.997373
592.135232	0.997314
592.487222	0.997573
592.839157	0.996930
593.191038	0.997326
593.542866	0.996821
593.894639	0.997705
594.246358	0.996333
594.598022	0.996478
594.949633	0.996449
595.301190	0.995802
595.652692	0.997137
596.004141	0.997343
596.355535	0.995716
596.706876	0.995259
597.058162	0.996292
597.409395	0.996103
597.760573	0.995393
598.111698	0.995958
598.462768	0.995559
598.813785	0.995107
599.164748	0.996393
599.515657	0.995379
599.866511	0.995349
600.217312	0.994527
600.568060	0.995661
600.918753	0.995426
601.269392	0.995108
601.619978	0.994293
601.970510	0.993626
602.320988	0.995110
602.671412	0.993835
603.021783	0.994621
603.372100	0.994900
603.722363	0.994513
604.072572	0.994723
604.422728	0.994311
604.772830	0.993119
605.122878	0.993525
605.472872	0.993883
605.822813	0.992664
606.172701	0.992797
606.522534	0.993409
606.872314	0.992676
607.222041	0.991611
607.571714	0.992149
607.921333	0.991209
608.270899	0.991366
608.620411	0.991426
608.969870	0.991205
609.319276	0.990845
609.668627	0.991951
610.017926	0.989744
610.367171	0.989820
610.716362	0.989842
611.065500	0.989521
611.414585	0.988913
611.763616	0.988964
612.112594	0.988371
612.461518	0.987348
612.810389	0.987715
613.159207	0.987253
613.507971	0.987205
613.856682	0.986958
614.205340	0.986894
614.553945	0.985531
614.902496	0.984901
615.250994	0.985318
615.599439	0.984768
615.947830	0.984385
616.296169	0.983362
616.644454	0.982597
616.992686	0.983114
617.340864	0.980940
617.688990	0.980334
618.037063	0.980462
618.385082	0.980405
618.733048	0.978570
619.080961	0.978751
619.428821	0.978096
619.776628	0.976671
620.124382	0.975984
620.472083	0.974787
620.819731	0.975494
621.167326	0.974074
621.514868	0.974025
621.862357	0.973423
622.209793	0.974079
622.557176	0.971595
622.904506	0.971675
623.251783	0.971383
623.599007	0.970978
623.946179	0.970536
624.293297	0.969145
624.640363	0.969588
624.987376	0.968087
625.334336	0.968754
625.681243	0.967386
626.028097	0.967827
626.374899	0.966742
626.721647	0.965797
627.068343	0.965876
627.414987	0.963632
627.761577	0.963548
628.108115	0.962789
628.454600	0.962260
628.801032	0.959408
629.147412	0.960240
629.493739	0.957975
629.840014	0.957431
630.186236	0.956570
630.532405	0.955783
630.878521	0.954608
631.224585	0.953496
631.570597	0.952555
631.916556	0.951054
632.262462	0.950393
632.608316	0.950052
632.954117	0.948315
633.299866	0.947588
633.645562	0.947042
633.991206	0.946375
634.336797	0.946195
634.682336	0.944078
635.027823	0.943846
635.373257	0.943110
635.718639	0.942109
636.063968	0.940667
636.409245	0.940751
636.754470	0.939196
637.099642	0.940199
637.444762	0.938038
637.789829	0.936873
638.134845	0.935878
638.479808	0.934991
638.824719	0.934341
639.169577	0.933362
639.514383	0.932255
639.859137	0.931373
640.203839	0.930155
640.548489	0.928640
640.893086	0.928763
641.237632	0.927727
641.582125	0.925860
641.926566	0.924343
642.270955	0.923662
642.615292	0.922660
642.959576	0.920115
643.303809	0.919571
643.647990	0.917691
643.992118	0.917258
644.336195	0.917088
644.680219	0.914769
645.024192	0.914651
645.368112	0.911273
645.711981	0.910597
646.055797	0.907751
646.399562	0.905908
646.743274	0.901487
647.086935	0.900426
647.430544	0.898558
647.774101	0.896186
648.117606	0.895679
648.461059	0.894155
648.804460	0.893560
649.147810	0.894158
649.491108	0.893242
649.834354	0.891474
650.177548	0.891607
650.520690	0.891187
650.863781	0.890167
651.206820	0.888588
651.549807	0.888810
651.892742	0.887420
652.235626	0.885540
652.578458	0.884909
652.921238	0.884445
653.263967	0.883986
653.606644	0.882828
653.949269	0.880635
654.291843	0.880247
654.634365	0.878319
654.976836	0.876341
655.319255	0.875697
655.661622	0.874804
656.003938	0.871745
656.346203	0.872885
656.688416	0.870215
657.030577	0.871025
657.372687	0.868413
657.714746	0.867584
658.056753	0.865155
658.398708	0.865135
658.740612	0.864835
659.082465	0.860159
659.424266	0.860056
659.766016	0.857603
660.107715	0.856103
660.449362	0.855303
660.790958	0.853485
661.132503	0.850974
661.473996	0.849716
661.815438	0.848552
662.156829	0.847847
662.498168	0.845825
662.839456	0.845428
663.180693	0.843641
663.521879	0.841523
663.863013	0.841161
664.204097	0.837683
664.545129	0.835706
664.886110	0.833654
665.227040	0.830163
665.567918	0.831208
665.908746	0.827789
666.249522	0.826874
666.590248	0.826749
666.930922	0.824235
667.271545	0.821681
667.612118	0.820699
667.952639	0.820057
668.293109	0.817284
668.633528	0.816674
668.973896	0.816282
669.314213	0.814392
669.654480	0.812783
669.994695	0.811412
670.334859	0.811688
670.674973	0.808088
671.015035	0.808430
671.355047	0.805116
671.695008	0.804545
672.034918	0.804410
672.374777	0.802212
672.714585	0.801228
673.054342	0.800463
673.394049	0.798257
673.733705	0.795397
674.073310	0.793723
674.412864	0.794936
674.752368	0.791922
675.091820	0.791300
675.431223	0.792100
675.770574	0.789537
676.109875	0.789839
676.449125	0.788113
676.788324	0.786763
677.127473	0.788756
677.466571	0.786049
677.805619	0.784418
678.144616	0.783488
678.483562	0.781507
678.822458	0.782478
679.161303	0.781458
679.500098	0.779244
679.838842	0.780358
680.177535	0.777786
680.516179	0.776154
680.854771	0.774346
681.193314	0.769443
681.531805	0.764734
681.870247	0.757457
682.208638	0.752016
682.546978	0.751301
682.885268	0.749905
683.223508	0.751587
683.561697	0.751549
683.899836	0.750465
684.237925	0.751600
684.575963	0.751292
684.913951	0.751534
685.251889	0.747102
685.589776	0.748303
685.927614	0.748786
686.265401	0.742714
686.603137	0.743621
686.940824	0.737501
687.278460	0.736725
687.616046	0.734916
687.953582	0.731722
688.291068	0.732194
688.628504	0.727137
688.965889	0.728103
689.303224	0.728819
689.640510	0.729121
689.977745	0.730977
690.314930	0.732881
690.652065	0.733980
690.989150	0.737180
691.326185	0.737745
691.663170	0.737171
692.000105	0.740163
692.336990	0.742732
692.673825	0.741156
693.010610	0.744895
693.347345	0.747306
693.684030	0.744260
694.020665	0.747034
694.357251	0.751303
694.693786	0.748917
695.030272	0.751155
695.366707	0.750134
695.703093	0.751808
696.039429	0.748601
696.375716	0.746852
696.711952	0.748918
697.048139	0.749872
697.384276	0.749761
697.720363	0.746981
698.056400	0.745347
698.392388	0.747414
698.728326	0.748609
699.064214	0.749588
699.400053	0.749047
699.735842	0.748083
700.071581	0.749182
700.407270	0.749828
700.742910	0.749633
701.078501	0.753416
701.414042	0.751175
701.749533	0.750464
702.084974	0.757027
702.420366	0.749069
702.755709	0.753293
703.091002	0.759147
703.426246	0.751297
703.761440	0.756017
704.096584	0.758998
704.431679	0.753723
704.766725	0.754337
705.101721	0.754125
705.436668	0.750522
705.771565	0.754550
706.106413	0.752376
706.441212	0.747250
706.775961	0.745086
707.110661	0.748124
707.445311	0.743947
707.779913	0.740026
708.114465	0.739803
708.448967	0.737944
708.783421	0.731641
709.117825	0.727758
709.452180	0.728078
709.786485	0.723909
710.120742	0.717185
710.454949	0.718185
710.789107	0.713073
711.123216	0.706484
711.457275	0.708746
711.791286	0.700677
712.125247	0.699288
712.459159	0.707655
712.793023	0.703565
713.126837	0.701110
713.460602	0.700243
713.794318	0.707713
714.127985	0.703378
714.461602	0.707851
714.795171	0.709357
715.128691	0.711680
715.462162	0.715634
715.795584	0.717590
716.128957	0.717556
716.462281	0.722376
716.795556	0.723397
717.128782	0.724367
717.461960	0.730504
717.795088	0.727487
718.128167	0.731789
718.461198	0.737527
718.794180	0.736659
719.127113	0.737006
719.459997	0.738859
719.792833	0.741555
720.125619	0.742871
720.458357	0.745946
720.791046	0.744350
721.123686	0.746048
721.456278	0.750637
721.788821	0.747525
722.121315	0.750100
722.453761	0.753788
722.786158	0.750101
723.118506	0.747331
723.450805	0.752969
723.783056	0.750057
724.115259	0.746069
724.447412	0.745063
724.779518	0.747067
725.111574	0.745368
725.443582	0.741284
725.775542	0.742349
726.107453	0.736316
726.439315	0.734602
726.771129	0.735316
727.102895	0.730577
727.434612	0.724604
727.766281	0.722880
728.097901	0.722660
728.429473	0.721796
728.760996	0.719239
729.092471	0.718371
729.423897	0.720396
729.755276	0.718525
730.086606	0.717687
730.417887	0.714106
730.749120	0.706748
731.080305	0.698210
731.411442	0.694005
731.742530	0.698710
732.073570	0.696457
732.404562	0.689663
732.735506	0.690053
733.066401	0.694358
733.397249	0.698929
733.728048	0.706015
734.058798	0.713758
734.389501	0.721074
734.720156	0.727528
735.050762	0.732600
735.381320	0.732709
735.711831	0.739886
736.042293	0.743406
736.372707	0.739442
736.703073	0.742135
737.033391	0.745377
737.363661	0.741109
737.693883	0.736476
738.024056	0.736770
738.354182	0.737644
738.684260	0.729021
739.014290	0.725481
739.344272	0.727851
739.674207	0.721758
740.004093	0.721784
740.333931	0.721541
740.663722	0.720633
740.993464	0.721125
741.323159	0.723313
741.652806	0.726139
741.982405	0.728739
742.311956	0.731411
742.641460	0.732505
742.970915	0.733842
743.300323	0.739132
743.629683	0.744514
743.958996	0.745450
744.288260	0.747921
744.617477	0.751649
744.946647	0.753076
745.275768	0.755348
745.604842	0.755016
745.933869	0.763930
746.262847	0.763772
746.591778	0.756753
746.920662	0.761942
747.249498	0.767490
747.578286	0.759559
747.907027	0.756418
748.235720	0.757832
748.564365	0.753605
748.892963	0.751769
749.221514	0.754585
749.550017	0.758478
749.878473	0.757901
750.206881	0.762759
750.535242	0.764016
750.863555	0.763741
751.191821	0.763274
751.520039	0.766634
751.848210	0.770634
752.176334	0.761899
752.504411	0.761892
752.832440	0.768683
753.160421	0.773035
753.488356	0.770154
753.816243	0.767403
754.144082	0.775449
754.471875	0.778297
754.799620	0.774644
755.127318	0.774750
755.454969	0.773268
755.782572	0.773248
756.110129	0.777572
756.437638	0.779662
756.765100	0.776279
757.092515	0.774116
757.419882	0.772876
757.747203	0.778925
758.074477	0.776572
758.401703	0.775222
758.728882	0.770814
759.056014	0.769452
759.383099	0.767528
759.710138	0.769621
760.037129	0.766083
760.364073	0.760479
760.690970	0.762131
761.017820	0.768114
761.344623	0.763246
761.671379	0.753964
761.998088	0.744218
762.324751	0.723544
762.651366	0.688463
762.977935	0.632909
763.304456	0.587253
763.630931	0.577029
763.957359	0.608840
764.283740	0.646864
764.610074	0.669133
764.936362	0.695839
765.262602	0.719364
765.588796	0.737826
765.914943	0.754788
766.241044	0.768675
766.567097	0.774620
766.893104	0.783074
767.219064	0.788218
767.544978	0.793023
767.870845	0.805971
768.196665	0.808480
768.522438	0.806253
768.848165	0.806993
769.173846	0.814965
769.499479	0.819267
769.825066	0.821938
770.150607	0.825500
770.476101	0.820575
770.801548	0.822658
771.126949	0.832147
771.452303	0.835214
771.777611	0.835108
772.102872	0.833436
772.428087	0.838198
772.753256	0.841446
773.078378	0.842487
773.403453	0.850814
773.728482	0.854107
774.053465	0.848423
774.378401	0.851788
774.703291	0.858684
775.028135	0.858790
775.352932	0.860033
775.677683	0.863402
776.002388	0.863124
776.327046	0.862567
776.651658	0.865442
776.976224	0.868084
777.300743	0.867813
777.625216	0.870623
777.949643	0.872062
778.274024	0.872220
778.598359	0.873123
778.922647	0.871567
779.246889	0.872160
779.571086	0.875717
779.895236	0.877722
780.219339	0.875755
780.543397	0.872765
780.867409	0.871157
781.191374	0.873194
781.515294	0.875364
781.839167	0.873402
782.162995	0.876591
782.486776	0.873981
782.810511	0.874202
783.134201	0.877022
783.457844	0.874778
783.781441	0.877706
784.104993	0.883310
784.428498	0.883248
784.751958	0.879807
785.075372	0.881266
785.398739	0.885386
785.722061	0.881014
786.045337	0.876120
786.368568	0.881007
786.691752	0.883514
787.014891	0.870585
787.337983	0.863189
787.661030	0.856947
787.984031	0.841616
788.306987	0.828320
788.629897	0.829706
788.952760	0.833050
789.275579	0.837041
789.598351	0.850437
789.921078	0.863288
790.243759	0.863180
790.566395	0.869589
790.888984	0.876340
791.211529	0.880850
791.534027	0.883300
791.856480	0.884408
792.178888	0.889521
792.501249	0.891801
792.823566	0.891719
793.145836	0.894004
793.468062	0.895127
793.790241	0.894493
794.112375	0.893245
794.434464	0.888921
794.756507	0.888432
795.078505	0.888029
795.400457	0.883587
795.722364	0.872170
796.044226	0.864957
796.366042	0.866139
796.687812	0.868626
797.009538	0.864847
797.331218	0.866202
797.652852	0.870505
797.974442	0.874283
798.295986	0.876098
798.617484	0.878059
798.938938	0.881731
799.260346	0.885394
799.581709	0.887038
799.903026	0.890019
800.224299	0.889730
800.545526	0.893770
800.866708	0.897753
801.187845	0.901415
801.508936	0.901252
801.829983	0.898496
802.150984	0.902573
802.471940	0.906380
802.792851	0.905753
803.113717	0.907842
803.434538	0.904429
803.755314	0.907496
804.076045	0.908731
804.396731	0.908503
804.717372	0.908335
805.037967	0.910088
805.358518	0.908535
805.679024	0.906027
805.999485	0.906005
806.319901	0.905852
806.640272	0.906504
806.960598	0.904968
807.280879	0.901294
807.601115	0.900619
807.921306	0.904302
808.241453	0.904616
808.561554	0.902647
808.881611	0.901905
809.201623	0.904536
809.521590	0.903595
809.841513	0.905248
810.161390	0.903667
810.481223	0.905724
810.801011	0.909376
811.120755	0.911355
811.440453	0.909637
811.760107	0.907750
812.079716	0.908233
812.399281	0.911657
812.718801	0.913032
813.038276	0.915523
813.357707	0.914578
813.677093	0.910823
813.996434	0.914689
814.315731	0.914168
814.634983	0.917538
814.954191	0.915579
815.273354	0.911909
815.592473	0.908663
815.911547	0.908870
816.230577	0.906794
816.549562	0.903383
816.868502	0.904529
817.187399	0.902165
817.506250	0.897306
817.825058	0.897697
818.143821	0.894135
818.462539	0.890341
818.781213	0.882142
819.099843	0.871218
819.418429	0.856922
819.736970	0.841484
820.055466	0.822805
820.373919	0.798672
820.692327	0.767465
821.010691	0.734849
821.329011	0.663724
821.647286	0.559329
821.965517	0.456736
822.283704	0.417933
822.601847	0.418223
822.919945	0.449385
823.237999	0.476810
823.556010	0.519198
823.873976	0.570854
824.191897	0.618161
824.509775	0.657690
824.827609	0.701077
825.145398	0.721214
825.463144	0.723232
825.780845	0.707713
826.098502	0.689608
826.416116	0.647688
826.733685	0.606128
827.051210	0.598427
827.368692	0.611888
827.686129	0.646428
828.003522	0.695968
828.320872	0.740816
828.638177	0.782231
828.955439	0.813336
829.272656	0.833820
829.589830	0.849949
829.906960	0.865034
830.224046	0.876354
830.541088	0.885880
830.858086	0.889950
831.175041	0.894831
831.491952	0.896163
831.808819	0.891593
832.125642	0.885827
832.442421	0.871653
832.759157	0.852078
833.075849	0.808064
833.392497	0.747559
833.709101	0.708872
834.025662	0.717284
834.342179	0.747473
834.658653	0.784645
834.975083	0.819127
835.291469	0.843466
835.607811	0.864369
835.924110	0.879956
836.240366	0.896060
836.556578	0.907518
836.872746	0.915541
837.188871	0.921055
837.504952	0.926179
837.820990	0.929691
838.136984	0.932677
838.452935	0.936017
838.768842	0.938144
839.084706	0.930463
839.400526	0.906399
839.716303	0.868918
840.032037	0.848156
840.347727	0.851183
840.663373	0.867913
840.978977	0.888987
841.294537	0.909289
841.610054	0.925060
841.925527	0.932356
842.240957	0.937857
842.556344	0.944135
842.871687	0.951476
843.186987	0.954927
843.502244	0.954273
843.817458	0.957884
844.132629	0.959750
844.447756	0.964496
844.762840	0.964620
845.077881	0.964764
845.392879	0.963380
845.707833	0.967802
846.022745	0.967787
846.337613	0.968747
846.652438	0.969431
846.967221	0.968985
847.281960	0.969250
847.596656	0.971600
847.911309	0.970165
848.225919	0.971219
848.540485	0.973179
848.855009	0.972911
849.169490	0.971559
849.483928	0.973444
849.798323	0.973760
850.112675	0.973315
850.426984	0.973911
850.741251	0.973762
851.055474	0.973348
851.369654	0.971489
851.683792	0.973366
851.997887	0.973512
852.311938	0.974393
852.625947	0.973966
852.939914	0.972718
853.253837	0.972614
853.567718	0.974137
853.881555	0.975169
854.195350	0.971966
854.509103	0.972847
854.822812	0.973493
855.136479	0.974626
855.450103	0.973243
855.763685	0.972052
856.077224	0.972093
856.390720	0.973748
856.704173	0.973339
857.017584	0.971325
857.330953	0.970998
857.644278	0.970934
857.957561	0.972382
858.270802	0.972839
858.584000	0.971073
858.897155	0.970033
859.210268	0.971374
859.523339	0.971864
859.836367	0.975140
860.149352	0.974307
860.462295	0.973195
860.775195	0.973771
861.088054	0.973079
861.400869	0.973135
861.713642	0.974559
862.026373	0.974329
862.339062	0.973766
862.651708	0.971852
862.964312	0.972385
863.276873	0.973495
863.589392	0.972634
863.901869	0.970630
864.214303	0.968183
864.526696	0.967205
864.839045	0.967755
865.151353	0.966829
865.463619	0.966078
865.775842	0.967664
866.088023	0.966655
866.400162	0.966295
866.712258	0.966609
867.024313	0.966490
867.336325	0.967380
867.648296	0.968120
867.960224	0.967079
868.272110	0.966007
868.583954	0.969163
868.895755	0.967644
869.207515	0.965201
869.519233	0.963785
869.830909	0.964527
870.142542	0.967553
870.454134	0.967049
870.765684	0.965362
871.077191	0.963263
871.388657	0.963201
871.700081	0.962436
872.011463	0.964018
872.322803	0.963017
872.634101	0.961581
872.945357	0.959920
873.256571	0.958797
873.567744	0.957498
873.878874	0.958332
874.189963	0.956432
874.501010	0.956363
874.812015	0.954751
875.122979	0.957023
875.433900	0.958374
875.744780	0.958808
876.055618	0.956877
876.366415	0.955689
876.677169	0.954643
876.987882	0.955882
877.298554	0.955768
877.609183	0.952823
877.919771	0.950827
878.230317	0.948009
878.540822	0.945915
878.851285	0.941998
879.161707	0.934571
879.472087	0.922976
879.782425	0.907976
880.092722	0.877237
880.402977	0.828167
880.713191	0.770965
881.023363	0.717388
881.333494	0.686520
881.643583	0.659415
881.953631	0.657822
882.263637	0.684747
882.573602	0.723657
882.883526	0.746431
883.193408	0.767994
883.503248	0.788160
883.813048	0.813547
884.122806	0.841750
884.432522	0.864194
884.742197	0.882608
885.051831	0.891244
885.361424	0.902085
885.670975	0.912180
885.980485	0.922608
886.289954	0.927041
886.599382	0.932340
886.908768	0.936065
887.218113	0.941101
887.527417	0.945930
887.836680	0.948327
888.145901	0.950211
888.455082	0.952445
888.764221	0.956348
889.073319	0.957983
889.382376	0.958843
889.691392	0.958297
890.000366	0.958644
890.309300	0.959413
890.618193	0.959358
890.927044	0.957187
891.235855	0.957246
891.544625	0.957079
891.853353	0.958314
892.162041	0.955602
892.470687	0.949017
892.779293	0.944182
893.087858	0.941315
893.396381	0.933895
893.704864	0.921372
894.013306	0.899219
894.321707	0.874520
894.630068	0.862110
894.938387	0.857173
895.246665	0.858451
895.554903	0.870333
895.863100	0.881730
896.171256	0.897655
896.479371	0.915871
896.787446	0.928518
897.095480	0.933671
897.403473	0.936738
897.711425	0.939098
898.019336	0.947219
898.327207	0.949101
898.635038	0.951510
898.942827	0.950897
899.250576	0.953675
899.558284	0.958440
899.865952	0.959487
900.173579	0.960909
900.481165	0.960315
900.788711	0.965437
901.096216	0.966919
901.403681	0.965932
901.711105	0.968044
902.018489	0.968793
902.325832	0.967704
902.633135	0.967705
902.940397	0.962424
903.247619	0.951196
903.554800	0.927501
903.861941	0.889378
904.169041	0.858663
904.476101	0.842951
904.783121	0.843518
905.090100	0.858805
905.397039	0.878405
905.703938	0.897488
906.010796	0.915081
906.317614	0.931416
906.624391	0.942447
906.931129	0.950566
907.237826	0.958594
907.544483	0.965994
907.851099	0.967502
908.157675	0.973152
908.464211	0.975310
908.770707	0.977210
909.077163	0.979417
909.383578	0.979771
909.689954	0.978780
909.996289	0.979712
910.302584	0.981393
910.608839	0.984235
910.915054	0.982614
911.221229	0.982881
911.527363	0.980782
911.833458	0.981300
912.139513	0.982297
912.445527	0.980227
912.751502	0.977602
913.057436	0.977840
913.363331	0.976168
913.669186	0.972415
913.975000	0.965981
914.280775	0.961984
914.586510	0.956092
914.892205	0.944638
915.197859	0.924032
915.503475	0.898486
915.809050	0.882430
916.114585	0.877002
916.420081	0.875453
916.725536	0.872043
917.030952	0.878869
917.336328	0.890014
917.641665	0.904448
917.946961	0.918340
918.252218	0.928574
918.557435	0.937884
918.862612	0.944612
919.167750	0.949612
919.472848	0.954813
919.777906	0.959804
920.082925	0.963108
920.387904	0.968420
920.692843	0.968579
920.997743	0.969433
921.302603	0.974039
921.607423	0.974743
921.912204	0.977001
922.216946	0.976823
922.521647	0.977619
922.826310	0.979666
923.130932	0.981622
923.435516	0.982568
923.740059	0.984290
924.044564	0.982056
924.349028	0.984807
924.653454	0.987216
924.957840	0.988929
925.262186	0.986910
925.566493	0.985859
925.870761	0.988882
926.174989	0.989834
926.479178	0.991753
926.783328	0.991747
927.087438	0.991917
927.391509	0.990238
927.695541	0.993465
927.999533	0.992926
928.303486	0.992898
928.607400	0.994280
928.911275	0.992198
929.215110	0.992530
929.518906	0.993166
929.822663	0.993396
930.126381	0.995338
930.430060	0.993758
930.733699	0.992773
931.037299	0.992700
931.340861	0.993746
931.644383	0.993809
931.947866	0.992885
932.251309	0.993560
932.554714	0.992981
932.858080	0.993285
933.161407	0.994227
933.464694	0.994282
933.767943	0.992947
934.071153	0.993608
934.374323	0.993428
934.677455	0.994655
934.980548	0.994564
935.283602	0.993407
935.586617	0.994673
935.889593	0.994513
936.192530	0.994758
936.495428	0.993481
936.798287	0.994059
937.101108	0.993177
937.403890	0.992193
937.706632	0.992758
938.009336	0.990864
938.312002	0.990713
938.614628	0.987742
938.917216	0.987273
939.219765	0.986355
939.522275	0.986499
939.824747	0.987604
940.127179	0.986950
940.429573	0.988096
940.731929	0.987475
941.034246	0.988159
941.336524	0.989994
941.638763	0.989652
941.940964	0.989621
942.243126	0.990517
942.545250	0.990222
942.847335	0.991679
943.149381	0.990685
943.451389	0.991860
943.753359	0.992048
944.055290	0.994051
944.357182	0.992455
944.659036	0.991421
944.960851	0.993711
945.262628	0.993024
945.564367	0.993590
945.866067	0.992923
946.167729	0.994284
946.469352	0.993278
946.770937	0.991976
947.072484	0.993503
947.373992	0.993317
947.675462	0.992824
947.976893	0.993035
948.278286	0.993527
948.579641	0.995125
948.880958	0.993766
949.182236	0.993399
949.483476	0.993814
949.784678	0.993600
950.085841	0.993918
950.386967	0.993572
950.688054	0.994171
950.989103	0.994318
951.290114	0.991778
951.591087	0.992901
951.892021	0.992239
952.192917	0.993092
952.493776	0.991010
952.794596	0.991841
953.095378	0.991708
953.396122	0.991626
953.696828	0.989685
953.997496	0.993204
954.298126	0.993637
954.598718	0.993296
954.899272	0.994219
955.199788	0.992236
955.500266	0.995248
955.800706	0.996180
956.101108	0.995592
956.401472	0.996309
956.701798	0.996409
957.002087	0.995951
957.302337	0.996260
957.602550	0.997986
957.902724	0.997040
958.202861	0.997111
958.502960	0.997239
958.803022	0.995404
959.103045	0.998154
959.403031	0.998172
959.702979	0.997608
960.002889	0.998678
960.302762	0.996324
960.602596	0.998038
960.902393	0.996823
961.202153	0.999501
961.501875	0.999148
961.801559	0.997421
962.101205	0.998208
962.400814	0.997797
962.700385	0.998432
962.999918	0.998541
963.299414	0.998360
963.598873	0.996908
963.898293	0.998336
964.197677	0.997865
964.497022	0.998347
964.796331	0.999216
965.095601	0.998610
965.394835	0.997841
965.694030	0.997999
965.993189	0.998852
966.292309	0.997860
966.591393	0.998527
966.890439	0.998439
967.189447	0.999199
967.488419	0.999423
967.787353	0.997311
968.086249	0.997363
968.385108	0.998741
968.683930	0.998962
968.982714	0.999159
969.281462	0.999572
969.580172	0.998365
969.878844	0.999705
970.177480	0.998209
970.476078	0.998697
970.774639	0.998652
971.073162	1.000391
971.371649	0.999062
971.670098	0.998651
971.968510	1.000319
972.266885	0.996734
972.565223	0.997346
972.863524	0.995712
973.161788	0.998085
973.460014	0.998340
973.758204	0.997473
974.056356	0.998355
974.354471	0.996196
974.652550	0.997976
974.950591	0.998361
975.248595	0.998028
975.546563	0.998800
975.844493	0.999962
976.142386	0.998721
976.440243	1.000375
976.738062	0.997912
977.035845	1.000005
977.333590	0.998945
977.631299	0.998572
977.928971	1.000126
978.226606	0.998196
978.524204	0.997456
978.821765	0.999249
979.119290	0.997673
979.416777	0.997124
979.714228	0.998931
980.011642	0.997050
980.309020	0.998745
980.606360	0.999072
980.903664	1.000182
981.200931	0.998456
981.498162	0.996191
981.795356	0.997074
982.092513	0.995415
982.389633	0.996169
982.686717	0.993629
982.983764	0.994227
983.280775	0.993226
983.577749	0.991042
983.874686	0.993400
984.171587	0.994180
984.468451	0.997141
984.765279	0.996056
985.062070	0.996851
985.358824	0.996409
985.655543	0.997683
985.952224	0.996752
986.248869	0.998383
986.545478	0.998211
986.842050	0.999230
987.138586	0.997079
987.435086	0.998876
987.731549	0.999360
988.027975	0.999114
988.324366	0.997786
988.620719	0.999791
988.917037	0.997512
989.213318	0.999281
989.509563	0.999105
989.805772	0.999038
990.101944	0.999897
990.398080	0.998842
990.694180	0.999647
990.990244	0.998436
991.286271	0.999242
991.582262	0.998786
991.878217	0.999199
992.174136	0.999817
992.470019	0.999955
992.765865	0.999912
993.061676	0.999399
993.357450	0.998820
993.653188	0.997333
993.948890	0.998909
994.244556	0.998849
994.540186	0.999517
994.835780	0.998175
995.131337	1.000126
995.426859	0.997927
995.722345	0.998160
996.017795	0.997181
996.313208	0.997241
996.608586	0.997160
996.903928	0.998489
997.199234	0.997598
997.494504	0.998824
997.789738	0.997341
998.084936	0.997939
998.380099	0.998709
998.675225	0.999338
998.970316	0.999914
999.265371	0.999870
999.560390	0.999137
999.855373	1.000477
1000.150320	0.998203
1000.445232	0.999838
1000.740108	0.999787
1001.034948	0.999264
1001.329752	1.000247
1001.624521	0.999784
1001.919254	0.999239
1002.213951	0.998953
1002.508613	0.997761
1002.803239	0.999230
1003.097829	0.998965
1003.392384	0.999876
1003.686903	0.998850
1003.981386	1.000231
1004.275834	1.000769
1004.570246	0.999119
1004.864623	1.000020
1005.158964	0.999655
1005.453270	0.999679
1005.747540	0.997078
1006.041775	0.999572
1006.335974	1.000617
1006.630138	1.000036
1006.924266	0.999856
1007.218359	1.001806
1007.512416	0.999250
1007.806438	0.999421
1008.100425	1.001158
1008.394376	0.999743
1008.688292	0.998254
1008.982172	1.002191
1009.276017	0.999389
1009.569827	1.000764
1009.863602	0.999640
1010.157341	1.000471
1010.451045	1.000502
1010.744714	0.999297
1011.038347	1.000818
1011.331945	1.000590
1011.625508	0.998741
1011.919036	0.999503
1012.212528	0.998776
1012.505986	1.000167
1012.799408	0.999004
1013.092795	1.000572
1013.386147	0.999767
1013.679464	1.000919
1013.972745	0.999283
1014.265992	0.998555
1014.559204	0.999247
1014.852380	1.000219
1015.145521	1.000790
1015.438628	0.999999
1015.731699	0.999582
1016.024736	0.999455
1016.317737	0.999680
1016.610703	1.000529
1016.903635	0.999337
1017.196531	0.998559
1017.489393	1.000195
1017.782219	1.000139
1018.075011	0.998329
1018.367768	0.999733
1018.660490	0.999832
1018.953177	0.999832
1019.245829	0.999832
