Dividing Wavelength (nm)	Counts (n)	Blue Motor Position (mm): 0.000000	Red Motor Position (mm): 9.800000	
326.493990	1.001328
326.888308	1.001328
327.282561	1.001328
327.676750	1.000668
328.070874	1.000927
328.464933	1.000855
328.858929	0.999378
329.252859	1.000116
329.646726	1.000570
330.040528	1.000225
330.434265	0.999382
330.827938	1.000923
331.221547	1.000541
331.615091	1.001665
332.008571	1.000639
332.401986	0.998807
332.795338	1.000598
333.188625	0.998792
333.581847	1.000817
333.975006	0.999588
334.368100	0.999199
334.761129	1.000118
335.154095	1.001772
335.546996	0.998052
335.939833	0.991866
336.332606	0.992624
336.725315	0.994121
337.117960	0.995356
337.510540	0.993796
337.903056	0.995302
338.295508	0.993046
338.687896	0.993516
339.080220	0.993867
339.472480	0.993666
339.864676	0.993263
340.256807	0.994142
340.648875	0.994906
341.040879	0.994563
341.432818	0.993081
341.824694	0.994124
342.216506	0.994787
342.608253	0.993871
342.999937	0.993943
343.391557	0.994685
343.783113	0.994327
344.174605	0.993462
344.566033	0.995163
344.957397	0.992959
345.348697	0.993089
345.739934	0.994073
346.131106	0.994069
346.522215	0.992669
346.913260	0.993719
347.304241	0.994615
347.695159	0.993768
348.086012	0.993509
348.476802	0.992499
348.867528	0.993934
349.258191	0.992158
349.648789	0.994459
350.039324	0.993089
350.429796	0.995388
350.820203	0.994884
351.210548	0.993273
351.600828	0.993461
351.991045	0.994366
352.381198	0.992502
352.771288	0.994067
353.161314	0.994163
353.551276	0.994877
353.941175	0.993870
354.331010	0.993724
354.720782	0.994395
355.110490	0.993474
355.500135	0.994229
355.889717	0.992944
356.279235	0.993950
356.668689	0.992543
357.058080	0.993256
357.447408	0.994134
357.836672	0.993946
358.225873	0.993785
358.615010	0.993311
359.004084	0.994262
359.393095	0.993663
359.782043	0.993470
360.170927	0.995240
360.559748	0.993482
360.948505	0.992263
361.337199	0.993866
361.725830	0.992760
362.114398	0.994050
362.502903	0.993807
362.891344	0.993704
363.279722	0.992392
363.668037	0.994095
364.056289	0.992739
364.444478	0.994253
364.832603	0.993511
365.220665	0.992453
365.608665	0.994330
365.996601	0.992472
366.384474	0.993249
366.772284	0.993023
367.160031	0.991215
367.547715	0.991408
367.935336	0.992888
368.322893	0.992791
368.710388	0.991184
369.097820	0.993325
369.485189	0.991065
369.872495	0.992089
370.259738	0.991028
370.646918	0.993258
371.034035	0.992409
371.421090	0.991976
371.808081	0.992243
372.195010	0.991987
372.581875	0.991291
372.968678	0.992229
373.355418	0.991920
373.742096	0.991278
374.128710	0.992327
374.515262	0.991873
374.901751	0.992034
375.288177	0.991496
375.674540	0.993452
376.060841	0.991974
376.447079	0.992126
376.833254	0.992279
377.219367	0.991703
377.605417	0.991240
377.991404	0.991300
378.377329	0.989906
378.763191	0.990324
379.148991	0.989291
379.534727	0.988756
379.920402	0.986033
380.306013	0.985110
380.691563	0.983141
381.077049	0.980491
381.462474	0.978319
381.847835	0.974588
382.233134	0.971550
382.618371	0.968601
383.003545	0.964149
383.388657	0.959514
383.773706	0.954613
384.158693	0.950365
384.543618	0.945525
384.928480	0.940291
385.313280	0.932700
385.698017	0.928568
386.082692	0.920076
386.467305	0.914236
386.851856	0.906738
387.236344	0.899133
387.620770	0.890229
388.005133	0.882416
388.389435	0.874937
388.773674	0.866444
389.157851	0.857172
389.541965	0.849226
389.926018	0.845103
390.310008	0.832751
390.693936	0.822598
391.077802	0.812005
391.461606	0.805324
391.845348	0.791697
392.229027	0.786538
392.612645	0.777832
392.996200	0.761938
393.379694	0.750151
393.763125	0.736443
394.146494	0.733632
394.529801	0.719158
394.913047	0.707092
395.296230	0.704761
395.679351	0.691935
396.062410	0.683026
396.445408	0.679654
396.828343	0.669700
397.211217	0.661572
397.594028	0.667171
397.976778	0.653365
398.359466	0.646062
398.742092	0.638025
399.124656	0.645025
399.507158	0.631219
399.889598	0.625016
400.271977	0.613139
400.654294	0.616016
401.036549	0.610878
401.418742	0.614020
401.800874	0.596095
402.182944	0.592720
402.564952	0.581997
402.946898	0.583317
403.328783	0.581476
403.710606	0.591338
404.092367	0.566214
404.474067	0.569789
404.855705	0.567544
405.237282	0.576817
405.618797	0.562143
406.000250	0.557616
406.381642	0.547425
406.762972	0.551929
407.144240	0.550583
407.525447	0.550751
407.906593	0.543080
408.287677	0.538239
408.668700	0.546357
409.049661	0.539845
409.430560	0.535436
409.811399	0.543335
410.192176	0.524583
410.572891	0.531467
410.953545	0.520241
411.334138	0.533469
411.714669	0.526122
412.095139	0.537361
412.475547	0.522476
412.855894	0.524219
413.236180	0.522948
413.616405	0.528592
413.996568	0.519239
414.376670	0.524950
414.756711	0.530263
415.136691	0.526428
415.516609	0.518084
415.896466	0.514328
416.276262	0.510781
416.655997	0.512396
417.035670	0.493468
417.415283	0.485476
417.794834	0.490021
418.174324	0.495302
418.553753	0.504737
418.933121	0.486781
419.312428	0.480315
419.691674	0.486446
420.070859	0.475570
420.449983	0.482781
420.829045	0.472536
421.208047	0.480905
421.586988	0.474904
421.965867	0.473298
422.344686	0.462874
422.723444	0.474715
423.102141	0.491658
423.480777	0.464951
423.859352	0.485065
424.237866	0.461942
424.616319	0.462896
424.994712	0.453924
425.373044	0.463898
425.751314	0.452374
426.129524	0.468879
426.507673	0.452147
426.885762	0.446133
427.263789	0.451586
427.641756	0.461205
428.019662	0.451433
428.397508	0.450401
428.775292	0.454658
429.153016	0.447240
429.530679	0.453397
429.908282	0.446310
430.285824	0.456118
430.663305	0.434742
431.040726	0.455776
431.418086	0.456847
431.795385	0.447355
432.172624	0.446326
432.549802	0.447641
432.926920	0.446374
433.303977	0.445251
433.680974	0.442594
434.057910	0.440764
434.434786	0.440271
434.811601	0.442517
435.188355	0.424950
435.565050	0.434527
435.941683	0.436374
436.318257	0.420739
436.694770	0.420769
437.071222	0.419450
437.447614	0.423563
437.823946	0.430091
438.200218	0.419677
438.576429	0.429142
438.952580	0.421804
439.328670	0.419116
439.704700	0.425471
440.080670	0.427231
440.456580	0.407809
440.832429	0.415708
441.208218	0.426576
441.583947	0.415996
441.959616	0.415425
442.335224	0.420425
442.710773	0.411264
443.086261	0.409700
443.461689	0.422924
443.837057	0.413206
444.212365	0.403462
444.587612	0.409860
444.962800	0.400203
445.337927	0.401324
445.712995	0.427930
446.088002	0.390019
446.462949	0.400352
446.837837	0.404773
447.212664	0.394148
447.587431	0.385647
447.962139	0.355743
448.336786	0.315687
448.711374	0.325748
449.085901	0.369443
449.460369	0.374113
449.834776	0.377697
450.209124	0.357342
450.583412	0.349772
450.957640	0.342782
451.331808	0.353833
451.705917	0.377358
452.079965	0.381702
452.453954	0.370132
452.827883	0.376792
453.201752	0.371651
453.575562	0.383426
453.949311	0.372011
454.323001	0.377400
454.696632	0.373838
455.070202	0.366279
455.443713	0.358063
455.817164	0.352642
456.190556	0.349102
456.563888	0.345398
456.937160	0.343143
457.310373	0.360359
457.683526	0.359241
458.056619	0.364563
458.429653	0.365582
458.802628	0.368799
459.175542	0.362932
459.548398	0.345500
459.921194	0.337976
460.293930	0.338128
460.666607	0.315559
461.039224	0.303973
461.411782	0.299602
461.784280	0.299095
462.156719	0.303284
462.529099	0.307677
462.901419	0.323468
463.273680	0.328151
463.645882	0.327669
464.018024	0.333091
464.390106	0.326175
464.762130	0.311127
465.134094	0.294251
465.505999	0.263019
465.877845	0.233722
466.249631	0.220660
466.621358	0.227928
466.993026	0.241984
467.364634	0.247906
467.736184	0.256966
468.107674	0.265437
468.479105	0.264637
468.850477	0.271231
469.221790	0.278147
469.593043	0.288349
469.964238	0.293175
470.335373	0.292614
470.706449	0.291097
471.077467	0.291397
471.448425	0.253673
471.819324	0.229133
472.190164	0.228548
472.560945	0.257351
472.931667	0.279438
473.302330	0.283751
473.672934	0.295713
474.043479	0.283635
474.413965	0.285475
474.784393	0.289025
475.154761	0.283860
475.525070	0.280779
475.895321	0.287019
476.265513	0.281010
476.635645	0.276279
477.005719	0.276319
477.375734	0.272766
477.745691	0.266353
478.115588	0.262649
478.485427	0.256164
478.855207	0.242872
479.224928	0.225676
479.594591	0.213561
479.964194	0.217086
480.333739	0.218211
480.703226	0.219841
481.072653	0.218290
481.442022	0.213906
481.811333	0.210488
482.180584	0.213927
482.549777	0.219184
482.918912	0.222717
483.287988	0.222099
483.657005	0.222163
484.025964	0.228360
484.394864	0.225559
484.763706	0.226267
485.132489	0.231077
485.501213	0.231800
485.869879	0.230629
486.238487	0.233594
486.607036	0.231546
486.975527	0.236331
487.343959	0.231994
487.712333	0.230958
488.080648	0.232252
488.448905	0.231530
488.817104	0.233022
489.185244	0.227411
489.553326	0.224264
489.921350	0.214158
490.289315	0.196737
490.657222	0.191714
491.025070	0.193211
491.392861	0.195087
491.760593	0.200781
492.128267	0.206388
492.495883	0.211903
492.863440	0.218149
493.230939	0.224414
493.598380	0.225570
493.965763	0.227967
494.333088	0.230478
494.700354	0.231695
495.067563	0.230872
495.434713	0.233992
495.801805	0.231940
496.168839	0.233145
496.535815	0.234715
496.902733	0.234753
497.269593	0.236309
497.636395	0.234168
498.003139	0.234129
498.369825	0.237310
498.736453	0.233908
499.103023	0.235162
499.469535	0.234833
499.835989	0.234942
500.202385	0.235913
500.568723	0.239255
500.935003	0.234270
501.301226	0.238433
501.667390	0.232932
502.033497	0.231016
502.399546	0.234235
502.765537	0.235549
503.131470	0.234190
503.497345	0.230336
503.863163	0.239134
504.228923	0.232207
504.594625	0.231128
504.960269	0.236483
505.325856	0.231533
505.691385	0.235754
506.056856	0.232561
506.422270	0.232220
506.787625	0.234361
507.152924	0.231952
507.518164	0.232304
507.883347	0.234089
508.248472	0.235741
508.613540	0.230869
508.978550	0.233297
509.343503	0.233861
509.708398	0.231518
510.073236	0.228915
510.438016	0.229070
510.802738	0.229784
511.167403	0.229004
511.532010	0.231022
511.896561	0.226423
512.261053	0.225181
512.625488	0.227202
512.989866	0.227443
513.354186	0.227780
513.718449	0.229603
514.082655	0.226191
514.446803	0.228128
514.810894	0.225889
515.174927	0.228489
515.538904	0.228101
515.902822	0.224913
516.266684	0.227115
516.630488	0.228627
516.994235	0.227079
517.357925	0.225869
517.721558	0.224525
518.085133	0.223815
518.448651	0.223941
518.812112	0.226181
519.175516	0.225554
519.538863	0.223536
519.902152	0.225195
520.265385	0.221912
520.628560	0.223737
520.991678	0.224175
521.354739	0.222876
521.717743	0.223991
522.080690	0.224634
522.443580	0.222015
522.806413	0.222821
523.169189	0.222139
523.531908	0.220964
523.894569	0.224550
524.257174	0.224748
524.619722	0.222416
524.982213	0.223408
525.344647	0.222184
525.707025	0.223239
526.069345	0.221394
526.431608	0.223000
526.793815	0.220981
527.155964	0.225206
527.518057	0.223889
527.880093	0.225319
528.242072	0.223702
528.603995	0.225697
528.965860	0.227453
529.327669	0.226139
529.689421	0.226969
530.051117	0.227867
530.412755	0.225366
530.774337	0.227992
531.135862	0.228098
531.497331	0.227619
531.858743	0.230382
532.220098	0.227069
532.581396	0.229677
532.942638	0.230073
533.303824	0.230946
533.664953	0.230944
534.026025	0.232642
534.387040	0.230698
534.747999	0.230434
535.108902	0.229380
535.469748	0.234470
535.830537	0.232079
536.191270	0.232722
536.551947	0.231864
536.912567	0.232357
537.273131	0.233980
537.633638	0.234061
537.994089	0.234655
538.354483	0.235508
538.714821	0.232381
539.075103	0.232445
539.435328	0.233125
539.795497	0.236732
540.155609	0.233596
540.515665	0.231588
540.875665	0.237104
541.235609	0.235881
541.595496	0.235786
541.955328	0.232431
542.315102	0.234977
542.674821	0.235896
543.034483	0.236050
543.394090	0.236075
543.753640	0.237748
544.113134	0.232485
544.472571	0.235936
544.831953	0.232824
545.191278	0.237208
545.550548	0.236381
545.909761	0.233207
546.268918	0.234039
546.628019	0.231864
546.987064	0.234930
547.346053	0.236522
547.704986	0.234593
548.063863	0.234927
548.422684	0.235168
548.781449	0.237113
549.140158	0.234583
549.498811	0.237550
549.857408	0.240821
550.215949	0.235424
550.574434	0.238234
550.932864	0.236395
551.291237	0.234991
551.649555	0.236310
552.007817	0.236342
552.366022	0.236828
552.724173	0.237287
553.082267	0.237505
553.440305	0.234190
553.798288	0.238724
554.156215	0.235185
554.514086	0.236085
554.871902	0.239394
555.229661	0.238546
555.587365	0.238937
555.945014	0.241648
556.302606	0.238466
556.660143	0.240968
557.017625	0.237543
557.375050	0.239554
557.732421	0.236751
558.089735	0.238833
558.446994	0.239011
558.804197	0.237883
559.161345	0.237966
559.518437	0.241397
559.875474	0.239164
560.232455	0.238716
560.589381	0.239454
560.946251	0.239920
561.303065	0.237375
561.659825	0.239160
562.016528	0.240372
562.373177	0.242800
562.729770	0.240682
563.086307	0.242436
563.442789	0.240417
563.799216	0.242960
564.155587	0.241667
564.511904	0.242925
564.868164	0.243184
565.224370	0.243038
565.580520	0.244479
565.936615	0.244616
566.292654	0.247741
566.648638	0.244641
567.004567	0.245453
567.360441	0.246008
567.716260	0.248180
568.072023	0.245843
568.427732	0.246465
568.783385	0.249091
569.138982	0.247096
569.494525	0.247025
569.850013	0.249562
570.205445	0.248298
570.560823	0.250579
570.916145	0.252636
571.271412	0.251025
571.626625	0.252544
571.981782	0.252630
572.336884	0.253681
572.691931	0.253489
573.046923	0.254723
573.401860	0.255971
573.756743	0.257337
574.111570	0.256614
574.466342	0.256624
574.821059	0.256089
575.175722	0.258952
575.530330	0.258610
575.884882	0.258850
576.239380	0.260955
576.593823	0.261541
576.948211	0.260804
577.302544	0.264091
577.656823	0.263531
578.011047	0.263872
578.365216	0.264701
578.719330	0.266636
579.073389	0.266388
579.427394	0.267783
579.781344	0.268417
580.135239	0.269747
580.489080	0.269455
580.842866	0.272764
581.196597	0.272611
581.550273	0.270918
581.903895	0.272342
582.257463	0.270116
582.610975	0.273613
582.964434	0.273010
583.317837	0.275562
583.671186	0.275664
584.024481	0.275871
584.377721	0.277995
584.730906	0.278893
585.084037	0.278319
585.437113	0.280068
585.790135	0.279267
586.143103	0.282698
586.496016	0.283554
586.848874	0.281010
587.201679	0.281566
587.554428	0.284712
587.907124	0.283565
588.259765	0.284462
588.612352	0.284807
588.964884	0.288804
589.317362	0.288132
589.669786	0.288483
590.022155	0.287310
590.374470	0.286066
590.726731	0.288216
591.078937	0.292844
591.431090	0.289191
591.783188	0.293630
592.135232	0.293818
592.487222	0.294133
592.839157	0.292242
593.191038	0.294625
593.542866	0.296385
593.894639	0.299947
594.246358	0.297889
594.598022	0.297463
594.949633	0.300778
595.301190	0.301701
595.652692	0.300918
596.004141	0.297054
596.355535	0.305118
596.706876	0.305843
597.058162	0.308005
597.409395	0.304876
597.760573	0.303523
598.111698	0.306025
598.462768	0.306732
598.813785	0.307966
599.164748	0.308944
599.515657	0.309441
599.866511	0.313023
600.217312	0.308212
600.568060	0.313739
600.918753	0.310132
601.269392	0.310794
601.619978	0.313887
601.970510	0.311393
602.320988	0.311907
602.671412	0.309763
603.021783	0.312069
603.372100	0.313436
603.722363	0.313254
604.072572	0.313838
604.422728	0.313950
604.772830	0.315761
605.122878	0.315426
605.472872	0.316053
605.822813	0.314266
606.172701	0.317184
606.522534	0.314441
606.872314	0.314729
607.222041	0.315266
607.571714	0.313539
607.921333	0.314471
608.270899	0.314489
608.620411	0.311245
608.969870	0.315030
609.319276	0.315581
609.668627	0.315330
610.017926	0.313850
610.367171	0.312592
610.716362	0.313096
611.065500	0.313019
611.414585	0.311837
611.763616	0.312306
612.112594	0.313009
612.461518	0.312391
612.810389	0.310207
613.159207	0.312412
613.507971	0.314181
613.856682	0.309930
614.205340	0.311621
614.553945	0.308335
614.902496	0.312255
615.250994	0.310340
615.599439	0.311125
615.947830	0.310461
616.296169	0.311369
616.644454	0.311154
616.992686	0.310790
617.340864	0.308971
617.688990	0.312281
618.037063	0.309169
618.385082	0.310887
618.733048	0.307681
619.080961	0.310049
619.428821	0.309615
619.776628	0.309320
620.124382	0.311372
620.472083	0.311723
620.819731	0.310707
621.167326	0.314594
621.514868	0.314337
621.862357	0.318467
622.209793	0.318103
622.557176	0.320361
622.904506	0.321662
623.251783	0.324037
623.599007	0.326395
623.946179	0.325602
624.293297	0.327536
624.640363	0.331398
624.987376	0.332401
625.334336	0.334819
625.681243	0.336673
626.028097	0.337647
626.374899	0.338518
626.721647	0.338817
627.068343	0.342007
627.414987	0.342744
627.761577	0.345341
628.108115	0.343204
628.454600	0.348813
628.801032	0.346147
629.147412	0.348099
629.493739	0.348408
629.840014	0.351568
630.186236	0.348977
630.532405	0.354610
630.878521	0.351899
631.224585	0.353999
631.570597	0.357923
631.916556	0.356123
632.262462	0.356529
632.608316	0.358378
632.954117	0.359439
633.299866	0.360107
633.645562	0.360751
633.991206	0.365195
634.336797	0.367723
634.682336	0.370139
635.027823	0.372073
635.373257	0.372039
635.718639	0.375457
636.063968	0.375184
636.409245	0.380988
636.754470	0.381441
637.099642	0.383552
637.444762	0.387158
637.789829	0.386558
638.134845	0.389205
638.479808	0.390420
638.824719	0.389872
639.169577	0.394406
639.514383	0.393401
639.859137	0.397208
640.203839	0.397380
640.548489	0.397951
640.893086	0.399244
641.237632	0.400801
641.582125	0.399200
641.926566	0.401136
642.270955	0.400840
642.615292	0.401393
642.959576	0.400703
643.303809	0.400991
643.647990	0.400460
643.992118	0.400884
644.336195	0.405061
644.680219	0.402960
645.024192	0.403700
645.368112	0.397374
645.711981	0.396235
646.055797	0.392069
646.399562	0.394216
646.743274	0.386076
647.086935	0.383621
647.430544	0.383720
647.774101	0.382455
648.117606	0.382044
648.461059	0.382536
648.804460	0.385348
649.147810	0.390726
649.491108	0.392438
649.834354	0.393479
650.177548	0.399065
650.520690	0.404321
650.863781	0.405669
651.206820	0.404595
651.549807	0.409874
651.892742	0.413241
652.235626	0.412872
652.578458	0.413776
652.921238	0.420511
653.263967	0.417799
653.606644	0.422006
653.949269	0.421551
654.291843	0.425280
654.634365	0.422448
654.976836	0.425277
655.319255	0.425304
655.661622	0.427291
656.003938	0.427076
656.346203	0.430268
656.688416	0.427738
657.030577	0.431309
657.372687	0.433909
657.714746	0.434301
658.056753	0.431389
658.398708	0.434896
658.740612	0.436227
659.082465	0.432342
659.424266	0.433068
659.766016	0.432135
660.107715	0.434711
660.449362	0.433841
660.790958	0.434446
661.132503	0.434799
661.473996	0.433053
661.815438	0.433560
662.156829	0.434207
662.498168	0.434753
662.839456	0.435840
663.180693	0.433860
663.521879	0.433611
663.863013	0.434518
664.204097	0.433155
664.545129	0.429795
664.886110	0.430263
665.227040	0.427436
665.567918	0.430190
665.908746	0.427649
666.249522	0.427982
666.590248	0.428391
666.930922	0.427369
667.271545	0.426078
667.612118	0.425930
667.952639	0.427136
668.293109	0.426210
668.633528	0.428950
668.973896	0.429078
669.314213	0.429782
669.654480	0.431320
669.994695	0.431504
670.334859	0.431354
670.674973	0.432504
671.015035	0.432929
671.355047	0.432504
671.695008	0.433321
672.034918	0.435461
672.374777	0.434706
672.714585	0.435849
673.054342	0.436096
673.394049	0.435744
673.733705	0.433794
674.073310	0.434730
674.412864	0.437746
674.752368	0.437955
675.091820	0.438419
675.431223	0.442883
675.770574	0.442783
676.109875	0.446220
676.449125	0.445861
676.788324	0.448237
677.127473	0.453049
677.466571	0.453230
677.805619	0.455095
678.144616	0.456234
678.483562	0.457894
678.822458	0.460351
679.161303	0.460866
679.500098	0.461364
679.838842	0.463601
680.177535	0.462325
680.516179	0.461307
680.854771	0.460547
681.193314	0.453546
681.531805	0.445082
681.870247	0.433328
682.208638	0.426035
682.546978	0.425117
682.885268	0.426884
683.223508	0.432822
683.561697	0.436516
683.899836	0.439683
684.237925	0.442900
684.575963	0.445087
684.913951	0.448475
685.251889	0.444334
685.589776	0.446493
685.927614	0.448801
686.265401	0.442798
686.603137	0.444264
686.940824	0.438257
687.278460	0.436936
687.616046	0.435882
687.953582	0.431066
688.291068	0.432052
688.628504	0.427905
688.965889	0.430309
689.303224	0.433883
689.640510	0.438240
689.977745	0.444563
690.314930	0.451959
690.652065	0.456347
690.989150	0.464103
691.326185	0.470634
691.663170	0.475071
692.000105	0.482560
692.336990	0.488774
692.673825	0.491804
693.010610	0.498590
693.347345	0.503959
693.684030	0.505553
694.020665	0.510425
694.357251	0.519441
694.693786	0.518462
695.030272	0.523189
695.366707	0.526503
695.703093	0.529757
696.039429	0.527869
696.375716	0.530119
696.711952	0.532132
697.048139	0.534588
697.384276	0.535760
697.720363	0.534711
698.056400	0.533386
698.392388	0.539226
698.728326	0.542131
699.064214	0.544971
699.400053	0.545435
699.735842	0.548650
700.071581	0.552057
700.407270	0.554729
700.742910	0.557534
701.078501	0.564202
701.414042	0.564171
701.749533	0.567596
702.084974	0.576496
702.420366	0.568242
702.755709	0.576253
703.091002	0.583798
703.426246	0.577434
703.761440	0.582922
704.096584	0.588134
704.431679	0.585254
704.766725	0.586438
705.101721	0.588360
705.436668	0.584938
705.771565	0.592150
706.106413	0.588015
706.441212	0.583788
706.775961	0.582019
707.110661	0.585606
707.445311	0.581977
707.779913	0.578369
708.114465	0.577183
708.448967	0.574571
708.783421	0.566648
709.117825	0.560331
709.452180	0.561188
709.786485	0.554706
710.120742	0.544491
710.454949	0.546350
710.789107	0.539186
711.123216	0.529056
711.457275	0.531087
711.791286	0.522401
712.125247	0.520959
712.459159	0.532060
712.793023	0.524255
713.126837	0.528255
713.460602	0.529199
713.794318	0.538178
714.127985	0.536750
714.461602	0.546863
714.795171	0.550315
715.128691	0.557900
715.462162	0.565887
715.795584	0.571235
716.128957	0.573735
716.462281	0.581307
716.795556	0.584797
717.128782	0.589326
717.461960	0.599282
717.795088	0.597613
718.128167	0.603437
718.461198	0.612322
718.794180	0.613270
719.127113	0.616207
719.459997	0.619061
719.792833	0.625641
720.125619	0.626775
720.458357	0.633121
720.791046	0.632791
721.123686	0.636094
721.456278	0.642723
721.788821	0.640064
722.121315	0.644750
722.453761	0.648274
722.786158	0.646680
723.118506	0.643285
723.450805	0.650561
723.783056	0.646310
724.115259	0.643845
724.447412	0.643356
724.779518	0.645008
725.111574	0.644072
725.443582	0.639742
725.775542	0.640635
726.107453	0.633375
726.439315	0.633345
726.771129	0.631854
727.102895	0.625437
727.434612	0.618340
727.766281	0.616151
728.097901	0.615700
728.429473	0.615045
728.760996	0.613738
729.092471	0.613571
729.423897	0.617893
729.755276	0.616558
730.086606	0.616647
730.417887	0.610975
730.749120	0.601947
731.080305	0.592574
731.411442	0.588841
731.742530	0.593836
732.073570	0.592778
732.404562	0.584321
732.735506	0.586267
733.066401	0.591170
733.397249	0.600539
733.728048	0.611217
734.058798	0.624594
734.389501	0.635762
734.720156	0.644875
735.050762	0.652658
735.381320	0.653174
735.711831	0.663390
736.042293	0.668349
736.372707	0.663177
736.703073	0.668179
737.033391	0.670331
737.363661	0.667224
737.693883	0.663758
738.024056	0.661708
738.354182	0.662151
738.684260	0.651214
739.014290	0.646878
739.344272	0.648299
739.674207	0.641017
740.004093	0.640632
740.333931	0.641600
740.663722	0.640690
740.993464	0.642194
741.323159	0.646273
741.652806	0.651000
741.982405	0.655303
742.311956	0.660190
742.641460	0.662622
742.970915	0.665958
743.300323	0.674212
743.629683	0.679846
743.958996	0.682740
744.288260	0.686128
744.617477	0.692062
744.946647	0.694446
745.275768	0.699246
745.604842	0.699289
745.933869	0.709256
746.262847	0.709755
746.591778	0.703432
746.920662	0.709073
747.249498	0.715281
747.578286	0.707088
747.907027	0.703721
748.235720	0.704029
748.564365	0.698532
748.892963	0.699067
749.221514	0.702087
749.550017	0.706323
749.878473	0.706596
750.206881	0.713008
750.535242	0.713998
750.863555	0.713924
751.191821	0.715593
751.520039	0.718351
751.848210	0.723166
752.176334	0.714905
752.504411	0.715250
752.832440	0.722660
753.160421	0.726350
753.488356	0.726092
753.816243	0.722278
754.144082	0.730017
754.471875	0.734459
754.799620	0.730104
755.127318	0.730745
755.454969	0.730994
755.782572	0.729781
756.110129	0.735485
756.437638	0.738556
756.765100	0.734226
757.092515	0.733438
757.419882	0.731397
757.747203	0.737041
758.074477	0.736205
758.401703	0.732742
758.728882	0.727861
759.056014	0.726586
759.383099	0.725832
759.710138	0.726771
760.037129	0.723368
760.364073	0.717528
760.690970	0.719362
761.017820	0.725937
761.344623	0.721741
761.671379	0.712298
761.998088	0.700791
762.324751	0.677619
762.651366	0.636397
762.977935	0.568387
763.304456	0.515997
763.630931	0.507017
763.957359	0.545572
764.283740	0.590632
764.610074	0.617605
764.936362	0.648704
765.262602	0.674928
765.588796	0.697333
765.914943	0.715860
766.241044	0.732888
766.567097	0.740071
766.893104	0.749503
767.219064	0.757302
767.544978	0.763109
767.870845	0.776088
768.196665	0.780204
768.522438	0.778925
768.848165	0.778606
769.173846	0.788679
769.499479	0.792401
769.825066	0.795619
770.150607	0.801561
770.476101	0.796710
770.801548	0.798002
771.126949	0.809056
771.452303	0.812886
771.777611	0.811857
772.102872	0.810807
772.428087	0.816830
772.753256	0.819918
773.078378	0.821941
773.403453	0.831034
773.728482	0.836110
774.053465	0.829106
774.378401	0.832021
774.703291	0.841076
775.028135	0.840899
775.352932	0.841814
775.677683	0.845057
776.002388	0.845726
776.327046	0.844305
776.651658	0.847671
776.976224	0.851489
777.300743	0.851437
777.625216	0.854015
777.949643	0.856251
778.274024	0.855881
778.598359	0.857865
778.922647	0.855584
779.246889	0.856258
779.571086	0.860364
779.895236	0.863112
780.219339	0.859391
780.543397	0.856830
780.867409	0.855918
781.191374	0.857469
781.515294	0.859168
781.839167	0.857212
782.162995	0.861722
782.486776	0.858825
782.810511	0.858891
783.134201	0.863225
783.457844	0.860705
783.781441	0.864111
784.104993	0.868392
784.428498	0.870079
784.751958	0.866509
785.075372	0.867710
785.398739	0.870862
785.722061	0.867899
786.045337	0.863437
786.368568	0.868825
786.691752	0.870823
787.014891	0.856595
787.337983	0.847992
787.661030	0.838803
787.984031	0.822676
788.306987	0.808542
788.629897	0.812094
788.952760	0.814948
789.275579	0.819839
789.598351	0.835465
789.921078	0.848667
790.243759	0.850787
790.566395	0.855683
790.888984	0.863093
791.211529	0.867425
791.534027	0.871039
791.856480	0.872829
792.178888	0.877787
792.501249	0.881309
792.823566	0.881191
793.145836	0.881723
793.468062	0.884300
793.790241	0.884227
794.112375	0.882998
794.434464	0.878362
794.756507	0.876061
795.078505	0.876103
795.400457	0.871270
795.722364	0.859746
796.044226	0.851857
796.366042	0.851353
796.687812	0.853577
797.009538	0.850578
797.331218	0.852755
797.652852	0.858461
797.974442	0.863892
798.295986	0.863472
798.617484	0.865638
798.938938	0.870918
799.260346	0.876110
799.581709	0.876698
799.903026	0.879341
800.224299	0.878867
800.545526	0.884727
800.866708	0.887214
801.187845	0.891571
801.508936	0.891242
801.829983	0.888923
802.150984	0.891032
802.471940	0.896919
802.792851	0.896214
803.113717	0.897000
803.434538	0.894909
803.755314	0.897784
804.076045	0.899272
804.396731	0.899709
804.717372	0.899100
805.037967	0.901285
805.358518	0.898473
805.679024	0.895636
805.999485	0.895948
806.319901	0.896373
806.640272	0.897471
806.960598	0.896490
807.280879	0.892442
807.601115	0.891042
807.921306	0.894929
808.241453	0.895273
808.561554	0.892603
808.881611	0.892854
809.201623	0.895362
809.521590	0.895111
809.841513	0.896213
810.161390	0.895311
810.481223	0.897384
810.801011	0.900448
811.120755	0.902027
811.440453	0.900147
811.760107	0.899566
812.079716	0.900109
812.399281	0.903666
812.718801	0.905385
813.038276	0.905520
813.357707	0.905701
813.677093	0.902946
813.996434	0.905891
814.315731	0.907722
814.634983	0.909106
814.954191	0.906958
815.273354	0.903800
815.592473	0.899092
815.911547	0.900652
816.230577	0.897960
816.549562	0.894810
816.868502	0.896581
817.187399	0.891707
817.506250	0.886785
817.825058	0.888119
818.143821	0.885805
818.462539	0.880154
818.781213	0.871814
819.099843	0.860669
819.418429	0.844808
819.736970	0.828133
820.055466	0.808129
820.373919	0.781806
820.692327	0.748963
821.010691	0.713401
821.329011	0.635780
821.647286	0.518189
821.965517	0.403339
822.283704	0.360612
822.601847	0.361349
822.919945	0.397148
823.237999	0.431420
823.556010	0.479272
823.873976	0.535468
824.191897	0.586813
824.509775	0.629893
824.827609	0.676028
825.145398	0.697917
825.463144	0.701394
825.780845	0.684021
826.098502	0.664813
826.416116	0.619658
826.733685	0.573918
827.051210	0.565109
827.368692	0.579999
827.686129	0.618352
828.003522	0.671956
828.320872	0.721124
828.638177	0.763910
828.955439	0.797097
829.272656	0.819118
829.589830	0.837662
829.906960	0.853084
830.224046	0.865404
830.541088	0.876367
830.858086	0.880677
831.175041	0.885781
831.491952	0.885355
831.808819	0.882530
832.125642	0.874975
832.442421	0.860306
832.759157	0.838370
833.075849	0.791291
833.392497	0.727006
833.709101	0.686384
834.025662	0.695382
834.342179	0.727829
834.658653	0.766604
834.975083	0.803006
835.291469	0.829139
835.607811	0.853889
835.924110	0.868139
836.240366	0.886903
836.556578	0.900083
836.872746	0.906986
837.188871	0.913498
837.504952	0.919702
837.820990	0.922313
838.136984	0.926066
838.452935	0.928859
838.768842	0.930627
839.084706	0.923695
839.400526	0.898103
839.716303	0.857457
840.032037	0.834257
840.347727	0.838143
840.663373	0.856756
840.978977	0.878168
841.294537	0.900306
841.610054	0.917119
841.925527	0.924227
842.240957	0.932250
842.556344	0.938856
842.871687	0.945082
843.186987	0.950066
843.502244	0.950006
843.817458	0.951039
844.132629	0.955220
844.447756	0.959876
844.762840	0.960147
845.077881	0.959374
845.392879	0.959545
845.707833	0.962764
846.022745	0.964509
846.337613	0.964171
846.652438	0.964967
846.967221	0.964917
847.281960	0.965050
847.596656	0.966679
847.911309	0.965398
848.225919	0.966586
848.540485	0.967535
848.855009	0.969740
849.169490	0.967908
849.483928	0.968339
849.798323	0.969209
850.112675	0.970240
850.426984	0.969169
850.741251	0.969032
851.055474	0.971015
851.369654	0.967379
851.683792	0.968723
851.997887	0.970735
852.311938	0.970878
852.625947	0.969679
852.939914	0.967274
853.253837	0.968943
853.567718	0.971069
853.881555	0.969788
854.195350	0.968108
854.509103	0.969227
854.822812	0.969429
855.136479	0.969810
855.450103	0.968976
855.763685	0.966929
856.077224	0.968306
856.390720	0.970628
856.704173	0.969746
857.017584	0.968313
857.330953	0.966785
857.644278	0.967852
857.957561	0.968079
858.270802	0.968475
858.584000	0.966933
858.897155	0.967332
859.210268	0.967021
859.523339	0.967907
859.836367	0.969606
860.149352	0.971274
860.462295	0.969543
860.775195	0.969349
861.088054	0.969129
861.400869	0.968986
861.713642	0.970557
862.026373	0.969877
862.339062	0.970416
862.651708	0.967096
862.964312	0.967388
863.276873	0.969635
863.589392	0.967814
863.901869	0.965834
864.214303	0.964120
864.526696	0.963996
864.839045	0.962867
865.151353	0.961712
865.463619	0.961918
865.775842	0.963003
866.088023	0.961746
866.400162	0.962532
866.712258	0.961979
867.024313	0.962358
867.336325	0.963887
867.648296	0.963269
867.960224	0.961987
868.272110	0.961339
868.583954	0.962937
868.895755	0.962700
869.207515	0.961317
869.519233	0.958229
869.830909	0.961401
870.142542	0.961600
870.454134	0.960810
870.765684	0.961383
871.077191	0.957413
871.388657	0.958238
871.700081	0.957661
872.011463	0.957962
872.322803	0.957995
872.634101	0.957254
872.945357	0.953226
873.256571	0.953287
873.567744	0.952707
873.878874	0.952614
874.189963	0.951328
874.501010	0.950969
874.812015	0.949456
875.122979	0.951164
875.433900	0.952492
875.744780	0.953166
876.055618	0.949891
876.366415	0.949282
876.677169	0.948502
876.987882	0.951031
877.298554	0.950803
877.609183	0.947317
877.919771	0.943825
878.230317	0.941112
878.540822	0.939493
878.851285	0.933618
879.161707	0.925714
879.472087	0.912497
879.782425	0.897022
880.092722	0.861148
880.402977	0.809115
880.713191	0.747447
881.023363	0.686388
881.333494	0.651317
881.643583	0.623581
881.953631	0.623960
882.263637	0.651770
882.573602	0.691875
882.883526	0.717712
883.193408	0.742308
883.503248	0.766044
883.813048	0.793875
884.122806	0.823928
884.432522	0.847960
884.742197	0.866818
885.051831	0.877857
885.361424	0.889749
885.670975	0.900755
885.980485	0.912972
886.289954	0.918935
886.599382	0.922925
886.908768	0.926687
887.218113	0.933374
887.527417	0.938133
887.836680	0.941864
888.145901	0.941656
888.455082	0.944016
888.764221	0.950183
889.073319	0.952770
889.382376	0.952094
889.691392	0.951285
890.000366	0.951395
890.309300	0.951906
890.618193	0.951827
890.927044	0.950101
891.235855	0.950668
891.544625	0.949952
891.853353	0.950863
892.162041	0.947767
892.470687	0.941264
892.779293	0.937660
893.087858	0.932273
893.396381	0.924705
893.704864	0.910376
894.013306	0.886481
894.321707	0.858773
894.630068	0.844209
894.938387	0.839866
895.246665	0.840232
895.554903	0.853708
895.863100	0.867496
896.171256	0.884480
896.479371	0.903964
896.787446	0.916774
897.095480	0.923356
897.403473	0.927020
897.711425	0.930932
898.019336	0.938083
898.327207	0.941392
898.635038	0.943719
898.942827	0.943851
899.250576	0.947343
899.558284	0.950488
899.865952	0.953075
900.173579	0.953973
900.481165	0.954260
900.788711	0.959040
901.096216	0.960607
901.403681	0.960221
901.711105	0.962388
902.018489	0.963940
902.325832	0.961467
902.633135	0.960644
902.940397	0.955027
903.247619	0.942428
903.554800	0.916260
903.861941	0.875541
904.169041	0.839275
904.476101	0.821261
904.783121	0.821708
905.090100	0.839019
905.397039	0.859366
905.703938	0.883047
906.010796	0.903554
906.317614	0.920092
906.624391	0.932777
906.931129	0.941976
907.237826	0.950801
907.544483	0.958087
907.851099	0.962240
908.157675	0.966781
908.464211	0.969616
908.770707	0.971566
909.077163	0.973218
909.383578	0.973555
909.689954	0.973928
909.996289	0.974569
910.302584	0.976918
910.608839	0.978916
910.915054	0.978081
911.221229	0.977151
911.527363	0.976778
911.833458	0.976612
912.139513	0.976493
912.445527	0.974393
912.751502	0.973216
913.057436	0.970522
913.363331	0.968667
913.669186	0.966234
913.975000	0.959917
914.280775	0.953533
914.586510	0.947032
914.892205	0.933305
915.197859	0.911194
915.503475	0.883450
915.809050	0.863240
916.114585	0.856378
916.420081	0.854161
916.725536	0.851754
917.030952	0.859596
917.336328	0.872854
917.641665	0.888932
917.946961	0.904162
918.252218	0.916172
918.557435	0.925212
918.862612	0.934242
919.167750	0.939597
919.472848	0.945519
919.777906	0.950885
920.082925	0.956886
920.387904	0.960307
920.692843	0.961576
920.997743	0.962722
921.302603	0.967177
921.607423	0.968947
921.912204	0.970037
922.216946	0.971758
922.521647	0.972921
922.826310	0.973855
923.130932	0.976480
923.435516	0.977612
923.740059	0.978877
924.044564	0.977518
924.349028	0.979865
924.653454	0.981270
924.957840	0.984184
925.262186	0.984649
925.566493	0.983587
925.870761	0.985224
926.174989	0.985695
926.479178	0.986929
926.783328	0.988794
927.087438	0.988698
927.391509	0.987693
927.695541	0.989824
927.999533	0.988668
928.303486	0.989964
928.607400	0.991048
928.911275	0.988426
929.215110	0.990086
929.518906	0.989087
929.822663	0.988984
930.126381	0.990646
930.430060	0.990352
930.733699	0.989340
931.037299	0.990169
931.340861	0.990830
931.644383	0.987918
931.947866	0.989673
932.251309	0.991344
932.554714	0.990980
932.858080	0.990430
933.161407	0.990616
933.464694	0.990820
933.767943	0.987936
934.071153	0.990211
934.374323	0.991833
934.677455	0.991283
934.980548	0.992642
935.283602	0.991332
935.586617	0.991361
935.889593	0.990517
936.192530	0.990975
936.495428	0.990108
936.798287	0.989907
937.101108	0.990541
937.403890	0.988855
937.706632	0.989013
938.009336	0.987011
938.312002	0.985941
938.614628	0.984024
938.917216	0.982838
939.219765	0.981971
939.522275	0.982731
939.824747	0.983015
940.127179	0.983009
940.429573	0.984958
940.731929	0.983794
941.034246	0.983797
941.336524	0.984562
941.638763	0.985355
941.940964	0.986090
942.243126	0.985034
942.545250	0.987104
942.847335	0.987933
943.149381	0.988498
943.451389	0.988378
943.753359	0.988448
944.055290	0.990098
944.357182	0.989343
944.659036	0.989138
944.960851	0.988858
945.262628	0.989309
945.564367	0.989199
945.866067	0.990121
946.167729	0.990019
946.469352	0.989936
946.770937	0.987192
947.072484	0.990623
947.373992	0.989292
947.675462	0.990344
947.976893	0.990832
948.278286	0.989086
948.579641	0.991540
948.880958	0.990730
949.182236	0.990379
949.483476	0.991166
949.784678	0.989178
950.085841	0.990853
950.386967	0.990948
950.688054	0.991875
950.989103	0.991091
951.290114	0.989564
951.591087	0.988976
951.892021	0.989275
952.192917	0.987585
952.493776	0.987753
952.794596	0.988147
953.095378	0.987319
953.396122	0.987697
953.696828	0.987242
953.997496	0.990706
954.298126	0.991246
954.598718	0.990622
954.899272	0.990508
955.199788	0.989896
955.500266	0.991421
955.800706	0.992669
956.101108	0.992850
956.401472	0.992779
956.701798	0.993010
957.002087	0.993859
957.302337	0.993092
957.602550	0.995039
957.902724	0.995241
958.202861	0.995367
958.502960	0.995612
958.803022	0.993946
959.103045	0.996239
959.403031	0.995985
959.702979	0.995715
960.002889	0.995048
960.302762	0.994251
960.602596	0.995451
960.902393	0.994033
961.202153	0.996055
961.501875	0.996763
961.801559	0.995553
962.101205	0.996117
962.400814	0.996570
962.700385	0.997293
962.999918	0.996766
963.299414	0.996135
963.598873	0.996074
963.898293	0.997085
964.197677	0.996672
964.497022	0.995392
964.796331	0.997657
965.095601	0.997745
965.394835	0.996293
965.694030	0.996046
965.993189	0.997551
966.292309	0.998197
966.591393	0.997631
966.890439	0.997439
967.189447	0.996804
967.488419	0.997127
967.787353	0.996731
968.086249	0.996083
968.385108	0.996167
968.683930	0.997356
968.982714	0.997830
969.281462	0.997669
969.580172	0.997442
969.878844	0.997445
970.177480	0.997521
970.476078	0.997376
970.774639	0.997539
971.073162	0.997402
971.371649	0.996709
971.670098	0.996060
971.968510	0.997780
972.266885	0.995977
972.565223	0.996054
972.863524	0.996148
973.161788	0.996010
973.460014	0.996891
973.758204	0.994861
974.056356	0.997039
974.354471	0.994738
974.652550	0.996039
974.950591	0.996158
975.248595	0.997109
975.546563	0.997528
975.844493	0.999100
976.142386	0.996430
976.440243	0.997229
976.738062	0.996728
977.035845	0.997770
977.333590	0.997503
977.631299	0.998216
977.928971	0.996526
978.226606	0.996110
978.524204	0.996294
978.821765	0.997580
979.119290	0.997185
979.416777	0.997699
979.714228	0.996765
980.011642	0.995520
980.309020	0.997203
980.606360	0.996654
980.903664	0.998635
981.200931	0.996373
981.498162	0.994107
981.795356	0.996166
982.092513	0.994810
982.389633	0.995584
982.686717	0.992273
982.983764	0.990861
983.280775	0.990181
983.577749	0.990618
983.874686	0.991227
984.171587	0.991937
984.468451	0.993805
984.765279	0.993912
985.062070	0.994147
985.358824	0.994042
985.655543	0.995496
985.952224	0.995579
986.248869	0.996216
986.545478	0.996457
986.842050	0.999017
987.138586	0.994957
987.435086	0.997115
987.731549	0.998398
988.027975	0.998172
988.324366	0.997427
988.620719	0.997980
988.917037	0.996245
989.213318	0.996687
989.509563	0.998419
989.805772	0.998745
990.101944	0.998447
990.398080	0.996651
990.694180	0.997344
990.990244	0.998050
991.286271	0.999183
991.582262	0.997017
991.878217	0.999394
992.174136	0.998987
992.470019	0.999516
992.765865	0.997628
993.061676	0.998741
993.357450	0.998156
993.653188	0.996485
993.948890	0.997324
994.244556	0.999370
994.540186	0.997318
994.835780	0.997094
995.131337	0.997971
995.426859	0.996289
995.722345	0.998790
996.017795	0.996939
996.313208	0.995922
996.608586	0.995999
996.903928	0.997139
997.199234	0.995164
997.494504	0.996696
997.789738	0.995672
998.084936	0.996118
998.380099	0.997203
998.675225	0.998900
998.970316	0.997708
999.265371	0.998518
999.560390	0.998073
999.855373	0.999236
1000.150320	0.997639
1000.445232	0.999429
1000.740108	0.997941
1001.034948	0.997658
1001.329752	0.998664
1001.624521	0.998796
1001.919254	0.998164
1002.213951	0.998343
1002.508613	0.998327
1002.803239	0.998477
1003.097829	0.998818
1003.392384	0.999860
1003.686903	0.998457
1003.981386	0.999317
1004.275834	0.998577
1004.570246	0.998347
1004.864623	0.999699
1005.158964	1.000528
1005.453270	0.999282
1005.747540	0.998024
1006.041775	0.999950
1006.335974	0.999108
1006.630138	0.999393
1006.924266	0.999414
1007.218359	1.001235
1007.512416	1.000663
1007.806438	0.999042
1008.100425	1.000040
1008.394376	0.998888
1008.688292	0.998059
1008.982172	1.001302
1009.276017	0.999628
1009.569827	0.999147
1009.863602	0.998460
1010.157341	1.000489
1010.451045	0.999755
1010.744714	0.998916
1011.038347	0.999461
1011.331945	0.999234
1011.625508	0.998539
1011.919036	0.999763
1012.212528	0.999891
1012.505986	0.998067
1012.799408	0.999515
1013.092795	0.999244
1013.386147	0.999559
1013.679464	0.998919
1013.972745	0.997830
1014.265992	0.998599
1014.559204	0.998991
1014.852380	0.998882
1015.145521	0.998982
1015.438628	0.999966
1015.731699	0.998456
1016.024736	0.998608
1016.317737	0.999063
1016.610703	0.999891
1016.903635	1.000038
1017.196531	0.999079
1017.489393	0.999743
1017.782219	0.998664
1018.075011	0.999847
1018.367768	0.998437
1018.660490	1.000272
1018.953177	1.000272
1019.245829	1.000272
