Dividing Wavelength (nm)	Counts (n)	Blue Motor Position (mm): 0.000000	Red Motor Position (mm): 15.600000	
326.493990	1.001994
326.888308	1.001994
327.282561	1.001994
327.676750	1.001267
328.070874	1.000692
328.464933	1.001372
328.858929	0.999988
329.252859	1.000244
329.646726	1.000908
330.040528	1.001079
330.434265	0.999578
330.827938	1.002008
331.221547	1.001958
331.615091	1.000232
332.008571	1.000138
332.401986	1.000343
332.795338	1.001474
333.188625	1.000287
333.581847	1.002173
333.975006	1.000651
334.368100	1.000614
334.761129	1.001139
335.154095	1.001525
335.546996	0.999043
335.939833	0.994407
336.332606	0.993375
336.725315	0.995650
337.117960	0.996146
337.510540	0.995041
337.903056	0.994230
338.295508	0.994334
338.687896	0.994055
339.080220	0.995121
339.472480	0.995097
339.864676	0.994692
340.256807	0.994878
340.648875	0.996082
341.040879	0.994840
341.432818	0.995109
341.824694	0.994211
342.216506	0.995448
342.608253	0.995354
342.999937	0.993859
343.391557	0.994504
343.783113	0.993965
344.174605	0.995048
344.566033	0.994176
344.957397	0.993677
345.348697	0.994458
345.739934	0.994945
346.131106	0.994330
346.522215	0.993484
346.913260	0.993834
347.304241	0.993989
347.695159	0.994467
348.086012	0.994418
348.476802	0.994691
348.867528	0.994797
349.258191	0.992968
349.648789	0.995298
350.039324	0.994212
350.429796	0.995618
350.820203	0.994572
351.210548	0.993687
351.600828	0.993873
351.991045	0.994413
352.381198	0.994452
352.771288	0.993543
353.161314	0.994166
353.551276	0.995429
353.941175	0.994908
354.331010	0.995070
354.720782	0.994718
355.110490	0.994026
355.500135	0.994755
355.889717	0.994405
356.279235	0.993980
356.668689	0.993782
357.058080	0.994782
357.447408	0.994682
357.836672	0.995367
358.225873	0.993842
358.615010	0.995224
359.004084	0.994821
359.393095	0.994912
359.782043	0.993949
360.170927	0.995648
360.559748	0.994493
360.948505	0.994481
361.337199	0.993749
361.725830	0.994478
362.114398	0.994847
362.502903	0.994865
362.891344	0.995428
363.279722	0.994940
363.668037	0.994848
364.056289	0.995396
364.444478	0.995207
364.832603	0.994818
365.220665	0.994137
365.608665	0.994470
365.996601	0.994194
366.384474	0.994672
366.772284	0.994112
367.160031	0.992700
367.547715	0.993144
367.935336	0.994943
368.322893	0.993740
368.710388	0.994209
369.097820	0.993860
369.485189	0.993156
369.872495	0.992942
370.259738	0.993350
370.646918	0.993805
371.034035	0.994495
371.421090	0.993471
371.808081	0.995052
372.195010	0.993480
372.581875	0.994364
372.968678	0.993754
373.355418	0.994185
373.742096	0.994709
374.128710	0.994589
374.515262	0.994430
374.901751	0.994240
375.288177	0.994451
375.674540	0.995095
376.060841	0.993419
376.447079	0.994710
376.833254	0.993342
377.219367	0.993953
377.605417	0.995148
377.991404	0.994362
378.377329	0.992879
378.763191	0.994513
379.148991	0.993888
379.534727	0.994950
379.920402	0.994821
380.306013	0.994076
380.691563	0.995399
381.077049	0.993968
381.462474	0.994302
381.847835	0.994539
382.233134	0.993387
382.618371	0.995125
383.003545	0.993473
383.388657	0.993844
383.773706	0.995195
384.158693	0.994445
384.543618	0.993865
384.928480	0.994217
385.313280	0.994324
385.698017	0.995189
386.082692	0.993841
386.467305	0.994739
386.851856	0.994565
387.236344	0.993590
387.620770	0.993650
388.005133	0.994628
388.389435	0.994797
388.773674	0.995188
389.157851	0.994806
389.541965	0.995049
389.926018	0.994352
390.310008	0.994744
390.693936	0.993933
391.077802	0.994695
391.461606	0.994346
391.845348	0.994779
392.229027	0.995646
392.612645	0.994801
392.996200	0.994687
393.379694	0.993570
393.763125	0.993715
394.146494	0.993652
394.529801	0.992527
394.913047	0.992165
395.296230	0.991901
395.679351	0.990009
396.062410	0.988493
396.445408	0.988020
396.828343	0.986803
397.211217	0.983795
397.594028	0.983859
397.976778	0.979955
398.359466	0.977866
398.742092	0.974703
399.124656	0.971405
399.507158	0.968743
399.889598	0.964868
400.271977	0.960464
400.654294	0.957472
401.036549	0.952423
401.418742	0.947313
401.800874	0.940237
402.182944	0.934784
402.564952	0.927540
402.946898	0.923517
403.328783	0.917128
403.710606	0.912659
404.092367	0.901037
404.474067	0.895860
404.855705	0.887474
405.237282	0.884104
405.618797	0.872443
406.000250	0.863314
406.381642	0.854157
406.762972	0.846384
407.144240	0.838077
407.525447	0.830287
407.906593	0.818788
408.287677	0.808997
408.668700	0.803309
409.049661	0.791313
409.430560	0.781409
409.811399	0.775284
410.192176	0.757903
410.572891	0.752935
410.953545	0.736447
411.334138	0.736331
411.714669	0.724366
412.095139	0.721781
412.475547	0.704661
412.855894	0.696046
413.236180	0.687504
413.616405	0.683452
413.996568	0.669341
414.376670	0.664881
414.756711	0.662142
415.136691	0.651540
415.516609	0.637353
415.896466	0.628758
416.276262	0.617824
416.655997	0.614055
417.035670	0.591394
417.415283	0.579239
417.794834	0.576456
418.174324	0.575592
418.553753	0.577854
418.933121	0.557109
419.312428	0.546171
419.691674	0.545949
420.070859	0.530891
420.449983	0.533667
420.829045	0.520330
421.208047	0.524930
421.586988	0.514717
421.965867	0.510400
422.344686	0.496269
422.723444	0.505496
423.102141	0.518168
423.480777	0.490231
423.859352	0.507492
424.237866	0.482688
424.616319	0.481611
424.994712	0.471301
425.373044	0.479428
425.751314	0.465704
426.129524	0.480619
426.507673	0.464190
426.885762	0.456369
427.263789	0.460249
427.641756	0.468989
428.019662	0.459265
428.397508	0.457102
428.775292	0.460707
429.153016	0.452593
429.530679	0.458232
429.908282	0.451055
430.285824	0.460478
430.663305	0.438991
431.040726	0.458889
431.418086	0.459573
431.795385	0.450787
432.172624	0.448497
432.549802	0.450236
432.926920	0.448876
433.303977	0.448024
433.680974	0.444239
434.057910	0.443034
434.434786	0.442970
434.811601	0.445209
435.188355	0.426917
435.565050	0.436665
435.941683	0.437864
436.318257	0.422523
436.694770	0.422705
437.071222	0.421060
437.447614	0.425299
437.823946	0.432063
438.200218	0.421233
438.576429	0.430784
438.952580	0.423716
439.328670	0.420027
439.704700	0.427555
440.080670	0.428301
440.456580	0.409334
440.832429	0.417160
441.208218	0.427930
441.583947	0.417354
441.959616	0.416504
442.335224	0.421461
442.710773	0.412598
443.086261	0.410777
443.461689	0.424860
443.837057	0.414389
444.212365	0.404580
444.587612	0.411273
444.962800	0.401282
445.337927	0.402514
445.712995	0.428716
446.088002	0.391311
446.462949	0.401393
446.837837	0.406238
447.212664	0.394992
447.587431	0.386275
447.962139	0.357476
448.336786	0.316634
448.711374	0.326980
449.085901	0.370817
449.460369	0.375518
449.834776	0.378596
450.209124	0.358024
450.583412	0.350330
450.957640	0.343557
451.331808	0.354890
451.705917	0.378711
452.079965	0.383017
452.453954	0.370916
452.827883	0.378020
453.201752	0.372837
453.575562	0.384232
453.949311	0.372848
454.323001	0.378650
454.696632	0.374272
455.070202	0.367264
455.443713	0.359086
455.817164	0.353964
456.190556	0.349848
456.563888	0.346492
456.937160	0.344315
457.310373	0.361279
457.683526	0.360051
458.056619	0.366006
458.429653	0.366975
458.802628	0.369886
459.175542	0.364099
459.548398	0.347161
459.921194	0.339424
460.293930	0.339615
460.666607	0.316709
461.039224	0.305287
461.411782	0.301185
461.784280	0.300408
462.156719	0.304605
462.529099	0.309243
462.901419	0.324959
463.273680	0.329324
463.645882	0.328587
464.018024	0.334607
464.390106	0.327697
464.762130	0.312483
465.134094	0.295504
465.505999	0.264820
465.877845	0.235351
466.249631	0.222313
466.621358	0.229766
466.993026	0.243475
467.364634	0.249950
467.736184	0.258448
468.107674	0.267096
468.479105	0.266404
468.850477	0.272848
469.221790	0.279826
469.593043	0.290300
469.964238	0.295058
470.335373	0.294516
470.706449	0.292684
471.077467	0.293163
471.448425	0.255480
471.819324	0.231173
472.190164	0.230624
472.560945	0.258851
472.931667	0.281792
473.302330	0.285750
473.672934	0.297417
474.043479	0.285659
474.413965	0.287251
474.784393	0.290759
475.154761	0.286154
475.525070	0.282951
475.895321	0.288637
476.265513	0.283114
476.635645	0.278430
477.005719	0.278469
477.375734	0.274733
477.745691	0.268226
478.115588	0.264639
478.485427	0.258371
478.855207	0.244857
479.224928	0.227719
479.594591	0.215938
479.964194	0.219164
480.333739	0.220384
480.703226	0.222099
481.072653	0.220418
481.442022	0.215983
481.811333	0.212284
482.180584	0.215991
482.549777	0.220994
482.918912	0.224527
483.287988	0.224258
483.657005	0.223737
484.025964	0.230272
484.394864	0.227577
484.763706	0.228175
485.132489	0.232909
485.501213	0.233841
485.869879	0.232083
486.238487	0.235737
486.607036	0.233437
486.975527	0.237827
487.343959	0.234203
487.712333	0.232605
488.080648	0.234280
488.448905	0.233350
488.817104	0.234840
489.185244	0.229195
489.553326	0.226333
489.921350	0.215887
490.289315	0.198494
490.657222	0.193453
491.025070	0.194930
491.392861	0.196636
491.760593	0.202381
492.128267	0.207926
492.495883	0.213703
492.863440	0.219936
493.230939	0.226069
493.598380	0.227322
493.965763	0.229660
494.333088	0.232173
494.700354	0.233132
495.067563	0.232388
495.434713	0.235601
495.801805	0.233675
496.168839	0.235329
496.535815	0.236444
496.902733	0.236475
497.269593	0.238179
497.636395	0.235895
498.003139	0.235831
498.369825	0.239097
498.736453	0.235619
499.103023	0.237001
499.469535	0.236702
499.835989	0.236650
500.202385	0.237516
500.568723	0.240952
500.935003	0.235979
501.301226	0.240153
501.667390	0.234515
502.033497	0.232758
502.399546	0.235683
502.765537	0.237561
503.131470	0.235988
503.497345	0.231928
503.863163	0.241047
504.228923	0.234019
504.594625	0.232565
504.960269	0.238093
505.325856	0.233490
505.691385	0.237537
506.056856	0.234069
506.422270	0.233800
506.787625	0.236077
507.152924	0.233399
507.518164	0.233960
507.883347	0.235679
508.248472	0.237338
508.613540	0.232461
508.978550	0.235090
509.343503	0.235420
509.708398	0.233046
510.073236	0.230782
510.438016	0.230740
510.802738	0.231639
511.167403	0.230660
511.532010	0.232598
511.896561	0.228140
512.261053	0.226724
512.625488	0.229219
512.989866	0.229031
513.354186	0.229459
513.718449	0.231383
514.082655	0.227610
514.446803	0.230057
514.810894	0.227519
515.174927	0.230262
515.538904	0.229696
515.902822	0.226620
516.266684	0.229079
516.630488	0.230198
516.994235	0.228702
517.357925	0.227790
517.721558	0.225777
518.085133	0.225281
518.448651	0.225678
518.812112	0.227935
519.175516	0.227596
519.538863	0.225100
519.902152	0.226715
520.265385	0.223457
520.628560	0.225113
520.991678	0.225631
521.354739	0.224806
521.717743	0.225816
522.080690	0.226341
522.443580	0.223685
522.806413	0.224677
523.169189	0.223941
523.531908	0.222653
523.894569	0.226451
524.257174	0.226257
524.619722	0.223878
524.982213	0.225165
525.344647	0.224041
525.707025	0.225090
526.069345	0.223200
526.431608	0.224822
526.793815	0.222491
527.155964	0.226863
527.518057	0.225791
527.880093	0.226551
528.242072	0.225202
528.603995	0.227011
528.965860	0.228812
529.327669	0.227700
529.689421	0.228448
530.051117	0.229376
530.412755	0.227110
530.774337	0.229615
531.135862	0.229614
531.497331	0.229141
531.858743	0.231979
532.220098	0.228826
532.581396	0.231359
532.942638	0.231656
533.303824	0.232529
533.664953	0.232406
534.026025	0.234020
534.387040	0.232161
534.747999	0.232094
535.108902	0.231200
535.469748	0.235924
535.830537	0.233741
536.191270	0.234174
536.551947	0.233709
536.912567	0.233609
537.273131	0.235400
537.633638	0.235718
537.994089	0.236080
538.354483	0.237329
538.714821	0.234069
539.075103	0.233656
539.435328	0.234603
539.795497	0.238371
540.155609	0.235075
540.515665	0.232935
540.875665	0.238972
541.235609	0.237185
541.595496	0.237452
541.955328	0.233662
542.315102	0.236598
542.674821	0.237318
543.034483	0.237557
543.394090	0.237444
543.753640	0.238916
544.113134	0.233933
544.472571	0.237462
544.831953	0.234302
545.191278	0.238538
545.550548	0.237764
545.909761	0.234720
546.268918	0.235461
546.628019	0.233995
546.987064	0.236535
547.346053	0.238201
547.704986	0.236223
548.063863	0.236290
548.422684	0.236504
548.781449	0.238624
549.140158	0.236298
549.498811	0.238941
549.857408	0.242244
550.215949	0.236688
550.574434	0.239953
550.932864	0.237725
551.291237	0.236384
551.649555	0.238125
552.007817	0.237756
552.366022	0.238232
552.724173	0.238652
553.082267	0.239308
553.440305	0.236046
553.798288	0.240528
554.156215	0.237077
554.514086	0.237338
554.871902	0.240521
555.229661	0.239965
555.587365	0.240631
555.945014	0.242865
556.302606	0.239858
556.660143	0.242624
557.017625	0.238874
557.375050	0.241356
557.732421	0.238287
558.089735	0.240206
558.446994	0.240093
558.804197	0.239643
559.161345	0.239439
559.518437	0.242775
559.875474	0.240508
560.232455	0.239975
560.589381	0.241268
560.946251	0.241316
561.303065	0.238693
561.659825	0.240307
562.016528	0.241901
562.373177	0.244712
562.729770	0.241988
563.086307	0.244111
563.442789	0.241789
563.799216	0.244623
564.155587	0.243542
564.511904	0.244501
564.868164	0.244810
565.224370	0.244261
565.580520	0.246197
565.936615	0.246152
566.292654	0.248955
566.648638	0.246036
567.004567	0.246815
567.360441	0.247561
567.716260	0.249305
568.072023	0.247533
568.427732	0.247931
568.783385	0.250695
569.138982	0.248630
569.494525	0.248160
569.850013	0.250926
570.205445	0.249624
570.560823	0.252127
570.916145	0.254271
571.271412	0.252181
571.626625	0.253939
571.981782	0.254000
572.336884	0.255204
572.691931	0.254809
573.046923	0.255895
573.401860	0.257480
573.756743	0.258920
574.111570	0.257868
574.466342	0.258311
574.821059	0.257586
575.175722	0.260455
575.530330	0.260282
575.884882	0.260175
576.239380	0.262413
576.593823	0.262709
576.948211	0.262192
577.302544	0.265628
577.656823	0.265298
578.011047	0.265098
578.365216	0.265956
578.719330	0.268227
579.073389	0.267923
579.427394	0.269011
579.781344	0.270209
580.135239	0.271405
580.489080	0.271034
580.842866	0.273954
581.196597	0.273775
581.550273	0.272477
581.903895	0.273415
582.257463	0.271444
582.610975	0.275201
582.964434	0.274368
583.317837	0.276993
583.671186	0.276970
584.024481	0.276952
584.377721	0.279718
584.730906	0.280519
585.084037	0.279628
585.437113	0.281761
585.790135	0.280871
586.143103	0.283646
586.496016	0.284820
586.848874	0.282474
587.201679	0.283066
587.554428	0.286467
587.907124	0.284910
588.259765	0.285678
588.612352	0.286466
588.964884	0.290218
589.317362	0.289726
589.669786	0.289477
590.022155	0.288232
590.374470	0.287562
590.726731	0.289643
591.078937	0.294444
591.431090	0.290804
591.783188	0.294883
592.135232	0.295496
592.487222	0.295290
592.839157	0.293438
593.191038	0.295800
593.542866	0.297616
593.894639	0.301167
594.246358	0.299381
594.598022	0.298481
594.949633	0.302618
595.301190	0.303045
595.652692	0.302619
596.004141	0.298249
596.355535	0.306885
596.706876	0.306908
597.058162	0.309406
597.409395	0.306480
597.760573	0.304452
598.111698	0.307828
598.462768	0.308020
598.813785	0.309583
599.164748	0.310778
599.515657	0.310946
599.866511	0.314451
600.217312	0.309701
600.568060	0.315014
600.918753	0.310960
601.269392	0.311890
601.619978	0.315505
601.970510	0.312995
602.320988	0.313233
602.671412	0.310829
603.021783	0.313796
603.372100	0.315080
603.722363	0.314405
604.072572	0.315064
604.422728	0.315094
604.772830	0.317200
605.122878	0.316831
605.472872	0.317274
605.822813	0.315715
606.172701	0.318635
606.522534	0.315608
606.872314	0.315831
607.222041	0.316787
607.571714	0.314928
607.921333	0.315824
608.270899	0.315747
608.620411	0.312604
608.969870	0.316761
609.319276	0.316707
609.668627	0.316691
610.017926	0.314950
610.367171	0.313857
610.716362	0.314313
611.065500	0.314702
611.414585	0.313578
611.763616	0.313659
612.112594	0.314337
612.461518	0.313810
612.810389	0.311639
613.159207	0.314101
613.507971	0.315791
613.856682	0.311360
614.205340	0.312960
614.553945	0.309584
614.902496	0.313818
615.250994	0.311536
615.599439	0.312485
615.947830	0.311707
616.296169	0.312661
616.644454	0.312439
616.992686	0.312437
617.340864	0.310266
617.688990	0.313636
618.037063	0.310481
618.385082	0.312063
618.733048	0.309386
619.080961	0.311705
619.428821	0.311179
619.776628	0.310435
620.124382	0.312601
620.472083	0.312647
620.819731	0.312267
621.167326	0.316345
621.514868	0.315508
621.862357	0.320082
622.209793	0.319530
622.557176	0.321837
622.904506	0.323082
623.251783	0.325524
623.599007	0.327544
623.946179	0.327172
624.293297	0.329022
624.640363	0.332605
624.987376	0.333758
625.334336	0.336204
625.681243	0.338269
626.028097	0.338486
626.374899	0.340006
626.721647	0.339955
627.068343	0.343391
627.414987	0.344055
627.761577	0.346956
628.108115	0.344835
628.454600	0.349826
628.801032	0.347548
629.147412	0.349639
629.493739	0.349904
629.840014	0.352751
630.186236	0.350416
630.532405	0.355912
630.878521	0.353389
631.224585	0.355414
631.570597	0.359112
631.916556	0.357586
632.262462	0.358043
632.608316	0.359653
632.954117	0.360668
633.299866	0.361183
633.645562	0.361445
633.991206	0.365963
634.336797	0.369294
634.682336	0.371596
635.027823	0.373038
635.373257	0.374036
635.718639	0.377621
636.063968	0.376408
636.409245	0.382232
636.754470	0.382340
637.099642	0.385112
637.444762	0.388587
637.789829	0.387511
638.134845	0.390784
638.479808	0.391893
638.824719	0.391795
639.169577	0.395794
639.514383	0.394469
639.859137	0.398855
640.203839	0.398773
640.548489	0.399198
640.893086	0.400635
641.237632	0.401583
641.582125	0.400868
641.926566	0.402247
642.270955	0.402155
642.615292	0.402761
642.959576	0.402261
643.303809	0.402145
643.647990	0.401946
643.992118	0.402402
644.336195	0.405905
644.680219	0.404751
645.024192	0.405129
645.368112	0.398507
645.711981	0.397265
646.055797	0.392955
646.399562	0.395784
646.743274	0.387517
647.086935	0.384508
647.430544	0.384992
647.774101	0.384266
648.117606	0.383800
648.461059	0.383765
648.804460	0.385732
649.147810	0.392090
649.491108	0.393592
649.834354	0.395249
650.177548	0.400256
650.520690	0.405490
650.863781	0.407149
651.206820	0.406429
651.549807	0.410857
651.892742	0.414596
652.235626	0.414024
652.578458	0.415374
652.921238	0.421598
653.263967	0.418915
653.606644	0.422809
653.949269	0.422658
654.291843	0.426857
654.634365	0.423149
654.976836	0.426709
655.319255	0.426987
655.661622	0.428313
656.003938	0.428980
656.346203	0.431716
656.688416	0.429349
657.030577	0.432961
657.372687	0.434690
657.714746	0.435641
658.056753	0.432473
658.398708	0.436504
658.740612	0.437695
659.082465	0.433492
659.424266	0.433956
659.766016	0.433537
660.107715	0.436118
660.449362	0.434797
660.790958	0.435836
661.132503	0.436341
661.473996	0.434174
661.815438	0.434741
662.156829	0.435495
662.498168	0.435923
662.839456	0.437250
663.180693	0.435267
663.521879	0.434627
663.863013	0.435758
664.204097	0.434268
664.545129	0.431903
664.886110	0.431637
665.227040	0.428655
665.567918	0.431761
665.908746	0.428967
666.249522	0.429175
666.590248	0.430605
666.930922	0.428403
667.271545	0.426747
667.612118	0.427445
667.952639	0.429019
668.293109	0.427559
668.633528	0.430516
668.973896	0.429866
669.314213	0.430682
669.654480	0.432768
669.994695	0.432723
670.334859	0.433242
670.674973	0.433506
671.015035	0.433752
671.355047	0.433494
671.695008	0.434732
672.034918	0.437426
672.374777	0.436199
672.714585	0.437309
673.054342	0.436775
673.394049	0.437099
673.733705	0.434724
674.073310	0.435744
674.412864	0.439136
674.752368	0.439432
675.091820	0.439764
675.431223	0.444385
675.770574	0.443911
676.109875	0.446861
676.449125	0.447329
676.788324	0.449776
677.127473	0.454693
677.466571	0.454403
677.805619	0.456522
678.144616	0.457363
678.483562	0.459033
678.822458	0.461854
679.161303	0.462619
679.500098	0.462400
679.838842	0.464483
680.177535	0.463998
680.516179	0.462441
680.854771	0.461696
681.193314	0.455551
681.531805	0.446284
681.870247	0.435005
682.208638	0.427560
682.546978	0.426298
682.885268	0.428361
683.223508	0.434876
683.561697	0.438715
683.899836	0.441086
684.237925	0.444024
684.575963	0.446470
684.913951	0.449730
685.251889	0.445765
685.589776	0.447829
685.927614	0.450390
686.265401	0.444323
686.603137	0.445647
686.940824	0.440122
687.278460	0.437797
687.616046	0.437631
687.953582	0.432103
688.291068	0.433551
688.628504	0.429674
688.965889	0.431947
689.303224	0.435712
689.640510	0.439178
689.977745	0.445598
690.314930	0.453056
690.652065	0.458201
690.989150	0.465645
691.326185	0.472213
691.663170	0.476471
692.000105	0.483827
692.336990	0.490857
692.673825	0.493127
693.010610	0.500273
693.347345	0.505592
693.684030	0.506929
694.020665	0.511598
694.357251	0.520971
694.693786	0.520460
695.030272	0.524199
695.366707	0.527908
695.703093	0.531139
696.039429	0.529189
696.375716	0.530800
696.711952	0.533298
697.048139	0.535568
697.384276	0.537000
697.720363	0.535162
698.056400	0.535333
698.392388	0.540217
698.728326	0.543424
699.064214	0.545983
699.400053	0.546486
699.735842	0.549879
700.071581	0.553210
700.407270	0.555769
700.742910	0.559052
701.078501	0.564995
701.414042	0.565850
701.749533	0.568764
702.084974	0.577378
702.420366	0.569989
702.755709	0.577499
703.091002	0.584547
703.426246	0.578270
703.761440	0.584131
704.096584	0.589349
704.431679	0.586778
704.766725	0.588539
705.101721	0.590232
705.436668	0.586412
705.771565	0.592751
706.106413	0.590538
706.441212	0.585405
706.775961	0.583571
707.110661	0.586745
707.445311	0.582989
707.779913	0.580207
708.114465	0.578920
708.448967	0.575512
708.783421	0.567213
709.117825	0.562336
709.452180	0.562670
709.786485	0.555842
710.120742	0.545549
710.454949	0.547470
710.789107	0.539662
711.123216	0.530724
711.457275	0.532348
711.791286	0.523290
712.125247	0.522368
712.459159	0.532843
712.793023	0.524937
713.126837	0.530091
713.460602	0.530469
713.794318	0.539370
714.127985	0.538753
714.461602	0.548547
714.795171	0.551615
715.128691	0.559816
715.462162	0.567583
715.795584	0.572681
716.128957	0.575918
716.462281	0.581910
716.795556	0.585889
717.128782	0.590763
717.461960	0.600189
717.795088	0.598481
718.128167	0.604502
718.461198	0.613752
718.794180	0.613956
719.127113	0.616520
719.459997	0.620204
719.792833	0.626573
720.125619	0.627523
720.458357	0.634830
720.791046	0.633153
721.123686	0.637012
721.456278	0.643635
721.788821	0.641542
722.121315	0.645074
722.453761	0.649686
722.786158	0.647177
723.118506	0.643432
723.450805	0.651913
723.783056	0.647746
724.115259	0.644556
724.447412	0.644935
724.779518	0.646052
725.111574	0.645698
725.443582	0.640398
725.775542	0.642371
726.107453	0.634330
726.439315	0.635302
726.771129	0.633193
727.102895	0.626278
727.434612	0.618766
727.766281	0.616924
728.097901	0.616652
728.429473	0.615744
728.760996	0.614569
729.092471	0.614462
729.423897	0.618711
729.755276	0.617033
730.086606	0.617276
730.417887	0.612413
730.749120	0.602861
731.080305	0.593590
731.411442	0.589648
731.742530	0.594664
732.073570	0.594041
732.404562	0.585998
732.735506	0.587485
733.066401	0.592248
733.397249	0.601068
733.728048	0.612714
734.058798	0.625203
734.389501	0.636505
734.720156	0.646230
735.050762	0.653752
735.381320	0.655301
735.711831	0.663966
736.042293	0.669395
736.372707	0.664122
736.703073	0.669679
737.033391	0.672602
737.363661	0.668756
737.693883	0.664113
738.024056	0.662807
738.354182	0.663437
738.684260	0.652522
739.014290	0.647955
739.344272	0.649911
739.674207	0.642467
740.004093	0.642556
740.333931	0.642596
740.663722	0.642440
740.993464	0.643714
741.323159	0.646120
741.652806	0.651468
741.982405	0.656528
742.311956	0.661406
742.641460	0.663220
742.970915	0.667305
743.300323	0.674923
743.629683	0.681145
743.958996	0.683363
744.288260	0.687690
744.617477	0.694081
744.946647	0.695379
745.275768	0.700074
745.604842	0.700248
745.933869	0.710073
746.262847	0.710938
746.591778	0.704398
746.920662	0.710729
747.249498	0.716886
747.578286	0.708200
747.907027	0.704254
748.235720	0.704854
748.564365	0.699699
748.892963	0.700154
749.221514	0.703057
749.550017	0.708381
749.878473	0.707892
750.206881	0.713983
750.535242	0.715488
750.863555	0.715386
751.191821	0.715929
751.520039	0.718382
751.848210	0.724601
752.176334	0.716538
752.504411	0.716249
752.832440	0.722693
753.160421	0.728053
753.488356	0.726071
753.816243	0.723258
754.144082	0.731083
754.471875	0.735480
754.799620	0.730855
755.127318	0.732237
755.454969	0.731343
755.782572	0.731045
756.110129	0.737150
756.437638	0.738557
756.765100	0.734995
757.092515	0.733559
757.419882	0.731946
757.747203	0.737590
758.074477	0.737157
758.401703	0.733566
758.728882	0.729106
759.056014	0.728143
759.383099	0.727764
759.710138	0.728590
760.037129	0.725305
760.364073	0.718979
760.690970	0.721611
761.017820	0.727020
761.344623	0.723128
761.671379	0.713459
761.998088	0.701586
762.324751	0.679247
762.651366	0.637071
762.977935	0.569695
763.304456	0.517160
763.630931	0.508759
763.957359	0.547122
764.283740	0.592343
764.610074	0.619024
764.936362	0.650801
765.262602	0.676887
765.588796	0.699094
765.914943	0.716122
766.241044	0.735401
766.567097	0.741228
766.893104	0.750910
767.219064	0.756712
767.544978	0.764301
767.870845	0.776858
768.196665	0.781179
768.522438	0.779529
768.848165	0.780475
769.173846	0.789538
769.499479	0.794309
769.825066	0.797664
770.150607	0.802549
770.476101	0.797209
770.801548	0.799017
771.126949	0.811361
771.452303	0.813000
771.777611	0.813306
772.102872	0.812382
772.428087	0.817845
772.753256	0.821361
773.078378	0.823525
773.403453	0.832346
773.728482	0.835799
774.053465	0.829789
774.378401	0.834235
774.703291	0.842157
775.028135	0.841689
775.352932	0.842624
775.677683	0.845689
776.002388	0.846589
776.327046	0.845602
776.651658	0.849162
776.976224	0.852750
777.300743	0.852813
777.625216	0.855080
777.949643	0.856783
778.274024	0.856703
778.598359	0.858411
778.922647	0.857348
779.246889	0.857329
779.571086	0.861348
779.895236	0.863944
780.219339	0.861130
780.543397	0.857681
780.867409	0.855464
781.191374	0.858720
781.515294	0.859935
781.839167	0.859531
782.162995	0.863112
782.486776	0.859372
782.810511	0.860526
783.134201	0.863701
783.457844	0.862231
783.781441	0.863327
784.104993	0.869400
784.428498	0.870266
784.751958	0.866045
785.075372	0.868473
785.398739	0.872593
785.722061	0.869485
786.045337	0.864406
786.368568	0.868294
786.691752	0.872335
787.014891	0.856900
787.337983	0.848200
787.661030	0.840813
787.984031	0.823417
788.306987	0.811004
788.629897	0.812382
788.952760	0.816393
789.275579	0.821182
789.598351	0.836480
789.921078	0.849757
790.243759	0.852010
790.566395	0.856438
790.888984	0.863407
791.211529	0.868098
791.534027	0.871556
791.856480	0.872818
792.178888	0.878775
792.501249	0.881322
792.823566	0.882621
793.145836	0.882491
793.468062	0.884787
793.790241	0.884389
794.112375	0.882513
794.434464	0.877906
794.756507	0.877821
795.078505	0.877284
795.400457	0.871771
795.722364	0.859856
796.044226	0.852778
796.366042	0.851407
796.687812	0.855145
797.009538	0.852131
797.331218	0.854901
797.652852	0.858566
797.974442	0.864167
798.295986	0.864586
798.617484	0.866712
798.938938	0.871335
799.260346	0.876345
799.581709	0.877851
799.903026	0.879820
800.224299	0.880347
800.545526	0.884956
800.866708	0.888788
801.187845	0.892455
801.508936	0.892472
801.829983	0.889655
802.150984	0.892241
802.471940	0.897203
802.792851	0.897859
803.113717	0.898784
803.434538	0.895948
803.755314	0.898820
804.076045	0.899099
804.396731	0.899885
804.717372	0.900150
805.037967	0.901423
805.358518	0.900057
805.679024	0.897157
805.999485	0.897485
806.319901	0.896840
806.640272	0.898058
806.960598	0.896748
807.280879	0.893748
807.601115	0.892190
807.921306	0.895249
808.241453	0.895844
808.561554	0.893595
808.881611	0.895089
809.201623	0.895228
809.521590	0.896551
809.841513	0.897164
810.161390	0.896431
810.481223	0.897364
810.801011	0.901419
811.120755	0.902413
811.440453	0.901616
811.760107	0.900096
812.079716	0.899731
812.399281	0.904452
812.718801	0.906280
813.038276	0.906379
813.357707	0.907135
813.677093	0.904140
813.996434	0.906653
814.315731	0.907937
814.634983	0.909660
814.954191	0.907676
815.273354	0.904942
815.592473	0.900925
815.911547	0.901529
816.230577	0.898413
816.549562	0.895550
816.868502	0.897592
817.187399	0.893103
817.506250	0.887622
817.825058	0.890003
818.143821	0.885575
818.462539	0.881200
818.781213	0.873308
819.099843	0.861491
819.418429	0.845931
819.736970	0.828820
820.055466	0.808971
820.373919	0.784250
820.692327	0.750518
821.010691	0.715473
821.329011	0.637429
821.647286	0.521748
821.965517	0.407832
822.283704	0.365009
822.601847	0.366163
822.919945	0.401664
823.237999	0.435292
823.556010	0.482903
823.873976	0.538811
824.191897	0.589098
824.509775	0.632401
824.827609	0.678471
825.145398	0.699982
825.463144	0.703473
825.780845	0.686257
826.098502	0.667840
826.416116	0.621979
826.733685	0.576856
827.051210	0.568106
827.368692	0.582905
827.686129	0.620731
828.003522	0.674982
828.320872	0.722090
828.638177	0.765181
828.955439	0.799058
829.272656	0.821132
829.589830	0.838607
829.906960	0.854146
830.224046	0.866407
830.541088	0.877661
830.858086	0.880557
831.175041	0.886852
831.491952	0.886689
831.808819	0.883266
832.125642	0.877259
832.442421	0.861845
832.759157	0.839398
833.075849	0.793404
833.392497	0.729524
833.709101	0.688249
834.025662	0.697877
834.342179	0.729611
834.658653	0.769066
834.975083	0.805133
835.291469	0.831695
835.607811	0.853385
835.924110	0.870702
836.240366	0.887393
836.556578	0.901311
836.872746	0.908808
837.188871	0.915005
837.504952	0.919613
837.820990	0.923878
838.136984	0.927323
838.452935	0.930517
838.768842	0.932038
839.084706	0.925224
839.400526	0.899347
839.716303	0.858608
840.032037	0.836541
840.347727	0.839489
840.663373	0.858415
840.978977	0.879245
841.294537	0.902958
841.610054	0.918133
841.925527	0.926401
842.240957	0.933361
842.556344	0.940135
842.871687	0.946138
843.186987	0.949802
843.502244	0.950114
843.817458	0.952736
844.132629	0.955949
844.447756	0.959901
844.762840	0.960734
845.077881	0.960164
845.392879	0.959760
845.707833	0.961798
846.022745	0.965719
846.337613	0.965195
846.652438	0.966398
846.967221	0.965016
847.281960	0.966616
847.596656	0.968431
847.911309	0.966228
848.225919	0.968085
848.540485	0.969569
848.855009	0.969604
849.169490	0.968944
849.483928	0.969082
849.798323	0.969099
850.112675	0.970245
850.426984	0.970488
850.741251	0.971145
851.055474	0.970388
851.369654	0.968627
851.683792	0.969442
851.997887	0.970728
852.311938	0.971285
852.625947	0.970400
852.939914	0.969071
853.253837	0.969846
853.567718	0.971078
853.881555	0.970545
854.195350	0.968830
854.509103	0.970413
854.822812	0.971493
855.136479	0.969996
855.450103	0.970291
855.763685	0.969572
856.077224	0.969106
856.390720	0.970755
856.704173	0.970693
857.017584	0.968219
857.330953	0.967608
857.644278	0.968261
857.957561	0.968864
858.270802	0.967789
858.584000	0.968733
858.897155	0.967850
859.210268	0.967691
859.523339	0.968832
859.836367	0.971653
860.149352	0.970493
860.462295	0.969513
860.775195	0.970510
861.088054	0.968810
861.400869	0.969851
861.713642	0.969823
862.026373	0.970300
862.339062	0.970698
862.651708	0.968600
862.964312	0.968739
863.276873	0.969780
863.589392	0.968885
863.901869	0.966717
864.214303	0.965499
864.526696	0.964897
864.839045	0.964001
865.151353	0.961448
865.463619	0.963653
865.775842	0.963121
866.088023	0.962299
866.400162	0.962593
866.712258	0.962554
867.024313	0.962848
867.336325	0.963939
867.648296	0.963187
867.960224	0.961989
868.272110	0.961648
868.583954	0.963886
868.895755	0.965177
869.207515	0.961580
869.519233	0.959150
869.830909	0.962440
870.142542	0.963284
870.454134	0.961101
870.765684	0.960107
871.077191	0.958842
871.388657	0.959223
871.700081	0.957884
872.011463	0.958463
872.322803	0.958445
872.634101	0.957307
872.945357	0.955280
873.256571	0.953144
873.567744	0.953316
873.878874	0.953098
874.189963	0.953806
874.501010	0.950998
874.812015	0.949640
875.122979	0.952812
875.433900	0.954072
875.744780	0.953989
876.055618	0.950734
876.366415	0.949562
876.677169	0.951192
876.987882	0.951626
877.298554	0.950861
877.609183	0.947878
877.919771	0.944835
878.230317	0.942657
878.540822	0.940610
878.851285	0.934827
879.161707	0.927255
879.472087	0.914793
879.782425	0.898706
880.092722	0.864105
880.402977	0.812025
880.713191	0.750818
881.023363	0.691377
881.333494	0.656229
881.643583	0.628121
881.953631	0.628809
882.263637	0.657751
882.573602	0.696431
882.883526	0.722681
883.193408	0.746658
883.503248	0.769806
883.813048	0.797523
884.122806	0.826235
884.432522	0.849540
884.742197	0.869875
885.051831	0.881053
885.361424	0.890962
885.670975	0.903375
885.980485	0.913377
886.289954	0.919099
886.599382	0.924181
886.908768	0.928227
887.218113	0.934843
887.527417	0.938706
887.836680	0.942565
888.145901	0.943715
888.455082	0.946290
888.764221	0.950968
889.073319	0.952553
889.382376	0.952882
889.691392	0.952949
890.000366	0.952669
890.309300	0.954105
890.618193	0.952610
890.927044	0.951475
891.235855	0.951982
891.544625	0.951672
891.853353	0.951734
892.162041	0.948840
892.470687	0.943256
892.779293	0.938228
893.087858	0.935006
893.396381	0.925589
893.704864	0.913117
894.013306	0.889060
894.321707	0.862752
894.630068	0.846906
894.938387	0.842060
895.246665	0.843417
895.554903	0.855932
895.863100	0.869689
896.171256	0.885910
896.479371	0.906492
896.787446	0.918865
897.095480	0.925900
897.403473	0.927990
897.711425	0.933011
898.019336	0.939623
898.327207	0.943803
898.635038	0.945350
898.942827	0.945527
899.250576	0.948314
899.558284	0.952257
899.865952	0.953863
900.173579	0.955993
900.481165	0.954966
900.788711	0.960243
901.096216	0.961605
901.403681	0.961303
901.711105	0.963838
902.018489	0.963989
902.325832	0.962324
902.633135	0.961665
902.940397	0.955745
903.247619	0.943571
903.554800	0.918256
903.861941	0.879024
904.169041	0.842586
904.476101	0.823502
904.783121	0.825376
905.090100	0.842289
905.397039	0.863265
905.703938	0.885047
906.010796	0.905879
906.317614	0.921983
906.624391	0.934043
906.931129	0.945112
907.237826	0.952473
907.544483	0.959032
907.851099	0.962936
908.157675	0.968449
908.464211	0.970931
908.770707	0.972591
909.077163	0.974409
909.383578	0.974413
909.689954	0.975490
909.996289	0.975882
910.302584	0.978611
910.608839	0.980625
910.915054	0.979426
911.221229	0.979341
911.527363	0.977674
911.833458	0.977255
912.139513	0.976988
912.445527	0.976091
912.751502	0.973691
913.057436	0.972703
913.363331	0.970638
913.669186	0.965564
913.975000	0.961747
914.280775	0.955806
914.586510	0.948421
914.892205	0.935278
915.197859	0.913673
915.503475	0.885675
915.809050	0.866919
916.114585	0.861163
916.420081	0.858160
916.725536	0.853675
917.030952	0.862949
917.336328	0.876562
917.641665	0.891763
917.946961	0.905958
918.252218	0.918914
918.557435	0.927401
918.862612	0.936429
919.167750	0.942607
919.472848	0.947298
919.777906	0.952251
920.082925	0.957429
920.387904	0.962539
920.692843	0.962655
920.997743	0.963523
921.302603	0.966862
921.607423	0.968933
921.912204	0.972111
922.216946	0.972186
922.521647	0.973355
922.826310	0.974173
923.130932	0.977508
923.435516	0.979211
923.740059	0.980391
924.044564	0.978822
924.349028	0.981474
924.653454	0.982186
924.957840	0.984546
925.262186	0.984449
925.566493	0.984193
925.870761	0.985317
926.174989	0.987014
926.479178	0.989247
926.783328	0.988486
927.087438	0.988451
927.391509	0.988598
927.695541	0.990928
927.999533	0.989710
928.303486	0.990027
928.607400	0.990294
928.911275	0.989963
929.215110	0.991468
929.518906	0.991030
929.822663	0.989829
930.126381	0.991706
930.430060	0.990131
930.733699	0.990657
931.037299	0.988447
931.340861	0.992530
931.644383	0.990431
931.947866	0.989879
932.251309	0.990412
932.554714	0.990487
932.858080	0.990016
933.161407	0.991249
933.464694	0.991219
933.767943	0.990154
934.071153	0.990612
934.374323	0.991118
934.677455	0.991411
934.980548	0.992245
935.283602	0.990683
935.586617	0.992985
935.889593	0.991293
936.192530	0.991354
936.495428	0.991714
936.798287	0.991996
937.101108	0.991742
937.403890	0.989435
937.706632	0.989980
938.009336	0.987077
938.312002	0.987264
938.614628	0.984209
938.917216	0.982521
939.219765	0.982005
939.522275	0.985131
939.824747	0.983058
940.127179	0.983649
940.429573	0.985395
940.731929	0.984344
941.034246	0.985224
941.336524	0.986689
941.638763	0.986228
941.940964	0.987062
942.243126	0.986515
942.545250	0.987440
942.847335	0.989459
943.149381	0.988124
943.451389	0.987510
943.753359	0.989525
944.055290	0.992882
944.357182	0.990555
944.659036	0.988297
944.960851	0.989533
945.262628	0.990836
945.564367	0.991144
945.866067	0.991329
946.167729	0.990867
946.469352	0.991379
946.770937	0.988751
947.072484	0.991492
947.373992	0.990484
947.675462	0.990553
947.976893	0.990901
948.278286	0.990255
948.579641	0.992701
948.880958	0.991158
949.182236	0.992106
949.483476	0.991069
949.784678	0.991302
950.085841	0.992101
950.386967	0.991948
950.688054	0.991450
950.989103	0.991469
951.290114	0.990413
951.591087	0.988936
951.892021	0.989226
952.192917	0.989173
952.493776	0.989107
952.794596	0.987924
953.095378	0.987994
953.396122	0.988350
953.696828	0.988929
953.997496	0.990932
954.298126	0.991081
954.598718	0.990737
954.899272	0.992816
955.199788	0.991272
955.500266	0.993306
955.800706	0.994000
956.101108	0.994160
956.401472	0.994509
956.701798	0.995646
957.002087	0.992496
957.302337	0.994095
957.602550	0.994860
957.902724	0.996001
958.202861	0.996604
958.502960	0.995899
958.803022	0.994701
959.103045	0.996771
959.403031	0.995828
959.702979	0.995004
960.002889	0.995730
960.302762	0.994485
960.602596	0.996803
960.902393	0.995044
961.202153	0.998154
961.501875	0.997991
961.801559	0.997764
962.101205	0.996936
962.400814	0.996411
962.700385	0.997896
962.999918	0.996098
963.299414	0.996756
963.598873	0.995945
963.898293	0.996071
964.197677	0.996822
964.497022	0.996642
964.796331	0.998991
965.095601	0.997507
965.394835	0.997011
965.694030	0.995377
965.993189	0.998298
966.292309	0.996690
966.591393	0.997829
966.890439	0.998238
967.189447	0.997595
967.488419	0.997129
967.787353	0.997363
968.086249	0.996865
968.385108	0.997016
968.683930	0.997699
968.982714	0.998004
969.281462	0.998805
969.580172	0.997576
969.878844	0.997804
970.177480	0.997824
970.476078	0.997648
970.774639	0.997847
971.073162	0.997361
971.371649	0.997912
971.670098	0.997470
971.968510	0.998319
972.266885	0.996275
972.565223	0.996453
972.863524	0.997118
973.161788	0.996624
973.460014	0.998711
973.758204	0.996778
974.056356	0.997243
974.354471	0.995103
974.652550	0.997169
974.950591	0.997718
975.248595	0.997653
975.546563	0.998909
975.844493	0.998776
976.142386	0.997218
976.440243	0.998664
976.738062	0.997912
977.035845	0.998654
977.333590	0.996762
977.631299	0.998577
977.928971	0.997795
978.226606	0.997018
978.524204	0.996743
978.821765	0.998918
979.119290	0.997986
979.416777	0.998201
979.714228	0.998498
980.011642	0.996085
980.309020	0.997939
980.606360	0.996587
980.903664	0.999875
981.200931	0.997400
981.498162	0.996163
981.795356	0.994559
982.092513	0.995061
982.389633	0.994676
982.686717	0.991891
982.983764	0.992231
983.280775	0.991577
983.577749	0.989370
983.874686	0.991700
984.171587	0.991981
984.468451	0.995053
984.765279	0.995959
985.062070	0.995604
985.358824	0.995154
985.655543	0.996482
985.952224	0.996367
986.248869	0.996597
986.545478	0.998103
986.842050	0.998644
987.138586	0.996831
987.435086	0.997948
987.731549	0.998305
988.027975	0.998693
988.324366	0.997988
988.620719	0.998139
988.917037	0.997280
989.213318	0.998863
989.509563	0.998472
989.805772	0.999107
990.101944	0.999717
990.398080	0.998220
990.694180	0.999369
990.990244	0.996771
991.286271	0.999142
991.582262	1.000148
991.878217	0.998691
992.174136	0.999418
992.470019	0.998871
992.765865	0.998355
993.061676	0.999238
993.357450	0.998403
993.653188	0.997799
993.948890	0.997875
994.244556	0.997416
994.540186	0.997296
994.835780	0.996619
995.131337	0.998517
995.426859	0.997503
995.722345	0.997357
996.017795	0.997793
996.313208	0.996470
996.608586	0.996254
996.903928	0.997563
997.199234	0.995821
997.494504	0.997758
997.789738	0.996081
998.084936	0.997198
998.380099	0.999078
998.675225	0.999120
998.970316	0.999311
999.265371	0.998961
999.560390	0.999774
999.855373	0.998382
1000.150320	0.998440
1000.445232	0.998649
1000.740108	0.998797
1001.034948	0.998313
1001.329752	1.000382
1001.624521	0.998993
1001.919254	0.998928
1002.213951	0.998923
1002.508613	0.999087
1002.803239	1.000247
1003.097829	0.999717
1003.392384	1.000019
1003.686903	0.998930
1003.981386	0.998836
1004.275834	1.000411
1004.570246	0.998299
1004.864623	0.999377
1005.158964	1.000242
1005.453270	0.999154
1005.747540	0.998096
1006.041775	0.999347
1006.335974	0.999581
1006.630138	1.000594
1006.924266	0.999354
1007.218359	1.001557
1007.512416	1.000496
1007.806438	1.000008
1008.100425	1.000426
1008.394376	0.998820
1008.688292	0.998698
1008.982172	1.000193
1009.276017	1.000453
1009.569827	0.999060
1009.863602	0.999254
1010.157341	0.999858
1010.451045	0.999795
1010.744714	1.000348
1011.038347	0.999454
1011.331945	0.999912
1011.625508	0.998834
1011.919036	0.999289
1012.212528	0.999330
1012.505986	0.998432
1012.799408	0.999228
1013.092795	0.999813
1013.386147	1.001124
1013.679464	1.000178
1013.972745	0.999302
1014.265992	0.998463
1014.559204	0.999220
1014.852380	0.999397
1015.145521	0.999313
1015.438628	1.000255
1015.731699	0.998611
1016.024736	1.000355
1016.317737	0.999364
1016.610703	0.999577
1016.903635	1.000103
1017.196531	0.998750
1017.489393	1.001156
1017.782219	0.999579
1018.075011	0.999125
1018.367768	0.999201
1018.660490	1.000545
1018.953177	1.000545
1019.245829	1.000545
