Dividing Wavelength (nm)	Counts (n)	Blue Motor Position (mm): 0.000000	Red Motor Position (mm): 26.500000	
326.493990	1.001525
326.888308	1.001525
327.282561	1.001525
327.676750	0.999439
328.070874	0.999107
328.464933	1.000034
328.858929	0.998657
329.252859	0.999156
329.646726	0.999623
330.040528	1.000185
330.434265	0.998741
330.827938	0.999595
331.221547	0.999884
331.615091	1.000002
332.008571	0.999922
332.401986	0.999795
332.795338	1.000884
333.188625	0.999158
333.581847	0.999577
333.975006	0.999333
334.368100	0.999845
334.761129	0.999956
335.154095	1.000809
335.546996	0.998517
335.939833	0.994783
336.332606	0.994940
336.725315	0.994570
337.117960	0.996380
337.510540	0.994166
337.903056	0.995247
338.295508	0.992743
338.687896	0.995052
339.080220	0.994399
339.472480	0.994334
339.864676	0.994108
340.256807	0.994633
340.648875	0.995348
341.040879	0.995729
341.432818	0.994553
341.824694	0.993775
342.216506	0.995678
342.608253	0.993642
342.999937	0.994322
343.391557	0.994668
343.783113	0.994676
344.174605	0.994444
344.566033	0.994575
344.957397	0.994265
345.348697	0.995497
345.739934	0.994463
346.131106	0.995106
346.522215	0.993924
346.913260	0.995465
347.304241	0.994345
347.695159	0.994052
348.086012	0.993918
348.476802	0.994301
348.867528	0.994284
349.258191	0.993767
349.648789	0.995450
350.039324	0.994710
350.429796	0.996216
350.820203	0.994760
351.210548	0.994733
351.600828	0.994071
351.991045	0.993622
352.381198	0.995009
352.771288	0.995150
353.161314	0.993761
353.551276	0.996051
353.941175	0.994394
354.331010	0.994258
354.720782	0.994464
355.110490	0.994640
355.500135	0.995649
355.889717	0.994463
356.279235	0.992986
356.668689	0.994563
357.058080	0.994624
357.447408	0.994675
357.836672	0.994748
358.225873	0.994706
358.615010	0.995527
359.004084	0.994996
359.393095	0.994952
359.782043	0.994588
360.170927	0.995890
360.559748	0.995400
360.948505	0.994363
361.337199	0.994264
361.725830	0.995178
362.114398	0.994649
362.502903	0.994727
362.891344	0.995382
363.279722	0.995002
363.668037	0.994278
364.056289	0.994284
364.444478	0.995165
364.832603	0.994444
365.220665	0.994397
365.608665	0.994188
365.996601	0.994332
366.384474	0.995204
366.772284	0.993641
367.160031	0.993914
367.547715	0.993233
367.935336	0.994689
368.322893	0.993476
368.710388	0.993376
369.097820	0.995041
369.485189	0.995194
369.872495	0.993370
370.259738	0.993211
370.646918	0.996082
371.034035	0.995134
371.421090	0.994475
371.808081	0.993573
372.195010	0.993349
372.581875	0.994610
372.968678	0.994357
373.355418	0.995310
373.742096	0.993802
374.128710	0.995824
374.515262	0.995691
374.901751	0.994741
375.288177	0.996190
375.674540	0.995771
376.060841	0.994391
376.447079	0.995493
376.833254	0.994937
377.219367	0.995056
377.605417	0.995452
377.991404	0.997035
378.377329	0.994741
378.763191	0.995234
379.148991	0.996481
379.534727	0.996004
379.920402	0.996509
380.306013	0.995218
380.691563	0.995961
381.077049	0.995882
381.462474	0.995836
381.847835	0.995784
382.233134	0.994592
382.618371	0.995519
383.003545	0.996907
383.388657	0.995727
383.773706	0.996431
384.158693	0.996314
384.543618	0.996188
384.928480	0.996604
385.313280	0.996523
385.698017	0.996456
386.082692	0.996731
386.467305	0.995745
386.851856	0.995510
387.236344	0.995942
387.620770	0.995796
388.005133	0.996976
388.389435	0.997027
388.773674	0.996872
389.157851	0.997164
389.541965	0.996602
389.926018	0.996125
390.310008	0.997661
390.693936	0.996169
391.077802	0.996436
391.461606	0.996437
391.845348	0.996936
392.229027	0.998766
392.612645	0.997329
392.996200	0.998412
393.379694	0.997307
393.763125	0.997329
394.146494	0.996717
394.529801	0.996477
394.913047	0.996660
395.296230	0.996961
395.679351	0.997037
396.062410	0.997365
396.445408	0.997286
396.828343	0.996876
397.211217	0.996815
397.594028	0.997428
397.976778	0.996934
398.359466	0.997350
398.742092	0.996033
399.124656	0.996774
399.507158	0.997094
399.889598	0.996267
400.271977	0.997553
400.654294	0.997780
401.036549	0.997203
401.418742	0.996956
401.800874	0.996918
402.182944	0.997735
402.564952	0.995643
402.946898	0.997437
403.328783	0.996558
403.710606	0.996155
404.092367	0.996842
404.474067	0.997329
404.855705	0.996814
405.237282	0.996762
405.618797	0.996421
406.000250	0.996249
406.381642	0.997423
406.762972	0.996496
407.144240	0.998331
407.525447	0.997387
407.906593	0.997153
408.287677	0.997410
408.668700	0.997552
409.049661	0.996261
409.430560	0.997413
409.811399	0.995814
410.192176	0.996828
410.572891	0.996845
410.953545	0.997579
411.334138	0.996985
411.714669	0.997382
412.095139	0.996830
412.475547	0.997664
412.855894	0.997020
413.236180	0.997845
413.616405	0.996352
413.996568	0.997556
414.376670	0.997073
414.756711	0.997269
415.136691	0.996786
415.516609	0.996840
415.896466	0.997176
416.276262	0.996138
416.655997	0.997520
417.035670	0.996730
417.415283	0.997162
417.794834	0.997436
418.174324	0.997665
418.553753	0.997736
418.933121	0.996696
419.312428	0.996754
419.691674	0.997754
420.070859	0.998369
420.449983	0.997696
420.829045	0.996617
421.208047	0.997412
421.586988	0.997649
421.965867	0.997386
422.344686	0.998328
422.723444	0.997114
423.102141	0.997156
423.480777	0.997001
423.859352	0.996919
424.237866	0.996413
424.616319	0.996833
424.994712	0.996702
425.373044	0.997360
425.751314	0.997135
426.129524	0.996479
426.507673	0.997058
426.885762	0.997972
427.263789	0.997536
427.641756	0.996752
428.019662	0.997627
428.397508	0.996518
428.775292	0.995912
429.153016	0.997448
429.530679	0.996650
429.908282	0.997731
430.285824	0.996634
430.663305	0.996652
431.040726	0.996835
431.418086	0.997252
431.795385	0.997178
432.172624	0.996519
432.549802	0.997394
432.926920	0.996810
433.303977	0.996116
433.680974	0.997621
434.057910	0.996305
434.434786	0.997130
434.811601	0.996263
435.188355	0.995614
435.565050	0.996516
435.941683	0.996040
436.318257	0.997093
436.694770	0.995969
437.071222	0.996444
437.447614	0.996011
437.823946	0.995905
438.200218	0.996216
438.576429	0.995339
438.952580	0.996459
439.328670	0.995084
439.704700	0.994974
440.080670	0.995012
440.456580	0.993956
440.832429	0.993109
441.208218	0.993037
441.583947	0.992864
441.959616	0.992123
442.335224	0.991617
442.710773	0.991555
443.086261	0.990454
443.461689	0.990396
443.837057	0.988262
444.212365	0.988746
444.587612	0.986571
444.962800	0.985905
445.337927	0.984704
445.712995	0.984281
446.088002	0.982441
446.462949	0.981677
446.837837	0.979172
447.212664	0.978474
447.587431	0.975531
447.962139	0.972653
448.336786	0.967933
448.711374	0.967465
449.085901	0.967210
449.460369	0.965837
449.834776	0.963640
450.209124	0.960116
450.583412	0.955884
450.957640	0.952972
451.331808	0.951333
451.705917	0.950229
452.079965	0.946268
452.453954	0.943112
452.827883	0.940483
453.201752	0.936915
453.575562	0.935157
453.949311	0.928752
454.323001	0.926150
454.696632	0.921427
455.070202	0.915864
455.443713	0.910393
455.817164	0.905719
456.190556	0.900543
456.563888	0.894222
456.937160	0.889529
457.310373	0.887813
457.683526	0.882341
458.056619	0.876886
458.429653	0.871392
458.802628	0.866245
459.175542	0.859869
459.548398	0.850343
459.921194	0.841033
460.293930	0.835264
460.666607	0.819299
461.039224	0.808934
461.411782	0.802003
461.784280	0.795248
462.156719	0.791025
462.529099	0.784967
462.901419	0.783230
463.273680	0.777293
463.645882	0.770999
464.018024	0.764129
464.390106	0.754665
464.762130	0.741363
465.134094	0.725262
465.505999	0.703790
465.877845	0.683027
466.249631	0.671983
466.621358	0.666460
466.993026	0.662758
467.364634	0.657625
467.736184	0.653164
468.107674	0.648309
468.479105	0.637288
468.850477	0.634385
469.221790	0.628895
469.593043	0.625026
469.964238	0.618747
470.335373	0.609496
470.706449	0.600525
471.077467	0.593009
471.448425	0.562751
471.819324	0.539953
472.190164	0.532365
472.560945	0.542074
472.931667	0.546324
473.302330	0.541215
473.672934	0.541218
474.043479	0.525408
474.413965	0.519391
474.784393	0.513725
475.154761	0.503548
475.525070	0.493615
475.895321	0.491310
476.265513	0.479737
476.635645	0.469944
477.005719	0.462869
477.375734	0.453758
477.745691	0.442408
478.115588	0.432706
478.485427	0.421339
478.855207	0.405581
479.224928	0.386806
479.594591	0.372338
479.964194	0.368100
480.333739	0.362024
480.703226	0.355702
481.072653	0.349749
481.442022	0.341444
481.811333	0.333736
482.180584	0.331130
482.549777	0.329570
482.918912	0.327775
483.287988	0.323017
483.657005	0.318277
484.025964	0.319442
484.394864	0.312001
484.763706	0.308159
485.132489	0.308690
485.501213	0.305392
485.869879	0.300533
486.238487	0.299324
486.607036	0.294194
486.975527	0.294803
487.343959	0.288019
487.712333	0.284119
488.080648	0.283090
488.448905	0.279295
488.817104	0.277820
489.185244	0.270069
489.553326	0.264891
489.921350	0.253608
490.289315	0.234897
490.657222	0.228173
491.025070	0.227357
491.392861	0.227544
491.760593	0.230842
492.128267	0.234230
492.495883	0.237801
492.863440	0.242416
493.230939	0.247145
493.598380	0.247329
493.965763	0.248543
494.333088	0.249792
494.700354	0.250103
495.067563	0.248161
495.434713	0.250395
495.801805	0.247599
496.168839	0.248216
496.535815	0.249052
496.902733	0.248384
497.269593	0.249297
497.636395	0.246598
498.003139	0.246190
498.369825	0.248938
498.736453	0.244763
499.103023	0.245949
499.469535	0.244966
499.835989	0.244709
500.202385	0.245341
500.568723	0.248125
500.935003	0.243328
501.301226	0.247288
501.667390	0.241397
502.033497	0.239502
502.399546	0.242244
502.765537	0.243664
503.131470	0.241877
503.497345	0.238439
503.863163	0.246620
504.228923	0.239447
504.594625	0.237933
504.960269	0.243491
505.325856	0.238537
505.691385	0.242602
506.056856	0.239351
506.422270	0.238583
506.787625	0.240984
507.152924	0.238289
507.518164	0.238589
507.883347	0.240434
508.248472	0.241731
508.613540	0.236945
508.978550	0.239320
509.343503	0.239478
509.708398	0.237433
510.073236	0.234925
510.438016	0.234792
510.802738	0.235658
511.167403	0.234572
511.532010	0.236541
511.896561	0.231652
512.261053	0.230590
512.625488	0.232467
512.989866	0.232927
513.354186	0.233158
513.718449	0.235022
514.082655	0.231530
514.446803	0.233438
514.810894	0.230721
515.174927	0.233844
515.538904	0.233294
515.902822	0.230005
516.266684	0.232391
516.630488	0.233643
516.994235	0.232240
517.357925	0.231011
517.721558	0.229266
518.085133	0.228889
518.448651	0.229132
518.812112	0.230947
519.175516	0.230556
519.538863	0.228295
519.902152	0.229842
520.265385	0.226551
520.628560	0.228563
520.991678	0.228939
521.354739	0.227816
521.717743	0.229143
522.080690	0.229433
522.443580	0.226679
522.806413	0.227594
523.169189	0.226822
523.531908	0.225779
523.894569	0.229729
524.257174	0.229196
524.619722	0.226991
524.982213	0.228311
525.344647	0.226998
525.707025	0.227813
526.069345	0.226078
526.431608	0.227755
526.793815	0.225687
527.155964	0.229686
527.518057	0.228572
527.880093	0.229920
528.242072	0.228207
528.603995	0.230102
528.965860	0.231934
529.327669	0.230518
529.689421	0.231753
530.051117	0.232268
530.412755	0.230010
530.774337	0.232549
531.135862	0.232991
531.497331	0.232088
531.858743	0.234798
532.220098	0.231721
532.581396	0.234347
532.942638	0.234859
533.303824	0.235702
533.664953	0.235533
534.026025	0.237135
534.387040	0.235256
534.747999	0.234920
535.108902	0.233944
535.469748	0.238722
535.830537	0.236795
536.191270	0.237198
536.551947	0.236835
536.912567	0.236675
537.273131	0.238504
537.633638	0.238593
537.994089	0.239010
538.354483	0.239993
538.714821	0.237424
539.075103	0.236960
539.435328	0.237450
539.795497	0.241411
540.155609	0.237943
540.515665	0.236088
540.875665	0.241604
541.235609	0.240336
541.595496	0.240306
541.955328	0.236781
542.315102	0.239616
542.674821	0.240800
543.034483	0.240414
543.394090	0.240283
543.753640	0.242031
544.113134	0.237280
544.472571	0.240668
544.831953	0.237298
545.191278	0.241448
545.550548	0.241211
545.909761	0.237850
546.268918	0.238303
546.628019	0.237005
546.987064	0.239347
547.346053	0.241632
547.704986	0.239059
548.063863	0.239496
548.422684	0.239789
548.781449	0.241439
549.140158	0.239245
549.498811	0.241992
549.857408	0.245046
550.215949	0.240025
550.574434	0.243033
550.932864	0.241239
551.291237	0.239786
551.649555	0.240942
552.007817	0.240784
552.366022	0.241550
552.724173	0.241806
553.082267	0.242049
553.440305	0.238909
553.798288	0.243257
554.156215	0.240005
554.514086	0.240762
554.871902	0.243743
555.229661	0.243164
555.587365	0.243542
555.945014	0.246111
556.302606	0.243029
556.660143	0.245633
557.017625	0.242029
557.375050	0.244286
557.732421	0.241440
558.089735	0.243439
558.446994	0.243416
558.804197	0.243046
559.161345	0.242478
559.518437	0.246006
559.875474	0.243844
560.232455	0.243131
560.589381	0.244611
560.946251	0.244365
561.303065	0.242197
561.659825	0.243870
562.016528	0.244918
562.373177	0.247605
562.729770	0.245187
563.086307	0.247198
563.442789	0.244951
563.799216	0.247723
564.155587	0.246706
564.511904	0.247447
564.868164	0.248145
565.224370	0.247641
565.580520	0.249386
565.936615	0.249335
566.292654	0.252278
566.648638	0.249349
567.004567	0.250344
567.360441	0.250938
567.716260	0.252583
568.072023	0.250656
568.427732	0.251203
568.783385	0.253662
569.138982	0.251929
569.494525	0.251590
569.850013	0.254586
570.205445	0.252537
570.560823	0.255576
570.916145	0.257367
571.271412	0.255601
571.626625	0.256756
571.981782	0.257340
572.336884	0.258416
572.691931	0.258105
573.046923	0.259337
573.401860	0.260610
573.756743	0.262387
574.111570	0.261185
574.466342	0.261883
574.821059	0.260650
575.175722	0.263360
575.530330	0.263483
575.884882	0.263425
576.239380	0.265693
576.593823	0.265867
576.948211	0.265658
577.302544	0.268987
577.656823	0.268526
578.011047	0.268545
578.365216	0.268994
578.719330	0.271118
579.073389	0.271085
579.427394	0.271966
579.781344	0.273199
580.135239	0.274550
580.489080	0.274122
580.842866	0.277265
581.196597	0.277424
581.550273	0.275625
581.903895	0.276881
582.257463	0.274784
582.610975	0.278193
582.964434	0.277572
583.317837	0.280045
583.671186	0.280369
584.024481	0.280512
584.377721	0.282851
584.730906	0.283670
585.084037	0.282888
585.437113	0.284592
585.790135	0.283942
586.143103	0.286756
586.496016	0.287944
586.848874	0.285723
587.201679	0.286388
587.554428	0.289658
587.907124	0.288349
588.259765	0.288986
588.612352	0.289545
588.964884	0.293752
589.317362	0.293069
589.669786	0.293105
590.022155	0.291494
590.374470	0.290777
590.726731	0.292990
591.078937	0.297507
591.431090	0.293631
591.783188	0.298266
592.135232	0.298240
592.487222	0.298801
592.839157	0.296930
593.191038	0.298676
593.542866	0.300792
593.894639	0.304493
594.246358	0.302457
594.598022	0.301786
594.949633	0.305508
595.301190	0.306214
595.652692	0.305543
596.004141	0.301628
596.355535	0.309616
596.706876	0.310300
597.058162	0.312678
597.409395	0.309713
597.760573	0.307495
598.111698	0.310701
598.462768	0.311255
598.813785	0.312566
599.164748	0.314031
599.515657	0.314163
599.866511	0.317591
600.217312	0.312466
600.568060	0.318210
600.918753	0.314622
601.269392	0.315327
601.619978	0.318825
601.970510	0.316418
602.320988	0.316557
602.671412	0.314176
603.021783	0.317006
603.372100	0.318052
603.722363	0.317712
604.072572	0.318136
604.422728	0.318421
604.772830	0.320452
605.122878	0.320013
605.472872	0.320586
605.822813	0.318948
606.172701	0.321683
606.522534	0.319179
606.872314	0.319032
607.222041	0.319927
607.571714	0.318222
607.921333	0.319400
608.270899	0.319166
608.620411	0.315768
608.969870	0.319662
609.319276	0.319698
609.668627	0.319694
610.017926	0.318179
610.367171	0.316850
610.716362	0.317336
611.065500	0.317906
611.414585	0.316483
611.763616	0.317208
612.112594	0.317893
612.461518	0.316905
612.810389	0.314941
613.159207	0.317496
613.507971	0.318945
613.856682	0.314473
614.205340	0.316384
614.553945	0.313150
614.902496	0.317099
615.250994	0.314797
615.599439	0.315230
615.947830	0.315206
616.296169	0.315843
616.644454	0.315595
616.992686	0.315636
617.340864	0.313722
617.688990	0.317433
618.037063	0.313592
618.385082	0.315416
618.733048	0.312593
619.080961	0.314934
619.428821	0.314230
619.776628	0.313431
620.124382	0.315593
620.472083	0.315963
620.819731	0.315308
621.167326	0.319096
621.514868	0.318857
621.862357	0.323108
622.209793	0.323005
622.557176	0.324830
622.904506	0.326292
623.251783	0.328400
623.599007	0.330766
623.946179	0.330531
624.293297	0.332273
624.640363	0.335969
624.987376	0.336702
625.334336	0.338902
625.681243	0.341439
626.028097	0.341692
626.374899	0.343192
626.721647	0.343407
627.068343	0.346525
627.414987	0.347881
627.761577	0.349490
628.108115	0.347887
628.454600	0.353155
628.801032	0.350643
629.147412	0.352504
629.493739	0.352956
629.840014	0.356624
630.186236	0.353322
630.532405	0.358974
630.878521	0.356611
631.224585	0.358623
631.570597	0.361952
631.916556	0.360478
632.262462	0.361077
632.608316	0.362726
632.954117	0.363496
633.299866	0.364582
633.645562	0.365349
633.991206	0.369203
634.336797	0.372018
634.682336	0.374364
635.027823	0.376203
635.373257	0.376685
635.718639	0.380120
636.063968	0.379277
636.409245	0.385332
636.754470	0.385822
637.099642	0.388275
637.444762	0.391274
637.789829	0.390377
638.134845	0.394302
638.479808	0.394648
638.824719	0.394465
639.169577	0.398620
639.514383	0.397181
639.859137	0.401757
640.203839	0.401656
640.548489	0.401835
640.893086	0.403327
641.237632	0.404519
641.582125	0.403995
641.926566	0.405030
642.270955	0.405440
642.615292	0.405669
642.959576	0.404381
643.303809	0.405093
643.647990	0.404798
643.992118	0.405386
644.336195	0.409107
644.680219	0.407101
645.024192	0.407748
645.368112	0.401797
645.711981	0.400669
646.055797	0.395740
646.399562	0.398491
646.743274	0.390532
647.086935	0.388063
647.430544	0.387863
647.774101	0.387152
648.117606	0.386469
648.461059	0.386717
648.804460	0.389539
649.147810	0.394411
649.491108	0.396674
649.834354	0.397328
650.177548	0.403017
650.520690	0.408390
650.863781	0.409393
651.206820	0.408811
651.549807	0.413706
651.892742	0.417859
652.235626	0.417072
652.578458	0.417650
652.921238	0.424142
653.263967	0.421620
653.606644	0.425982
653.949269	0.425132
654.291843	0.429213
654.634365	0.425800
654.976836	0.429775
655.319255	0.429685
655.661622	0.430855
656.003938	0.431206
656.346203	0.434274
656.688416	0.432077
657.030577	0.435410
657.372687	0.437735
657.714746	0.437731
658.056753	0.434894
658.398708	0.439089
658.740612	0.439895
659.082465	0.436210
659.424266	0.436459
659.766016	0.436136
660.107715	0.438645
660.449362	0.437524
660.790958	0.437866
661.132503	0.439339
661.473996	0.436632
661.815438	0.437420
662.156829	0.437626
662.498168	0.438441
662.839456	0.440098
663.180693	0.437670
663.521879	0.437843
663.863013	0.438677
664.204097	0.437088
664.545129	0.433353
664.886110	0.433942
665.227040	0.431345
665.567918	0.433841
665.908746	0.432471
666.249522	0.431967
666.590248	0.432956
666.930922	0.431181
667.271545	0.430352
667.612118	0.429883
667.952639	0.431609
668.293109	0.430659
668.633528	0.433744
668.973896	0.433135
669.314213	0.433370
669.654480	0.434604
669.994695	0.435251
670.334859	0.436388
670.674973	0.436702
671.015035	0.436802
671.355047	0.436627
671.695008	0.437787
672.034918	0.439241
672.374777	0.439057
672.714585	0.439866
673.054342	0.439786
673.394049	0.440167
673.733705	0.437627
674.073310	0.438696
674.412864	0.441462
674.752368	0.442676
675.091820	0.442527
675.431223	0.446793
675.770574	0.446913
676.109875	0.449920
676.449125	0.449875
676.788324	0.451739
677.127473	0.457436
677.466571	0.457273
677.805619	0.459057
678.144616	0.460010
678.483562	0.461944
678.822458	0.463745
679.161303	0.465165
679.500098	0.465399
679.838842	0.467415
680.177535	0.466978
680.516179	0.465384
680.854771	0.464423
681.193314	0.457350
681.531805	0.449224
681.870247	0.437592
682.208638	0.430236
682.546978	0.428690
682.885268	0.430812
683.223508	0.436512
683.561697	0.440691
683.899836	0.443273
684.237925	0.446932
684.575963	0.449102
684.913951	0.452257
685.251889	0.448222
685.589776	0.449960
685.927614	0.452483
686.265401	0.446607
686.603137	0.448447
686.940824	0.442089
687.278460	0.440168
687.616046	0.439821
687.953582	0.434866
688.291068	0.436302
688.628504	0.432064
688.965889	0.434395
689.303224	0.438572
689.640510	0.442000
689.977745	0.448329
690.314930	0.455750
690.652065	0.460497
690.989150	0.468194
691.326185	0.473883
691.663170	0.478859
692.000105	0.485545
692.336990	0.492896
692.673825	0.495457
693.010610	0.501959
693.347345	0.507676
693.684030	0.509078
694.020665	0.513950
694.357251	0.522480
694.693786	0.522177
695.030272	0.526565
695.366707	0.529558
695.703093	0.533345
696.039429	0.531213
696.375716	0.533060
696.711952	0.535549
697.048139	0.537915
697.384276	0.540193
697.720363	0.537868
698.056400	0.536990
698.392388	0.542665
698.728326	0.545706
699.064214	0.548483
699.400053	0.548744
699.735842	0.552612
700.071581	0.555369
700.407270	0.558662
700.742910	0.560866
701.078501	0.567783
701.414042	0.567607
701.749533	0.570455
702.084974	0.579732
702.420366	0.571515
702.755709	0.580052
703.091002	0.586572
703.426246	0.580421
703.761440	0.586251
704.096584	0.590911
704.431679	0.588363
704.766725	0.589918
705.101721	0.591489
705.436668	0.588053
705.771565	0.594825
706.106413	0.592238
706.441212	0.586677
706.775961	0.586011
707.110661	0.588043
707.445311	0.585056
707.779913	0.582521
708.114465	0.580586
708.448967	0.577580
708.783421	0.569007
709.117825	0.564569
709.452180	0.564408
709.786485	0.558012
710.120742	0.547528
710.454949	0.549907
710.789107	0.541831
711.123216	0.533292
711.457275	0.534708
711.791286	0.525787
712.125247	0.524430
712.459159	0.535238
712.793023	0.528022
713.126837	0.531976
713.460602	0.532876
713.794318	0.541967
714.127985	0.540813
714.461602	0.550917
714.795171	0.553815
715.128691	0.561480
715.462162	0.569041
715.795584	0.574521
716.128957	0.577290
716.462281	0.584805
716.795556	0.587235
717.128782	0.592642
717.461960	0.602720
717.795088	0.600961
718.128167	0.606208
718.461198	0.615974
718.794180	0.616494
719.127113	0.619316
719.459997	0.622160
719.792833	0.628272
720.125619	0.629634
720.458357	0.635358
720.791046	0.635158
721.123686	0.638636
721.456278	0.645816
721.788821	0.643166
722.121315	0.646970
722.453761	0.651632
722.786158	0.648868
723.118506	0.645488
723.450805	0.653987
723.783056	0.649825
724.115259	0.647013
724.447412	0.646814
724.779518	0.647587
725.111574	0.646838
725.443582	0.642212
725.775542	0.644349
726.107453	0.636406
726.439315	0.636348
726.771129	0.634809
727.102895	0.627873
727.434612	0.620700
727.766281	0.619089
728.097901	0.618195
728.429473	0.619212
728.760996	0.617119
729.092471	0.616435
729.423897	0.620572
729.755276	0.619451
730.086606	0.620013
730.417887	0.614194
730.749120	0.604896
731.080305	0.596115
731.411442	0.592457
731.742530	0.597358
732.073570	0.595864
732.404562	0.588565
732.735506	0.589793
733.066401	0.594344
733.397249	0.604242
733.728048	0.614369
734.058798	0.627264
734.389501	0.638004
734.720156	0.648050
735.050762	0.655847
735.381320	0.657131
735.711831	0.666203
736.042293	0.670532
736.372707	0.666960
736.703073	0.670418
737.033391	0.673430
737.363661	0.670097
737.693883	0.664845
738.024056	0.664208
738.354182	0.665020
738.684260	0.653684
739.014290	0.649376
739.344272	0.651448
739.674207	0.644188
740.004093	0.643542
740.333931	0.644569
740.663722	0.644894
740.993464	0.644834
741.323159	0.648875
741.652806	0.653793
741.982405	0.658597
742.311956	0.662926
742.641460	0.664887
742.970915	0.669137
743.300323	0.676516
743.629683	0.682905
743.958996	0.685213
744.288260	0.689548
744.617477	0.695136
744.946647	0.696909
745.275768	0.702780
745.604842	0.702249
745.933869	0.710829
746.262847	0.712526
746.591778	0.705539
746.920662	0.711964
747.249498	0.717904
747.578286	0.709456
747.907027	0.704885
748.235720	0.707076
748.564365	0.701609
748.892963	0.701510
749.221514	0.704548
749.550017	0.710182
749.878473	0.709185
750.206881	0.716141
750.535242	0.716775
750.863555	0.716589
751.191821	0.717040
751.520039	0.720906
751.848210	0.725529
752.176334	0.718319
752.504411	0.717194
752.832440	0.725671
753.160421	0.730185
753.488356	0.727597
753.816243	0.724937
754.144082	0.733614
754.471875	0.736780
754.799620	0.732736
755.127318	0.733889
755.454969	0.733219
755.782572	0.733078
756.110129	0.738064
756.437638	0.740869
756.765100	0.737118
757.092515	0.734820
757.419882	0.734523
757.747203	0.739654
758.074477	0.738899
758.401703	0.735327
758.728882	0.731050
759.056014	0.730305
759.383099	0.728449
759.710138	0.729676
760.037129	0.726834
760.364073	0.720259
760.690970	0.722606
761.017820	0.728017
761.344623	0.723801
761.671379	0.715238
761.998088	0.702846
762.324751	0.680960
762.651366	0.639669
762.977935	0.573079
763.304456	0.520847
763.630931	0.511912
763.957359	0.550201
764.283740	0.595334
764.610074	0.621309
764.936362	0.652547
765.262602	0.679248
765.588796	0.700573
765.914943	0.718586
766.241044	0.736858
766.567097	0.742863
766.893104	0.752329
767.219064	0.758565
767.544978	0.765282
767.870845	0.778994
768.196665	0.782013
768.522438	0.780558
768.848165	0.781809
769.173846	0.790688
769.499479	0.795497
769.825066	0.798429
770.150607	0.803611
770.476101	0.798168
770.801548	0.799476
771.126949	0.811047
771.452303	0.815927
771.777611	0.814109
772.102872	0.812940
772.428087	0.818130
772.753256	0.822070
773.078378	0.823644
773.403453	0.832984
773.728482	0.837047
774.053465	0.830595
774.378401	0.833812
774.703291	0.841804
775.028135	0.841199
775.352932	0.843701
775.677683	0.847580
776.002388	0.847429
776.327046	0.845813
776.651658	0.849208
776.976224	0.852330
777.300743	0.853204
777.625216	0.855597
777.949643	0.857643
778.274024	0.857579
778.598359	0.858908
778.922647	0.856713
779.246889	0.858355
779.571086	0.862572
779.895236	0.864673
780.219339	0.861468
780.543397	0.858748
780.867409	0.857473
781.191374	0.858758
781.515294	0.861179
781.839167	0.859493
782.162995	0.863027
782.486776	0.859574
782.810511	0.860702
783.134201	0.864842
783.457844	0.862443
783.781441	0.865617
784.104993	0.870810
784.428498	0.871676
784.751958	0.866914
785.075372	0.869468
785.398739	0.872962
785.722061	0.869392
786.045337	0.864589
786.368568	0.869622
786.691752	0.873700
787.014891	0.857743
787.337983	0.849198
787.661030	0.842004
787.984031	0.824135
788.306987	0.812325
788.629897	0.814365
788.952760	0.817765
789.275579	0.821190
789.598351	0.836918
789.921078	0.850815
790.243759	0.852074
790.566395	0.857284
790.888984	0.863740
791.211529	0.869550
791.534027	0.871909
791.856480	0.875499
792.178888	0.879762
792.501249	0.881365
792.823566	0.883585
793.145836	0.883777
793.468062	0.885710
793.790241	0.885679
794.112375	0.882953
794.434464	0.877959
794.756507	0.878067
795.078505	0.878410
795.400457	0.872398
795.722364	0.860664
796.044226	0.854066
796.366042	0.852146
796.687812	0.856517
797.009538	0.852591
797.331218	0.854982
797.652852	0.859683
797.974442	0.864501
798.295986	0.865019
798.617484	0.867399
798.938938	0.871379
799.260346	0.875827
799.581709	0.878724
799.903026	0.880960
800.224299	0.880920
800.545526	0.884054
800.866708	0.888888
801.187845	0.893774
801.508936	0.893281
801.829983	0.890351
802.150984	0.892865
802.471940	0.897978
802.792851	0.897011
803.113717	0.898693
803.434538	0.896790
803.755314	0.898793
804.076045	0.900430
804.396731	0.900537
804.717372	0.900888
805.037967	0.901678
805.358518	0.899245
805.679024	0.897527
805.999485	0.896701
806.319901	0.897396
806.640272	0.898127
806.960598	0.897286
807.280879	0.894522
807.601115	0.892284
807.921306	0.897224
808.241453	0.896639
808.561554	0.894979
808.881611	0.893356
809.201623	0.896950
809.521590	0.897699
809.841513	0.897810
810.161390	0.896798
810.481223	0.898010
810.801011	0.901552
811.120755	0.903117
811.440453	0.903075
811.760107	0.900688
812.079716	0.900329
812.399281	0.904640
812.718801	0.906626
813.038276	0.906657
813.357707	0.907575
813.677093	0.904818
813.996434	0.907495
814.315731	0.908871
814.634983	0.909567
814.954191	0.907598
815.273354	0.905150
815.592473	0.900992
815.911547	0.902644
816.230577	0.899296
816.549562	0.896802
816.868502	0.898123
817.187399	0.894134
817.506250	0.888428
817.825058	0.891340
818.143821	0.886589
818.462539	0.882085
818.781213	0.873886
819.099843	0.862548
819.418429	0.847459
819.736970	0.830085
820.055466	0.811378
820.373919	0.785085
820.692327	0.753477
821.010691	0.718808
821.329011	0.643012
821.647286	0.528074
821.965517	0.414950
822.283704	0.372096
822.601847	0.373843
822.919945	0.409608
823.237999	0.442716
823.556010	0.488992
823.873976	0.544758
824.191897	0.593817
824.509775	0.636503
824.827609	0.681589
825.145398	0.703450
825.463144	0.707187
825.780845	0.690136
826.098502	0.671169
826.416116	0.626350
826.733685	0.582815
827.051210	0.573793
827.368692	0.588328
827.686129	0.626646
828.003522	0.677640
828.320872	0.724733
828.638177	0.768559
828.955439	0.800789
829.272656	0.823056
829.589830	0.840062
829.906960	0.855038
830.224046	0.867277
830.541088	0.877735
830.858086	0.881762
831.175041	0.888168
831.491952	0.888426
831.808819	0.883506
832.125642	0.877634
832.442421	0.862819
832.759157	0.841529
833.075849	0.795463
833.392497	0.732617
833.709101	0.691249
834.025662	0.701960
834.342179	0.732223
834.658653	0.771230
834.975083	0.806958
835.291469	0.833910
835.607811	0.855305
835.924110	0.870839
836.240366	0.888569
836.556578	0.901991
836.872746	0.909210
837.188871	0.913608
837.504952	0.921595
837.820990	0.923675
838.136984	0.927022
838.452935	0.930047
838.768842	0.930981
839.084706	0.925330
839.400526	0.899396
839.716303	0.860225
840.032037	0.838355
840.347727	0.841669
840.663373	0.861076
840.978977	0.880357
841.294537	0.903251
841.610054	0.918332
841.925527	0.926311
842.240957	0.934017
842.556344	0.940780
842.871687	0.947029
843.186987	0.950692
843.502244	0.951116
843.817458	0.952147
844.132629	0.955938
844.447756	0.959984
844.762840	0.960964
845.077881	0.960760
845.392879	0.959548
845.707833	0.962473
846.022745	0.965455
846.337613	0.965872
846.652438	0.966046
846.967221	0.965630
847.281960	0.964965
847.596656	0.967997
847.911309	0.965089
848.225919	0.968950
848.540485	0.967996
848.855009	0.969413
849.169490	0.968639
849.483928	0.968445
849.798323	0.969282
850.112675	0.970258
850.426984	0.970168
850.741251	0.969844
851.055474	0.971178
851.369654	0.967761
851.683792	0.969466
851.997887	0.970361
852.311938	0.970336
852.625947	0.970183
852.939914	0.968614
853.253837	0.969572
853.567718	0.970220
853.881555	0.970896
854.195350	0.967681
854.509103	0.968819
854.822812	0.969847
855.136479	0.971162
855.450103	0.970394
855.763685	0.968383
856.077224	0.969616
856.390720	0.970730
856.704173	0.970168
857.017584	0.968532
857.330953	0.967173
857.644278	0.968763
857.957561	0.968385
858.270802	0.968475
858.584000	0.968566
858.897155	0.965796
859.210268	0.968044
859.523339	0.967623
859.836367	0.970352
860.149352	0.971111
860.462295	0.968283
860.775195	0.969406
861.088054	0.968625
861.400869	0.969372
861.713642	0.970245
862.026373	0.970847
862.339062	0.971516
862.651708	0.967700
862.964312	0.967366
863.276873	0.969368
863.589392	0.967990
863.901869	0.967701
864.214303	0.964782
864.526696	0.965025
864.839045	0.964511
865.151353	0.962873
865.463619	0.963659
865.775842	0.962800
866.088023	0.961837
866.400162	0.962536
866.712258	0.963015
867.024313	0.962285
867.336325	0.963431
867.648296	0.963545
867.960224	0.963073
868.272110	0.962535
868.583954	0.964365
868.895755	0.964028
869.207515	0.961866
869.519233	0.959375
869.830909	0.960782
870.142542	0.962515
870.454134	0.961799
870.765684	0.960483
871.077191	0.958643
871.388657	0.959810
871.700081	0.957892
872.011463	0.958479
872.322803	0.958342
872.634101	0.957250
872.945357	0.954704
873.256571	0.952529
873.567744	0.953965
873.878874	0.953610
874.189963	0.951342
874.501010	0.951532
874.812015	0.949885
875.122979	0.951407
875.433900	0.954517
875.744780	0.954317
876.055618	0.951529
876.366415	0.950732
876.677169	0.950019
876.987882	0.952754
877.298554	0.951653
877.609183	0.948602
877.919771	0.946114
878.230317	0.942907
878.540822	0.940822
878.851285	0.937106
879.161707	0.928502
879.472087	0.916600
879.782425	0.900733
880.092722	0.867659
880.402977	0.814530
880.713191	0.755187
881.023363	0.697954
881.333494	0.664559
881.643583	0.636633
881.953631	0.635942
882.263637	0.665180
882.573602	0.703803
882.883526	0.729198
883.193408	0.752493
883.503248	0.774495
883.813048	0.800727
884.122806	0.829894
884.432522	0.853303
884.742197	0.872678
885.051831	0.884098
885.361424	0.893249
885.670975	0.904283
885.980485	0.914131
886.289954	0.920429
886.599382	0.925774
886.908768	0.929464
887.218113	0.935490
887.527417	0.940532
887.836680	0.943404
888.145901	0.944131
888.455082	0.946207
888.764221	0.950826
889.073319	0.954605
889.382376	0.953746
889.691392	0.953542
890.000366	0.953320
890.309300	0.955096
890.618193	0.953334
890.927044	0.951913
891.235855	0.951386
891.544625	0.951445
891.853353	0.953009
892.162041	0.949660
892.470687	0.943708
892.779293	0.938594
893.087858	0.934942
893.396381	0.928278
893.704864	0.913850
894.013306	0.890990
894.321707	0.864576
894.630068	0.850432
894.938387	0.846249
895.246665	0.847244
895.554903	0.860142
895.863100	0.872305
896.171256	0.889278
896.479371	0.908028
896.787446	0.920447
897.095480	0.927469
897.403473	0.929129
897.711425	0.934281
898.019336	0.941582
898.327207	0.943788
898.635038	0.946212
898.942827	0.945151
899.250576	0.949418
899.558284	0.953121
899.865952	0.953992
900.173579	0.955883
900.481165	0.957351
900.788711	0.960064
901.096216	0.961762
901.403681	0.962356
901.711105	0.964708
902.018489	0.964649
902.325832	0.962886
902.633135	0.962885
902.940397	0.957056
903.247619	0.945264
903.554800	0.919112
903.861941	0.881387
904.169041	0.846731
904.476101	0.829744
904.783121	0.830204
905.090100	0.846931
905.397039	0.867717
905.703938	0.887634
906.010796	0.908234
906.317614	0.923825
906.624391	0.934833
906.931129	0.945503
907.237826	0.953145
907.544483	0.960361
907.851099	0.963440
908.157675	0.967882
908.464211	0.970122
908.770707	0.972933
909.077163	0.975216
909.383578	0.974269
909.689954	0.975310
909.996289	0.975648
910.302584	0.977743
910.608839	0.979591
910.915054	0.979138
911.221229	0.978185
911.527363	0.977287
911.833458	0.977598
912.139513	0.977469
912.445527	0.975612
912.751502	0.973463
913.057436	0.972735
913.363331	0.970919
913.669186	0.966828
913.975000	0.961976
914.280775	0.956904
914.586510	0.950924
914.892205	0.936384
915.197859	0.916630
915.503475	0.889706
915.809050	0.869491
916.114585	0.865082
916.420081	0.863156
916.725536	0.859319
917.030952	0.867113
917.336328	0.879494
917.641665	0.894957
917.946961	0.910409
918.252218	0.920718
918.557435	0.929164
918.862612	0.937142
919.167750	0.942577
919.472848	0.947708
919.777906	0.953298
920.082925	0.959856
920.387904	0.962986
920.692843	0.963435
920.997743	0.964803
921.302603	0.967573
921.607423	0.970137
921.912204	0.972559
922.216946	0.972041
922.521647	0.972478
922.826310	0.975198
923.130932	0.977090
923.435516	0.978039
923.740059	0.979934
924.044564	0.978271
924.349028	0.980725
924.653454	0.983101
924.957840	0.985634
925.262186	0.984094
925.566493	0.983593
925.870761	0.984572
926.174989	0.985295
926.479178	0.988534
926.783328	0.988521
927.087438	0.988087
927.391509	0.988886
927.695541	0.989575
927.999533	0.989149
928.303486	0.988769
928.607400	0.991569
928.911275	0.990330
929.215110	0.989712
929.518906	0.990467
929.822663	0.990024
930.126381	0.991519
930.430060	0.990556
930.733699	0.990290
931.037299	0.989072
931.340861	0.990807
931.644383	0.989272
931.947866	0.989443
932.251309	0.990593
932.554714	0.990610
932.858080	0.989933
933.161407	0.990258
933.464694	0.990925
933.767943	0.990941
934.071153	0.990218
934.374323	0.991456
934.677455	0.990149
934.980548	0.992112
935.283602	0.990773
935.586617	0.990821
935.889593	0.990261
936.192530	0.990100
936.495428	0.990931
936.798287	0.990374
937.101108	0.990430
937.403890	0.989294
937.706632	0.989144
938.009336	0.987040
938.312002	0.985961
938.614628	0.985008
938.917216	0.984026
939.219765	0.982887
939.522275	0.984348
939.824747	0.983975
940.127179	0.983610
940.429573	0.984831
940.731929	0.984250
941.034246	0.984909
941.336524	0.986029
941.638763	0.986460
941.940964	0.987405
942.243126	0.987298
942.545250	0.987552
942.847335	0.989428
943.149381	0.988291
943.451389	0.988621
943.753359	0.988526
944.055290	0.991705
944.357182	0.989171
944.659036	0.988888
944.960851	0.989119
945.262628	0.990223
945.564367	0.991390
945.866067	0.990368
946.167729	0.989839
946.469352	0.989244
946.770937	0.989473
947.072484	0.990806
947.373992	0.990752
947.675462	0.991072
947.976893	0.990088
948.278286	0.990749
948.579641	0.992141
948.880958	0.990894
949.182236	0.990824
949.483476	0.990959
949.784678	0.991544
950.085841	0.991204
950.386967	0.990736
950.688054	0.990703
950.989103	0.990291
951.290114	0.989254
951.591087	0.989506
951.892021	0.989432
952.192917	0.989631
952.493776	0.988800
952.794596	0.987483
953.095378	0.987484
953.396122	0.987747
953.696828	0.987746
953.997496	0.990461
954.298126	0.990602
954.598718	0.989436
954.899272	0.991772
955.199788	0.989139
955.500266	0.992119
955.800706	0.991735
956.101108	0.993648
956.401472	0.992929
956.701798	0.994218
957.002087	0.992574
957.302337	0.993811
957.602550	0.994802
957.902724	0.994591
958.202861	0.995536
958.502960	0.994533
958.803022	0.993898
959.103045	0.995518
959.403031	0.995442
959.702979	0.994912
960.002889	0.995505
960.302762	0.994476
960.602596	0.996240
960.902393	0.993750
961.202153	0.996079
961.501875	0.996239
961.801559	0.995391
962.101205	0.995880
962.400814	0.995495
962.700385	0.996743
962.999918	0.996918
963.299414	0.996135
963.598873	0.996113
963.898293	0.996507
964.197677	0.996431
964.497022	0.995921
964.796331	0.996468
965.095601	0.997131
965.394835	0.996060
965.694030	0.996667
965.993189	0.997074
966.292309	0.996927
966.591393	0.997086
966.890439	0.995896
967.189447	0.996307
967.488419	0.996859
967.787353	0.995787
968.086249	0.995846
968.385108	0.997050
968.683930	0.996886
968.982714	0.998068
969.281462	0.997050
969.580172	0.996656
969.878844	0.997600
970.177480	0.996779
970.476078	0.997132
970.774639	0.997366
971.073162	0.998441
971.371649	0.995819
971.670098	0.996765
971.968510	0.996768
972.266885	0.995080
972.565223	0.995076
972.863524	0.995949
973.161788	0.995131
973.460014	0.997491
973.758204	0.995515
974.056356	0.995878
974.354471	0.993963
974.652550	0.995818
974.950591	0.996185
975.248595	0.996143
975.546563	0.996433
975.844493	0.997352
976.142386	0.996942
976.440243	0.996777
976.738062	0.996459
977.035845	0.996661
977.333590	0.998197
977.631299	0.997588
977.928971	0.996246
978.226606	0.995875
978.524204	0.995664
978.821765	0.997804
979.119290	0.996028
979.416777	0.996547
979.714228	0.998138
980.011642	0.995457
980.309020	0.997019
980.606360	0.996220
980.903664	0.997556
981.200931	0.997086
981.498162	0.994639
981.795356	0.994736
982.092513	0.994817
982.389633	0.994619
982.686717	0.990714
982.983764	0.991341
983.280775	0.990944
983.577749	0.989746
983.874686	0.991643
984.171587	0.992658
984.468451	0.994829
984.765279	0.995236
985.062070	0.994316
985.358824	0.995394
985.655543	0.994759
985.952224	0.995316
986.248869	0.996310
986.545478	0.996790
986.842050	0.997201
987.138586	0.995148
987.435086	0.997266
987.731549	0.997666
988.027975	0.996072
988.324366	0.996466
988.620719	0.997797
988.917037	0.995318
989.213318	0.998849
989.509563	0.998021
989.805772	0.998153
990.101944	0.997574
990.398080	0.996488
990.694180	0.996851
990.990244	0.996782
991.286271	0.998171
991.582262	0.998130
991.878217	0.998037
992.174136	0.998012
992.470019	0.998001
992.765865	0.997915
993.061676	0.998049
993.357450	0.997623
993.653188	0.996907
993.948890	0.996911
994.244556	0.997703
994.540186	0.997488
994.835780	0.995672
995.131337	0.997472
995.426859	0.996262
995.722345	0.996553
996.017795	0.996101
996.313208	0.995530
996.608586	0.995393
996.903928	0.996996
997.199234	0.995190
997.494504	0.996425
997.789738	0.997294
998.084936	0.995989
998.380099	0.997788
998.675225	0.997506
998.970316	0.997600
999.265371	0.998654
999.560390	0.997188
999.855373	0.997669
1000.150320	0.998623
1000.445232	0.998367
1000.740108	0.997611
1001.034948	0.996629
1001.329752	0.998583
1001.624521	0.998924
1001.919254	0.997738
1002.213951	0.997638
1002.508613	0.997292
1002.803239	0.999174
1003.097829	0.997808
1003.392384	0.998047
1003.686903	0.998166
1003.981386	0.998729
1004.275834	0.998751
1004.570246	0.997971
1004.864623	0.998701
1005.158964	1.000064
1005.453270	0.997829
1005.747540	0.996809
1006.041775	0.997878
1006.335974	0.998327
1006.630138	0.998340
1006.924266	1.000166
1007.218359	0.999153
1007.512416	0.999310
1007.806438	0.999328
1008.100425	0.998621
1008.394376	0.997059
1008.688292	0.998506
1008.982172	0.999683
1009.276017	0.998555
1009.569827	0.998423
1009.863602	0.998064
1010.157341	0.999125
1010.451045	0.999042
1010.744714	0.997779
1011.038347	0.998862
1011.331945	0.999104
1011.625508	0.997849
1011.919036	0.998200
1012.212528	0.998119
1012.505986	0.997811
1012.799408	0.997515
1013.092795	0.997841
1013.386147	0.997894
1013.679464	0.999088
1013.972745	0.998441
1014.265992	0.997672
1014.559204	0.997429
1014.852380	0.998893
1015.145521	0.998187
1015.438628	0.998355
1015.731699	0.998492
1016.024736	0.998175
1016.317737	0.997158
1016.610703	0.998432
1016.903635	0.999110
1017.196531	0.998958
1017.489393	0.999550
1017.782219	0.998472
1018.075011	0.997823
1018.367768	0.999352
1018.660490	0.999368
1018.953177	0.999368
1019.245829	0.999368
