Dividing Wavelength (nm)	Counts (n)	Blue Motor Position (mm): 0.000000	Red Motor Position (mm): 29.600000	
326.493990	1.000980
326.888308	1.000980
327.282561	1.000980
327.676750	0.998773
328.070874	0.999756
328.464933	0.999307
328.858929	0.999447
329.252859	0.998772
329.646726	0.998244
330.040528	1.000191
330.434265	0.999074
330.827938	0.999669
331.221547	0.999285
331.615091	1.000037
332.008571	0.998501
332.401986	0.998160
332.795338	1.000682
333.188625	0.998185
333.581847	0.999651
333.975006	0.998714
334.368100	0.998936
334.761129	0.998946
335.154095	1.000417
335.546996	0.997249
335.939833	0.993904
336.332606	0.993654
336.725315	0.995412
337.117960	0.994889
337.510540	0.995517
337.903056	0.995130
338.295508	0.994498
338.687896	0.994209
339.080220	0.993807
339.472480	0.994349
339.864676	0.994085
340.256807	0.994890
340.648875	0.994844
341.040879	0.994852
341.432818	0.995228
341.824694	0.994714
342.216506	0.995159
342.608253	0.994995
342.999937	0.994289
343.391557	0.995248
343.783113	0.993385
344.174605	0.995943
344.566033	0.995457
344.957397	0.993346
345.348697	0.994480
345.739934	0.995007
346.131106	0.994587
346.522215	0.994122
346.913260	0.993979
347.304241	0.995279
347.695159	0.993825
348.086012	0.994381
348.476802	0.995064
348.867528	0.995507
349.258191	0.994154
349.648789	0.996374
350.039324	0.995418
350.429796	0.995616
350.820203	0.995750
351.210548	0.995591
351.600828	0.996120
351.991045	0.995609
352.381198	0.994367
352.771288	0.994682
353.161314	0.994589
353.551276	0.996370
353.941175	0.994168
354.331010	0.995089
354.720782	0.995367
355.110490	0.994081
355.500135	0.995152
355.889717	0.994533
356.279235	0.993981
356.668689	0.994228
357.058080	0.994622
357.447408	0.996664
357.836672	0.994798
358.225873	0.996599
358.615010	0.994938
359.004084	0.996228
359.393095	0.995441
359.782043	0.995120
360.170927	0.996428
360.559748	0.995813
360.948505	0.994248
361.337199	0.995744
361.725830	0.995652
362.114398	0.995228
362.502903	0.995215
362.891344	0.995547
363.279722	0.994027
363.668037	0.996589
364.056289	0.995150
364.444478	0.996690
364.832603	0.994926
365.220665	0.994761
365.608665	0.995370
365.996601	0.994717
366.384474	0.994910
366.772284	0.996079
367.160031	0.994836
367.547715	0.994667
367.935336	0.996033
368.322893	0.995503
368.710388	0.994391
369.097820	0.995219
369.485189	0.994168
369.872495	0.994402
370.259738	0.993884
370.646918	0.996158
371.034035	0.996072
371.421090	0.994727
371.808081	0.993740
372.195010	0.995163
372.581875	0.995147
372.968678	0.994498
373.355418	0.994743
373.742096	0.994968
374.128710	0.995341
374.515262	0.994418
374.901751	0.996081
375.288177	0.994701
375.674540	0.995979
376.060841	0.994992
376.447079	0.995439
376.833254	0.995880
377.219367	0.995888
377.605417	0.995492
377.991404	0.994967
378.377329	0.994599
378.763191	0.994657
379.148991	0.996399
379.534727	0.996098
379.920402	0.995697
380.306013	0.995856
380.691563	0.995266
381.077049	0.995610
381.462474	0.996793
381.847835	0.996510
382.233134	0.995824
382.618371	0.996329
383.003545	0.996532
383.388657	0.994801
383.773706	0.996701
384.158693	0.996002
384.543618	0.996206
384.928480	0.997091
385.313280	0.996942
385.698017	0.996924
386.082692	0.996242
386.467305	0.995970
386.851856	0.995585
387.236344	0.996265
387.620770	0.995305
388.005133	0.996881
388.389435	0.997426
388.773674	0.995659
389.157851	0.996857
389.541965	0.997506
389.926018	0.995219
390.310008	0.997771
390.693936	0.995692
391.077802	0.996701
391.461606	0.996829
391.845348	0.996385
392.229027	0.996465
392.612645	0.996369
392.996200	0.997318
393.379694	0.997249
393.763125	0.997284
394.146494	0.997071
394.529801	0.996515
394.913047	0.997017
395.296230	0.997586
395.679351	0.996814
396.062410	0.996712
396.445408	0.997099
396.828343	0.995813
397.211217	0.995956
397.594028	0.997215
397.976778	0.996451
398.359466	0.996523
398.742092	0.996645
399.124656	0.996242
399.507158	0.997463
399.889598	0.997031
400.271977	0.996911
400.654294	0.997263
401.036549	0.996946
401.418742	0.997157
401.800874	0.996535
402.182944	0.996424
402.564952	0.995664
402.946898	0.997710
403.328783	0.997031
403.710606	0.996173
404.092367	0.997297
404.474067	0.997217
404.855705	0.996627
405.237282	0.996871
405.618797	0.996500
406.000250	0.996293
406.381642	0.996707
406.762972	0.996802
407.144240	0.998173
407.525447	0.998238
407.906593	0.997462
408.287677	0.996634
408.668700	0.997306
409.049661	0.995651
409.430560	0.997043
409.811399	0.996695
410.192176	0.997166
410.572891	0.996684
410.953545	0.996938
411.334138	0.996603
411.714669	0.997533
412.095139	0.996366
412.475547	0.998233
412.855894	0.997110
413.236180	0.997998
413.616405	0.997382
413.996568	0.997873
414.376670	0.996812
414.756711	0.997258
415.136691	0.997175
415.516609	0.997079
415.896466	0.997273
416.276262	0.996370
416.655997	0.997037
417.035670	0.996405
417.415283	0.997044
417.794834	0.996923
418.174324	0.996720
418.553753	0.997714
418.933121	0.996706
419.312428	0.997377
419.691674	0.996853
420.070859	0.997721
420.449983	0.997410
420.829045	0.996961
421.208047	0.997590
421.586988	0.998180
421.965867	0.997409
422.344686	0.998629
422.723444	0.997650
423.102141	0.997791
423.480777	0.997207
423.859352	0.997844
424.237866	0.997126
424.616319	0.997592
424.994712	0.997610
425.373044	0.997671
425.751314	0.997393
426.129524	0.997863
426.507673	0.997691
426.885762	0.998363
427.263789	0.997563
427.641756	0.997635
428.019662	0.998014
428.397508	0.996500
428.775292	0.997015
429.153016	0.997624
429.530679	0.998049
429.908282	0.997841
430.285824	0.997362
430.663305	0.996472
431.040726	0.997013
431.418086	0.998147
431.795385	0.998407
432.172624	0.997278
432.549802	0.998264
432.926920	0.997429
433.303977	0.996490
433.680974	0.997368
434.057910	0.997398
434.434786	0.997310
434.811601	0.997221
435.188355	0.996546
435.565050	0.996958
435.941683	0.997722
436.318257	0.998615
436.694770	0.997163
437.071222	0.997884
437.447614	0.997493
437.823946	0.997575
438.200218	0.997476
438.576429	0.997366
438.952580	0.997511
439.328670	0.996607
439.704700	0.997760
440.080670	0.997924
440.456580	0.997372
440.832429	0.996811
441.208218	0.997416
441.583947	0.997335
441.959616	0.997103
442.335224	0.997496
442.710773	0.997982
443.086261	0.996405
443.461689	0.996768
443.837057	0.997030
444.212365	0.997682
444.587612	0.996814
444.962800	0.996295
445.337927	0.997086
445.712995	0.996545
446.088002	0.998123
446.462949	0.997275
446.837837	0.997313
447.212664	0.997930
447.587431	0.997701
447.962139	0.997246
448.336786	0.997555
448.711374	0.996621
449.085901	0.996734
449.460369	0.998415
449.834776	0.996952
450.209124	0.997853
450.583412	0.996676
450.957640	0.996958
451.331808	0.997048
451.705917	0.996356
452.079965	0.996239
452.453954	0.996667
452.827883	0.996622
453.201752	0.997094
453.575562	0.997307
453.949311	0.996756
454.323001	0.996314
454.696632	0.996515
455.070202	0.997274
455.443713	0.996107
455.817164	0.996847
456.190556	0.996360
456.563888	0.996286
456.937160	0.996117
457.310373	0.995464
457.683526	0.995387
458.056619	0.995923
458.429653	0.995791
458.802628	0.994370
459.175542	0.995101
459.548398	0.994466
459.921194	0.993784
460.293930	0.994201
460.666607	0.993184
461.039224	0.991844
461.411782	0.992438
461.784280	0.991023
462.156719	0.992231
462.529099	0.991435
462.901419	0.990484
463.273680	0.989751
463.645882	0.988996
464.018024	0.989103
464.390106	0.987907
464.762130	0.987450
465.134094	0.985377
465.505999	0.982770
465.877845	0.980352
466.249631	0.979463
466.621358	0.979414
466.993026	0.978672
467.364634	0.977973
467.736184	0.977219
468.107674	0.975062
468.479105	0.973041
468.850477	0.972366
469.221790	0.970620
469.593043	0.969728
469.964238	0.968026
470.335373	0.966100
470.706449	0.964230
471.077467	0.961858
471.448425	0.956535
471.819324	0.953669
472.190164	0.951074
472.560945	0.950927
472.931667	0.949185
473.302330	0.947609
473.672934	0.944921
474.043479	0.941315
474.413965	0.939437
474.784393	0.934818
475.154761	0.931511
475.525070	0.927650
475.895321	0.926030
476.265513	0.921476
476.635645	0.917928
477.005719	0.912986
477.375734	0.908415
477.745691	0.903867
478.115588	0.898967
478.485427	0.893768
478.855207	0.886196
479.224928	0.876313
479.594591	0.869957
479.964194	0.866834
480.333739	0.863358
480.703226	0.857964
481.072653	0.852656
481.442022	0.844210
481.811333	0.837092
482.180584	0.834199
482.549777	0.827299
482.918912	0.822611
483.287988	0.816211
483.657005	0.810315
484.025964	0.806344
484.394864	0.798768
484.763706	0.792030
485.132489	0.788413
485.501213	0.781157
485.869879	0.774801
486.238487	0.767880
486.607036	0.761543
486.975527	0.754118
487.343959	0.746965
487.712333	0.739077
488.080648	0.732636
488.448905	0.724527
488.817104	0.718095
489.185244	0.709518
489.553326	0.699898
489.921350	0.688156
490.289315	0.671482
490.657222	0.663532
491.025070	0.655893
491.392861	0.649926
491.760593	0.645889
492.128267	0.640121
492.495883	0.634868
492.863440	0.630232
493.230939	0.624992
493.598380	0.618303
493.965763	0.610835
494.333088	0.605913
494.700354	0.598176
495.067563	0.591474
495.434713	0.584571
495.801805	0.576737
496.168839	0.570371
496.535815	0.562686
496.902733	0.556668
497.269593	0.549589
497.636395	0.542208
498.003139	0.534636
498.369825	0.530410
498.736453	0.520063
499.103023	0.514450
499.469535	0.507203
499.835989	0.501155
500.202385	0.494297
500.568723	0.490681
500.935003	0.482268
501.301226	0.476736
501.667390	0.467687
502.033497	0.459851
502.399546	0.456273
502.765537	0.450266
503.131470	0.443116
503.497345	0.434243
503.863163	0.435694
504.228923	0.423811
504.594625	0.417983
504.960269	0.416406
505.325856	0.406864
505.691385	0.404709
506.056856	0.397035
506.422270	0.391198
506.787625	0.388592
507.152924	0.380761
507.518164	0.376705
507.883347	0.372981
508.248472	0.369828
508.613540	0.361013
508.978550	0.358843
509.343503	0.354757
509.708398	0.348601
510.073236	0.342114
510.438016	0.338486
510.802738	0.335085
511.167403	0.330310
511.532010	0.328133
511.896561	0.321035
512.261053	0.316441
512.625488	0.314358
512.989866	0.311401
513.354186	0.308554
513.718449	0.306784
514.082655	0.300648
514.446803	0.299797
514.810894	0.294718
515.174927	0.294009
515.538904	0.290990
515.902822	0.285435
516.266684	0.285323
516.630488	0.283897
516.994235	0.280494
517.357925	0.276849
517.721558	0.272825
518.085133	0.270450
518.448651	0.268904
518.812112	0.268733
519.175516	0.266542
519.538863	0.262233
519.902152	0.262492
520.265385	0.257294
520.628560	0.257919
520.991678	0.256579
521.354739	0.253995
521.717743	0.254214
522.080690	0.253504
522.443580	0.249226
522.806413	0.248959
523.169189	0.247107
523.531908	0.245133
523.894569	0.247545
524.257174	0.246623
524.619722	0.243348
524.982213	0.243821
525.344647	0.241610
525.707025	0.241961
526.069345	0.239197
526.431608	0.240072
526.793815	0.237569
527.155964	0.241248
527.518057	0.239570
527.880093	0.239936
528.242072	0.238025
528.603995	0.239447
528.965860	0.240599
529.327669	0.238931
529.689421	0.239741
530.051117	0.240300
530.412755	0.237545
530.774337	0.239768
531.135862	0.239736
531.497331	0.238639
531.858743	0.241172
532.220098	0.237730
532.581396	0.239963
532.942638	0.240306
533.303824	0.240754
533.664953	0.240536
534.026025	0.242008
534.387040	0.239668
534.747999	0.239463
535.108902	0.238171
535.469748	0.242917
535.830537	0.240603
536.191270	0.241086
536.551947	0.240433
536.912567	0.240232
537.273131	0.241857
537.633638	0.242211
537.994089	0.242340
538.354483	0.243114
538.714821	0.240484
539.075103	0.239921
539.435328	0.240713
539.795497	0.244367
540.155609	0.240605
540.515665	0.239014
540.875665	0.244419
541.235609	0.242835
541.595496	0.242880
541.955328	0.239316
542.315102	0.241804
542.674821	0.242937
543.034483	0.242716
543.394090	0.242508
543.753640	0.244227
544.113134	0.239314
544.472571	0.242578
544.831953	0.239283
545.191278	0.243394
545.550548	0.242919
545.909761	0.239520
546.268918	0.240187
546.628019	0.238529
546.987064	0.241328
547.346053	0.242952
547.704986	0.240825
548.063863	0.241108
548.422684	0.241215
548.781449	0.242879
549.140158	0.240913
549.498811	0.243626
549.857408	0.246630
550.215949	0.241450
550.574434	0.244353
550.932864	0.242372
551.291237	0.240843
551.649555	0.242389
552.007817	0.242187
552.366022	0.242817
552.724173	0.243293
553.082267	0.243486
553.440305	0.240634
553.798288	0.244737
554.156215	0.241347
554.514086	0.241984
554.871902	0.245288
555.229661	0.244293
555.587365	0.244988
555.945014	0.247339
556.302606	0.244144
556.660143	0.246887
557.017625	0.243062
557.375050	0.245688
557.732421	0.242458
558.089735	0.244383
558.446994	0.244572
558.804197	0.243734
559.161345	0.243899
559.518437	0.247104
559.875474	0.244880
560.232455	0.244365
560.589381	0.245566
560.946251	0.245376
561.303065	0.242874
561.659825	0.244454
562.016528	0.245842
562.373177	0.248637
562.729770	0.246232
563.086307	0.248130
563.442789	0.246107
563.799216	0.248869
564.155587	0.247524
564.511904	0.248645
564.868164	0.248681
565.224370	0.248309
565.580520	0.250396
565.936615	0.250281
566.292654	0.253354
566.648638	0.250082
567.004567	0.251109
567.360441	0.251598
567.716260	0.253940
568.072023	0.251632
568.427732	0.251984
568.783385	0.254683
569.138982	0.252947
569.494525	0.252631
569.850013	0.255265
570.205445	0.253831
570.560823	0.256433
570.916145	0.258323
571.271412	0.256421
571.626625	0.257821
571.981782	0.258255
572.336884	0.259323
572.691931	0.258864
573.046923	0.260070
573.401860	0.261542
573.756743	0.263187
574.111570	0.262088
574.466342	0.262375
574.821059	0.261515
575.175722	0.264292
575.530330	0.264103
575.884882	0.264557
576.239380	0.266287
576.593823	0.266783
576.948211	0.266150
577.302544	0.269526
577.656823	0.269128
578.011047	0.269367
578.365216	0.269895
578.719330	0.271683
579.073389	0.271602
579.427394	0.272917
579.781344	0.273751
580.135239	0.275449
580.489080	0.274810
580.842866	0.277984
581.196597	0.277722
581.550273	0.276538
581.903895	0.277344
582.257463	0.275689
582.610975	0.278893
582.964434	0.278497
583.317837	0.280498
583.671186	0.281142
584.024481	0.281139
584.377721	0.283656
584.730906	0.284417
585.084037	0.283347
585.437113	0.285198
585.790135	0.284727
586.143103	0.287444
586.496016	0.289035
586.848874	0.286314
587.201679	0.286957
587.554428	0.290420
587.907124	0.289177
588.259765	0.290085
588.612352	0.290393
588.964884	0.294120
589.317362	0.293663
589.669786	0.293357
590.022155	0.292094
590.374470	0.291837
590.726731	0.293546
591.078937	0.298058
591.431090	0.294169
591.783188	0.298954
592.135232	0.299001
592.487222	0.299109
592.839157	0.297569
593.191038	0.299632
593.542866	0.301584
593.894639	0.305271
594.246358	0.303072
594.598022	0.302731
594.949633	0.306188
595.301190	0.306514
595.652692	0.306189
596.004141	0.302415
596.355535	0.310328
596.706876	0.311043
597.058162	0.313563
597.409395	0.310533
597.760573	0.308212
598.111698	0.311334
598.462768	0.311842
598.813785	0.313234
599.164748	0.314345
599.515657	0.314814
599.866511	0.318006
600.217312	0.313347
600.568060	0.318943
600.918753	0.315157
601.269392	0.316050
601.619978	0.319097
601.970510	0.317246
602.320988	0.316922
602.671412	0.314654
603.021783	0.317411
603.372100	0.318732
603.722363	0.318804
604.072572	0.318917
604.422728	0.319204
604.772830	0.321008
605.122878	0.320547
605.472872	0.321198
605.822813	0.319223
606.172701	0.321952
606.522534	0.319727
606.872314	0.319383
607.222041	0.320212
607.571714	0.318792
607.921333	0.319885
608.270899	0.319545
608.620411	0.316574
608.969870	0.320637
609.319276	0.320606
609.668627	0.320226
610.017926	0.319015
610.367171	0.317618
610.716362	0.318407
611.065500	0.318571
611.414585	0.317206
611.763616	0.317987
612.112594	0.318305
612.461518	0.317742
612.810389	0.315375
613.159207	0.317466
613.507971	0.319413
613.856682	0.315357
614.205340	0.316686
614.553945	0.313729
614.902496	0.317497
615.250994	0.315851
615.599439	0.316313
615.947830	0.315807
616.296169	0.317130
616.644454	0.316135
616.992686	0.316315
617.340864	0.314032
617.688990	0.318029
618.037063	0.314071
618.385082	0.316080
618.733048	0.313022
619.080961	0.315520
619.428821	0.314631
619.776628	0.314267
620.124382	0.316153
620.472083	0.316545
620.819731	0.316164
621.167326	0.319941
621.514868	0.319741
621.862357	0.323654
622.209793	0.323451
622.557176	0.325850
622.904506	0.326861
623.251783	0.329635
623.599007	0.331291
623.946179	0.331207
624.293297	0.332707
624.640363	0.336733
624.987376	0.337598
625.334336	0.340031
625.681243	0.342142
626.028097	0.342702
626.374899	0.343662
626.721647	0.343856
627.068343	0.347211
627.414987	0.348252
627.761577	0.350040
628.108115	0.348471
628.454600	0.353757
628.801032	0.350569
629.147412	0.353015
629.493739	0.353568
629.840014	0.356563
630.186236	0.354195
630.532405	0.359480
630.878521	0.356769
631.224585	0.358950
631.570597	0.362829
631.916556	0.361258
632.262462	0.361631
632.608316	0.363516
632.954117	0.364241
633.299866	0.365159
633.645562	0.365382
633.991206	0.369931
634.336797	0.372855
634.682336	0.374916
635.027823	0.376931
635.373257	0.377390
635.718639	0.380852
636.063968	0.380046
636.409245	0.385979
636.754470	0.386351
637.099642	0.388952
637.444762	0.392201
637.789829	0.391038
638.134845	0.394864
638.479808	0.395691
638.824719	0.395246
639.169577	0.398894
639.514383	0.398052
639.859137	0.402430
640.203839	0.402234
640.548489	0.402538
640.893086	0.404025
641.237632	0.405821
641.582125	0.404409
641.926566	0.404928
642.270955	0.405835
642.615292	0.405858
642.959576	0.405297
643.303809	0.405851
643.647990	0.405747
643.992118	0.406127
644.336195	0.410020
644.680219	0.407904
645.024192	0.408557
645.368112	0.402119
645.711981	0.401402
646.055797	0.396675
646.399562	0.398945
646.743274	0.390852
647.086935	0.388393
647.430544	0.388565
647.774101	0.387535
648.117606	0.387015
648.461059	0.387489
648.804460	0.390300
649.147810	0.395085
649.491108	0.396953
649.834354	0.398232
650.177548	0.403797
650.520690	0.409032
650.863781	0.410076
651.206820	0.409242
651.549807	0.414048
651.892742	0.418386
652.235626	0.418128
652.578458	0.418607
652.921238	0.424585
653.263967	0.422842
653.606644	0.426947
653.949269	0.426168
654.291843	0.430132
654.634365	0.427090
654.976836	0.429834
655.319255	0.430502
655.661622	0.432350
656.003938	0.431845
656.346203	0.434548
656.688416	0.432459
657.030577	0.436022
657.372687	0.437855
657.714746	0.438775
658.056753	0.435542
658.398708	0.439636
658.740612	0.440951
659.082465	0.436594
659.424266	0.437766
659.766016	0.436909
660.107715	0.439431
660.449362	0.438401
660.790958	0.439132
661.132503	0.439786
661.473996	0.437392
661.815438	0.438045
662.156829	0.438813
662.498168	0.439430
662.839456	0.440624
663.180693	0.438635
663.521879	0.438480
663.863013	0.438911
664.204097	0.437497
664.545129	0.434555
664.886110	0.434975
665.227040	0.432194
665.567918	0.435132
665.908746	0.432618
666.249522	0.432451
666.590248	0.433883
666.930922	0.431356
667.271545	0.430431
667.612118	0.430957
667.952639	0.432478
668.293109	0.430788
668.633528	0.434241
668.973896	0.433763
669.314213	0.434160
669.654480	0.435675
669.994695	0.435844
670.334859	0.437290
670.674973	0.436807
671.015035	0.437013
671.355047	0.437301
671.695008	0.438109
672.034918	0.440006
672.374777	0.439402
672.714585	0.440654
673.054342	0.440771
673.394049	0.441089
673.733705	0.438344
674.073310	0.439838
674.412864	0.441942
674.752368	0.443404
675.091820	0.443468
675.431223	0.448038
675.770574	0.447006
676.109875	0.450432
676.449125	0.450139
676.788324	0.452817
677.127473	0.458372
677.466571	0.457756
677.805619	0.459825
678.144616	0.460807
678.483562	0.462132
678.822458	0.464800
679.161303	0.465876
679.500098	0.465862
679.838842	0.467449
680.177535	0.467629
680.516179	0.465809
680.854771	0.465131
681.193314	0.459013
681.531805	0.450000
681.870247	0.438309
682.208638	0.430638
682.546978	0.429744
682.885268	0.431216
683.223508	0.437413
683.561697	0.441759
683.899836	0.444297
684.237925	0.447885
684.575963	0.450262
684.913951	0.453424
685.251889	0.449164
685.589776	0.450336
685.927614	0.453470
686.265401	0.447430
686.603137	0.448975
686.940824	0.443121
687.278460	0.442018
687.616046	0.440683
687.953582	0.435252
688.291068	0.437125
688.628504	0.432537
688.965889	0.434857
689.303224	0.438969
689.640510	0.443131
689.977745	0.449034
690.314930	0.456411
690.652065	0.460967
690.989150	0.468260
691.326185	0.475073
691.663170	0.479815
692.000105	0.486757
692.336990	0.493849
692.673825	0.496730
693.010610	0.503310
693.347345	0.508650
693.684030	0.510062
694.020665	0.514931
694.357251	0.523081
694.693786	0.523250
695.030272	0.527429
695.366707	0.531061
695.703093	0.533781
696.039429	0.532310
696.375716	0.533191
696.711952	0.536702
697.048139	0.538536
697.384276	0.540001
697.720363	0.538024
698.056400	0.538537
698.392388	0.542785
698.728326	0.546469
699.064214	0.549155
699.400053	0.549335
699.735842	0.553407
700.071581	0.556014
700.407270	0.558602
700.742910	0.561291
701.078501	0.567763
701.414042	0.568563
701.749533	0.571571
702.084974	0.580100
702.420366	0.572223
702.755709	0.579817
703.091002	0.588249
703.426246	0.580698
703.761440	0.587028
704.096584	0.591954
704.431679	0.589073
704.766725	0.590569
705.101721	0.592619
705.436668	0.588937
705.771565	0.595572
706.106413	0.592804
706.441212	0.587227
706.775961	0.586477
707.110661	0.589772
707.445311	0.586486
707.779913	0.582552
708.114465	0.581408
708.448967	0.577913
708.783421	0.569696
709.117825	0.564614
709.452180	0.564671
709.786485	0.558492
710.120742	0.548772
710.454949	0.550554
710.789107	0.543196
711.123216	0.534220
711.457275	0.535511
711.791286	0.526837
712.125247	0.524881
712.459159	0.536438
712.793023	0.529226
713.126837	0.532823
713.460602	0.533621
713.794318	0.542997
714.127985	0.540968
714.461602	0.551262
714.795171	0.554871
715.128691	0.562231
715.462162	0.569759
715.795584	0.575766
716.128957	0.578727
716.462281	0.585087
716.795556	0.589085
717.128782	0.593502
717.461960	0.603435
717.795088	0.601254
718.128167	0.607397
718.461198	0.616704
718.794180	0.617121
719.127113	0.619461
719.459997	0.623734
719.792833	0.629238
720.125619	0.631035
720.458357	0.636237
720.791046	0.635917
721.123686	0.639689
721.456278	0.646485
721.788821	0.643617
722.121315	0.647509
722.453761	0.652150
722.786158	0.649951
723.118506	0.646886
723.450805	0.654943
723.783056	0.650340
724.115259	0.647274
724.447412	0.647555
724.779518	0.648950
725.111574	0.647554
725.443582	0.642879
725.775542	0.645067
726.107453	0.637613
726.439315	0.637111
726.771129	0.636043
727.102895	0.630117
727.434612	0.621444
727.766281	0.620385
728.097901	0.619674
728.429473	0.619801
728.760996	0.616843
729.092471	0.617793
729.423897	0.621226
729.755276	0.621022
730.086606	0.620340
730.417887	0.614704
730.749120	0.606746
731.080305	0.597277
731.411442	0.593439
731.742530	0.598180
732.073570	0.597150
732.404562	0.589167
732.735506	0.590693
733.066401	0.595139
733.397249	0.604434
733.728048	0.616175
734.058798	0.628336
734.389501	0.638792
734.720156	0.648689
735.050762	0.656565
735.381320	0.657152
735.711831	0.666686
736.042293	0.671069
736.372707	0.667285
736.703073	0.672385
737.033391	0.674632
737.363661	0.671377
737.693883	0.666470
738.024056	0.665728
738.354182	0.666583
738.684260	0.655195
739.014290	0.650351
739.344272	0.652553
739.674207	0.645539
740.004093	0.645266
740.333931	0.645189
740.663722	0.645720
740.993464	0.645563
741.323159	0.650614
741.652806	0.654878
741.982405	0.659020
742.311956	0.664088
742.641460	0.665182
742.970915	0.669728
743.300323	0.677302
743.629683	0.683788
743.958996	0.686476
744.288260	0.689821
744.617477	0.695864
744.946647	0.697368
745.275768	0.702026
745.604842	0.702317
745.933869	0.712406
746.262847	0.713190
746.591778	0.706852
746.920662	0.712425
747.249498	0.719417
747.578286	0.710549
747.907027	0.705843
748.235720	0.708694
748.564365	0.701777
748.892963	0.701906
749.221514	0.704819
749.550017	0.709628
749.878473	0.709719
750.206881	0.715550
750.535242	0.717921
750.863555	0.717851
751.191821	0.718330
751.520039	0.721491
751.848210	0.725849
752.176334	0.718956
752.504411	0.717577
752.832440	0.726135
753.160421	0.730153
753.488356	0.728500
753.816243	0.725841
754.144082	0.734303
754.471875	0.737576
754.799620	0.733174
755.127318	0.734234
755.454969	0.733430
755.782572	0.732938
756.110129	0.738637
756.437638	0.741101
756.765100	0.737822
757.092515	0.735914
757.419882	0.734254
757.747203	0.740190
758.074477	0.739453
758.401703	0.735893
758.728882	0.731736
759.056014	0.729835
759.383099	0.729842
759.710138	0.730961
760.037129	0.727148
760.364073	0.721279
760.690970	0.722457
761.017820	0.729331
761.344623	0.724927
761.671379	0.715192
761.998088	0.703727
762.324751	0.681541
762.651366	0.640581
762.977935	0.574049
763.304456	0.522573
763.630931	0.512793
763.957359	0.552365
764.283740	0.596515
764.610074	0.622645
764.936362	0.653227
765.262602	0.680126
765.588796	0.701477
765.914943	0.719748
766.241044	0.736775
766.567097	0.743066
766.893104	0.753304
767.219064	0.759289
767.544978	0.766054
767.870845	0.778931
768.196665	0.782841
768.522438	0.780729
768.848165	0.782241
769.173846	0.791902
769.499479	0.794803
769.825066	0.798827
770.150607	0.804057
770.476101	0.798889
770.801548	0.800171
771.126949	0.811135
771.452303	0.815173
771.777611	0.814188
772.102872	0.813703
772.428087	0.818797
772.753256	0.822689
773.078378	0.824098
773.403453	0.832955
773.728482	0.836787
774.053465	0.832008
774.378401	0.834372
774.703291	0.842853
775.028135	0.842605
775.352932	0.844547
775.677683	0.846751
776.002388	0.847730
776.327046	0.846973
776.651658	0.849979
776.976224	0.853652
777.300743	0.854138
777.625216	0.856328
777.949643	0.858283
778.274024	0.857590
778.598359	0.859925
778.922647	0.858202
779.246889	0.858312
779.571086	0.862249
779.895236	0.865241
780.219339	0.862216
780.543397	0.859203
780.867409	0.856719
781.191374	0.859053
781.515294	0.860999
781.839167	0.859723
782.162995	0.863719
782.486776	0.861030
782.810511	0.861233
783.134201	0.864973
783.457844	0.861610
783.781441	0.864696
784.104993	0.871710
784.428498	0.872011
784.751958	0.867214
785.075372	0.870156
785.398739	0.872831
785.722061	0.870245
786.045337	0.865669
786.368568	0.870248
786.691752	0.871628
787.014891	0.858878
787.337983	0.849831
787.661030	0.842066
787.984031	0.825771
788.306987	0.811860
788.629897	0.814219
788.952760	0.818619
789.275579	0.822309
789.598351	0.838407
789.921078	0.850644
790.243759	0.853238
790.566395	0.857694
790.888984	0.864299
791.211529	0.870147
791.534027	0.872974
791.856480	0.875309
792.178888	0.880299
792.501249	0.881661
792.823566	0.884009
793.145836	0.884260
793.468062	0.885906
793.790241	0.886370
794.112375	0.884313
794.434464	0.879241
794.756507	0.878803
795.078505	0.878337
795.400457	0.872839
795.722364	0.861210
796.044226	0.854669
796.366042	0.852665
796.687812	0.857231
797.009538	0.852606
797.331218	0.856136
797.652852	0.860739
797.974442	0.865585
798.295986	0.865424
798.617484	0.868241
798.938938	0.871982
799.260346	0.877918
799.581709	0.879108
799.903026	0.880741
800.224299	0.881379
800.545526	0.885580
800.866708	0.888919
801.187845	0.892825
801.508936	0.892332
801.829983	0.890772
802.150984	0.893577
802.471940	0.898126
802.792851	0.897022
803.113717	0.899173
803.434538	0.896642
803.755314	0.899376
804.076045	0.900919
804.396731	0.900974
804.717372	0.901190
805.037967	0.902585
805.358518	0.900512
805.679024	0.898175
805.999485	0.897821
806.319901	0.898835
806.640272	0.900154
806.960598	0.897751
807.280879	0.893857
807.601115	0.893453
807.921306	0.897208
808.241453	0.897215
808.561554	0.895042
808.881611	0.894025
809.201623	0.896873
809.521590	0.897023
809.841513	0.898863
810.161390	0.897680
810.481223	0.898390
810.801011	0.902192
811.120755	0.904148
811.440453	0.903086
811.760107	0.901463
812.079716	0.901352
812.399281	0.904920
812.718801	0.907279
813.038276	0.908832
813.357707	0.907112
813.677093	0.904476
813.996434	0.908925
814.315731	0.910393
814.634983	0.909446
814.954191	0.908393
815.273354	0.905355
815.592473	0.902487
815.911547	0.901525
816.230577	0.899795
816.549562	0.897249
816.868502	0.898162
817.187399	0.894442
817.506250	0.889036
817.825058	0.891122
818.143821	0.887419
818.462539	0.882223
818.781213	0.874325
819.099843	0.863630
819.418429	0.848075
819.736970	0.832740
820.055466	0.812282
820.373919	0.787144
820.692327	0.754831
821.010691	0.720572
821.329011	0.643750
821.647286	0.530805
821.965517	0.418168
822.283704	0.375533
822.601847	0.377017
822.919945	0.412850
823.237999	0.445584
823.556010	0.492085
823.873976	0.547170
824.191897	0.596595
824.509775	0.638410
824.827609	0.683643
825.145398	0.705650
825.463144	0.708699
825.780845	0.691130
826.098502	0.673318
826.416116	0.627539
826.733685	0.584653
827.051210	0.576799
827.368692	0.591279
827.686129	0.627750
828.003522	0.679770
828.320872	0.726234
828.638177	0.770287
828.955439	0.802194
829.272656	0.823788
829.589830	0.840521
829.906960	0.856378
830.224046	0.869057
830.541088	0.878655
830.858086	0.882305
831.175041	0.888925
831.491952	0.887670
831.808819	0.885070
832.125642	0.878297
832.442421	0.863149
832.759157	0.842194
833.075849	0.797079
833.392497	0.734062
833.709101	0.693928
834.025662	0.702619
834.342179	0.734676
834.658653	0.772591
834.975083	0.809048
835.291469	0.834222
835.607811	0.857321
835.924110	0.871926
836.240366	0.888180
836.556578	0.903712
836.872746	0.908797
837.188871	0.915909
837.504952	0.921775
837.820990	0.924736
838.136984	0.928452
838.452935	0.931072
838.768842	0.932054
839.084706	0.925936
839.400526	0.901973
839.716303	0.860434
840.032037	0.838955
840.347727	0.842620
840.663373	0.861225
840.978977	0.880810
841.294537	0.903883
841.610054	0.920586
841.925527	0.926333
842.240957	0.932728
842.556344	0.940751
842.871687	0.946084
843.186987	0.951034
843.502244	0.950666
843.817458	0.952556
844.132629	0.954874
844.447756	0.960856
844.762840	0.960456
845.077881	0.960967
845.392879	0.961484
845.707833	0.963101
846.022745	0.964452
846.337613	0.965064
846.652438	0.965948
846.967221	0.965340
847.281960	0.966090
847.596656	0.967842
847.911309	0.967099
848.225919	0.967580
848.540485	0.968768
848.855009	0.969474
849.169490	0.967617
849.483928	0.969720
849.798323	0.968902
850.112675	0.970218
850.426984	0.969991
850.741251	0.970011
851.055474	0.969947
851.369654	0.968248
851.683792	0.969128
851.997887	0.970468
852.311938	0.969865
852.625947	0.969849
852.939914	0.968110
853.253837	0.968957
853.567718	0.971776
853.881555	0.971977
854.195350	0.968921
854.509103	0.969654
854.822812	0.970396
855.136479	0.970075
855.450103	0.970904
855.763685	0.968496
856.077224	0.969511
856.390720	0.970545
856.704173	0.971115
857.017584	0.967876
857.330953	0.967007
857.644278	0.967868
857.957561	0.969793
858.270802	0.969003
858.584000	0.967881
858.897155	0.966939
859.210268	0.967587
859.523339	0.969315
859.836367	0.969892
860.149352	0.973001
860.462295	0.969147
860.775195	0.969215
861.088054	0.969707
861.400869	0.969378
861.713642	0.971378
862.026373	0.970200
862.339062	0.971343
862.651708	0.967900
862.964312	0.967417
863.276873	0.970454
863.589392	0.968764
863.901869	0.966344
864.214303	0.965966
864.526696	0.964560
864.839045	0.963643
865.151353	0.961956
865.463619	0.963421
865.775842	0.962811
866.088023	0.961900
866.400162	0.962820
866.712258	0.962350
867.024313	0.964227
867.336325	0.963262
867.648296	0.963342
867.960224	0.962945
868.272110	0.961817
868.583954	0.964162
868.895755	0.963940
869.207515	0.961703
869.519233	0.959595
869.830909	0.962562
870.142542	0.963966
870.454134	0.962873
870.765684	0.962312
871.077191	0.958698
871.388657	0.959631
871.700081	0.958747
872.011463	0.958809
872.322803	0.958781
872.634101	0.956850
872.945357	0.953916
873.256571	0.954184
873.567744	0.953883
873.878874	0.955342
874.189963	0.952631
874.501010	0.952247
874.812015	0.950012
875.122979	0.951466
875.433900	0.954798
875.744780	0.953741
876.055618	0.952600
876.366415	0.950953
876.677169	0.950364
876.987882	0.953449
877.298554	0.950985
877.609183	0.948100
877.919771	0.945586
878.230317	0.944012
878.540822	0.941895
878.851285	0.936485
879.161707	0.928656
879.472087	0.917591
879.782425	0.901483
880.092722	0.867589
880.402977	0.817182
880.713191	0.758590
881.023363	0.701004
881.333494	0.668613
881.643583	0.640013
881.953631	0.639167
882.263637	0.668138
882.573602	0.707433
882.883526	0.731766
883.193408	0.755300
883.503248	0.776539
883.813048	0.802682
884.122806	0.832574
884.432522	0.854442
884.742197	0.874640
885.051831	0.884095
885.361424	0.894294
885.670975	0.905763
885.980485	0.915538
886.289954	0.921315
886.599382	0.926104
886.908768	0.930580
887.218113	0.935929
887.527417	0.940422
887.836680	0.943341
888.145901	0.944688
888.455082	0.947357
888.764221	0.951665
889.073319	0.952497
889.382376	0.954751
889.691392	0.954601
890.000366	0.953230
890.309300	0.956024
890.618193	0.953896
890.927044	0.953296
891.235855	0.952387
891.544625	0.952479
891.853353	0.952001
892.162041	0.950460
892.470687	0.944406
892.779293	0.939245
893.087858	0.935587
893.396381	0.928047
893.704864	0.915137
894.013306	0.892389
894.321707	0.867527
894.630068	0.852451
894.938387	0.848178
895.246665	0.850138
895.554903	0.861088
895.863100	0.873860
896.171256	0.890084
896.479371	0.909005
896.787446	0.922100
897.095480	0.927350
897.403473	0.930137
897.711425	0.934096
898.019336	0.941610
898.327207	0.944140
898.635038	0.946330
898.942827	0.946658
899.250576	0.948902
899.558284	0.954348
899.865952	0.955090
900.173579	0.956755
900.481165	0.956007
900.788711	0.960094
901.096216	0.962943
901.403681	0.961756
901.711105	0.964191
902.018489	0.964447
902.325832	0.962835
902.633135	0.962919
902.940397	0.957729
903.247619	0.944773
903.554800	0.920692
903.861941	0.882964
904.169041	0.848861
904.476101	0.831796
904.783121	0.832328
905.090100	0.849097
905.397039	0.867827
905.703938	0.889103
906.010796	0.909259
906.317614	0.925223
906.624391	0.937038
906.931129	0.945704
907.237826	0.953753
907.544483	0.960455
907.851099	0.963868
908.157675	0.968666
908.464211	0.970788
908.770707	0.972386
909.077163	0.975801
909.383578	0.975377
909.689954	0.974794
909.996289	0.976225
910.302584	0.978350
910.608839	0.979648
910.915054	0.979336
911.221229	0.977940
911.527363	0.977890
911.833458	0.978013
912.139513	0.976926
912.445527	0.976227
912.751502	0.974548
913.057436	0.973206
913.363331	0.971940
913.669186	0.967893
913.975000	0.962084
914.280775	0.956508
914.586510	0.949626
914.892205	0.937752
915.197859	0.917835
915.503475	0.890916
915.809050	0.871651
916.114585	0.867378
916.420081	0.865287
916.725536	0.861644
917.030952	0.868859
917.336328	0.880792
917.641665	0.896490
917.946961	0.910855
918.252218	0.922377
918.557435	0.930071
918.862612	0.939251
919.167750	0.944663
919.472848	0.949129
919.777906	0.954333
920.082925	0.959871
920.387904	0.962416
920.692843	0.964632
920.997743	0.963866
921.302603	0.969265
921.607423	0.969200
921.912204	0.973039
922.216946	0.972154
922.521647	0.973924
922.826310	0.975590
923.130932	0.977495
923.435516	0.979143
923.740059	0.980666
924.044564	0.978877
924.349028	0.980583
924.653454	0.982760
924.957840	0.985218
925.262186	0.985036
925.566493	0.984131
925.870761	0.985314
926.174989	0.986662
926.479178	0.987404
926.783328	0.989479
927.087438	0.988008
927.391509	0.987669
927.695541	0.990325
927.999533	0.988874
928.303486	0.990071
928.607400	0.990744
928.911275	0.988987
929.215110	0.990373
929.518906	0.991466
929.822663	0.989798
930.126381	0.991090
930.430060	0.990111
930.733699	0.991093
931.037299	0.991101
931.340861	0.991012
931.644383	0.989533
931.947866	0.989583
932.251309	0.990145
932.554714	0.990708
932.858080	0.990600
933.161407	0.989536
933.464694	0.991525
933.767943	0.990409
934.071153	0.991149
934.374323	0.992090
934.677455	0.990704
934.980548	0.991387
935.283602	0.989890
935.586617	0.990833
935.889593	0.990478
936.192530	0.990055
936.495428	0.990936
936.798287	0.990496
937.101108	0.990295
937.403890	0.990282
937.706632	0.988206
938.009336	0.986732
938.312002	0.986245
938.614628	0.984099
938.917216	0.983473
939.219765	0.982001
939.522275	0.983000
939.824747	0.982734
940.127179	0.983557
940.429573	0.983912
940.731929	0.984824
941.034246	0.983673
941.336524	0.984972
941.638763	0.986523
941.940964	0.986909
942.243126	0.986920
942.545250	0.986993
942.847335	0.989313
943.149381	0.988279
943.451389	0.988566
943.753359	0.987853
944.055290	0.990945
944.357182	0.989804
944.659036	0.987899
944.960851	0.990239
945.262628	0.989518
945.564367	0.990792
945.866067	0.989898
946.167729	0.990346
946.469352	0.989916
946.770937	0.988914
947.072484	0.991596
947.373992	0.989802
947.675462	0.990892
947.976893	0.989506
948.278286	0.990349
948.579641	0.991439
948.880958	0.989922
949.182236	0.990728
949.483476	0.991312
949.784678	0.990702
950.085841	0.991699
950.386967	0.991139
950.688054	0.991452
950.989103	0.990220
951.290114	0.989095
951.591087	0.989932
951.892021	0.989853
952.192917	0.989118
952.493776	0.987858
952.794596	0.987914
953.095378	0.988451
953.396122	0.987964
953.696828	0.987268
953.997496	0.990137
954.298126	0.990826
954.598718	0.990328
954.899272	0.992021
955.199788	0.990292
955.500266	0.991898
955.800706	0.992935
956.101108	0.993087
956.401472	0.992370
956.701798	0.994681
957.002087	0.992398
957.302337	0.993808
957.602550	0.994662
957.902724	0.994604
958.202861	0.995243
958.502960	0.994831
958.803022	0.991896
959.103045	0.995468
959.403031	0.995541
959.702979	0.995660
960.002889	0.995964
960.302762	0.994269
960.602596	0.995667
960.902393	0.994929
961.202153	0.995475
961.501875	0.996105
961.801559	0.995505
962.101205	0.996557
962.400814	0.995279
962.700385	0.997122
962.999918	0.995341
963.299414	0.995584
963.598873	0.995668
963.898293	0.995300
964.197677	0.996252
964.497022	0.996164
964.796331	0.996443
965.095601	0.996533
965.394835	0.995895
965.694030	0.995767
965.993189	0.996913
966.292309	0.996559
966.591393	0.996908
966.890439	0.998090
967.189447	0.996447
967.488419	0.996431
967.787353	0.995613
968.086249	0.996220
968.385108	0.997202
968.683930	0.996442
968.982714	0.996861
969.281462	0.996937
969.580172	0.995559
969.878844	0.998117
970.177480	0.996259
970.476078	0.997065
970.774639	0.996505
971.073162	0.997116
971.371649	0.995623
971.670098	0.995549
971.968510	0.997656
972.266885	0.995493
972.565223	0.996202
972.863524	0.995807
973.161788	0.995271
973.460014	0.997231
973.758204	0.995668
974.056356	0.995226
974.354471	0.995112
974.652550	0.995154
974.950591	0.996256
975.248595	0.995055
975.546563	0.996387
975.844493	0.997739
976.142386	0.997434
976.440243	0.997384
976.738062	0.996913
977.035845	0.997965
977.333590	0.996832
977.631299	0.997490
977.928971	0.996302
978.226606	0.997501
978.524204	0.995021
978.821765	0.998217
979.119290	0.995003
979.416777	0.995985
979.714228	0.997436
980.011642	0.995484
980.309020	0.997020
980.606360	0.996291
980.903664	0.997626
981.200931	0.995425
981.498162	0.993682
981.795356	0.995328
982.092513	0.993594
982.389633	0.994102
982.686717	0.991278
982.983764	0.990987
983.280775	0.989372
983.577749	0.990433
983.874686	0.992367
984.171587	0.991467
984.468451	0.993881
984.765279	0.994748
985.062070	0.993439
985.358824	0.995172
985.655543	0.994583
985.952224	0.996275
986.248869	0.996645
986.545478	0.996089
986.842050	0.998487
987.138586	0.995169
987.435086	0.996651
987.731549	0.997328
988.027975	0.997408
988.324366	0.998454
988.620719	0.997018
988.917037	0.995563
989.213318	0.997189
989.509563	0.997982
989.805772	0.997893
990.101944	0.998569
990.398080	0.997374
990.694180	0.997030
990.990244	0.997237
991.286271	0.997872
991.582262	0.998041
991.878217	0.998739
992.174136	0.998098
992.470019	0.997648
992.765865	0.997011
993.061676	0.997232
993.357450	0.998289
993.653188	0.996754
993.948890	0.996804
994.244556	0.997366
994.540186	0.995797
994.835780	0.995869
995.131337	0.997055
995.426859	0.996656
995.722345	0.998005
996.017795	0.996104
996.313208	0.996359
996.608586	0.996180
996.903928	0.996229
997.199234	0.995253
997.494504	0.996706
997.789738	0.995431
998.084936	0.996885
998.380099	0.997280
998.675225	0.997460
998.970316	0.997866
999.265371	0.996922
999.560390	0.997766
999.855373	0.998586
1000.150320	0.997848
1000.445232	0.998274
1000.740108	0.996578
1001.034948	0.997836
1001.329752	0.998143
1001.624521	0.998499
1001.919254	0.997365
1002.213951	0.997802
1002.508613	0.997801
1002.803239	0.999284
1003.097829	0.999416
1003.392384	0.997992
1003.686903	0.997998
1003.981386	0.998815
1004.275834	0.998214
1004.570246	0.998372
1004.864623	0.998226
1005.158964	0.998422
1005.453270	0.998151
1005.747540	0.997415
1006.041775	0.997234
1006.335974	0.998052
1006.630138	0.998151
1006.924266	0.997686
1007.218359	1.000366
1007.512416	0.999071
1007.806438	0.999148
1008.100425	0.998757
1008.394376	0.998804
1008.688292	0.999047
1008.982172	0.999890
1009.276017	0.998747
1009.569827	0.996651
1009.863602	0.997999
1010.157341	0.998877
1010.451045	0.999544
1010.744714	0.998051
1011.038347	0.998621
1011.331945	0.998651
1011.625508	0.995985
1011.919036	0.998431
1012.212528	0.997602
1012.505986	0.996749
1012.799408	0.998127
1013.092795	0.998583
1013.386147	0.999172
1013.679464	0.998045
1013.972745	0.997627
1014.265992	0.997638
1014.559204	0.998105
1014.852380	0.999063
1015.145521	0.998208
1015.438628	0.998184
1015.731699	0.998052
1016.024736	0.998957
1016.317737	0.998859
1016.610703	0.997053
1016.903635	0.999296
1017.196531	0.997692
1017.489393	0.999056
1017.782219	0.999313
1018.075011	0.997822
1018.367768	0.998118
1018.660490	0.998814
1018.953177	0.998814
1019.245829	0.998814
