Dividing Wavelength (nm)	Counts (n)	Blue Motor Position (mm): 0.000000	Red Motor Position (mm): 18.000000	
326.493990	1.001164
326.888308	1.001164
327.282561	1.001164
327.676750	0.999895
328.070874	0.999615
328.464933	1.001175
328.858929	1.000570
329.252859	1.000100
329.646726	1.000139
330.040528	1.000814
330.434265	0.999744
330.827938	1.002094
331.221547	1.000852
331.615091	1.000429
332.008571	1.000605
332.401986	1.002323
332.795338	1.001084
333.188625	0.999319
333.581847	1.001676
333.975006	1.000412
334.368100	1.000700
334.761129	1.001413
335.154095	1.000521
335.546996	0.998205
335.939833	0.993253
336.332606	0.994214
336.725315	0.995484
337.117960	0.996763
337.510540	0.994571
337.903056	0.995576
338.295508	0.994266
338.687896	0.994500
339.080220	0.994615
339.472480	0.994219
339.864676	0.993430
340.256807	0.993912
340.648875	0.994938
341.040879	0.995380
341.432818	0.994631
341.824694	0.994124
342.216506	0.994674
342.608253	0.994205
342.999937	0.994062
343.391557	0.993279
343.783113	0.995144
344.174605	0.993921
344.566033	0.995011
344.957397	0.994989
345.348697	0.994669
345.739934	0.994577
346.131106	0.994356
346.522215	0.994379
346.913260	0.993567
347.304241	0.994125
347.695159	0.995188
348.086012	0.993840
348.476802	0.994834
348.867528	0.994771
349.258191	0.993671
349.648789	0.995197
350.039324	0.994805
350.429796	0.994380
350.820203	0.994322
351.210548	0.994674
351.600828	0.993945
351.991045	0.995193
352.381198	0.993017
352.771288	0.995072
353.161314	0.995042
353.551276	0.995513
353.941175	0.994606
354.331010	0.993677
354.720782	0.993623
355.110490	0.994150
355.500135	0.994708
355.889717	0.994416
356.279235	0.993690
356.668689	0.993791
357.058080	0.993540
357.447408	0.996555
357.836672	0.994467
358.225873	0.995076
358.615010	0.994658
359.004084	0.995154
359.393095	0.994514
359.782043	0.994930
360.170927	0.995409
360.559748	0.995691
360.948505	0.993636
361.337199	0.994421
361.725830	0.994624
362.114398	0.994325
362.502903	0.994561
362.891344	0.995933
363.279722	0.993547
363.668037	0.995232
364.056289	0.995197
364.444478	0.994423
364.832603	0.994962
365.220665	0.994932
365.608665	0.994727
365.996601	0.995286
366.384474	0.995022
366.772284	0.993647
367.160031	0.993772
367.547715	0.992248
367.935336	0.994473
368.322893	0.994366
368.710388	0.993178
369.097820	0.994449
369.485189	0.994115
369.872495	0.993559
370.259738	0.993240
370.646918	0.994646
371.034035	0.995093
371.421090	0.994838
371.808081	0.993903
372.195010	0.994052
372.581875	0.994669
372.968678	0.993690
373.355418	0.994625
373.742096	0.994972
374.128710	0.995501
374.515262	0.995052
374.901751	0.994797
375.288177	0.995135
375.674540	0.995709
376.060841	0.994881
376.447079	0.994360
376.833254	0.995789
377.219367	0.995464
377.605417	0.994722
377.991404	0.994234
378.377329	0.994817
378.763191	0.995365
379.148991	0.996244
379.534727	0.994434
379.920402	0.994742
380.306013	0.995979
380.691563	0.995320
381.077049	0.994753
381.462474	0.994881
381.847835	0.996301
382.233134	0.994859
382.618371	0.996506
383.003545	0.994987
383.388657	0.994576
383.773706	0.996331
384.158693	0.995144
384.543618	0.996001
384.928480	0.996059
385.313280	0.995312
385.698017	0.995811
386.082692	0.995829
386.467305	0.995909
386.851856	0.994720
387.236344	0.994078
387.620770	0.995010
388.005133	0.995869
388.389435	0.996891
388.773674	0.995254
389.157851	0.995129
389.541965	0.995098
389.926018	0.995735
390.310008	0.996621
390.693936	0.995373
391.077802	0.994826
391.461606	0.995371
391.845348	0.995365
392.229027	0.995780
392.612645	0.995479
392.996200	0.996042
393.379694	0.994795
393.763125	0.995626
394.146494	0.995670
394.529801	0.995104
394.913047	0.996141
395.296230	0.995212
395.679351	0.995334
396.062410	0.994819
396.445408	0.995733
396.828343	0.994568
397.211217	0.995232
397.594028	0.994886
397.976778	0.994913
398.359466	0.994959
398.742092	0.993934
399.124656	0.994595
399.507158	0.995631
399.889598	0.994931
400.271977	0.994157
400.654294	0.995198
401.036549	0.994026
401.418742	0.995287
401.800874	0.993094
402.182944	0.993495
402.564952	0.992730
402.946898	0.993921
403.328783	0.991789
403.710606	0.991814
404.092367	0.990813
404.474067	0.989846
404.855705	0.987351
405.237282	0.986643
405.618797	0.984391
406.000250	0.982322
406.381642	0.979684
406.762972	0.977241
407.144240	0.975872
407.525447	0.972218
407.906593	0.969761
408.287677	0.966035
408.668700	0.962540
409.049661	0.958302
409.430560	0.953702
409.811399	0.950042
410.192176	0.944445
410.572891	0.940081
410.953545	0.933252
411.334138	0.930532
411.714669	0.924373
412.095139	0.920589
412.475547	0.913100
412.855894	0.906907
413.236180	0.901299
413.616405	0.895944
413.996568	0.887890
414.376670	0.881912
414.756711	0.875787
415.136691	0.868176
415.516609	0.858227
415.896466	0.850504
416.276262	0.840329
416.655997	0.834431
417.035670	0.819268
417.415283	0.807499
417.794834	0.801290
418.174324	0.795309
418.553753	0.791131
418.933121	0.774287
419.312428	0.762364
419.691674	0.755199
420.070859	0.741543
420.449983	0.736147
420.829045	0.721795
421.208047	0.718928
421.586988	0.705012
421.965867	0.695086
422.344686	0.678946
422.723444	0.678739
423.102141	0.680570
423.480777	0.655227
423.859352	0.659621
424.237866	0.635855
424.616319	0.628471
424.994712	0.614643
425.373044	0.613704
425.751314	0.597400
426.129524	0.601015
426.507673	0.581903
426.885762	0.570239
427.263789	0.567046
427.641756	0.568748
428.019662	0.554782
428.397508	0.547023
428.775292	0.544270
429.153016	0.531888
429.530679	0.531971
429.908282	0.520776
430.285824	0.525194
430.663305	0.500379
431.040726	0.514640
431.418086	0.510664
431.795385	0.498844
432.172624	0.493487
432.549802	0.491046
432.926920	0.486554
433.303977	0.481875
433.680974	0.476914
434.057910	0.472497
434.434786	0.469491
434.811601	0.469536
435.188355	0.449721
435.565050	0.456397
435.941683	0.455993
436.318257	0.439462
436.694770	0.437847
437.071222	0.434695
437.447614	0.437622
437.823946	0.442376
438.200218	0.430675
438.576429	0.439392
438.952580	0.431886
439.328670	0.427753
439.704700	0.433307
440.080670	0.433895
440.456580	0.414571
440.832429	0.421742
441.208218	0.432679
441.583947	0.421127
441.959616	0.420617
442.335224	0.424932
442.710773	0.415668
443.086261	0.413616
443.461689	0.427150
443.837057	0.416912
444.212365	0.406237
444.587612	0.413309
444.962800	0.403235
445.337927	0.404562
445.712995	0.430472
446.088002	0.393043
446.462949	0.403277
446.837837	0.407481
447.212664	0.396802
447.587431	0.387923
447.962139	0.358496
448.336786	0.318179
448.711374	0.328418
449.085901	0.371896
449.460369	0.376105
449.834776	0.379641
450.209124	0.358544
450.583412	0.351528
450.957640	0.344564
451.331808	0.355870
451.705917	0.379293
452.079965	0.383868
452.453954	0.371864
452.827883	0.378793
453.201752	0.374054
453.575562	0.385029
453.949311	0.373522
454.323001	0.379717
454.696632	0.375441
455.070202	0.367772
455.443713	0.359680
455.817164	0.354170
456.190556	0.350466
456.563888	0.347389
456.937160	0.345085
457.310373	0.362085
457.683526	0.361010
458.056619	0.366462
458.429653	0.367790
458.802628	0.370306
459.175542	0.364533
459.548398	0.347057
459.921194	0.340044
460.293930	0.340134
460.666607	0.317396
461.039224	0.306129
461.411782	0.301609
461.784280	0.300901
462.156719	0.305261
462.529099	0.309685
462.901419	0.325615
463.273680	0.329873
463.645882	0.329242
464.018024	0.335226
464.390106	0.328171
464.762130	0.313058
465.134094	0.295900
465.505999	0.265450
465.877845	0.235842
466.249631	0.222785
466.621358	0.230217
466.993026	0.244121
467.364634	0.250311
467.736184	0.259052
468.107674	0.267669
468.479105	0.267026
468.850477	0.273857
469.221790	0.280413
469.593043	0.290552
469.964238	0.295735
470.335373	0.294764
470.706449	0.293199
471.077467	0.294040
471.448425	0.255873
471.819324	0.231813
472.190164	0.230944
472.560945	0.259614
472.931667	0.282199
473.302330	0.285966
473.672934	0.298110
474.043479	0.286399
474.413965	0.287996
474.784393	0.291412
475.154761	0.286529
475.525070	0.283549
475.895321	0.289445
476.265513	0.283430
476.635645	0.278970
477.005719	0.278798
477.375734	0.275541
477.745691	0.269022
478.115588	0.265287
478.485427	0.259204
478.855207	0.245939
479.224928	0.228341
479.594591	0.216643
479.964194	0.219911
480.333739	0.221047
480.703226	0.222655
481.072653	0.221049
481.442022	0.216575
481.811333	0.213141
482.180584	0.216900
482.549777	0.221963
482.918912	0.225418
483.287988	0.225082
483.657005	0.224499
484.025964	0.231151
484.394864	0.228506
484.763706	0.229113
485.132489	0.234105
485.501213	0.234998
485.869879	0.232965
486.238487	0.236659
486.607036	0.234047
486.975527	0.238619
487.343959	0.234239
487.712333	0.233602
488.080648	0.235020
488.448905	0.234029
488.817104	0.235555
489.185244	0.229890
489.553326	0.226875
489.921350	0.216489
490.289315	0.199347
490.657222	0.194420
491.025070	0.195475
491.392861	0.197401
491.760593	0.203196
492.128267	0.208695
492.495883	0.214500
492.863440	0.220671
493.230939	0.226736
493.598380	0.228155
493.965763	0.230331
494.333088	0.232644
494.700354	0.234285
495.067563	0.233066
495.434713	0.236483
495.801805	0.234054
496.168839	0.235631
496.535815	0.236894
496.902733	0.236847
497.269593	0.238539
497.636395	0.236246
498.003139	0.236648
498.369825	0.239620
498.736453	0.236036
499.103023	0.237711
499.469535	0.236762
499.835989	0.237215
500.202385	0.237727
500.568723	0.241325
500.935003	0.236590
501.301226	0.240875
501.667390	0.235288
502.033497	0.233212
502.399546	0.236350
502.765537	0.237829
503.131470	0.236417
503.497345	0.232805
503.863163	0.241496
504.228923	0.234481
504.594625	0.233087
504.960269	0.238506
505.325856	0.234155
505.691385	0.238258
506.056856	0.235111
506.422270	0.234342
506.787625	0.236477
507.152924	0.234317
507.518164	0.234793
507.883347	0.236361
508.248472	0.238095
508.613540	0.233342
508.978550	0.235583
509.343503	0.236201
509.708398	0.233955
510.073236	0.231294
510.438016	0.231510
510.802738	0.232084
511.167403	0.231253
511.532010	0.233399
511.896561	0.228641
512.261053	0.227746
512.625488	0.229352
512.989866	0.229917
513.354186	0.230225
513.718449	0.232000
514.082655	0.228316
514.446803	0.230564
514.810894	0.228193
515.174927	0.230809
515.538904	0.230267
515.902822	0.227442
516.266684	0.229653
516.630488	0.231147
516.994235	0.229522
517.357925	0.228389
517.721558	0.226880
518.085133	0.226252
518.448651	0.226262
518.812112	0.228442
519.175516	0.227948
519.538863	0.225694
519.902152	0.227492
520.265385	0.224091
520.628560	0.226007
520.991678	0.226563
521.354739	0.225423
521.717743	0.226620
522.080690	0.227014
522.443580	0.224439
522.806413	0.225211
523.169189	0.224581
523.531908	0.223631
523.894569	0.227119
524.257174	0.227013
524.619722	0.224615
524.982213	0.226006
525.344647	0.224706
525.707025	0.225652
526.069345	0.223858
526.431608	0.225207
526.793815	0.223500
527.155964	0.227387
527.518057	0.226502
527.880093	0.227504
528.242072	0.226060
528.603995	0.227906
528.965860	0.229450
529.327669	0.228472
529.689421	0.229386
530.051117	0.230153
530.412755	0.227945
530.774337	0.230192
531.135862	0.230497
531.497331	0.229674
531.858743	0.233084
532.220098	0.229569
532.581396	0.231691
532.942638	0.232504
533.303824	0.233351
533.664953	0.232941
534.026025	0.234980
534.387040	0.232963
534.747999	0.232985
535.108902	0.231741
535.469748	0.236591
535.830537	0.234639
536.191270	0.235259
536.551947	0.234580
536.912567	0.234753
537.273131	0.236448
537.633638	0.236621
537.994089	0.236908
538.354483	0.237854
538.714821	0.234864
539.075103	0.234741
539.435328	0.235442
539.795497	0.239130
540.155609	0.235785
540.515665	0.233886
540.875665	0.239685
541.235609	0.237946
541.595496	0.238101
541.955328	0.234657
542.315102	0.237404
542.674821	0.238092
543.034483	0.238486
543.394090	0.238038
543.753640	0.239868
544.113134	0.235009
544.472571	0.238140
544.831953	0.234943
545.191278	0.239023
545.550548	0.238878
545.909761	0.235537
546.268918	0.236136
546.628019	0.234565
546.987064	0.237272
547.346053	0.239097
547.704986	0.237106
548.063863	0.237348
548.422684	0.237456
548.781449	0.239055
549.140158	0.236833
549.498811	0.239691
549.857408	0.242910
550.215949	0.237579
550.574434	0.240853
550.932864	0.238471
551.291237	0.237599
551.649555	0.238635
552.007817	0.238486
552.366022	0.239107
552.724173	0.239389
553.082267	0.239744
553.440305	0.236409
553.798288	0.240894
554.156215	0.237595
554.514086	0.238363
554.871902	0.241465
555.229661	0.240836
555.587365	0.241204
555.945014	0.244191
556.302606	0.240461
556.660143	0.243081
557.017625	0.239553
557.375050	0.241977
557.732421	0.239026
558.089735	0.241092
558.446994	0.241091
558.804197	0.240306
559.161345	0.240149
559.518437	0.243762
559.875474	0.241199
560.232455	0.240823
560.589381	0.241529
560.946251	0.242006
561.303065	0.239432
561.659825	0.240983
562.016528	0.242513
562.373177	0.245391
562.729770	0.242707
563.086307	0.244690
563.442789	0.242572
563.799216	0.245178
564.155587	0.243985
564.511904	0.244970
564.868164	0.245311
565.224370	0.245404
565.580520	0.246899
565.936615	0.246851
566.292654	0.249734
566.648638	0.247091
567.004567	0.247818
567.360441	0.248122
567.716260	0.250229
568.072023	0.247938
568.427732	0.248668
568.783385	0.251365
569.138982	0.249071
569.494525	0.249119
569.850013	0.252138
570.205445	0.250351
570.560823	0.252928
570.916145	0.254824
571.271412	0.253079
571.626625	0.254568
571.981782	0.255114
572.336884	0.255817
572.691931	0.255514
573.046923	0.256667
573.401860	0.258190
573.756743	0.259505
574.111570	0.258693
574.466342	0.258721
574.821059	0.258229
575.175722	0.260939
575.530330	0.260483
575.884882	0.261156
576.239380	0.262954
576.593823	0.263604
576.948211	0.263245
577.302544	0.266454
577.656823	0.265834
578.011047	0.266033
578.365216	0.266585
578.719330	0.268601
579.073389	0.268274
579.427394	0.269888
579.781344	0.270490
580.135239	0.272131
580.489080	0.271620
580.842866	0.274213
581.196597	0.274487
581.550273	0.272874
581.903895	0.273738
582.257463	0.272112
582.610975	0.275647
582.964434	0.275033
583.317837	0.277416
583.671186	0.277658
584.024481	0.277953
584.377721	0.280345
584.730906	0.281254
585.084037	0.280187
585.437113	0.282081
585.790135	0.281386
586.143103	0.284445
586.496016	0.285798
586.848874	0.283291
587.201679	0.283676
587.554428	0.286916
587.907124	0.285958
588.259765	0.286281
588.612352	0.287274
588.964884	0.290647
589.317362	0.290571
589.669786	0.290466
590.022155	0.289122
590.374470	0.287929
590.726731	0.290435
591.078937	0.294827
591.431090	0.291458
591.783188	0.295526
592.135232	0.295837
592.487222	0.295953
592.839157	0.294232
593.191038	0.296699
593.542866	0.298163
593.894639	0.301936
594.246358	0.299962
594.598022	0.299244
594.949633	0.303137
595.301190	0.303672
595.652692	0.302788
596.004141	0.298950
596.355535	0.307017
596.706876	0.307375
597.058162	0.309979
597.409395	0.307480
597.760573	0.305066
598.111698	0.308256
598.462768	0.308504
598.813785	0.310191
599.164748	0.310904
599.515657	0.311371
599.866511	0.314823
600.217312	0.310119
600.568060	0.315358
600.918753	0.311574
601.269392	0.312566
601.619978	0.315995
601.970510	0.313798
602.320988	0.314114
602.671412	0.311341
603.021783	0.314123
603.372100	0.315557
603.722363	0.314682
604.072572	0.315673
604.422728	0.315532
604.772830	0.317770
605.122878	0.317442
605.472872	0.317925
605.822813	0.316076
606.172701	0.318681
606.522534	0.316074
606.872314	0.316448
607.222041	0.317326
607.571714	0.315529
607.921333	0.316802
608.270899	0.316583
608.620411	0.313155
608.969870	0.316984
609.319276	0.317436
609.668627	0.317252
610.017926	0.315537
610.367171	0.314252
610.716362	0.314922
611.065500	0.315230
611.414585	0.313782
611.763616	0.314656
612.112594	0.314992
612.461518	0.314564
612.810389	0.311847
613.159207	0.314586
613.507971	0.316055
613.856682	0.311892
614.205340	0.313368
614.553945	0.310163
614.902496	0.314183
615.250994	0.312125
615.599439	0.312836
615.947830	0.312589
616.296169	0.313396
616.644454	0.312617
616.992686	0.313062
617.340864	0.310361
617.688990	0.314360
618.037063	0.311355
618.385082	0.313025
618.733048	0.309904
619.080961	0.311868
619.428821	0.311391
619.776628	0.310982
620.124382	0.312600
620.472083	0.313128
620.819731	0.312910
621.167326	0.316731
621.514868	0.316418
621.862357	0.320787
622.209793	0.320201
622.557176	0.322028
622.904506	0.323254
623.251783	0.325546
623.599007	0.327555
623.946179	0.327759
624.293297	0.329489
624.640363	0.333281
624.987376	0.333972
625.334336	0.336682
625.681243	0.338715
626.028097	0.339117
626.374899	0.340034
626.721647	0.340647
627.068343	0.343665
627.414987	0.344791
627.761577	0.347182
628.108115	0.345101
628.454600	0.350288
628.801032	0.347647
629.147412	0.349848
629.493739	0.350165
629.840014	0.353388
630.186236	0.351105
630.532405	0.356349
630.878521	0.353729
631.224585	0.356063
631.570597	0.359856
631.916556	0.357669
632.262462	0.357941
632.608316	0.360413
632.954117	0.361253
633.299866	0.362037
633.645562	0.362343
633.991206	0.366436
634.336797	0.369879
634.682336	0.371768
635.027823	0.373445
635.373257	0.374270
635.718639	0.377677
636.063968	0.376643
636.409245	0.382468
636.754470	0.382705
637.099642	0.385321
637.444762	0.389141
637.789829	0.387717
638.134845	0.391841
638.479808	0.391958
638.824719	0.391990
639.169577	0.395961
639.514383	0.395127
639.859137	0.399250
640.203839	0.398866
640.548489	0.399515
640.893086	0.401079
641.237632	0.402599
641.582125	0.401085
641.926566	0.402972
642.270955	0.402661
642.615292	0.403321
642.959576	0.402061
643.303809	0.403095
643.647990	0.402267
643.992118	0.403120
644.336195	0.406267
644.680219	0.404903
645.024192	0.405335
645.368112	0.398914
645.711981	0.398172
646.055797	0.393250
646.399562	0.395579
646.743274	0.387489
647.086935	0.385250
647.430544	0.385667
647.774101	0.383949
648.117606	0.383782
648.461059	0.384365
648.804460	0.387254
649.147810	0.392127
649.491108	0.393982
649.834354	0.395177
650.177548	0.400512
650.520690	0.406021
650.863781	0.406779
651.206820	0.406312
651.549807	0.411158
651.892742	0.415564
652.235626	0.414924
652.578458	0.415657
652.921238	0.421560
653.263967	0.419434
653.606644	0.423275
653.949269	0.423111
654.291843	0.427086
654.634365	0.423885
654.976836	0.427398
655.319255	0.426861
655.661622	0.428420
656.003938	0.428378
656.346203	0.431634
656.688416	0.429449
657.030577	0.432916
657.372687	0.435089
657.714746	0.436219
658.056753	0.433148
658.398708	0.436742
658.740612	0.437739
659.082465	0.433584
659.424266	0.434578
659.766016	0.433852
660.107715	0.436660
660.449362	0.435230
660.790958	0.436033
661.132503	0.436628
661.473996	0.434939
661.815438	0.434926
662.156829	0.435470
662.498168	0.436175
662.839456	0.437681
663.180693	0.435107
663.521879	0.435152
663.863013	0.436261
664.204097	0.434943
664.545129	0.431587
664.886110	0.431601
665.227040	0.429028
665.567918	0.431548
665.908746	0.429408
666.249522	0.429231
666.590248	0.430895
666.930922	0.428954
667.271545	0.427733
667.612118	0.427807
667.952639	0.429184
668.293109	0.428223
668.633528	0.430514
668.973896	0.430826
669.314213	0.431267
669.654480	0.432584
669.994695	0.433203
670.334859	0.433908
670.674973	0.434261
671.015035	0.434119
671.355047	0.433866
671.695008	0.435696
672.034918	0.437283
672.374777	0.436546
672.714585	0.437055
673.054342	0.437762
673.394049	0.437393
673.733705	0.435756
674.073310	0.436206
674.412864	0.439565
674.752368	0.440290
675.091820	0.439900
675.431223	0.445136
675.770574	0.444423
676.109875	0.447890
676.449125	0.447499
676.788324	0.449622
677.127473	0.455117
677.466571	0.454435
677.805619	0.456488
678.144616	0.457339
678.483562	0.459253
678.822458	0.461569
679.161303	0.463125
679.500098	0.463034
679.838842	0.465090
680.177535	0.464270
680.516179	0.462965
680.854771	0.462496
681.193314	0.455693
681.531805	0.447107
681.870247	0.435274
682.208638	0.427647
682.546978	0.426912
682.885268	0.428524
683.223508	0.434880
683.561697	0.438527
683.899836	0.441063
684.237925	0.444570
684.575963	0.447075
684.913951	0.450201
685.251889	0.445771
685.589776	0.447966
685.927614	0.450479
686.265401	0.444933
686.603137	0.445921
686.940824	0.439710
687.278460	0.438520
687.616046	0.437570
687.953582	0.432467
688.291068	0.434083
688.628504	0.429514
688.965889	0.431914
689.303224	0.435888
689.640510	0.439687
689.977745	0.445545
690.314930	0.453719
690.652065	0.457990
690.989150	0.465806
691.326185	0.471549
691.663170	0.476634
692.000105	0.483391
692.336990	0.490489
692.673825	0.493184
693.010610	0.500170
693.347345	0.505760
693.684030	0.506986
694.020665	0.511933
694.357251	0.520717
694.693786	0.520385
695.030272	0.524672
695.366707	0.528092
695.703093	0.531253
696.039429	0.529437
696.375716	0.530414
696.711952	0.533672
697.048139	0.535233
697.384276	0.537355
697.720363	0.535593
698.056400	0.534926
698.392388	0.540252
698.728326	0.543393
699.064214	0.546388
699.400053	0.547011
699.735842	0.550934
700.071581	0.553845
700.407270	0.556545
700.742910	0.559227
701.078501	0.565070
701.414042	0.565551
701.749533	0.568992
702.084974	0.577492
702.420366	0.570183
702.755709	0.577138
703.091002	0.585001
703.426246	0.578196
703.761440	0.585013
704.096584	0.589057
704.431679	0.585877
704.766725	0.588819
705.101721	0.590763
705.436668	0.586644
705.771565	0.593554
706.106413	0.590104
706.441212	0.585771
706.775961	0.583971
707.110661	0.586909
707.445311	0.582918
707.779913	0.580675
708.114465	0.579201
708.448967	0.576067
708.783421	0.567176
709.117825	0.562155
709.452180	0.562289
709.786485	0.556129
710.120742	0.546602
710.454949	0.547964
710.789107	0.540703
711.123216	0.531170
711.457275	0.532973
711.791286	0.523211
712.125247	0.522440
712.459159	0.533381
712.793023	0.526864
713.126837	0.530352
713.460602	0.530383
713.794318	0.539647
714.127985	0.538553
714.461602	0.548809
714.795171	0.551830
715.128691	0.559540
715.462162	0.567295
715.795584	0.573072
716.128957	0.574773
716.462281	0.581957
716.795556	0.586251
717.128782	0.591301
717.461960	0.600593
717.795088	0.598743
718.128167	0.605245
718.461198	0.613997
718.794180	0.614272
719.127113	0.617025
719.459997	0.620566
719.792833	0.627447
720.125619	0.628596
720.458357	0.634122
720.791046	0.633684
721.123686	0.637164
721.456278	0.643873
721.788821	0.641833
722.121315	0.645610
722.453761	0.649972
722.786158	0.647844
723.118506	0.643910
723.450805	0.651885
723.783056	0.647854
724.115259	0.644528
724.447412	0.644844
724.779518	0.646122
725.111574	0.645220
725.443582	0.640709
725.775542	0.642675
726.107453	0.635723
726.439315	0.635517
726.771129	0.633200
727.102895	0.626177
727.434612	0.619883
727.766281	0.617362
728.097901	0.616559
728.429473	0.616325
728.760996	0.615012
729.092471	0.615209
729.423897	0.618850
729.755276	0.618485
730.086606	0.618118
730.417887	0.611987
730.749120	0.603913
731.080305	0.594276
731.411442	0.589741
731.742530	0.595223
732.073570	0.594508
732.404562	0.587019
732.735506	0.588189
733.066401	0.592147
733.397249	0.601829
733.728048	0.613301
734.058798	0.626528
734.389501	0.635741
734.720156	0.645236
735.050762	0.654404
735.381320	0.655224
735.711831	0.664400
736.042293	0.669487
736.372707	0.664724
736.703073	0.670051
737.033391	0.671783
737.363661	0.667890
737.693883	0.663903
738.024056	0.663293
738.354182	0.663456
738.684260	0.653084
739.014290	0.648963
739.344272	0.649695
739.674207	0.643408
740.004093	0.641923
740.333931	0.643542
740.663722	0.642610
740.993464	0.643555
741.323159	0.646608
741.652806	0.651884
741.982405	0.656564
742.311956	0.661547
742.641460	0.663634
742.970915	0.667264
743.300323	0.675027
743.629683	0.681514
743.958996	0.682910
744.288260	0.688722
744.617477	0.693651
744.946647	0.695042
745.275768	0.700348
745.604842	0.700498
745.933869	0.710334
746.262847	0.710635
746.591778	0.704355
746.920662	0.710270
747.249498	0.717567
747.578286	0.707604
747.907027	0.704423
748.235720	0.704698
748.564365	0.699691
748.892963	0.699519
749.221514	0.703126
749.550017	0.707687
749.878473	0.707770
750.206881	0.713681
750.535242	0.715732
750.863555	0.715569
751.191821	0.715778
751.520039	0.719119
751.848210	0.724095
752.176334	0.716736
752.504411	0.716134
752.832440	0.724686
753.160421	0.727343
753.488356	0.726297
753.816243	0.724578
754.144082	0.732055
754.471875	0.735799
754.799620	0.731187
755.127318	0.732227
755.454969	0.732146
755.782572	0.731972
756.110129	0.736945
756.437638	0.738918
756.765100	0.735741
757.092515	0.734338
757.419882	0.732563
757.747203	0.738251
758.074477	0.736631
758.401703	0.734827
758.728882	0.729112
759.056014	0.728604
759.383099	0.727222
759.710138	0.728795
760.037129	0.724700
760.364073	0.718440
760.690970	0.721544
761.017820	0.727231
761.344623	0.722959
761.671379	0.713304
761.998088	0.701932
762.324751	0.679105
762.651366	0.637373
762.977935	0.570121
763.304456	0.518241
763.630931	0.509230
763.957359	0.547737
764.283740	0.592532
764.610074	0.618983
764.936362	0.651347
765.262602	0.678190
765.588796	0.698304
765.914943	0.716291
766.241044	0.734430
766.567097	0.740403
766.893104	0.751530
767.219064	0.757138
767.544978	0.763584
767.870845	0.778005
768.196665	0.781813
768.522438	0.779838
768.848165	0.779369
769.173846	0.789277
769.499479	0.794243
769.825066	0.797240
770.150607	0.802243
770.476101	0.797723
770.801548	0.798657
771.126949	0.810029
771.452303	0.813264
771.777611	0.813841
772.102872	0.811837
772.428087	0.817139
772.753256	0.821628
773.078378	0.822247
773.403453	0.832746
773.728482	0.836790
774.053465	0.830954
774.378401	0.833119
774.703291	0.841737
775.028135	0.841621
775.352932	0.842489
775.677683	0.845514
776.002388	0.846643
776.327046	0.846026
776.651658	0.849724
776.976224	0.852973
777.300743	0.852479
777.625216	0.855091
777.949643	0.856247
778.274024	0.856982
778.598359	0.858757
778.922647	0.856919
779.246889	0.856648
779.571086	0.861516
779.895236	0.863787
780.219339	0.859959
780.543397	0.857890
780.867409	0.856705
781.191374	0.858461
781.515294	0.860334
781.839167	0.858990
782.162995	0.862141
782.486776	0.858655
782.810511	0.860231
783.134201	0.863871
783.457844	0.860607
783.781441	0.865877
784.104993	0.870413
784.428498	0.870699
784.751958	0.867383
785.075372	0.868482
785.398739	0.871899
785.722061	0.868627
786.045337	0.864651
786.368568	0.869979
786.691752	0.872424
787.014891	0.857476
787.337983	0.848684
787.661030	0.841130
787.984031	0.823712
788.306987	0.810816
788.629897	0.813408
788.952760	0.817117
789.275579	0.821097
789.598351	0.835677
789.921078	0.849714
790.243759	0.851317
790.566395	0.855952
790.888984	0.863586
791.211529	0.869203
791.534027	0.871998
791.856480	0.873890
792.178888	0.879448
792.501249	0.880892
792.823566	0.883579
793.145836	0.882439
793.468062	0.884396
793.790241	0.885076
794.112375	0.881949
794.434464	0.878369
794.756507	0.877043
795.078505	0.876899
795.400457	0.871840
795.722364	0.859329
796.044226	0.852888
796.366042	0.852553
796.687812	0.855779
797.009538	0.851675
797.331218	0.855030
797.652852	0.859242
797.974442	0.863548
798.295986	0.864145
798.617484	0.866643
798.938938	0.871095
799.260346	0.876603
799.581709	0.878102
799.903026	0.879671
800.224299	0.880427
800.545526	0.885629
800.866708	0.888513
801.187845	0.891861
801.508936	0.892410
801.829983	0.890373
802.150984	0.893260
802.471940	0.896414
802.792851	0.897552
803.113717	0.897998
803.434538	0.896065
803.755314	0.898563
804.076045	0.900392
804.396731	0.899654
804.717372	0.900192
805.037967	0.901663
805.358518	0.898957
805.679024	0.896077
805.999485	0.897072
806.319901	0.896250
806.640272	0.898751
806.960598	0.895800
807.280879	0.893484
807.601115	0.892072
807.921306	0.895620
808.241453	0.896069
808.561554	0.894067
808.881611	0.893279
809.201623	0.895444
809.521590	0.895907
809.841513	0.896055
810.161390	0.896965
810.481223	0.897959
810.801011	0.901283
811.120755	0.903463
811.440453	0.902200
811.760107	0.900354
812.079716	0.900275
812.399281	0.902755
812.718801	0.906035
813.038276	0.907241
813.357707	0.906890
813.677093	0.903518
813.996434	0.906243
814.315731	0.908240
814.634983	0.909084
814.954191	0.907947
815.273354	0.904929
815.592473	0.901565
815.911547	0.901024
816.230577	0.898839
816.549562	0.896197
816.868502	0.897277
817.187399	0.892197
817.506250	0.888593
817.825058	0.889719
818.143821	0.885745
818.462539	0.881235
818.781213	0.872979
819.099843	0.861661
819.418429	0.846488
819.736970	0.829031
820.055466	0.809144
820.373919	0.784292
820.692327	0.750625
821.010691	0.716116
821.329011	0.638730
821.647286	0.523481
821.965517	0.409267
822.283704	0.366242
822.601847	0.367205
822.919945	0.403462
823.237999	0.437252
823.556010	0.483719
823.873976	0.540298
824.191897	0.590408
824.509775	0.633323
824.827609	0.679062
825.145398	0.700472
825.463144	0.703689
825.780845	0.686747
826.098502	0.668539
826.416116	0.622584
826.733685	0.577936
827.051210	0.569418
827.368692	0.584276
827.686129	0.621349
828.003522	0.675731
828.320872	0.722561
828.638177	0.766499
828.955439	0.799733
829.272656	0.821689
829.589830	0.838382
829.906960	0.854790
830.224046	0.866460
830.541088	0.877654
830.858086	0.881138
831.175041	0.887854
831.491952	0.886259
831.808819	0.884042
832.125642	0.876435
832.442421	0.861531
832.759157	0.840474
833.075849	0.793192
833.392497	0.730061
833.709101	0.689079
834.025662	0.698764
834.342179	0.729861
834.658653	0.768828
834.975083	0.806790
835.291469	0.831976
835.607811	0.855477
835.924110	0.870438
836.240366	0.886745
836.556578	0.901214
836.872746	0.908530
837.188871	0.914894
837.504952	0.919902
837.820990	0.923850
838.136984	0.926654
838.452935	0.930217
838.768842	0.931883
839.084706	0.924119
839.400526	0.899818
839.716303	0.858729
840.032037	0.836461
840.347727	0.839418
840.663373	0.857759
840.978977	0.879437
841.294537	0.902709
841.610054	0.917842
841.925527	0.926499
842.240957	0.933568
842.556344	0.940391
842.871687	0.946256
843.186987	0.951163
843.502244	0.951044
843.817458	0.952266
844.132629	0.956687
844.447756	0.960807
844.762840	0.960757
845.077881	0.960555
845.392879	0.960206
845.707833	0.963543
846.022745	0.965202
846.337613	0.964681
846.652438	0.965846
846.967221	0.964698
847.281960	0.964586
847.596656	0.967847
847.911309	0.966322
848.225919	0.968220
848.540485	0.969489
848.855009	0.969422
849.169490	0.969562
849.483928	0.970000
849.798323	0.969755
850.112675	0.969401
850.426984	0.969682
850.741251	0.970398
851.055474	0.969686
851.369654	0.968258
851.683792	0.970350
851.997887	0.969237
852.311938	0.970786
852.625947	0.971194
852.939914	0.968109
853.253837	0.970044
853.567718	0.971078
853.881555	0.971217
854.195350	0.969224
854.509103	0.969753
854.822812	0.970328
855.136479	0.971582
855.450103	0.969517
855.763685	0.968184
856.077224	0.969339
856.390720	0.969893
856.704173	0.970192
857.017584	0.969285
857.330953	0.967461
857.644278	0.968878
857.957561	0.969089
858.270802	0.969029
858.584000	0.968784
858.897155	0.967004
859.210268	0.967976
859.523339	0.968113
859.836367	0.970120
860.149352	0.970932
860.462295	0.969159
860.775195	0.969764
861.088054	0.969589
861.400869	0.969593
861.713642	0.970578
862.026373	0.971208
862.339062	0.971037
862.651708	0.968905
862.964312	0.968062
863.276873	0.968818
863.589392	0.968609
863.901869	0.966488
864.214303	0.965263
864.526696	0.964781
864.839045	0.964342
865.151353	0.962521
865.463619	0.962679
865.775842	0.963403
866.088023	0.962042
866.400162	0.961614
866.712258	0.963027
867.024313	0.963538
867.336325	0.963673
867.648296	0.963215
867.960224	0.962613
868.272110	0.961621
868.583954	0.964114
868.895755	0.964141
869.207515	0.961605
869.519233	0.960598
869.830909	0.961429
870.142542	0.963248
870.454134	0.962419
870.765684	0.961238
871.077191	0.958250
871.388657	0.959392
871.700081	0.958563
872.011463	0.959471
872.322803	0.958144
872.634101	0.956447
872.945357	0.955175
873.256571	0.952776
873.567744	0.953222
873.878874	0.954506
874.189963	0.952135
874.501010	0.950971
874.812015	0.950292
875.122979	0.951514
875.433900	0.954227
875.744780	0.953684
876.055618	0.952155
876.366415	0.950139
876.677169	0.950361
876.987882	0.951346
877.298554	0.951659
877.609183	0.946693
877.919771	0.945746
878.230317	0.942542
878.540822	0.941514
878.851285	0.935280
879.161707	0.927251
879.472087	0.915194
879.782425	0.898364
880.092722	0.864797
880.402977	0.812283
880.713191	0.751777
881.023363	0.692688
881.333494	0.658882
881.643583	0.630651
881.953631	0.629923
882.263637	0.659022
882.573602	0.698128
882.883526	0.724436
883.193408	0.747591
883.503248	0.770136
883.813048	0.797952
884.122806	0.827761
884.432522	0.850236
884.742197	0.870855
885.051831	0.881463
885.361424	0.891340
885.670975	0.903442
885.980485	0.913953
886.289954	0.920354
886.599382	0.924875
886.908768	0.929078
887.218113	0.935048
887.527417	0.939258
887.836680	0.942723
888.145901	0.943366
888.455082	0.946690
888.764221	0.950840
889.073319	0.952197
889.382376	0.952764
889.691392	0.953425
890.000366	0.952285
890.309300	0.953979
890.618193	0.953335
890.927044	0.951739
891.235855	0.950634
891.544625	0.951538
891.853353	0.951829
892.162041	0.949531
892.470687	0.943044
892.779293	0.937651
893.087858	0.934266
893.396381	0.926527
893.704864	0.913135
894.013306	0.889363
894.321707	0.862921
894.630068	0.847625
894.938387	0.843800
895.246665	0.844614
895.554903	0.856704
895.863100	0.870425
896.171256	0.886865
896.479371	0.906176
896.787446	0.918735
897.095480	0.925264
897.403473	0.928319
897.711425	0.931846
898.019336	0.940113
898.327207	0.943160
898.635038	0.944354
898.942827	0.945282
899.250576	0.948902
899.558284	0.952104
899.865952	0.954605
900.173579	0.955376
900.481165	0.955577
900.788711	0.960207
901.096216	0.961569
901.403681	0.961443
901.711105	0.963076
902.018489	0.963396
902.325832	0.962432
902.633135	0.962590
902.940397	0.955801
903.247619	0.944156
903.554800	0.918785
903.861941	0.879324
904.169041	0.842596
904.476101	0.824917
904.783121	0.826993
905.090100	0.842873
905.397039	0.864043
905.703938	0.886235
906.010796	0.906425
906.317614	0.923142
906.624391	0.935103
906.931129	0.945240
907.237826	0.952399
907.544483	0.959203
907.851099	0.962963
908.157675	0.966682
908.464211	0.970597
908.770707	0.973748
909.077163	0.975085
909.383578	0.974705
909.689954	0.975904
909.996289	0.975512
910.302584	0.978324
910.608839	0.979371
910.915054	0.978501
911.221229	0.978060
911.527363	0.977088
911.833458	0.977371
912.139513	0.976485
912.445527	0.975198
912.751502	0.974910
913.057436	0.973329
913.363331	0.971726
913.669186	0.967141
913.975000	0.961598
914.280775	0.955990
914.586510	0.948248
914.892205	0.934794
915.197859	0.915057
915.503475	0.887474
915.809050	0.866723
916.114585	0.861281
916.420081	0.858919
916.725536	0.854726
917.030952	0.864065
917.336328	0.877944
917.641665	0.891928
917.946961	0.907197
918.252218	0.919590
918.557435	0.927519
918.862612	0.935813
919.167750	0.942047
919.472848	0.946607
919.777906	0.953516
920.082925	0.957779
920.387904	0.962126
920.692843	0.963209
920.997743	0.963646
921.302603	0.967696
921.607423	0.969292
921.912204	0.972898
922.216946	0.972436
922.521647	0.973967
922.826310	0.974709
923.130932	0.976892
923.435516	0.978767
923.740059	0.979964
924.044564	0.979075
924.349028	0.980271
924.653454	0.982910
924.957840	0.984410
925.262186	0.984509
925.566493	0.984466
925.870761	0.985083
926.174989	0.986946
926.479178	0.987491
926.783328	0.988592
927.087438	0.988232
927.391509	0.987877
927.695541	0.990377
927.999533	0.989342
928.303486	0.989422
928.607400	0.992549
928.911275	0.989603
929.215110	0.990816
929.518906	0.991438
929.822663	0.990336
930.126381	0.991530
930.430060	0.990154
930.733699	0.989699
931.037299	0.990308
931.340861	0.990984
931.644383	0.989273
931.947866	0.989672
932.251309	0.991271
932.554714	0.989265
932.858080	0.991706
933.161407	0.990492
933.464694	0.991527
933.767943	0.989816
934.071153	0.992642
934.374323	0.991516
934.677455	0.992309
934.980548	0.991722
935.283602	0.991313
935.586617	0.991037
935.889593	0.991376
936.192530	0.990852
936.495428	0.991275
936.798287	0.991103
937.101108	0.990419
937.403890	0.989215
937.706632	0.989297
938.009336	0.986886
938.312002	0.986042
938.614628	0.985397
938.917216	0.983815
939.219765	0.981829
939.522275	0.983797
939.824747	0.983965
940.127179	0.982820
940.429573	0.985512
940.731929	0.984123
941.034246	0.984586
941.336524	0.985911
941.638763	0.986484
941.940964	0.986359
942.243126	0.987104
942.545250	0.988057
942.847335	0.988419
943.149381	0.988414
943.451389	0.989039
943.753359	0.987934
944.055290	0.991229
944.357182	0.990187
944.659036	0.987823
944.960851	0.988673
945.262628	0.990457
945.564367	0.990172
945.866067	0.990331
946.167729	0.990642
946.469352	0.989556
946.770937	0.989427
947.072484	0.990853
947.373992	0.990006
947.675462	0.990962
947.976893	0.990890
948.278286	0.990653
948.579641	0.991839
948.880958	0.990983
949.182236	0.990606
949.483476	0.991444
949.784678	0.989761
950.085841	0.991600
950.386967	0.991690
950.688054	0.991970
950.989103	0.991361
951.290114	0.990174
951.591087	0.989934
951.892021	0.989602
952.192917	0.989367
952.493776	0.987952
952.794596	0.988815
953.095378	0.988217
953.396122	0.988269
953.696828	0.987443
953.997496	0.989977
954.298126	0.990155
954.598718	0.991595
954.899272	0.991202
955.199788	0.990386
955.500266	0.992622
955.800706	0.993103
956.101108	0.993634
956.401472	0.993114
956.701798	0.994271
957.002087	0.994012
957.302337	0.993297
957.602550	0.994783
957.902724	0.995223
958.202861	0.995535
958.502960	0.995506
958.803022	0.994488
959.103045	0.995971
959.403031	0.996424
959.702979	0.996298
960.002889	0.996300
960.302762	0.995427
960.602596	0.996439
960.902393	0.995010
961.202153	0.997296
961.501875	0.997249
961.801559	0.995802
962.101205	0.997220
962.400814	0.997282
962.700385	0.996415
962.999918	0.995479
963.299414	0.997455
963.598873	0.995540
963.898293	0.996567
964.197677	0.996489
964.497022	0.996531
964.796331	0.997032
965.095601	0.997497
965.394835	0.996290
965.694030	0.997218
965.993189	0.998369
966.292309	0.997353
966.591393	0.997635
966.890439	0.998088
967.189447	0.997427
967.488419	0.998193
967.787353	0.996094
968.086249	0.997453
968.385108	0.998661
968.683930	0.997287
968.982714	0.998811
969.281462	0.996074
969.580172	0.995937
969.878844	0.997164
970.177480	0.996275
970.476078	0.996443
970.774639	0.996307
971.073162	0.998331
971.371649	0.996848
971.670098	0.996927
971.968510	0.998000
972.266885	0.996042
972.565223	0.996901
972.863524	0.996227
973.161788	0.996383
973.460014	0.997932
973.758204	0.995729
974.056356	0.997467
974.354471	0.994456
974.652550	0.995933
974.950591	0.996341
975.248595	0.996064
975.546563	0.997664
975.844493	0.998955
976.142386	0.997547
976.440243	0.996685
976.738062	0.997623
977.035845	0.997888
977.333590	0.996867
977.631299	0.998930
977.928971	0.996786
978.226606	0.997296
978.524204	0.995987
978.821765	0.997735
979.119290	0.997144
979.416777	0.997434
979.714228	0.997954
980.011642	0.996981
980.309020	0.997726
980.606360	0.997890
980.903664	0.998086
981.200931	0.996217
981.498162	0.995447
981.795356	0.994324
982.092513	0.993837
982.389633	0.995150
982.686717	0.991298
982.983764	0.993019
983.280775	0.990336
983.577749	0.991006
983.874686	0.991969
984.171587	0.992528
984.468451	0.995111
984.765279	0.995685
985.062070	0.994982
985.358824	0.995828
985.655543	0.995998
985.952224	0.996034
986.248869	0.997457
986.545478	0.997254
986.842050	0.998701
987.138586	0.995638
987.435086	0.997954
987.731549	0.998395
988.027975	0.998597
988.324366	0.999308
988.620719	0.997426
988.917037	0.996864
989.213318	0.999131
989.509563	0.999212
989.805772	0.998266
990.101944	0.998610
990.398080	0.996707
990.694180	0.996974
990.990244	0.997661
991.286271	0.998188
991.582262	0.999373
991.878217	0.998298
992.174136	0.999472
992.470019	0.999601
992.765865	0.998286
993.061676	0.998963
993.357450	0.997546
993.653188	0.997150
993.948890	0.997696
994.244556	0.997745
994.540186	0.998177
994.835780	0.996758
995.131337	0.997848
995.426859	0.996676
995.722345	0.997623
996.017795	0.996608
996.313208	0.994987
996.608586	0.995132
996.903928	0.996896
997.199234	0.995989
997.494504	0.997890
997.789738	0.996621
998.084936	0.997534
998.380099	0.997688
998.675225	0.997395
998.970316	0.998614
999.265371	0.998406
999.560390	0.998876
999.855373	0.998556
1000.150320	0.999394
1000.445232	0.998702
1000.740108	0.997868
1001.034948	0.999339
1001.329752	0.999548
1001.624521	0.999783
1001.919254	0.999715
1002.213951	0.998350
1002.508613	0.998870
1002.803239	0.998698
1003.097829	1.000094
1003.392384	0.999125
1003.686903	0.999340
1003.981386	0.998908
1004.275834	1.000165
1004.570246	0.999254
1004.864623	0.999675
1005.158964	1.000739
1005.453270	0.999002
1005.747540	0.997455
1006.041775	0.999433
1006.335974	0.999172
1006.630138	0.999479
1006.924266	1.000064
1007.218359	1.000570
1007.512416	1.000615
1007.806438	0.999202
1008.100425	0.999961
1008.394376	0.999003
1008.688292	0.998745
1008.982172	1.000704
1009.276017	0.999728
1009.569827	0.998767
1009.863602	0.998907
1010.157341	1.000621
1010.451045	0.999105
1010.744714	0.999146
1011.038347	0.999441
1011.331945	0.998997
1011.625508	0.998702
1011.919036	0.999799
1012.212528	0.998598
1012.505986	0.997789
1012.799408	0.999158
1013.092795	0.999616
1013.386147	0.998948
1013.679464	0.999634
1013.972745	0.998985
1014.265992	0.998680
1014.559204	0.998449
1014.852380	0.999265
1015.145521	0.998150
1015.438628	0.999759
1015.731699	1.000426
1016.024736	0.998563
1016.317737	0.998242
1016.610703	0.998996
1016.903635	1.000123
1017.196531	0.998593
1017.489393	1.000124
1017.782219	0.998424
1018.075011	0.998621
1018.367768	0.997951
1018.660490	0.999271
1018.953177	0.999271
1019.245829	0.999271
