Dividing Wavelength (nm)	Counts (n)	Blue Motor Position (mm): 0.000000	Red Motor Position (mm): 19.100000	
326.493990	1.000474
326.888308	1.000474
327.282561	1.000474
327.676750	1.000652
328.070874	0.999682
328.464933	1.000258
328.858929	1.000410
329.252859	0.999617
329.646726	0.998514
330.040528	1.000300
330.434265	0.999203
330.827938	1.000854
331.221547	1.001173
331.615091	0.999461
332.008571	1.000149
332.401986	0.999444
332.795338	0.999612
333.188625	0.998016
333.581847	1.000224
333.975006	0.999908
334.368100	0.999313
334.761129	0.999672
335.154095	1.001554
335.546996	0.997397
335.939833	0.992845
336.332606	0.994392
336.725315	0.994647
337.117960	0.995680
337.510540	0.993920
337.903056	0.994888
338.295508	0.992917
338.687896	0.993981
339.080220	0.994329
339.472480	0.994098
339.864676	0.993923
340.256807	0.994708
340.648875	0.995029
341.040879	0.995034
341.432818	0.993480
341.824694	0.993570
342.216506	0.995457
342.608253	0.994846
342.999937	0.994677
343.391557	0.994478
343.783113	0.992727
344.174605	0.993567
344.566033	0.994607
344.957397	0.994267
345.348697	0.993719
345.739934	0.994325
346.131106	0.993655
346.522215	0.994332
346.913260	0.993859
347.304241	0.995114
347.695159	0.993345
348.086012	0.993264
348.476802	0.994151
348.867528	0.994568
349.258191	0.993005
349.648789	0.994518
350.039324	0.993704
350.429796	0.994867
350.820203	0.994345
351.210548	0.992860
351.600828	0.994737
351.991045	0.994830
352.381198	0.992516
352.771288	0.994291
353.161314	0.993418
353.551276	0.995006
353.941175	0.993892
354.331010	0.992811
354.720782	0.994356
355.110490	0.994203
355.500135	0.994084
355.889717	0.994903
356.279235	0.993914
356.668689	0.993662
357.058080	0.993477
357.447408	0.994756
357.836672	0.994102
358.225873	0.995059
358.615010	0.994765
359.004084	0.995029
359.393095	0.994438
359.782043	0.993573
360.170927	0.994364
360.559748	0.994193
360.948505	0.994065
361.337199	0.992989
361.725830	0.994422
362.114398	0.994277
362.502903	0.995066
362.891344	0.995601
363.279722	0.993570
363.668037	0.995190
364.056289	0.994019
364.444478	0.995164
364.832603	0.994498
365.220665	0.993617
365.608665	0.993420
365.996601	0.994544
366.384474	0.995531
366.772284	0.994041
367.160031	0.993015
367.547715	0.992623
367.935336	0.995189
368.322893	0.993593
368.710388	0.993119
369.097820	0.993894
369.485189	0.994171
369.872495	0.993335
370.259738	0.992841
370.646918	0.993913
371.034035	0.995006
371.421090	0.993312
371.808081	0.994294
372.195010	0.992908
372.581875	0.994240
372.968678	0.993239
373.355418	0.993942
373.742096	0.993852
374.128710	0.994194
374.515262	0.993536
374.901751	0.994899
375.288177	0.994290
375.674540	0.994827
376.060841	0.993693
376.447079	0.994205
376.833254	0.994211
377.219367	0.994683
377.605417	0.994378
377.991404	0.994238
378.377329	0.993664
378.763191	0.994786
379.148991	0.994546
379.534727	0.994330
379.920402	0.995135
380.306013	0.994701
380.691563	0.995772
381.077049	0.994403
381.462474	0.994645
381.847835	0.994943
382.233134	0.994322
382.618371	0.995465
383.003545	0.994408
383.388657	0.994284
383.773706	0.996502
384.158693	0.995563
384.543618	0.995072
384.928480	0.995482
385.313280	0.994440
385.698017	0.995896
386.082692	0.995210
386.467305	0.995905
386.851856	0.994892
387.236344	0.994866
387.620770	0.993843
388.005133	0.995660
388.389435	0.995980
388.773674	0.995991
389.157851	0.995563
389.541965	0.995229
389.926018	0.994747
390.310008	0.996417
390.693936	0.995173
391.077802	0.995780
391.461606	0.995624
391.845348	0.995205
392.229027	0.995961
392.612645	0.995163
392.996200	0.996313
393.379694	0.995123
393.763125	0.996107
394.146494	0.995669
394.529801	0.995489
394.913047	0.995782
395.296230	0.995753
395.679351	0.995803
396.062410	0.995019
396.445408	0.995786
396.828343	0.995273
397.211217	0.995021
397.594028	0.996036
397.976778	0.994790
398.359466	0.995642
398.742092	0.994489
399.124656	0.994041
399.507158	0.995711
399.889598	0.995114
400.271977	0.995352
400.654294	0.995295
401.036549	0.995014
401.418742	0.994805
401.800874	0.993523
402.182944	0.994478
402.564952	0.993642
402.946898	0.995311
403.328783	0.994898
403.710606	0.994992
404.092367	0.993453
404.474067	0.994389
404.855705	0.993707
405.237282	0.993650
405.618797	0.993007
406.000250	0.992193
406.381642	0.993429
406.762972	0.992728
407.144240	0.992279
407.525447	0.991218
407.906593	0.989692
408.287677	0.989120
408.668700	0.989389
409.049661	0.986262
409.430560	0.985017
409.811399	0.982851
410.192176	0.980164
410.572891	0.979356
410.953545	0.975052
411.334138	0.974046
411.714669	0.971856
412.095139	0.970023
412.475547	0.965526
412.855894	0.962349
413.236180	0.959020
413.616405	0.955236
413.996568	0.951801
414.376670	0.947760
414.756711	0.943627
415.136691	0.939881
415.516609	0.934676
415.896466	0.929184
416.276262	0.922432
416.655997	0.918977
417.035670	0.909175
417.415283	0.903019
417.794834	0.897343
418.174324	0.892549
418.553753	0.888770
418.933121	0.877340
419.312428	0.869763
419.691674	0.864352
420.070859	0.853686
420.449983	0.848681
420.829045	0.837354
421.208047	0.833005
421.586988	0.822630
421.965867	0.813420
422.344686	0.800340
422.723444	0.797555
423.102141	0.795936
423.480777	0.776062
423.859352	0.775343
424.237866	0.756005
424.616319	0.747997
424.994712	0.736228
425.373044	0.731702
425.751314	0.715393
426.129524	0.715422
426.507673	0.697522
426.885762	0.687305
427.263789	0.679197
427.641756	0.677702
428.019662	0.662756
428.397508	0.653620
428.775292	0.646566
429.153016	0.633382
429.530679	0.629748
429.908282	0.617203
430.285824	0.617020
430.663305	0.592708
431.040726	0.600519
431.418086	0.593621
431.795385	0.580214
432.172624	0.572189
432.549802	0.566609
432.926920	0.559034
433.303977	0.551727
433.680974	0.543307
434.057910	0.535646
434.434786	0.529735
434.811601	0.526319
435.188355	0.505992
435.565050	0.508764
435.941683	0.505738
436.318257	0.486781
436.694770	0.482375
437.071222	0.476522
437.447614	0.476083
437.823946	0.478145
438.200218	0.465034
438.576429	0.470499
438.952580	0.460342
439.328670	0.454512
439.704700	0.457903
440.080670	0.456635
440.456580	0.435738
440.832429	0.440976
441.208218	0.449802
441.583947	0.437038
441.959616	0.435033
442.335224	0.438440
442.710773	0.427867
443.086261	0.423946
443.461689	0.437005
443.837057	0.425498
444.212365	0.414597
444.587612	0.420471
444.962800	0.409470
445.337927	0.410042
445.712995	0.435753
446.088002	0.397476
446.462949	0.407128
446.837837	0.411120
447.212664	0.399908
447.587431	0.390702
447.962139	0.361688
448.336786	0.320898
448.711374	0.330892
449.085901	0.374202
449.460369	0.378200
449.834776	0.381354
450.209124	0.360491
450.583412	0.353331
450.957640	0.346784
451.331808	0.357382
451.705917	0.380703
452.079965	0.385068
452.453954	0.372948
452.827883	0.379642
453.201752	0.374485
453.575562	0.385894
453.949311	0.374334
454.323001	0.380325
454.696632	0.375805
455.070202	0.368873
455.443713	0.359992
455.817164	0.354968
456.190556	0.351036
456.563888	0.347608
456.937160	0.345582
457.310373	0.362765
457.683526	0.361378
458.056619	0.367209
458.429653	0.367764
458.802628	0.371291
459.175542	0.365144
459.548398	0.347929
459.921194	0.340162
460.293930	0.340518
460.666607	0.317975
461.039224	0.306138
461.411782	0.302149
461.784280	0.301232
462.156719	0.305349
462.529099	0.309948
462.901419	0.326092
463.273680	0.330039
463.645882	0.329876
464.018024	0.335919
464.390106	0.328515
464.762130	0.313435
465.134094	0.296405
465.505999	0.265704
465.877845	0.236011
466.249631	0.223196
466.621358	0.230798
466.993026	0.244567
467.364634	0.250609
467.736184	0.259370
468.107674	0.268062
468.479105	0.267089
468.850477	0.273735
469.221790	0.280687
469.593043	0.290702
469.964238	0.295615
470.335373	0.295323
470.706449	0.293485
471.077467	0.294020
471.448425	0.256185
471.819324	0.231989
472.190164	0.231339
472.560945	0.260037
472.931667	0.282334
473.302330	0.285986
473.672934	0.298083
474.043479	0.286327
474.413965	0.288224
474.784393	0.291736
475.154761	0.286711
475.525070	0.283680
475.895321	0.289820
476.265513	0.283835
476.635645	0.279178
477.005719	0.279161
477.375734	0.276025
477.745691	0.269222
478.115588	0.265483
478.485427	0.259229
478.855207	0.245974
479.224928	0.228715
479.594591	0.216863
479.964194	0.220240
480.333739	0.221266
480.703226	0.222884
481.072653	0.221594
481.442022	0.217131
481.811333	0.213464
482.180584	0.217133
482.549777	0.222263
482.918912	0.225837
483.287988	0.225291
483.657005	0.225104
484.025964	0.231564
484.394864	0.228611
484.763706	0.229448
485.132489	0.234395
485.501213	0.235134
485.869879	0.233583
486.238487	0.236961
486.607036	0.234318
486.975527	0.239033
487.343959	0.234672
487.712333	0.233933
488.080648	0.235507
488.448905	0.234318
488.817104	0.236049
489.185244	0.230361
489.553326	0.227178
489.921350	0.217136
490.289315	0.199658
490.657222	0.194557
491.025070	0.195939
491.392861	0.197798
491.760593	0.203540
492.128267	0.209040
492.495883	0.214807
492.863440	0.220836
493.230939	0.227127
493.598380	0.228199
493.965763	0.230666
494.333088	0.232916
494.700354	0.234483
495.067563	0.233363
495.434713	0.236617
495.801805	0.234299
496.168839	0.235961
496.535815	0.237235
496.902733	0.237339
497.269593	0.239077
497.636395	0.236740
498.003139	0.236700
498.369825	0.240028
498.736453	0.236507
499.103023	0.237846
499.469535	0.237348
499.835989	0.237308
500.202385	0.238370
500.568723	0.241643
500.935003	0.236849
501.301226	0.240826
501.667390	0.235542
502.033497	0.233434
502.399546	0.236568
502.765537	0.238184
503.131470	0.236440
503.497345	0.233045
503.863163	0.241826
504.228923	0.234454
504.594625	0.233265
504.960269	0.238925
505.325856	0.234176
505.691385	0.238093
506.056856	0.235254
506.422270	0.234628
506.787625	0.237172
507.152924	0.234349
507.518164	0.234814
507.883347	0.236530
508.248472	0.238465
508.613540	0.233549
508.978550	0.235800
509.343503	0.236241
509.708398	0.233878
510.073236	0.231611
510.438016	0.231717
510.802738	0.232739
511.167403	0.231774
511.532010	0.233489
511.896561	0.228959
512.261053	0.227948
512.625488	0.229794
512.989866	0.230305
513.354186	0.230539
513.718449	0.232224
514.082655	0.228862
514.446803	0.231029
514.810894	0.228293
515.174927	0.231396
515.538904	0.230569
515.902822	0.227536
516.266684	0.229811
516.630488	0.230956
516.994235	0.229798
517.357925	0.228851
517.721558	0.227141
518.085133	0.226210
518.448651	0.226643
518.812112	0.228697
519.175516	0.228438
519.538863	0.226079
519.902152	0.227762
520.265385	0.224791
520.628560	0.226457
520.991678	0.226996
521.354739	0.225573
521.717743	0.227020
522.080690	0.227391
522.443580	0.224572
522.806413	0.225716
523.169189	0.224977
523.531908	0.223625
523.894569	0.227130
524.257174	0.227382
524.619722	0.224933
524.982213	0.226163
525.344647	0.224815
525.707025	0.226003
526.069345	0.223935
526.431608	0.225696
526.793815	0.223394
527.155964	0.227824
527.518057	0.226814
527.880093	0.227725
528.242072	0.226231
528.603995	0.228095
528.965860	0.229868
529.327669	0.228851
529.689421	0.229636
530.051117	0.230489
530.412755	0.228125
530.774337	0.230412
531.135862	0.230858
531.497331	0.230240
531.858743	0.233029
532.220098	0.230015
532.581396	0.232065
532.942638	0.232632
533.303824	0.233827
533.664953	0.233539
534.026025	0.235338
534.387040	0.233201
534.747999	0.233431
535.108902	0.232101
535.469748	0.237034
535.830537	0.234814
536.191270	0.235356
536.551947	0.234833
536.912567	0.234861
537.273131	0.236464
537.633638	0.236472
537.994089	0.237224
538.354483	0.238185
538.714821	0.235212
539.075103	0.235059
539.435328	0.235801
539.795497	0.239356
540.155609	0.236056
540.515665	0.234157
540.875665	0.239974
541.235609	0.238351
541.595496	0.238425
541.955328	0.234740
542.315102	0.237672
542.674821	0.238743
543.034483	0.238766
543.394090	0.238403
543.753640	0.240276
544.113134	0.235225
544.472571	0.238466
544.831953	0.235625
545.191278	0.239790
545.550548	0.239062
545.909761	0.235712
546.268918	0.236445
546.628019	0.234845
546.987064	0.237202
547.346053	0.239415
547.704986	0.237037
548.063863	0.237412
548.422684	0.237649
548.781449	0.239513
549.140158	0.237270
549.498811	0.240083
549.857408	0.243051
550.215949	0.237806
550.574434	0.240840
550.932864	0.238906
551.291237	0.237569
551.649555	0.239213
552.007817	0.238676
552.366022	0.239565
552.724173	0.239749
553.082267	0.240295
553.440305	0.236943
553.798288	0.241304
554.156215	0.238202
554.514086	0.238812
554.871902	0.242004
555.229661	0.241016
555.587365	0.241527
555.945014	0.244115
556.302606	0.240971
556.660143	0.243500
557.017625	0.240179
557.375050	0.242257
557.732421	0.239098
558.089735	0.241304
558.446994	0.241385
558.804197	0.240574
559.161345	0.240515
559.518437	0.244156
559.875474	0.241268
560.232455	0.241217
560.589381	0.242421
560.946251	0.242403
561.303065	0.240004
561.659825	0.241380
562.016528	0.242935
562.373177	0.245794
562.729770	0.242979
563.086307	0.244994
563.442789	0.243099
563.799216	0.245696
564.155587	0.244517
564.511904	0.245375
564.868164	0.245869
565.224370	0.245537
565.580520	0.247344
565.936615	0.247271
566.292654	0.249976
566.648638	0.247198
567.004567	0.248217
567.360441	0.248523
567.716260	0.250598
568.072023	0.248238
568.427732	0.249031
568.783385	0.251533
569.138982	0.249729
569.494525	0.249408
569.850013	0.252235
570.205445	0.250661
570.560823	0.252912
570.916145	0.255165
571.271412	0.253309
571.626625	0.254925
571.981782	0.255372
572.336884	0.256077
572.691931	0.255900
573.046923	0.257132
573.401860	0.258367
573.756743	0.259854
574.111570	0.258643
574.466342	0.259470
574.821059	0.258532
575.175722	0.261414
575.530330	0.260932
575.884882	0.261201
576.239380	0.263191
576.593823	0.263985
576.948211	0.263074
577.302544	0.266653
577.656823	0.266139
578.011047	0.266330
578.365216	0.266891
578.719330	0.269063
579.073389	0.268929
579.427394	0.270005
579.781344	0.270775
580.135239	0.272239
580.489080	0.271992
580.842866	0.275085
581.196597	0.274751
581.550273	0.273402
581.903895	0.274546
582.257463	0.272801
582.610975	0.275951
582.964434	0.275527
583.317837	0.277682
583.671186	0.278160
584.024481	0.278149
584.377721	0.280731
584.730906	0.281105
585.084037	0.280557
585.437113	0.282266
585.790135	0.281607
586.143103	0.284554
586.496016	0.285970
586.848874	0.283403
587.201679	0.283787
587.554428	0.287352
587.907124	0.286124
588.259765	0.286609
588.612352	0.287221
588.964884	0.290981
589.317362	0.290355
589.669786	0.290275
590.022155	0.289278
590.374470	0.288270
590.726731	0.290883
591.078937	0.295153
591.431090	0.291580
591.783188	0.295719
592.135232	0.296306
592.487222	0.296553
592.839157	0.294445
593.191038	0.296947
593.542866	0.298431
593.894639	0.302184
594.246358	0.300140
594.598022	0.299741
594.949633	0.303109
595.301190	0.304019
595.652692	0.303080
596.004141	0.299690
596.355535	0.307189
596.706876	0.307900
597.058162	0.310273
597.409395	0.307631
597.760573	0.304868
598.111698	0.308155
598.462768	0.308855
598.813785	0.310211
599.164748	0.311528
599.515657	0.311768
599.866511	0.315171
600.217312	0.310488
600.568060	0.315820
600.918753	0.312314
601.269392	0.313104
601.619978	0.316129
601.970510	0.313985
602.320988	0.314224
602.671412	0.311867
603.021783	0.314232
603.372100	0.315476
603.722363	0.314931
604.072572	0.316229
604.422728	0.315786
604.772830	0.318027
605.122878	0.317485
605.472872	0.317653
605.822813	0.316484
606.172701	0.319010
606.522534	0.316227
606.872314	0.316512
607.222041	0.317320
607.571714	0.315709
607.921333	0.316719
608.270899	0.316692
608.620411	0.313295
608.969870	0.317376
609.319276	0.317371
609.668627	0.317349
610.017926	0.316024
610.367171	0.314463
610.716362	0.315254
611.065500	0.315266
611.414585	0.314251
611.763616	0.314738
612.112594	0.314819
612.461518	0.314505
612.810389	0.312208
613.159207	0.314422
613.507971	0.316251
613.856682	0.312003
614.205340	0.314016
614.553945	0.310603
614.902496	0.314696
615.250994	0.312382
615.599439	0.313135
615.947830	0.312587
616.296169	0.313528
616.644454	0.313007
616.992686	0.313445
617.340864	0.311337
617.688990	0.314780
618.037063	0.311179
618.385082	0.313190
618.733048	0.309532
619.080961	0.312357
619.428821	0.312085
619.776628	0.311235
620.124382	0.313247
620.472083	0.313344
620.819731	0.312731
621.167326	0.316646
621.514868	0.316385
621.862357	0.320252
622.209793	0.319973
622.557176	0.322302
622.904506	0.323799
623.251783	0.326011
623.599007	0.328382
623.946179	0.327814
624.293297	0.329874
624.640363	0.333399
624.987376	0.334295
625.334336	0.336648
625.681243	0.338822
626.028097	0.339176
626.374899	0.340608
626.721647	0.340982
627.068343	0.344263
627.414987	0.345140
627.761577	0.347254
628.108115	0.345638
628.454600	0.350379
628.801032	0.347873
629.147412	0.350060
629.493739	0.350510
629.840014	0.353473
630.186236	0.350955
630.532405	0.356276
630.878521	0.353933
631.224585	0.356302
631.570597	0.359927
631.916556	0.358237
632.262462	0.358472
632.608316	0.360458
632.954117	0.361426
633.299866	0.362236
633.645562	0.362697
633.991206	0.366739
634.336797	0.370048
634.682336	0.372055
635.027823	0.373769
635.373257	0.374220
635.718639	0.377837
636.063968	0.377112
636.409245	0.382904
636.754470	0.382906
637.099642	0.385688
637.444762	0.389175
637.789829	0.387807
638.134845	0.391372
638.479808	0.392601
638.824719	0.392118
639.169577	0.396175
639.514383	0.395366
639.859137	0.399323
640.203839	0.398861
640.548489	0.399346
640.893086	0.400813
641.237632	0.402763
641.582125	0.401116
641.926566	0.402783
642.270955	0.402595
642.615292	0.403262
642.959576	0.402312
643.303809	0.402698
643.647990	0.402606
643.992118	0.402951
644.336195	0.406910
644.680219	0.405067
645.024192	0.405488
645.368112	0.399549
645.711981	0.398505
646.055797	0.393670
646.399562	0.395895
646.743274	0.388252
647.086935	0.385366
647.430544	0.385598
647.774101	0.384295
648.117606	0.384067
648.461059	0.384457
648.804460	0.386551
649.147810	0.391964
649.491108	0.394012
649.834354	0.394994
650.177548	0.401071
650.520690	0.405978
650.863781	0.407478
651.206820	0.407067
651.549807	0.411293
651.892742	0.415531
652.235626	0.414908
652.578458	0.415349
652.921238	0.421923
653.263967	0.419323
653.606644	0.423260
653.949269	0.423242
654.291843	0.427824
654.634365	0.423842
654.976836	0.427236
655.319255	0.427230
655.661622	0.429117
656.003938	0.429012
656.346203	0.431814
656.688416	0.429304
657.030577	0.433241
657.372687	0.435445
657.714746	0.435891
658.056753	0.433048
658.398708	0.436559
658.740612	0.437612
659.082465	0.434216
659.424266	0.434759
659.766016	0.434073
660.107715	0.437229
660.449362	0.435505
660.790958	0.435768
661.132503	0.436345
661.473996	0.434177
661.815438	0.435346
662.156829	0.435469
662.498168	0.436124
662.839456	0.437720
663.180693	0.435413
663.521879	0.435770
663.863013	0.436561
664.204097	0.435124
664.545129	0.431808
664.886110	0.432396
665.227040	0.429360
665.567918	0.432176
665.908746	0.429775
666.249522	0.429617
666.590248	0.430420
666.930922	0.428911
667.271545	0.428189
667.612118	0.427325
667.952639	0.429524
668.293109	0.428224
668.633528	0.431019
668.973896	0.430668
669.314213	0.431088
669.654480	0.433157
669.994695	0.433313
670.334859	0.433969
670.674973	0.434367
671.015035	0.434037
671.355047	0.434023
671.695008	0.435348
672.034918	0.437110
672.374777	0.436474
672.714585	0.437938
673.054342	0.437343
673.394049	0.438297
673.733705	0.435268
674.073310	0.436551
674.412864	0.439797
674.752368	0.440218
675.091820	0.440238
675.431223	0.444585
675.770574	0.444327
676.109875	0.447491
676.449125	0.447430
676.788324	0.450190
677.127473	0.454950
677.466571	0.454989
677.805619	0.456409
678.144616	0.457754
678.483562	0.459425
678.822458	0.462000
679.161303	0.463029
679.500098	0.463100
679.838842	0.465075
680.177535	0.464322
680.516179	0.462992
680.854771	0.462223
681.193314	0.455588
681.531805	0.446604
681.870247	0.435685
682.208638	0.428400
682.546978	0.426883
682.885268	0.428213
683.223508	0.435077
683.561697	0.438545
683.899836	0.440999
684.237925	0.445042
684.575963	0.447733
684.913951	0.450415
685.251889	0.446411
685.589776	0.448280
685.927614	0.450813
686.265401	0.444379
686.603137	0.446109
686.940824	0.440074
687.278460	0.438638
687.616046	0.437893
687.953582	0.432451
688.291068	0.434002
688.628504	0.429836
688.965889	0.432054
689.303224	0.436176
689.640510	0.439904
689.977745	0.446208
690.314930	0.453604
690.652065	0.458335
690.989150	0.465910
691.326185	0.472325
691.663170	0.476820
692.000105	0.484033
692.336990	0.490955
692.673825	0.493410
693.010610	0.500440
693.347345	0.505782
693.684030	0.508218
694.020665	0.511799
694.357251	0.521306
694.693786	0.520457
695.030272	0.524632
695.366707	0.528284
695.703093	0.531322
696.039429	0.529246
696.375716	0.530693
696.711952	0.533247
697.048139	0.536258
697.384276	0.538287
697.720363	0.535429
698.056400	0.534908
698.392388	0.540173
698.728326	0.543782
699.064214	0.546323
699.400053	0.547224
699.735842	0.550641
700.071581	0.553975
700.407270	0.556417
700.742910	0.559282
701.078501	0.565441
701.414042	0.565627
701.749533	0.569006
702.084974	0.577157
702.420366	0.570608
702.755709	0.577593
703.091002	0.585028
703.426246	0.579354
703.761440	0.585094
704.096584	0.589338
704.431679	0.586641
704.766725	0.588133
705.101721	0.590606
705.436668	0.586731
705.771565	0.593019
706.106413	0.590302
706.441212	0.584987
706.775961	0.583702
707.110661	0.587161
707.445311	0.583787
707.779913	0.580708
708.114465	0.579172
708.448967	0.575331
708.783421	0.567105
709.117825	0.562457
709.452180	0.562048
709.786485	0.556051
710.120742	0.545449
710.454949	0.547936
710.789107	0.540126
711.123216	0.531614
711.457275	0.533224
711.791286	0.523716
712.125247	0.522020
712.459159	0.533494
712.793023	0.526150
713.126837	0.530636
713.460602	0.530724
713.794318	0.540082
714.127985	0.538779
714.461602	0.549392
714.795171	0.551837
715.128691	0.559837
715.462162	0.567369
715.795584	0.573058
716.128957	0.575726
716.462281	0.582403
716.795556	0.585777
717.128782	0.591140
717.461960	0.601436
717.795088	0.598420
718.128167	0.605591
718.461198	0.613728
718.794180	0.614723
719.127113	0.617010
719.459997	0.621316
719.792833	0.627381
720.125619	0.628374
720.458357	0.633745
720.791046	0.634101
721.123686	0.636813
721.456278	0.643934
721.788821	0.641554
722.121315	0.645427
722.453761	0.649648
722.786158	0.647431
723.118506	0.644298
723.450805	0.652408
723.783056	0.647962
724.115259	0.645061
724.447412	0.644815
724.779518	0.646196
725.111574	0.645101
725.443582	0.640324
725.775542	0.642607
726.107453	0.635485
726.439315	0.635299
726.771129	0.632545
727.102895	0.626945
727.434612	0.620187
727.766281	0.617388
728.097901	0.616753
728.429473	0.616144
728.760996	0.614927
729.092471	0.615006
729.423897	0.618777
729.755276	0.617671
730.086606	0.617830
730.417887	0.612804
730.749120	0.603277
731.080305	0.594101
731.411442	0.590028
731.742530	0.594513
732.073570	0.594646
732.404562	0.587170
732.735506	0.588330
733.066401	0.592916
733.397249	0.602513
733.728048	0.613549
734.058798	0.625835
734.389501	0.636455
734.720156	0.645962
735.050762	0.654927
735.381320	0.655107
735.711831	0.663797
736.042293	0.669260
736.372707	0.665350
736.703073	0.669871
737.033391	0.672079
737.363661	0.668606
737.693883	0.663745
738.024056	0.662785
738.354182	0.663618
738.684260	0.652960
739.014290	0.647960
739.344272	0.649249
739.674207	0.642804
740.004093	0.642558
740.333931	0.643560
740.663722	0.641723
740.993464	0.644032
741.323159	0.647403
741.652806	0.652078
741.982405	0.657332
742.311956	0.662090
742.641460	0.664013
742.970915	0.667591
743.300323	0.675389
743.629683	0.681231
743.958996	0.683378
744.288260	0.688008
744.617477	0.693790
744.946647	0.695550
745.275768	0.701099
745.604842	0.700645
745.933869	0.710733
746.262847	0.709636
746.591778	0.704420
746.920662	0.710632
747.249498	0.717682
747.578286	0.708517
747.907027	0.704039
748.235720	0.705268
748.564365	0.699885
748.892963	0.699287
749.221514	0.702258
749.550017	0.708434
749.878473	0.707445
750.206881	0.713713
750.535242	0.715366
750.863555	0.715066
751.191821	0.715813
751.520039	0.719581
751.848210	0.724593
752.176334	0.716566
752.504411	0.715787
752.832440	0.723641
753.160421	0.727520
753.488356	0.726194
753.816243	0.723224
754.144082	0.731648
754.471875	0.735844
754.799620	0.731185
755.127318	0.731575
755.454969	0.732148
755.782572	0.731638
756.110129	0.737486
756.437638	0.738529
756.765100	0.735988
757.092515	0.733864
757.419882	0.732823
757.747203	0.737961
758.074477	0.737331
758.401703	0.734682
758.728882	0.729603
759.056014	0.728049
759.383099	0.727464
759.710138	0.729130
760.037129	0.725676
760.364073	0.719351
760.690970	0.721466
761.017820	0.726824
761.344623	0.722696
761.671379	0.713295
761.998088	0.701713
762.324751	0.678991
762.651366	0.637326
762.977935	0.570438
763.304456	0.518435
763.630931	0.508815
763.957359	0.548056
764.283740	0.592743
764.610074	0.620085
764.936362	0.650923
765.262602	0.677848
765.588796	0.698601
765.914943	0.716989
766.241044	0.734921
766.567097	0.740863
766.893104	0.750542
767.219064	0.757245
767.544978	0.763639
767.870845	0.776737
768.196665	0.780661
768.522438	0.778590
768.848165	0.779951
769.173846	0.789080
769.499479	0.793569
769.825066	0.797419
770.150607	0.802147
770.476101	0.797194
770.801548	0.798515
771.126949	0.810840
771.452303	0.813423
771.777611	0.812464
772.102872	0.812859
772.428087	0.817178
772.753256	0.820672
773.078378	0.822244
773.403453	0.832239
773.728482	0.835981
774.053465	0.829369
774.378401	0.832597
774.703291	0.842014
775.028135	0.841708
775.352932	0.842457
775.677683	0.845419
776.002388	0.846584
776.327046	0.844278
776.651658	0.848512
776.976224	0.852391
777.300743	0.851821
777.625216	0.854740
777.949643	0.855527
778.274024	0.856745
778.598359	0.858291
778.922647	0.857373
779.246889	0.857326
779.571086	0.860766
779.895236	0.863905
780.219339	0.861675
780.543397	0.858283
780.867409	0.856334
781.191374	0.858831
781.515294	0.859591
781.839167	0.859242
782.162995	0.862999
782.486776	0.859685
782.810511	0.860472
783.134201	0.864351
783.457844	0.861101
783.781441	0.864986
784.104993	0.870986
784.428498	0.870887
784.751958	0.867107
785.075372	0.868536
785.398739	0.872668
785.722061	0.867588
786.045337	0.863789
786.368568	0.868697
786.691752	0.871443
787.014891	0.856531
787.337983	0.848542
787.661030	0.840967
787.984031	0.822808
788.306987	0.809935
788.629897	0.811912
788.952760	0.817023
789.275579	0.820606
789.598351	0.836076
789.921078	0.849126
790.243759	0.851920
790.566395	0.856570
790.888984	0.863143
791.211529	0.868138
791.534027	0.870641
791.856480	0.874475
792.178888	0.878619
792.501249	0.881447
792.823566	0.882594
793.145836	0.882612
793.468062	0.884433
793.790241	0.885015
794.112375	0.883183
794.434464	0.878018
794.756507	0.877841
795.078505	0.876931
795.400457	0.870686
795.722364	0.860044
796.044226	0.852748
796.366042	0.851962
796.687812	0.855336
797.009538	0.852026
797.331218	0.854693
797.652852	0.858973
797.974442	0.864821
798.295986	0.864118
798.617484	0.866858
798.938938	0.870359
799.260346	0.875361
799.581709	0.877972
799.903026	0.880283
800.224299	0.880670
800.545526	0.884366
800.866708	0.887735
801.187845	0.892765
801.508936	0.890699
801.829983	0.890775
802.150984	0.891812
802.471940	0.897364
802.792851	0.897181
803.113717	0.898584
803.434538	0.896169
803.755314	0.897472
804.076045	0.899635
804.396731	0.900509
804.717372	0.900322
805.037967	0.901674
805.358518	0.900066
805.679024	0.896276
805.999485	0.897041
806.319901	0.895979
806.640272	0.898774
806.960598	0.896006
807.280879	0.893584
807.601115	0.890980
807.921306	0.895924
808.241453	0.895774
808.561554	0.893809
808.881611	0.893218
809.201623	0.895438
809.521590	0.896355
809.841513	0.897230
810.161390	0.895657
810.481223	0.897420
810.801011	0.901632
811.120755	0.902479
811.440453	0.902225
811.760107	0.899989
812.079716	0.900079
812.399281	0.903917
812.718801	0.906515
813.038276	0.906975
813.357707	0.906257
813.677093	0.902961
813.996434	0.906945
814.315731	0.908649
814.634983	0.909472
814.954191	0.907618
815.273354	0.904529
815.592473	0.900485
815.911547	0.901613
816.230577	0.898185
816.549562	0.896251
816.868502	0.897446
817.187399	0.893333
817.506250	0.887879
817.825058	0.890464
818.143821	0.886570
818.462539	0.881116
818.781213	0.873570
819.099843	0.862457
819.418429	0.846242
819.736970	0.829248
820.055466	0.809632
820.373919	0.784337
820.692327	0.751548
821.010691	0.716269
821.329011	0.638686
821.647286	0.523165
821.965517	0.409739
822.283704	0.367192
822.601847	0.368335
822.919945	0.404060
823.237999	0.437543
823.556010	0.484393
823.873976	0.539947
824.191897	0.591110
824.509775	0.633146
824.827609	0.679928
825.145398	0.701474
825.463144	0.703958
825.780845	0.687204
826.098502	0.668817
826.416116	0.621888
826.733685	0.578762
827.051210	0.569653
827.368692	0.584472
827.686129	0.621685
828.003522	0.675524
828.320872	0.722568
828.638177	0.766373
828.955439	0.799174
829.272656	0.822101
829.589830	0.838817
829.906960	0.855054
830.224046	0.866533
830.541088	0.876456
830.858086	0.880901
831.175041	0.887628
831.491952	0.886241
831.808819	0.882756
832.125642	0.876588
832.442421	0.862586
832.759157	0.841002
833.075849	0.794268
833.392497	0.730614
833.709101	0.688534
834.025662	0.699259
834.342179	0.730035
834.658653	0.769226
834.975083	0.805266
835.291469	0.831754
835.607811	0.853897
835.924110	0.869813
836.240366	0.887293
836.556578	0.901861
836.872746	0.908045
837.188871	0.915014
837.504952	0.919667
837.820990	0.924058
838.136984	0.926121
838.452935	0.929597
838.768842	0.932466
839.084706	0.925371
839.400526	0.899626
839.716303	0.859201
840.032037	0.836735
840.347727	0.840472
840.663373	0.858316
840.978977	0.879189
841.294537	0.901716
841.610054	0.918369
841.925527	0.925434
842.240957	0.932741
842.556344	0.940001
842.871687	0.946205
843.186987	0.950479
843.502244	0.950026
843.817458	0.951776
844.132629	0.955409
844.447756	0.959754
844.762840	0.960541
845.077881	0.960255
845.392879	0.959803
845.707833	0.962512
846.022745	0.964964
846.337613	0.964703
846.652438	0.965761
846.967221	0.964140
847.281960	0.964882
847.596656	0.967911
847.911309	0.966367
848.225919	0.966157
848.540485	0.967736
848.855009	0.969153
849.169490	0.969014
849.483928	0.967859
849.798323	0.968105
850.112675	0.968337
850.426984	0.969922
850.741251	0.969667
851.055474	0.970723
851.369654	0.967530
851.683792	0.969354
851.997887	0.970047
852.311938	0.971416
852.625947	0.969902
852.939914	0.967751
853.253837	0.968970
853.567718	0.970620
853.881555	0.970177
854.195350	0.968811
854.509103	0.969845
854.822812	0.970064
855.136479	0.971167
855.450103	0.969542
855.763685	0.967623
856.077224	0.969906
856.390720	0.970083
856.704173	0.970219
857.017584	0.969062
857.330953	0.966323
857.644278	0.967571
857.957561	0.968446
858.270802	0.968381
858.584000	0.968675
858.897155	0.966537
859.210268	0.967340
859.523339	0.967731
859.836367	0.970286
860.149352	0.971598
860.462295	0.968308
860.775195	0.969968
861.088054	0.969760
861.400869	0.969327
861.713642	0.971017
862.026373	0.970834
862.339062	0.970108
862.651708	0.968219
862.964312	0.968453
863.276873	0.969730
863.589392	0.968141
863.901869	0.966307
864.214303	0.965529
864.526696	0.963901
864.839045	0.964083
865.151353	0.962178
865.463619	0.962492
865.775842	0.961644
866.088023	0.961594
866.400162	0.961399
866.712258	0.961536
867.024313	0.962976
867.336325	0.963564
867.648296	0.963908
867.960224	0.961930
868.272110	0.961022
868.583954	0.963807
868.895755	0.964485
869.207515	0.961283
869.519233	0.960174
869.830909	0.960154
870.142542	0.962546
870.454134	0.962270
870.765684	0.960596
871.077191	0.958113
871.388657	0.958794
871.700081	0.958059
872.011463	0.958594
872.322803	0.957766
872.634101	0.956463
872.945357	0.954162
873.256571	0.952900
873.567744	0.953368
873.878874	0.954062
874.189963	0.951790
874.501010	0.951836
874.812015	0.949231
875.122979	0.951183
875.433900	0.953437
875.744780	0.953472
876.055618	0.951268
876.366415	0.950159
876.677169	0.950054
876.987882	0.952204
877.298554	0.950071
877.609183	0.948407
877.919771	0.944806
878.230317	0.941235
878.540822	0.940900
878.851285	0.935579
879.161707	0.927022
879.472087	0.915328
879.782425	0.898459
880.092722	0.864967
880.402977	0.813373
880.713191	0.752093
881.023363	0.692448
881.333494	0.658790
881.643583	0.631211
881.953631	0.631354
882.263637	0.660044
882.573602	0.698736
882.883526	0.723851
883.193408	0.747916
883.503248	0.771137
883.813048	0.797755
884.122806	0.827313
884.432522	0.850976
884.742197	0.870770
885.051831	0.881456
885.361424	0.890537
885.670975	0.903214
885.980485	0.913733
886.289954	0.918913
886.599382	0.924544
886.908768	0.928082
887.218113	0.934454
887.527417	0.938441
887.836680	0.942214
888.145901	0.943620
888.455082	0.946696
888.764221	0.950244
889.073319	0.952296
889.382376	0.953393
889.691392	0.952769
890.000366	0.952665
890.309300	0.954814
890.618193	0.953478
890.927044	0.950947
891.235855	0.951526
891.544625	0.951489
891.853353	0.952270
892.162041	0.951202
892.470687	0.943291
892.779293	0.937391
893.087858	0.933938
893.396381	0.926732
893.704864	0.914175
894.013306	0.888862
894.321707	0.862150
894.630068	0.848144
894.938387	0.842391
895.246665	0.844582
895.554903	0.856583
895.863100	0.870073
896.171256	0.887253
896.479371	0.905577
896.787446	0.919288
897.095480	0.925223
897.403473	0.928168
897.711425	0.932063
898.019336	0.940181
898.327207	0.942704
898.635038	0.945433
898.942827	0.945360
899.250576	0.947997
899.558284	0.951698
899.865952	0.954469
900.173579	0.955251
900.481165	0.955041
900.788711	0.959438
901.096216	0.961272
901.403681	0.962153
901.711105	0.963576
902.018489	0.964218
902.325832	0.962748
902.633135	0.961238
902.940397	0.956552
903.247619	0.944127
903.554800	0.918035
903.861941	0.878705
904.169041	0.843053
904.476101	0.826228
904.783121	0.826209
905.090100	0.842786
905.397039	0.864432
905.703938	0.886707
906.010796	0.905219
906.317614	0.922862
906.624391	0.934752
906.931129	0.944473
907.237826	0.952282
907.544483	0.958545
907.851099	0.962446
908.157675	0.967932
908.464211	0.970370
908.770707	0.973167
909.077163	0.974502
909.383578	0.974522
909.689954	0.974435
909.996289	0.976828
910.302584	0.977709
910.608839	0.979134
910.915054	0.979834
911.221229	0.978218
911.527363	0.976897
911.833458	0.977545
912.139513	0.976765
912.445527	0.975021
912.751502	0.973548
913.057436	0.973058
913.363331	0.968955
913.669186	0.965275
913.975000	0.960842
914.280775	0.955682
914.586510	0.948500
914.892205	0.934982
915.197859	0.913283
915.503475	0.886640
915.809050	0.868509
916.114585	0.862102
916.420081	0.859473
916.725536	0.855820
917.030952	0.863935
917.336328	0.877056
917.641665	0.891693
917.946961	0.908118
918.252218	0.918078
918.557435	0.927641
918.862612	0.936632
919.167750	0.942252
919.472848	0.946943
919.777906	0.952566
920.082925	0.958106
920.387904	0.962392
920.692843	0.962721
920.997743	0.964154
921.302603	0.967697
921.607423	0.969911
921.912204	0.972096
922.216946	0.972036
922.521647	0.973933
922.826310	0.974688
923.130932	0.976407
923.435516	0.978471
923.740059	0.978922
924.044564	0.979547
924.349028	0.980560
924.653454	0.983240
924.957840	0.985041
925.262186	0.984225
925.566493	0.983839
925.870761	0.985430
926.174989	0.985927
926.479178	0.987736
926.783328	0.987977
927.087438	0.989129
927.391509	0.987210
927.695541	0.989891
927.999533	0.989017
928.303486	0.989642
928.607400	0.991365
928.911275	0.989484
929.215110	0.990938
929.518906	0.990808
929.822663	0.989678
930.126381	0.991197
930.430060	0.989448
930.733699	0.991208
931.037299	0.989522
931.340861	0.989755
931.644383	0.989534
931.947866	0.990408
932.251309	0.990803
932.554714	0.990584
932.858080	0.990718
933.161407	0.990275
933.464694	0.990215
933.767943	0.989459
934.071153	0.992179
934.374323	0.990967
934.677455	0.992115
934.980548	0.991199
935.283602	0.990561
935.586617	0.990433
935.889593	0.990914
936.192530	0.990252
936.495428	0.990094
936.798287	0.991424
937.101108	0.990289
937.403890	0.989452
937.706632	0.989672
938.009336	0.986931
938.312002	0.986012
938.614628	0.984085
938.917216	0.983134
939.219765	0.981678
939.522275	0.983181
939.824747	0.982753
940.127179	0.983271
940.429573	0.983932
940.731929	0.983407
941.034246	0.984766
941.336524	0.985328
941.638763	0.985572
941.940964	0.986541
942.243126	0.986272
942.545250	0.987304
942.847335	0.988791
943.149381	0.988263
943.451389	0.988372
943.753359	0.988510
944.055290	0.990432
944.357182	0.988981
944.659036	0.988576
944.960851	0.989803
945.262628	0.990433
945.564367	0.989865
945.866067	0.990771
946.167729	0.990528
946.469352	0.989924
946.770937	0.988208
947.072484	0.991016
947.373992	0.991045
947.675462	0.989250
947.976893	0.990526
948.278286	0.990271
948.579641	0.991879
948.880958	0.991650
949.182236	0.990775
949.483476	0.990811
949.784678	0.990528
950.085841	0.991456
950.386967	0.989767
950.688054	0.990690
950.989103	0.991682
951.290114	0.989133
951.591087	0.989807
951.892021	0.990155
952.192917	0.989187
952.493776	0.989095
952.794596	0.988502
953.095378	0.987311
953.396122	0.987089
953.696828	0.987201
953.997496	0.989356
954.298126	0.990839
954.598718	0.990087
954.899272	0.990580
955.199788	0.990628
955.500266	0.992143
955.800706	0.992865
956.101108	0.994097
956.401472	0.993396
956.701798	0.994220
957.002087	0.992731
957.302337	0.993938
957.602550	0.995065
957.902724	0.994923
958.202861	0.994371
958.502960	0.994803
958.803022	0.993473
959.103045	0.996074
959.403031	0.995589
959.702979	0.994226
960.002889	0.995804
960.302762	0.994764
960.602596	0.995704
960.902393	0.994715
961.202153	0.997220
961.501875	0.996623
961.801559	0.995410
962.101205	0.996666
962.400814	0.996920
962.700385	0.997045
962.999918	0.995986
963.299414	0.995309
963.598873	0.995809
963.898293	0.995053
964.197677	0.995178
964.497022	0.996817
964.796331	0.997484
965.095601	0.996818
965.394835	0.996272
965.694030	0.996530
965.993189	0.997957
966.292309	0.996550
966.591393	0.997647
966.890439	0.996261
967.189447	0.996620
967.488419	0.996913
967.787353	0.996810
968.086249	0.996242
968.385108	0.997481
968.683930	0.998286
968.982714	0.997377
969.281462	0.997847
969.580172	0.996033
969.878844	0.997153
970.177480	0.996382
970.476078	0.997197
970.774639	0.996870
971.073162	0.996055
971.371649	0.996833
971.670098	0.995577
971.968510	0.996614
972.266885	0.995596
972.565223	0.996865
972.863524	0.996387
973.161788	0.995409
973.460014	0.997220
973.758204	0.995602
974.056356	0.996384
974.354471	0.994390
974.652550	0.997725
974.950591	0.997006
975.248595	0.995718
975.546563	0.997922
975.844493	0.998511
976.142386	0.996729
976.440243	0.997112
976.738062	0.998204
977.035845	0.997721
977.333590	0.996809
977.631299	0.997307
977.928971	0.996841
978.226606	0.995860
978.524204	0.996126
978.821765	0.997237
979.119290	0.996533
979.416777	0.996178
979.714228	0.997877
980.011642	0.996563
980.309020	0.996487
980.606360	0.997765
980.903664	0.998540
981.200931	0.996321
981.498162	0.996137
981.795356	0.994208
982.092513	0.993706
982.389633	0.995066
982.686717	0.992245
982.983764	0.991390
983.280775	0.990117
983.577749	0.991368
983.874686	0.992629
984.171587	0.991887
984.468451	0.993336
984.765279	0.994544
985.062070	0.994578
985.358824	0.995665
985.655543	0.995665
985.952224	0.995751
986.248869	0.996438
986.545478	0.997417
986.842050	0.998666
987.138586	0.994856
987.435086	0.997246
987.731549	0.999740
988.027975	0.997667
988.324366	0.998333
988.620719	0.997123
988.917037	0.996570
989.213318	0.997417
989.509563	0.998791
989.805772	0.998081
990.101944	0.998226
990.398080	0.998281
990.694180	0.997606
990.990244	0.996846
991.286271	0.998045
991.582262	0.998530
991.878217	0.998089
992.174136	0.998070
992.470019	0.998312
992.765865	0.998770
993.061676	0.997661
993.357450	0.996995
993.653188	0.996912
993.948890	0.996798
994.244556	0.997513
994.540186	0.997934
994.835780	0.995691
995.131337	0.996786
995.426859	0.996319
995.722345	0.997357
996.017795	0.995951
996.313208	0.996889
996.608586	0.994845
996.903928	0.997046
997.199234	0.994845
997.494504	0.997265
997.789738	0.996855
998.084936	0.996092
998.380099	0.998247
998.675225	0.996630
998.970316	0.998325
999.265371	0.998173
999.560390	0.998156
999.855373	0.999025
1000.150320	0.997471
1000.445232	0.998149
1000.740108	0.997049
1001.034948	0.997252
1001.329752	0.997939
1001.624521	0.998512
1001.919254	0.998576
1002.213951	0.998067
1002.508613	0.998657
1002.803239	0.999502
1003.097829	0.999734
1003.392384	0.998632
1003.686903	0.998886
1003.981386	0.998940
1004.275834	0.998813
1004.570246	0.999368
1004.864623	0.998626
1005.158964	0.999110
1005.453270	0.999350
1005.747540	0.997040
1006.041775	0.999482
1006.335974	0.998549
1006.630138	0.998715
1006.924266	0.999776
1007.218359	0.999970
1007.512416	0.999923
1007.806438	0.998727
1008.100425	0.998709
1008.394376	0.998862
1008.688292	0.999260
1008.982172	1.000239
1009.276017	0.999246
1009.569827	0.999244
1009.863602	0.998517
1010.157341	0.999580
1010.451045	0.999448
1010.744714	0.999247
1011.038347	0.999433
1011.331945	0.998477
1011.625508	0.997954
1011.919036	0.998592
1012.212528	0.999520
1012.505986	0.996896
1012.799408	0.999020
1013.092795	1.000230
1013.386147	0.999437
1013.679464	0.998477
1013.972745	0.997675
1014.265992	0.996946
1014.559204	0.999008
1014.852380	0.999628
1015.145521	1.000506
1015.438628	0.997902
1015.731699	0.999101
1016.024736	0.998672
1016.317737	0.998060
1016.610703	0.998221
1016.903635	1.000079
1017.196531	0.999403
1017.489393	0.999686
1017.782219	0.998906
1018.075011	0.997958
1018.367768	1.000028
1018.660490	0.999122
1018.953177	0.999122
1019.245829	0.999122
