Dividing Wavelength (nm)	Counts (n)	Blue Motor Position (mm): 0.000000	Red Motor Position (mm): 16.000000	
326.493990	1.000709
326.888308	1.000709
327.282561	1.000709
327.676750	0.999936
328.070874	0.999643
328.464933	1.000905
328.858929	1.000231
329.252859	1.001156
329.646726	1.000251
330.040528	1.000344
330.434265	0.999133
330.827938	1.000724
331.221547	1.001543
331.615091	1.000328
332.008571	1.000368
332.401986	1.000063
332.795338	1.000939
333.188625	0.998064
333.581847	1.001614
333.975006	1.000560
334.368100	0.999651
334.761129	1.000295
335.154095	1.001687
335.546996	0.998109
335.939833	0.993391
336.332606	0.994538
336.725315	0.994926
337.117960	0.995142
337.510540	0.994596
337.903056	0.995056
338.295508	0.993914
338.687896	0.992943
339.080220	0.994917
339.472480	0.994435
339.864676	0.993585
340.256807	0.995534
340.648875	0.995244
341.040879	0.995274
341.432818	0.993294
341.824694	0.994551
342.216506	0.994848
342.608253	0.994876
342.999937	0.993942
343.391557	0.995428
343.783113	0.994466
344.174605	0.996039
344.566033	0.994633
344.957397	0.992734
345.348697	0.993474
345.739934	0.994740
346.131106	0.996090
346.522215	0.993119
346.913260	0.994897
347.304241	0.993186
347.695159	0.994616
348.086012	0.994069
348.476802	0.994345
348.867528	0.994525
349.258191	0.992772
349.648789	0.995237
350.039324	0.993431
350.429796	0.995337
350.820203	0.994035
351.210548	0.995127
351.600828	0.994033
351.991045	0.994233
352.381198	0.993922
352.771288	0.993902
353.161314	0.993144
353.551276	0.995113
353.941175	0.993419
354.331010	0.993821
354.720782	0.993700
355.110490	0.994614
355.500135	0.995958
355.889717	0.993896
356.279235	0.993590
356.668689	0.994165
357.058080	0.994496
357.447408	0.994410
357.836672	0.995622
358.225873	0.994618
358.615010	0.995465
359.004084	0.995141
359.393095	0.995695
359.782043	0.993129
360.170927	0.994813
360.559748	0.995056
360.948505	0.993453
361.337199	0.993220
361.725830	0.993369
362.114398	0.994004
362.502903	0.994616
362.891344	0.995589
363.279722	0.994051
363.668037	0.995957
364.056289	0.993762
364.444478	0.995929
364.832603	0.993786
365.220665	0.993980
365.608665	0.993964
365.996601	0.994198
366.384474	0.994410
366.772284	0.994928
367.160031	0.993984
367.547715	0.994076
367.935336	0.994239
368.322893	0.994235
368.710388	0.993581
369.097820	0.995025
369.485189	0.993494
369.872495	0.993122
370.259738	0.993243
370.646918	0.994369
371.034035	0.994862
371.421090	0.994548
371.808081	0.993029
372.195010	0.994120
372.581875	0.994359
372.968678	0.994933
373.355418	0.993602
373.742096	0.994090
374.128710	0.994875
374.515262	0.994407
374.901751	0.995187
375.288177	0.995564
375.674540	0.994741
376.060841	0.994143
376.447079	0.994969
376.833254	0.994188
377.219367	0.994857
377.605417	0.994591
377.991404	0.994959
378.377329	0.993402
378.763191	0.995284
379.148991	0.995645
379.534727	0.994850
379.920402	0.994651
380.306013	0.994351
380.691563	0.994975
381.077049	0.993489
381.462474	0.994944
381.847835	0.995246
382.233134	0.994787
382.618371	0.995268
383.003545	0.994452
383.388657	0.994869
383.773706	0.996348
384.158693	0.995977
384.543618	0.995316
384.928480	0.995089
385.313280	0.995348
385.698017	0.995794
386.082692	0.995816
386.467305	0.995617
386.851856	0.994884
387.236344	0.994446
387.620770	0.994263
388.005133	0.995590
388.389435	0.996607
388.773674	0.995306
389.157851	0.995720
389.541965	0.994841
389.926018	0.994297
390.310008	0.995802
390.693936	0.994879
391.077802	0.995130
391.461606	0.995230
391.845348	0.995148
392.229027	0.994904
392.612645	0.995543
392.996200	0.995927
393.379694	0.995079
393.763125	0.995576
394.146494	0.995467
394.529801	0.994662
394.913047	0.995009
395.296230	0.994146
395.679351	0.994130
396.062410	0.992738
396.445408	0.992484
396.828343	0.991312
397.211217	0.990456
397.594028	0.989630
397.976778	0.987714
398.359466	0.986625
398.742092	0.984273
399.124656	0.982620
399.507158	0.979295
399.889598	0.977651
400.271977	0.974773
400.654294	0.971407
401.036549	0.968131
401.418742	0.964379
401.800874	0.958366
402.182944	0.954854
402.564952	0.947953
402.946898	0.944399
403.328783	0.938932
403.710606	0.935210
404.092367	0.924722
404.474067	0.921149
404.855705	0.914897
405.237282	0.910832
405.618797	0.901353
406.000250	0.892705
406.381642	0.884525
406.762972	0.878111
407.144240	0.870303
407.525447	0.862949
407.906593	0.852601
408.287677	0.843544
408.668700	0.838504
409.049661	0.826652
409.430560	0.818018
409.811399	0.811825
410.192176	0.795623
410.572891	0.790324
410.953545	0.776082
411.334138	0.772566
411.714669	0.761680
412.095139	0.758169
412.475547	0.742146
412.855894	0.733854
413.236180	0.724835
413.616405	0.719413
413.996568	0.704964
414.376670	0.700362
414.756711	0.695100
415.136691	0.685687
415.516609	0.671483
415.896466	0.661542
416.276262	0.650450
416.655997	0.644897
417.035670	0.622708
417.415283	0.609806
417.794834	0.606659
418.174324	0.604257
418.553753	0.604862
418.933121	0.582880
419.312428	0.571787
419.691674	0.570327
420.070859	0.554802
420.449983	0.555985
420.829045	0.541462
421.208047	0.544945
421.586988	0.533692
421.965867	0.527595
422.344686	0.512807
422.723444	0.520955
423.102141	0.532842
423.480777	0.504433
423.859352	0.519919
424.237866	0.495166
424.616319	0.493327
424.994712	0.482052
425.373044	0.488943
425.751314	0.474762
426.129524	0.488301
426.507673	0.471052
426.885762	0.463366
427.263789	0.467082
427.641756	0.474999
428.019662	0.463553
428.397508	0.461541
428.775292	0.464503
429.153016	0.455724
429.530679	0.461592
429.908282	0.453497
430.285824	0.462561
430.663305	0.440530
431.040726	0.460656
431.418086	0.460798
431.795385	0.452017
432.172624	0.450268
432.549802	0.450745
432.926920	0.449627
433.303977	0.448060
433.680974	0.445297
434.057910	0.443954
434.434786	0.443542
434.811601	0.445790
435.188355	0.427924
435.565050	0.437109
435.941683	0.438521
436.318257	0.422584
436.694770	0.423135
437.071222	0.421189
437.447614	0.425617
437.823946	0.431773
438.200218	0.421506
438.576429	0.430657
438.952580	0.424014
439.328670	0.420720
439.704700	0.427169
440.080670	0.428565
440.456580	0.409192
440.832429	0.417191
441.208218	0.428239
441.583947	0.417370
441.959616	0.416894
442.335224	0.421844
442.710773	0.413247
443.086261	0.410719
443.461689	0.424289
443.837057	0.414753
444.212365	0.404226
444.587612	0.411770
444.962800	0.401416
445.337927	0.403047
445.712995	0.428758
446.088002	0.391702
446.462949	0.401881
446.837837	0.406150
447.212664	0.395418
447.587431	0.386730
447.962139	0.357503
448.336786	0.316894
448.711374	0.326965
449.085901	0.370849
449.460369	0.375579
449.834776	0.378845
450.209124	0.358312
450.583412	0.350995
450.957640	0.343720
451.331808	0.354930
451.705917	0.378547
452.079965	0.382889
452.453954	0.371129
452.827883	0.377635
453.201752	0.373304
453.575562	0.384275
453.949311	0.373186
454.323001	0.378674
454.696632	0.374038
455.070202	0.367332
455.443713	0.358977
455.817164	0.354497
456.190556	0.349730
456.563888	0.346667
456.937160	0.344612
457.310373	0.361440
457.683526	0.360111
458.056619	0.365861
458.429653	0.366763
458.802628	0.370057
459.175542	0.364388
459.548398	0.347508
459.921194	0.339488
460.293930	0.339669
460.666607	0.317203
461.039224	0.305358
461.411782	0.301139
461.784280	0.300062
462.156719	0.304525
462.529099	0.308889
462.901419	0.324831
463.273680	0.329539
463.645882	0.328995
464.018024	0.334307
464.390106	0.327801
464.762130	0.312450
465.134094	0.295657
465.505999	0.264884
465.877845	0.235180
466.249631	0.222463
466.621358	0.229839
466.993026	0.243524
467.364634	0.249620
467.736184	0.258486
468.107674	0.267215
468.479105	0.266213
468.850477	0.273124
469.221790	0.279888
469.593043	0.290426
469.964238	0.295273
470.335373	0.294033
470.706449	0.292630
471.077467	0.293602
471.448425	0.255417
471.819324	0.231328
472.190164	0.230507
472.560945	0.259259
472.931667	0.281305
473.302330	0.285486
473.672934	0.297485
474.043479	0.285559
474.413965	0.287657
474.784393	0.290877
475.154761	0.286153
475.525070	0.283010
475.895321	0.288891
476.265513	0.283095
476.635645	0.278190
477.005719	0.278304
477.375734	0.275063
477.745691	0.268072
478.115588	0.264812
478.485427	0.258285
478.855207	0.245024
479.224928	0.227724
479.594591	0.216060
479.964194	0.219158
480.333739	0.220442
480.703226	0.222098
481.072653	0.220430
481.442022	0.215961
481.811333	0.212619
482.180584	0.216004
482.549777	0.221270
482.918912	0.224610
483.287988	0.224460
483.657005	0.224001
484.025964	0.230688
484.394864	0.227744
484.763706	0.228394
485.132489	0.233514
485.501213	0.234130
485.869879	0.232339
486.238487	0.235416
486.607036	0.233389
486.975527	0.237656
487.343959	0.233933
487.712333	0.233236
488.080648	0.234403
488.448905	0.233578
488.817104	0.234645
489.185244	0.229171
489.553326	0.226132
489.921350	0.216093
490.289315	0.198495
490.657222	0.193478
491.025070	0.194812
491.392861	0.196855
491.760593	0.202547
492.128267	0.208151
492.495883	0.213658
492.863440	0.219848
493.230939	0.226333
493.598380	0.227733
493.965763	0.229821
494.333088	0.232204
494.700354	0.233944
495.067563	0.232583
495.434713	0.235965
495.801805	0.233620
496.168839	0.235108
496.535815	0.236388
496.902733	0.236490
497.269593	0.238080
497.636395	0.235985
498.003139	0.236097
498.369825	0.239016
498.736453	0.235598
499.103023	0.237115
499.469535	0.236348
499.835989	0.236859
500.202385	0.237788
500.568723	0.241129
500.935003	0.236174
501.301226	0.240115
501.667390	0.234608
502.033497	0.232823
502.399546	0.235850
502.765537	0.237290
503.131470	0.236101
503.497345	0.232270
503.863163	0.241006
504.228923	0.234106
504.594625	0.232592
504.960269	0.237884
505.325856	0.233257
505.691385	0.237581
506.056856	0.234264
506.422270	0.233660
506.787625	0.236288
507.152924	0.233744
507.518164	0.234001
507.883347	0.235858
508.248472	0.237536
508.613540	0.232511
508.978550	0.234986
509.343503	0.235723
509.708398	0.233242
510.073236	0.230885
510.438016	0.230684
510.802738	0.231787
511.167403	0.230602
511.532010	0.232872
511.896561	0.227966
512.261053	0.226854
512.625488	0.228997
512.989866	0.229200
513.354186	0.229471
513.718449	0.231268
514.082655	0.227848
514.446803	0.230104
514.810894	0.227684
515.174927	0.230483
515.538904	0.229647
515.902822	0.226722
516.266684	0.229169
516.630488	0.230322
516.994235	0.229073
517.357925	0.227997
517.721558	0.225976
518.085133	0.225547
518.448651	0.225578
518.812112	0.227892
519.175516	0.227472
519.538863	0.225246
519.902152	0.226712
520.265385	0.223765
520.628560	0.225534
520.991678	0.225967
521.354739	0.224484
521.717743	0.226020
522.080690	0.226387
522.443580	0.223510
522.806413	0.224543
523.169189	0.223863
523.531908	0.222980
523.894569	0.226620
524.257174	0.226412
524.619722	0.223990
524.982213	0.225181
525.344647	0.223839
525.707025	0.224730
526.069345	0.223159
526.431608	0.224750
526.793815	0.222442
527.155964	0.226423
527.518057	0.225351
527.880093	0.226594
528.242072	0.225508
528.603995	0.227254
528.965860	0.228864
529.327669	0.227606
529.689421	0.228506
530.051117	0.229377
530.412755	0.227243
530.774337	0.229504
531.135862	0.230152
531.497331	0.229368
531.858743	0.232159
532.220098	0.228913
532.581396	0.231366
532.942638	0.231848
533.303824	0.232673
533.664953	0.232953
534.026025	0.234308
534.387040	0.232389
534.747999	0.232257
535.108902	0.231197
535.469748	0.236045
535.830537	0.233716
536.191270	0.234267
536.551947	0.233786
536.912567	0.233630
537.273131	0.235599
537.633638	0.235804
537.994089	0.236122
538.354483	0.237292
538.714821	0.234405
539.075103	0.233801
539.435328	0.234848
539.795497	0.238558
540.155609	0.234768
540.515665	0.233143
540.875665	0.238681
541.235609	0.237322
541.595496	0.237389
541.955328	0.234048
542.315102	0.236549
542.674821	0.237793
543.034483	0.237597
543.394090	0.237322
543.753640	0.239336
544.113134	0.234266
544.472571	0.237293
544.831953	0.234706
545.191278	0.238744
545.550548	0.238083
545.909761	0.234775
546.268918	0.235585
546.628019	0.233755
546.987064	0.236582
547.346053	0.238438
547.704986	0.236349
548.063863	0.236584
548.422684	0.236654
548.781449	0.238829
549.140158	0.236162
549.498811	0.239137
549.857408	0.242204
550.215949	0.236769
550.574434	0.239853
550.932864	0.237867
551.291237	0.236543
551.649555	0.237860
552.007817	0.237432
552.366022	0.238657
552.724173	0.238822
553.082267	0.239359
553.440305	0.236063
553.798288	0.240965
554.156215	0.237136
554.514086	0.237434
554.871902	0.240940
555.229661	0.239975
555.587365	0.240666
555.945014	0.243072
556.302606	0.239744
556.660143	0.242576
557.017625	0.239131
557.375050	0.241506
557.732421	0.238101
558.089735	0.240293
558.446994	0.240322
558.804197	0.239541
559.161345	0.239314
559.518437	0.243168
559.875474	0.240681
560.232455	0.240381
560.589381	0.240911
560.946251	0.241581
561.303065	0.238872
561.659825	0.240289
562.016528	0.241998
562.373177	0.244593
562.729770	0.242219
563.086307	0.244210
563.442789	0.241809
563.799216	0.244825
564.155587	0.243530
564.511904	0.244444
564.868164	0.244883
565.224370	0.244482
565.580520	0.246064
565.936615	0.246052
566.292654	0.249243
566.648638	0.246141
567.004567	0.247232
567.360441	0.247561
567.716260	0.249662
568.072023	0.247388
568.427732	0.248078
568.783385	0.250584
569.138982	0.248775
569.494525	0.248404
569.850013	0.251297
570.205445	0.249669
570.560823	0.252035
570.916145	0.254395
571.271412	0.252495
571.626625	0.253946
571.981782	0.254354
572.336884	0.255328
572.691931	0.255058
573.046923	0.256053
573.401860	0.257251
573.756743	0.259324
574.111570	0.258082
574.466342	0.258338
574.821059	0.257618
575.175722	0.260346
575.530330	0.260122
575.884882	0.260353
576.239380	0.262512
576.593823	0.262894
576.948211	0.262473
577.302544	0.265856
577.656823	0.265210
578.011047	0.265528
578.365216	0.265900
578.719330	0.268080
579.073389	0.267907
579.427394	0.269205
579.781344	0.269764
580.135239	0.271428
580.489080	0.270809
580.842866	0.274018
581.196597	0.273969
581.550273	0.272651
581.903895	0.273666
582.257463	0.271572
582.610975	0.275145
582.964434	0.274309
583.317837	0.277306
583.671186	0.277383
584.024481	0.277369
584.377721	0.279980
584.730906	0.280828
585.084037	0.280143
585.437113	0.281422
585.790135	0.280977
586.143103	0.283912
586.496016	0.284998
586.848874	0.282534
587.201679	0.283244
587.554428	0.286602
587.907124	0.285076
588.259765	0.286239
588.612352	0.286410
588.964884	0.290199
589.317362	0.289988
589.669786	0.289426
590.022155	0.288184
590.374470	0.287782
590.726731	0.289682
591.078937	0.294320
591.431090	0.290690
591.783188	0.295108
592.135232	0.295242
592.487222	0.295231
592.839157	0.293586
593.191038	0.296000
593.542866	0.297872
593.894639	0.300960
594.246358	0.299018
594.598022	0.298736
594.949633	0.302429
595.301190	0.303175
595.652692	0.302437
596.004141	0.298331
596.355535	0.306433
596.706876	0.307018
597.058162	0.309544
597.409395	0.306929
597.760573	0.304726
598.111698	0.307696
598.462768	0.308236
598.813785	0.309412
599.164748	0.310980
599.515657	0.311055
599.866511	0.314145
600.217312	0.309525
600.568060	0.314929
600.918753	0.311492
601.269392	0.312363
601.619978	0.316030
601.970510	0.313070
602.320988	0.313285
602.671412	0.311225
603.021783	0.313212
603.372100	0.315097
603.722363	0.314475
604.072572	0.315503
604.422728	0.315196
604.772830	0.317018
605.122878	0.317250
605.472872	0.317612
605.822813	0.315388
606.172701	0.318063
606.522534	0.315597
606.872314	0.315747
607.222041	0.316572
607.571714	0.314784
607.921333	0.316422
608.270899	0.316263
608.620411	0.312640
608.969870	0.316935
609.319276	0.316836
609.668627	0.316769
610.017926	0.314971
610.367171	0.313675
610.716362	0.314546
611.065500	0.314786
611.414585	0.313809
611.763616	0.314087
612.112594	0.314169
612.461518	0.313622
612.810389	0.311622
613.159207	0.313792
613.507971	0.315723
613.856682	0.311538
614.205340	0.313093
614.553945	0.309714
614.902496	0.313755
615.250994	0.311581
615.599439	0.312585
615.947830	0.311821
616.296169	0.312869
616.644454	0.312115
616.992686	0.312450
617.340864	0.310355
617.688990	0.313983
618.037063	0.310554
618.385082	0.312322
618.733048	0.309389
619.080961	0.311733
619.428821	0.310983
619.776628	0.310247
620.124382	0.312725
620.472083	0.312587
620.819731	0.312368
621.167326	0.316158
621.514868	0.315805
621.862357	0.320275
622.209793	0.319741
622.557176	0.322039
622.904506	0.322861
623.251783	0.325467
623.599007	0.327533
623.946179	0.326977
624.293297	0.328673
624.640363	0.332914
624.987376	0.333336
625.334336	0.335914
625.681243	0.338490
626.028097	0.338842
626.374899	0.339851
626.721647	0.339901
627.068343	0.343471
627.414987	0.344319
627.761577	0.346400
628.108115	0.344704
628.454600	0.350082
628.801032	0.347313
629.147412	0.349537
629.493739	0.349909
629.840014	0.353033
630.186236	0.350261
630.532405	0.355889
630.878521	0.353241
631.224585	0.355673
631.570597	0.359308
631.916556	0.357667
632.262462	0.357945
632.608316	0.359737
632.954117	0.360459
633.299866	0.361496
633.645562	0.362088
633.991206	0.366215
634.336797	0.369179
634.682336	0.371572
635.027823	0.372829
635.373257	0.373676
635.718639	0.377285
636.063968	0.376480
636.409245	0.382457
636.754470	0.382749
637.099642	0.385382
637.444762	0.388469
637.789829	0.387799
638.134845	0.390911
638.479808	0.391917
638.824719	0.392142
639.169577	0.396101
639.514383	0.394549
639.859137	0.398956
640.203839	0.399199
640.548489	0.399176
640.893086	0.401224
641.237632	0.402306
641.582125	0.400494
641.926566	0.402128
642.270955	0.402741
642.615292	0.403047
642.959576	0.401829
643.303809	0.402263
643.647990	0.401964
643.992118	0.402866
644.336195	0.406297
644.680219	0.404260
645.024192	0.404922
645.368112	0.399319
645.711981	0.398212
646.055797	0.393243
646.399562	0.395373
646.743274	0.387136
647.086935	0.384510
647.430544	0.385286
647.774101	0.383757
648.117606	0.383566
648.461059	0.383981
648.804460	0.386660
649.147810	0.391736
649.491108	0.393244
649.834354	0.394539
650.177548	0.399643
650.520690	0.405894
650.863781	0.406950
651.206820	0.406177
651.549807	0.411087
651.892742	0.414741
652.235626	0.413985
652.578458	0.415235
652.921238	0.421419
653.263967	0.419187
653.606644	0.423349
653.949269	0.422860
654.291843	0.426842
654.634365	0.423613
654.976836	0.426396
655.319255	0.427054
655.661622	0.428535
656.003938	0.428759
656.346203	0.431583
656.688416	0.429275
657.030577	0.432881
657.372687	0.435122
657.714746	0.435243
658.056753	0.432049
658.398708	0.436114
658.740612	0.437359
659.082465	0.433206
659.424266	0.434248
659.766016	0.433128
660.107715	0.436313
660.449362	0.434831
660.790958	0.435573
661.132503	0.435987
661.473996	0.434121
661.815438	0.434535
662.156829	0.435038
662.498168	0.435930
662.839456	0.436942
663.180693	0.434535
663.521879	0.434904
663.863013	0.435944
664.204097	0.434486
664.545129	0.430929
664.886110	0.431530
665.227040	0.428932
665.567918	0.431710
665.908746	0.429634
666.249522	0.428860
666.590248	0.430609
666.930922	0.428458
667.271545	0.427347
667.612118	0.427014
667.952639	0.429103
668.293109	0.427194
668.633528	0.430473
668.973896	0.430541
669.314213	0.430978
669.654480	0.432419
669.994695	0.432313
670.334859	0.433303
670.674973	0.434052
671.015035	0.434268
671.355047	0.433718
671.695008	0.435057
672.034918	0.436248
672.374777	0.436045
672.714585	0.437021
673.054342	0.437212
673.394049	0.437458
673.733705	0.434872
674.073310	0.435934
674.412864	0.439226
674.752368	0.439367
675.091820	0.439938
675.431223	0.444062
675.770574	0.444025
676.109875	0.447106
676.449125	0.447072
676.788324	0.449029
677.127473	0.454560
677.466571	0.454152
677.805619	0.456265
678.144616	0.457153
678.483562	0.458797
678.822458	0.461532
679.161303	0.462694
679.500098	0.463000
679.838842	0.464629
680.177535	0.464241
680.516179	0.462314
680.854771	0.461871
681.193314	0.455147
681.531805	0.445936
681.870247	0.434766
682.208638	0.427372
682.546978	0.426262
682.885268	0.428225
683.223508	0.433949
683.561697	0.438195
683.899836	0.441286
684.237925	0.444304
684.575963	0.446603
684.913951	0.450179
685.251889	0.445385
685.589776	0.447363
685.927614	0.450121
686.265401	0.444049
686.603137	0.445520
686.940824	0.439511
687.278460	0.438069
687.616046	0.437218
687.953582	0.431891
688.291068	0.433665
688.628504	0.429317
688.965889	0.431402
689.303224	0.435635
689.640510	0.439387
689.977745	0.445013
690.314930	0.453033
690.652065	0.457416
690.989150	0.465281
691.326185	0.471704
691.663170	0.476152
692.000105	0.483478
692.336990	0.490677
692.673825	0.492985
693.010610	0.500206
693.347345	0.505040
693.684030	0.507128
694.020665	0.511742
694.357251	0.520625
694.693786	0.520080
695.030272	0.524503
695.366707	0.527960
695.703093	0.531199
696.039429	0.528640
696.375716	0.530563
696.711952	0.533481
697.048139	0.534954
697.384276	0.537784
697.720363	0.535482
698.056400	0.534615
698.392388	0.540206
698.728326	0.543370
699.064214	0.546550
699.400053	0.546529
699.735842	0.550924
700.071581	0.553527
700.407270	0.556545
700.742910	0.558486
701.078501	0.565554
701.414042	0.565578
701.749533	0.568744
702.084974	0.576964
702.420366	0.569822
702.755709	0.577527
703.091002	0.584818
703.426246	0.578660
703.761440	0.584194
704.096584	0.589492
704.431679	0.586237
704.766725	0.588311
705.101721	0.590268
705.436668	0.585754
705.771565	0.592995
706.106413	0.590169
706.441212	0.585492
706.775961	0.583733
707.110661	0.586368
707.445311	0.582506
707.779913	0.579854
708.114465	0.578828
708.448967	0.575032
708.783421	0.567777
709.117825	0.562008
709.452180	0.562481
709.786485	0.555665
710.120742	0.545895
710.454949	0.548243
710.789107	0.540110
711.123216	0.531108
711.457275	0.532448
711.791286	0.523334
712.125247	0.522266
712.459159	0.533081
712.793023	0.525866
713.126837	0.529787
713.460602	0.530960
713.794318	0.539594
714.127985	0.538136
714.461602	0.548446
714.795171	0.551580
715.128691	0.558967
715.462162	0.566806
715.795584	0.572873
716.128957	0.574715
716.462281	0.581322
716.795556	0.586145
717.128782	0.590733
717.461960	0.600637
717.795088	0.598905
718.128167	0.604275
718.461198	0.613420
718.794180	0.614479
719.127113	0.617018
719.459997	0.620452
719.792833	0.626588
720.125619	0.628434
720.458357	0.633605
720.791046	0.633950
721.123686	0.636845
721.456278	0.643980
721.788821	0.641295
722.121315	0.645303
722.453761	0.649682
722.786158	0.647677
723.118506	0.644037
723.450805	0.652335
723.783056	0.647771
724.115259	0.645414
724.447412	0.645594
724.779518	0.646003
725.111574	0.644898
725.443582	0.640789
725.775542	0.642517
726.107453	0.634734
726.439315	0.634451
726.771129	0.632586
727.102895	0.625924
727.434612	0.619738
727.766281	0.616780
728.097901	0.616846
728.429473	0.615771
728.760996	0.614980
729.092471	0.614587
729.423897	0.618852
729.755276	0.618184
730.086606	0.617688
730.417887	0.611950
730.749120	0.602854
731.080305	0.593617
731.411442	0.590187
731.742530	0.595307
732.073570	0.594191
732.404562	0.585815
732.735506	0.587817
733.066401	0.592029
733.397249	0.601214
733.728048	0.612985
734.058798	0.625510
734.389501	0.636435
734.720156	0.645817
735.050762	0.653847
735.381320	0.654960
735.711831	0.664668
736.042293	0.669032
736.372707	0.664231
736.703073	0.669674
737.033391	0.671986
737.363661	0.668724
737.693883	0.664571
738.024056	0.662466
738.354182	0.663345
738.684260	0.653162
739.014290	0.648385
739.344272	0.648891
739.674207	0.642924
740.004093	0.641910
740.333931	0.642539
740.663722	0.642900
740.993464	0.642853
741.323159	0.646322
741.652806	0.652452
741.982405	0.656820
742.311956	0.661029
742.641460	0.663404
742.970915	0.667494
743.300323	0.675100
743.629683	0.681417
743.958996	0.683272
744.288260	0.687269
744.617477	0.693815
744.946647	0.695324
745.275768	0.701482
745.604842	0.700403
745.933869	0.710128
746.262847	0.710103
746.591778	0.703682
746.920662	0.710573
747.249498	0.716460
747.578286	0.708927
747.907027	0.703396
748.235720	0.705043
748.564365	0.699229
748.892963	0.700097
749.221514	0.702198
749.550017	0.707712
749.878473	0.706880
750.206881	0.714065
750.535242	0.715098
750.863555	0.714569
751.191821	0.716302
751.520039	0.719106
751.848210	0.724683
752.176334	0.716608
752.504411	0.716715
752.832440	0.723685
753.160421	0.727889
753.488356	0.725627
753.816243	0.723578
754.144082	0.731760
754.471875	0.735363
754.799620	0.730936
755.127318	0.732203
755.454969	0.731894
755.782572	0.731753
756.110129	0.736928
756.437638	0.739600
756.765100	0.735136
757.092515	0.733386
757.419882	0.732303
757.747203	0.737577
758.074477	0.736925
758.401703	0.733348
758.728882	0.729140
759.056014	0.728178
759.383099	0.727428
759.710138	0.728503
760.037129	0.724933
760.364073	0.718621
760.690970	0.720458
761.017820	0.727122
761.344623	0.721902
761.671379	0.713592
761.998088	0.701583
762.324751	0.679070
762.651366	0.636977
762.977935	0.570187
763.304456	0.517782
763.630931	0.508649
763.957359	0.547250
764.283740	0.591868
764.610074	0.618977
764.936362	0.650835
765.262602	0.676601
765.588796	0.698732
765.914943	0.716404
766.241044	0.733921
766.567097	0.741425
766.893104	0.751138
767.219064	0.756338
767.544978	0.763875
767.870845	0.777002
768.196665	0.780119
768.522438	0.779731
768.848165	0.780219
769.173846	0.789784
769.499479	0.793890
769.825066	0.797820
770.150607	0.801730
770.476101	0.797812
770.801548	0.799074
771.126949	0.810460
771.452303	0.814120
771.777611	0.813930
772.102872	0.811986
772.428087	0.817446
772.753256	0.820498
773.078378	0.822565
773.403453	0.832270
773.728482	0.836829
774.053465	0.829393
774.378401	0.833220
774.703291	0.840562
775.028135	0.841274
775.352932	0.843330
775.677683	0.845804
776.002388	0.845949
776.327046	0.845090
776.651658	0.848629
776.976224	0.852017
777.300743	0.853356
777.625216	0.855350
777.949643	0.856080
778.274024	0.856975
778.598359	0.858620
778.922647	0.856276
779.246889	0.856804
779.571086	0.861888
779.895236	0.864035
780.219339	0.861410
780.543397	0.857189
780.867409	0.857344
781.191374	0.858054
781.515294	0.860410
781.839167	0.858644
782.162995	0.862416
782.486776	0.859193
782.810511	0.861006
783.134201	0.864031
783.457844	0.861219
783.781441	0.864249
784.104993	0.869628
784.428498	0.870747
784.751958	0.866494
785.075372	0.869757
785.398739	0.871389
785.722061	0.869616
786.045337	0.864116
786.368568	0.869508
786.691752	0.871778
787.014891	0.856954
787.337983	0.849000
787.661030	0.839649
787.984031	0.823419
788.306987	0.810685
788.629897	0.812996
788.952760	0.816528
789.275579	0.820190
789.598351	0.836341
789.921078	0.848629
790.243759	0.851052
790.566395	0.856232
790.888984	0.863058
791.211529	0.867758
791.534027	0.872186
791.856480	0.873781
792.178888	0.879640
792.501249	0.881204
792.823566	0.882707
793.145836	0.881798
793.468062	0.885172
793.790241	0.884479
794.112375	0.882990
794.434464	0.878118
794.756507	0.876976
795.078505	0.876884
795.400457	0.872078
795.722364	0.860214
796.044226	0.853223
796.366042	0.851980
796.687812	0.854936
797.009538	0.851912
797.331218	0.854374
797.652852	0.859417
797.974442	0.864053
798.295986	0.864237
798.617484	0.865872
798.938938	0.871228
799.260346	0.876674
799.581709	0.877703
799.903026	0.880228
800.224299	0.880993
800.545526	0.884817
800.866708	0.889387
801.187845	0.892307
801.508936	0.891776
801.829983	0.890178
802.150984	0.892196
802.471940	0.896527
802.792851	0.897043
803.113717	0.897536
803.434538	0.895900
803.755314	0.897898
804.076045	0.899509
804.396731	0.900449
804.717372	0.899029
805.037967	0.901122
805.358518	0.898721
805.679024	0.896350
805.999485	0.896863
806.319901	0.896430
806.640272	0.898048
806.960598	0.895486
807.280879	0.894377
807.601115	0.892319
807.921306	0.896436
808.241453	0.895813
808.561554	0.894354
808.881611	0.893838
809.201623	0.896218
809.521590	0.896502
809.841513	0.897039
810.161390	0.896194
810.481223	0.897023
810.801011	0.901225
811.120755	0.902803
811.440453	0.902091
811.760107	0.900935
812.079716	0.900628
812.399281	0.904020
812.718801	0.906783
813.038276	0.907631
813.357707	0.906986
813.677093	0.904521
813.996434	0.907335
814.315731	0.908836
814.634983	0.909513
814.954191	0.907588
815.273354	0.905182
815.592473	0.900405
815.911547	0.900646
816.230577	0.898812
816.549562	0.895592
816.868502	0.897573
817.187399	0.893788
817.506250	0.888410
817.825058	0.890365
818.143821	0.886335
818.462539	0.880982
818.781213	0.873299
819.099843	0.861688
819.418429	0.846600
819.736970	0.829143
820.055466	0.809824
820.373919	0.783704
820.692327	0.750123
821.010691	0.714856
821.329011	0.637593
821.647286	0.521682
821.965517	0.407775
822.283704	0.365073
822.601847	0.366717
822.919945	0.402138
823.237999	0.435574
823.556010	0.482899
823.873976	0.538733
824.191897	0.589735
824.509775	0.632254
824.827609	0.677702
825.145398	0.700638
825.463144	0.703084
825.780845	0.686709
826.098502	0.667584
826.416116	0.621206
826.733685	0.577694
827.051210	0.569142
827.368692	0.583833
827.686129	0.620720
828.003522	0.674296
828.320872	0.722332
828.638177	0.765714
828.955439	0.798502
829.272656	0.821105
829.589830	0.837963
829.906960	0.854450
830.224046	0.866476
830.541088	0.877224
830.858086	0.880894
831.175041	0.887643
831.491952	0.886526
831.808819	0.883272
832.125642	0.876438
832.442421	0.861595
832.759157	0.839519
833.075849	0.793586
833.392497	0.729925
833.709101	0.688578
834.025662	0.697413
834.342179	0.729347
834.658653	0.768844
834.975083	0.805570
835.291469	0.831350
835.607811	0.854733
835.924110	0.869752
836.240366	0.887482
836.556578	0.901360
836.872746	0.909387
837.188871	0.915119
837.504952	0.920042
837.820990	0.923814
838.136984	0.926420
838.452935	0.930451
838.768842	0.931599
839.084706	0.924215
839.400526	0.898819
839.716303	0.858721
840.032037	0.835944
840.347727	0.839277
840.663373	0.857669
840.978977	0.879270
841.294537	0.901460
841.610054	0.917464
841.925527	0.926131
842.240957	0.932919
842.556344	0.940272
842.871687	0.946309
843.186987	0.950365
843.502244	0.950534
843.817458	0.952773
844.132629	0.956123
844.447756	0.961153
844.762840	0.960747
845.077881	0.960513
845.392879	0.960414
845.707833	0.963073
846.022745	0.963927
846.337613	0.965422
846.652438	0.966431
846.967221	0.964937
847.281960	0.965538
847.596656	0.967946
847.911309	0.965712
848.225919	0.968361
848.540485	0.968612
848.855009	0.968952
849.169490	0.968365
849.483928	0.969613
849.798323	0.970597
850.112675	0.969612
850.426984	0.970508
850.741251	0.970879
851.055474	0.970497
851.369654	0.968934
851.683792	0.970136
851.997887	0.968739
852.311938	0.971224
852.625947	0.969258
852.939914	0.969128
853.253837	0.969719
853.567718	0.971630
853.881555	0.969968
854.195350	0.968941
854.509103	0.970225
854.822812	0.971222
855.136479	0.970533
855.450103	0.970016
855.763685	0.969102
856.077224	0.969594
856.390720	0.970541
856.704173	0.970389
857.017584	0.968102
857.330953	0.966824
857.644278	0.968689
857.957561	0.968246
858.270802	0.968214
858.584000	0.968160
858.897155	0.967133
859.210268	0.967512
859.523339	0.968322
859.836367	0.970360
860.149352	0.970052
860.462295	0.969400
860.775195	0.970393
861.088054	0.969329
861.400869	0.970003
861.713642	0.971034
862.026373	0.971122
862.339062	0.971822
862.651708	0.967556
862.964312	0.967552
863.276873	0.969993
863.589392	0.967862
863.901869	0.965991
864.214303	0.965764
864.526696	0.963661
864.839045	0.964722
865.151353	0.961554
865.463619	0.963179
865.775842	0.962170
866.088023	0.961671
866.400162	0.963014
866.712258	0.962905
867.024313	0.962451
867.336325	0.963694
867.648296	0.963229
867.960224	0.962422
868.272110	0.961810
868.583954	0.964738
868.895755	0.964579
869.207515	0.961744
869.519233	0.959065
869.830909	0.961295
870.142542	0.962801
870.454134	0.962118
870.765684	0.960485
871.077191	0.958506
871.388657	0.959388
871.700081	0.958015
872.011463	0.958843
872.322803	0.957902
872.634101	0.956610
872.945357	0.954229
873.256571	0.953580
873.567744	0.952258
873.878874	0.953895
874.189963	0.950745
874.501010	0.953031
874.812015	0.949364
875.122979	0.951795
875.433900	0.953137
875.744780	0.953820
876.055618	0.951271
876.366415	0.950423
876.677169	0.950705
876.987882	0.951273
877.298554	0.951113
877.609183	0.947068
877.919771	0.945503
878.230317	0.943546
878.540822	0.941737
878.851285	0.934453
879.161707	0.927399
879.472087	0.915105
879.782425	0.899538
880.092722	0.862944
880.402977	0.811753
880.713191	0.750564
881.023363	0.690909
881.333494	0.656967
881.643583	0.628988
881.953631	0.629039
882.263637	0.658111
882.573602	0.696744
882.883526	0.722796
883.193408	0.746691
883.503248	0.769589
883.813048	0.797244
884.122806	0.826267
884.432522	0.850113
884.742197	0.868756
885.051831	0.880878
885.361424	0.890661
885.670975	0.903121
885.980485	0.913332
886.289954	0.918471
886.599382	0.924009
886.908768	0.928860
887.218113	0.933907
887.527417	0.939364
887.836680	0.942305
888.145901	0.944751
888.455082	0.947087
888.764221	0.950741
889.073319	0.953080
889.382376	0.953405
889.691392	0.954034
890.000366	0.953027
890.309300	0.953347
890.618193	0.953836
890.927044	0.951422
891.235855	0.951356
891.544625	0.950970
891.853353	0.952599
892.162041	0.948975
892.470687	0.942895
892.779293	0.938105
893.087858	0.934630
893.396381	0.926187
893.704864	0.912586
894.013306	0.887981
894.321707	0.862525
894.630068	0.847296
894.938387	0.843289
895.246665	0.843767
895.554903	0.855672
895.863100	0.870280
896.171256	0.885574
896.479371	0.906760
896.787446	0.917784
897.095480	0.926250
897.403473	0.928391
897.711425	0.932955
898.019336	0.939680
898.327207	0.943411
898.635038	0.945678
898.942827	0.946481
899.250576	0.948954
899.558284	0.952512
899.865952	0.953442
900.173579	0.955915
900.481165	0.956175
900.788711	0.960234
901.096216	0.961326
901.403681	0.961692
901.711105	0.963109
902.018489	0.963925
902.325832	0.962120
902.633135	0.961953
902.940397	0.956341
903.247619	0.943071
903.554800	0.918076
903.861941	0.878646
904.169041	0.842151
904.476101	0.823804
904.783121	0.826487
905.090100	0.841706
905.397039	0.862827
905.703938	0.885250
906.010796	0.905543
906.317614	0.922905
906.624391	0.934452
906.931129	0.944898
907.237826	0.951927
907.544483	0.959722
907.851099	0.962671
908.157675	0.968222
908.464211	0.970425
908.770707	0.972792
909.077163	0.973633
909.383578	0.974932
909.689954	0.974743
909.996289	0.975858
910.302584	0.977949
910.608839	0.979806
910.915054	0.978017
911.221229	0.977998
911.527363	0.977370
911.833458	0.977014
912.139513	0.977424
912.445527	0.975990
912.751502	0.972821
913.057436	0.972525
913.363331	0.970512
913.669186	0.966872
913.975000	0.961411
914.280775	0.955285
914.586510	0.948470
914.892205	0.935752
915.197859	0.913718
915.503475	0.886553
915.809050	0.866431
916.114585	0.860542
916.420081	0.856908
916.725536	0.854723
917.030952	0.862403
917.336328	0.876225
917.641665	0.891623
917.946961	0.905970
918.252218	0.918975
918.557435	0.926944
918.862612	0.936763
919.167750	0.942253
919.472848	0.946649
919.777906	0.952949
920.082925	0.957544
920.387904	0.962329
920.692843	0.963623
920.997743	0.962699
921.302603	0.968072
921.607423	0.969307
921.912204	0.972606
922.216946	0.971629
922.521647	0.973843
922.826310	0.974154
923.130932	0.977167
923.435516	0.978578
923.740059	0.980878
924.044564	0.978356
924.349028	0.981415
924.653454	0.982626
924.957840	0.985848
925.262186	0.984694
925.566493	0.983713
925.870761	0.985851
926.174989	0.986293
926.479178	0.988555
926.783328	0.988636
927.087438	0.988012
927.391509	0.988700
927.695541	0.990313
927.999533	0.990624
928.303486	0.989767
928.607400	0.991769
928.911275	0.990625
929.215110	0.991016
929.518906	0.992061
929.822663	0.989958
930.126381	0.991195
930.430060	0.990924
930.733699	0.990436
931.037299	0.989851
931.340861	0.991059
931.644383	0.989788
931.947866	0.989587
932.251309	0.990328
932.554714	0.991138
932.858080	0.990348
933.161407	0.991635
933.464694	0.991171
933.767943	0.990066
934.071153	0.991863
934.374323	0.992204
934.677455	0.992011
934.980548	0.992144
935.283602	0.990912
935.586617	0.991391
935.889593	0.991883
936.192530	0.990933
936.495428	0.991495
936.798287	0.989999
937.101108	0.990894
937.403890	0.988710
937.706632	0.989601
938.009336	0.986579
938.312002	0.986930
938.614628	0.984054
938.917216	0.983849
939.219765	0.982286
939.522275	0.984010
939.824747	0.981869
940.127179	0.984905
940.429573	0.984360
940.731929	0.983859
941.034246	0.984574
941.336524	0.984848
941.638763	0.986925
941.940964	0.986504
942.243126	0.986653
942.545250	0.986844
942.847335	0.988151
943.149381	0.989081
943.451389	0.988840
943.753359	0.988807
944.055290	0.991254
944.357182	0.990038
944.659036	0.987654
944.960851	0.990060
945.262628	0.990065
945.564367	0.991357
945.866067	0.989647
946.167729	0.989917
946.469352	0.991012
946.770937	0.989035
947.072484	0.990831
947.373992	0.990642
947.675462	0.990245
947.976893	0.990076
948.278286	0.991434
948.579641	0.991555
948.880958	0.991035
949.182236	0.990684
949.483476	0.991586
949.784678	0.991080
950.085841	0.990852
950.386967	0.991420
950.688054	0.991303
950.989103	0.991216
951.290114	0.989007
951.591087	0.990596
951.892021	0.989903
952.192917	0.988220
952.493776	0.989089
952.794596	0.988122
953.095378	0.988403
953.396122	0.987841
953.696828	0.988014
953.997496	0.990573
954.298126	0.991018
954.598718	0.990505
954.899272	0.992094
955.199788	0.991140
955.500266	0.992077
955.800706	0.992829
956.101108	0.994810
956.401472	0.993932
956.701798	0.994733
957.002087	0.994082
957.302337	0.993148
957.602550	0.996193
957.902724	0.994947
958.202861	0.995176
958.502960	0.996556
958.803022	0.995112
959.103045	0.996338
959.403031	0.996723
959.702979	0.995862
960.002889	0.996605
960.302762	0.995796
960.602596	0.997030
960.902393	0.996107
961.202153	0.997607
961.501875	0.997548
961.801559	0.996380
962.101205	0.996914
962.400814	0.996901
962.700385	0.997565
962.999918	0.997142
963.299414	0.996988
963.598873	0.996856
963.898293	0.997360
964.197677	0.996868
964.497022	0.996706
964.796331	0.997841
965.095601	0.997814
965.394835	0.997716
965.694030	0.996806
965.993189	0.998018
966.292309	0.996630
966.591393	0.998439
966.890439	0.998105
967.189447	0.997368
967.488419	0.997226
967.787353	0.996562
968.086249	0.996331
968.385108	0.997047
968.683930	0.997720
968.982714	0.997932
969.281462	0.998373
969.580172	0.996971
969.878844	0.997227
970.177480	0.996935
970.476078	0.997891
970.774639	0.997555
971.073162	0.997450
971.371649	0.996344
971.670098	0.996653
971.968510	0.997667
972.266885	0.996275
972.565223	0.996631
972.863524	0.996559
973.161788	0.995740
973.460014	0.998997
973.758204	0.997404
974.056356	0.996216
974.354471	0.994498
974.652550	0.996265
974.950591	0.996741
975.248595	0.997171
975.546563	0.997411
975.844493	0.998258
976.142386	0.997484
976.440243	0.998196
976.738062	0.998138
977.035845	0.997563
977.333590	0.998184
977.631299	0.998121
977.928971	0.996620
978.226606	0.997626
978.524204	0.996424
978.821765	0.998495
979.119290	0.997555
979.416777	0.996900
979.714228	0.997883
980.011642	0.995988
980.309020	0.998180
980.606360	0.996538
980.903664	0.998054
981.200931	0.995881
981.498162	0.995532
981.795356	0.995382
982.092513	0.994691
982.389633	0.995427
982.686717	0.991168
982.983764	0.991671
983.280775	0.990442
983.577749	0.990490
983.874686	0.992446
984.171587	0.991895
984.468451	0.995156
984.765279	0.995631
985.062070	0.994207
985.358824	0.994300
985.655543	0.995322
985.952224	0.997166
986.248869	0.997318
986.545478	0.997701
986.842050	0.998725
987.138586	0.995725
987.435086	0.997696
987.731549	0.998479
988.027975	0.997984
988.324366	0.998351
988.620719	0.997654
988.917037	0.996935
989.213318	0.997913
989.509563	0.998914
989.805772	0.998427
990.101944	0.998716
990.398080	0.998267
990.694180	0.998785
990.990244	0.997462
991.286271	0.999463
991.582262	0.998410
991.878217	0.998264
992.174136	1.000401
992.470019	1.000072
992.765865	0.998451
993.061676	0.999044
993.357450	0.998319
993.653188	0.998783
993.948890	0.998550
994.244556	0.998581
994.540186	0.997274
994.835780	0.996482
995.131337	0.998603
995.426859	0.997114
995.722345	0.997753
996.017795	0.996634
996.313208	0.996622
996.608586	0.996408
996.903928	0.997057
997.199234	0.996515
997.494504	0.997323
997.789738	0.996609
998.084936	0.997303
998.380099	0.999525
998.675225	0.997392
998.970316	0.998253
999.265371	0.998399
999.560390	0.998767
999.855373	0.999409
1000.150320	0.999605
1000.445232	0.997322
1000.740108	0.997939
1001.034948	0.998765
1001.329752	0.998548
1001.624521	0.999411
1001.919254	0.998990
1002.213951	0.999656
1002.508613	0.998793
1002.803239	0.998423
1003.097829	0.998956
1003.392384	0.999498
1003.686903	0.999334
1003.981386	0.999587
1004.275834	0.999459
1004.570246	0.998022
1004.864623	0.999253
1005.158964	0.999906
1005.453270	0.999801
1005.747540	0.997174
1006.041775	0.998945
1006.335974	0.999324
1006.630138	0.999598
1006.924266	0.999883
1007.218359	1.001416
1007.512416	0.999536
1007.806438	0.999486
1008.100425	0.999584
1008.394376	0.998710
1008.688292	0.998167
1008.982172	1.001445
1009.276017	0.999471
1009.569827	0.998651
1009.863602	0.999125
1010.157341	0.999717
1010.451045	1.000904
1010.744714	0.998882
1011.038347	1.000699
1011.331945	0.998411
1011.625508	0.998225
1011.919036	0.998856
1012.212528	1.000263
1012.505986	0.997604
1012.799408	0.999320
1013.092795	0.999818
1013.386147	0.999900
1013.679464	1.000127
1013.972745	0.998149
1014.265992	0.998149
1014.559204	0.999279
1014.852380	0.999796
1015.145521	1.000261
1015.438628	0.998456
1015.731699	0.999959
1016.024736	0.999841
1016.317737	0.999879
1016.610703	0.999383
1016.903635	1.000675
1017.196531	0.998715
1017.489393	0.999923
1017.782219	1.000329
1018.075011	0.999356
1018.367768	1.000214
1018.660490	0.999850
1018.953177	0.999850
1019.245829	0.999850
