Dividing Wavelength (nm)	Counts (n)	Blue Motor Position (mm): 0.000000	Red Motor Position (mm): 10.100000	
326.493990	1.000993
326.888308	1.000993
327.282561	1.000993
327.676750	1.000882
328.070874	0.998160
328.464933	0.999826
328.858929	0.999298
329.252859	1.000185
329.646726	0.999259
330.040528	1.000670
330.434265	0.999356
330.827938	1.000796
331.221547	1.001454
331.615091	0.999420
332.008571	0.999997
332.401986	0.999351
332.795338	0.999550
333.188625	0.997881
333.581847	1.000528
333.975006	0.998534
334.368100	0.999166
334.761129	0.998970
335.154095	0.999134
335.546996	0.997873
335.939833	0.992500
336.332606	0.992432
336.725315	0.993830
337.117960	0.994479
337.510540	0.994295
337.903056	0.993653
338.295508	0.992463
338.687896	0.994755
339.080220	0.992685
339.472480	0.993612
339.864676	0.992480
340.256807	0.993818
340.648875	0.994956
341.040879	0.994106
341.432818	0.993131
341.824694	0.992244
342.216506	0.993872
342.608253	0.993998
342.999937	0.992876
343.391557	0.994258
343.783113	0.994136
344.174605	0.992658
344.566033	0.994438
344.957397	0.992601
345.348697	0.993626
345.739934	0.993056
346.131106	0.993047
346.522215	0.992577
346.913260	0.993169
347.304241	0.993425
347.695159	0.993534
348.086012	0.991880
348.476802	0.994291
348.867528	0.993752
349.258191	0.993490
349.648789	0.993619
350.039324	0.993660
350.429796	0.994106
350.820203	0.993575
351.210548	0.992722
351.600828	0.993346
351.991045	0.993227
352.381198	0.992458
352.771288	0.992934
353.161314	0.992501
353.551276	0.994388
353.941175	0.993094
354.331010	0.993632
354.720782	0.994159
355.110490	0.992894
355.500135	0.994526
355.889717	0.992773
356.279235	0.991664
356.668689	0.993137
357.058080	0.992427
357.447408	0.994556
357.836672	0.993931
358.225873	0.993487
358.615010	0.993570
359.004084	0.994698
359.393095	0.993044
359.782043	0.993757
360.170927	0.993447
360.559748	0.994076
360.948505	0.992478
361.337199	0.993236
361.725830	0.993172
362.114398	0.992483
362.502903	0.992329
362.891344	0.994484
363.279722	0.992710
363.668037	0.993785
364.056289	0.993229
364.444478	0.994174
364.832603	0.993433
365.220665	0.992351
365.608665	0.992523
365.996601	0.991606
366.384474	0.991614
366.772284	0.992154
367.160031	0.991287
367.547715	0.991292
367.935336	0.991199
368.322893	0.991063
368.710388	0.991170
369.097820	0.992026
369.485189	0.991478
369.872495	0.991879
370.259738	0.989366
370.646918	0.991583
371.034035	0.993627
371.421090	0.992080
371.808081	0.991855
372.195010	0.991442
372.581875	0.992475
372.968678	0.991420
373.355418	0.992146
373.742096	0.991536
374.128710	0.993011
374.515262	0.992164
374.901751	0.993306
375.288177	0.990662
375.674540	0.992379
376.060841	0.991169
376.447079	0.992433
376.833254	0.991472
377.219367	0.992040
377.605417	0.991615
377.991404	0.991264
378.377329	0.990881
378.763191	0.991328
379.148991	0.990446
379.534727	0.989615
379.920402	0.988702
380.306013	0.988456
380.691563	0.986652
381.077049	0.984012
381.462474	0.982989
381.847835	0.980638
382.233134	0.976566
382.618371	0.975508
383.003545	0.970999
383.388657	0.967062
383.773706	0.963935
384.158693	0.959529
384.543618	0.955047
384.928480	0.950381
385.313280	0.944563
385.698017	0.939843
386.082692	0.932613
386.467305	0.928023
386.851856	0.919661
387.236344	0.913780
387.620770	0.904021
388.005133	0.898141
388.389435	0.891146
388.773674	0.882885
389.157851	0.874088
389.541965	0.864939
389.926018	0.861609
390.310008	0.850075
390.693936	0.839822
391.077802	0.830512
391.461606	0.822139
391.845348	0.809712
392.229027	0.803475
392.612645	0.794903
392.996200	0.779863
393.379694	0.768558
393.763125	0.755605
394.146494	0.750076
394.529801	0.736959
394.913047	0.724131
395.296230	0.721128
395.679351	0.708270
396.062410	0.698246
396.445408	0.694622
396.828343	0.684214
397.211217	0.673546
397.594028	0.679724
397.976778	0.665308
398.359466	0.657300
398.742092	0.647961
399.124656	0.654850
399.507158	0.640630
399.889598	0.634057
400.271977	0.621788
400.654294	0.622651
401.036549	0.618131
401.418742	0.619611
401.800874	0.602713
402.182944	0.598093
402.564952	0.586528
402.946898	0.586787
403.328783	0.585354
403.710606	0.595052
404.092367	0.569692
404.474067	0.572857
404.855705	0.570473
405.237282	0.578449
405.618797	0.563985
406.000250	0.558818
406.381642	0.549186
406.762972	0.552775
407.144240	0.551764
407.525447	0.552133
407.906593	0.543750
408.287677	0.538154
408.668700	0.546534
409.049661	0.540293
409.430560	0.536016
409.811399	0.543995
410.192176	0.525186
410.572891	0.531911
410.953545	0.520103
411.334138	0.533052
411.714669	0.526458
412.095139	0.537600
412.475547	0.522323
412.855894	0.523844
413.236180	0.522883
413.616405	0.528062
413.996568	0.519349
414.376670	0.524806
414.756711	0.529640
415.136691	0.526244
415.516609	0.518061
415.896466	0.514427
416.276262	0.509885
416.655997	0.512619
417.035670	0.493183
417.415283	0.485223
417.794834	0.489744
418.174324	0.495961
418.553753	0.504752
418.933121	0.486623
419.312428	0.480385
419.691674	0.486724
420.070859	0.474910
420.449983	0.482739
420.829045	0.472681
421.208047	0.481486
421.586988	0.474348
421.965867	0.473290
422.344686	0.461856
422.723444	0.474497
423.102141	0.491108
423.480777	0.464830
423.859352	0.485233
424.237866	0.461509
424.616319	0.462582
424.994712	0.453509
425.373044	0.464102
425.751314	0.451936
426.129524	0.468565
426.507673	0.452619
426.885762	0.445792
427.263789	0.451473
427.641756	0.461334
428.019662	0.451069
428.397508	0.450570
428.775292	0.454277
429.153016	0.446655
429.530679	0.453317
429.908282	0.446418
430.285824	0.456525
430.663305	0.434899
431.040726	0.455577
431.418086	0.455857
431.795385	0.447640
432.172624	0.445804
432.549802	0.447222
432.926920	0.445993
433.303977	0.445344
433.680974	0.442609
434.057910	0.441264
434.434786	0.440454
434.811601	0.442940
435.188355	0.425165
435.565050	0.434478
435.941683	0.435997
436.318257	0.420397
436.694770	0.420431
437.071222	0.419048
437.447614	0.423388
437.823946	0.430044
438.200218	0.419151
438.576429	0.428966
438.952580	0.422080
439.328670	0.418805
439.704700	0.425509
440.080670	0.426042
440.456580	0.407525
440.832429	0.415741
441.208218	0.426794
441.583947	0.415921
441.959616	0.415501
442.335224	0.420364
442.710773	0.411610
443.086261	0.408904
443.461689	0.423101
443.837057	0.413033
444.212365	0.402986
444.587612	0.410298
444.962800	0.399787
445.337927	0.401548
445.712995	0.427488
446.088002	0.389900
446.462949	0.400827
446.837837	0.404850
447.212664	0.394461
447.587431	0.385261
447.962139	0.356224
448.336786	0.315443
448.711374	0.325855
449.085901	0.368981
449.460369	0.373943
449.834776	0.377393
450.209124	0.356820
450.583412	0.348934
450.957640	0.342696
451.331808	0.354088
451.705917	0.377083
452.079965	0.381436
452.453954	0.369971
452.827883	0.376945
453.201752	0.371455
453.575562	0.383064
453.949311	0.371211
454.323001	0.377865
454.696632	0.373227
455.070202	0.366167
455.443713	0.357590
455.817164	0.352736
456.190556	0.348509
456.563888	0.345486
456.937160	0.342699
457.310373	0.359748
457.683526	0.359189
458.056619	0.364300
458.429653	0.365453
458.802628	0.368283
459.175542	0.362916
459.548398	0.345689
459.921194	0.337873
460.293930	0.337957
460.666607	0.315560
461.039224	0.303847
461.411782	0.299375
461.784280	0.299225
462.156719	0.303270
462.529099	0.307395
462.901419	0.323390
463.273680	0.328371
463.645882	0.327246
464.018024	0.333452
464.390106	0.326193
464.762130	0.311186
465.134094	0.293979
465.505999	0.263191
465.877845	0.233534
466.249631	0.220506
466.621358	0.227932
466.993026	0.242014
467.364634	0.248179
467.736184	0.256972
468.107674	0.265660
468.479105	0.264935
468.850477	0.271239
469.221790	0.278434
469.593043	0.288329
469.964238	0.293358
470.335373	0.292593
470.706449	0.290818
471.077467	0.291325
471.448425	0.253707
471.819324	0.229194
472.190164	0.228458
472.560945	0.257357
472.931667	0.279606
473.302330	0.283421
473.672934	0.295508
474.043479	0.283627
474.413965	0.285834
474.784393	0.288776
475.154761	0.283597
475.525070	0.280827
475.895321	0.286775
476.265513	0.280862
476.635645	0.275799
477.005719	0.276121
477.375734	0.272642
477.745691	0.266092
478.115588	0.262560
478.485427	0.256159
478.855207	0.243083
479.224928	0.225470
479.594591	0.213783
479.964194	0.217167
480.333739	0.218223
480.703226	0.219929
481.072653	0.218430
481.442022	0.213956
481.811333	0.210312
482.180584	0.213934
482.549777	0.219101
482.918912	0.222671
483.287988	0.222133
483.657005	0.221980
484.025964	0.228679
484.394864	0.225733
484.763706	0.226142
485.132489	0.231248
485.501213	0.231814
485.869879	0.230241
486.238487	0.233713
486.607036	0.231219
486.975527	0.236225
487.343959	0.231948
487.712333	0.231097
488.080648	0.232494
488.448905	0.231580
488.817104	0.232867
489.185244	0.227435
489.553326	0.224316
489.921350	0.214208
490.289315	0.196777
490.657222	0.191739
491.025070	0.193120
491.392861	0.194899
491.760593	0.200783
492.128267	0.206156
492.495883	0.211936
492.863440	0.217921
493.230939	0.224396
493.598380	0.225588
493.965763	0.228041
494.333088	0.230552
494.700354	0.231758
495.067563	0.230603
495.434713	0.233987
495.801805	0.231734
496.168839	0.233274
496.535815	0.234666
496.902733	0.234820
497.269593	0.236171
497.636395	0.234469
498.003139	0.234528
498.369825	0.237177
498.736453	0.233785
499.103023	0.234994
499.469535	0.234732
499.835989	0.235114
500.202385	0.235766
500.568723	0.239083
500.935003	0.234361
501.301226	0.238503
501.667390	0.232933
502.033497	0.231106
502.399546	0.233820
502.765537	0.235777
503.131470	0.234227
503.497345	0.230446
503.863163	0.239168
504.228923	0.232124
504.594625	0.230823
504.960269	0.236316
505.325856	0.231430
505.691385	0.235753
506.056856	0.232511
506.422270	0.232148
506.787625	0.234466
507.152924	0.231734
507.518164	0.232307
507.883347	0.234219
508.248472	0.235657
508.613540	0.230900
508.978550	0.233265
509.343503	0.233478
509.708398	0.231300
510.073236	0.229153
510.438016	0.229046
510.802738	0.229938
511.167403	0.228932
511.532010	0.231120
511.896561	0.226196
512.261053	0.225160
512.625488	0.227266
512.989866	0.227506
513.354186	0.227958
513.718449	0.229656
514.082655	0.225941
514.446803	0.228411
514.810894	0.225802
515.174927	0.228772
515.538904	0.227914
515.902822	0.224774
516.266684	0.227179
516.630488	0.228445
516.994235	0.227385
517.357925	0.226103
517.721558	0.224332
518.085133	0.223970
518.448651	0.223770
518.812112	0.226170
519.175516	0.225671
519.538863	0.223481
519.902152	0.224982
520.265385	0.221817
520.628560	0.223657
520.991678	0.224298
521.354739	0.222972
521.717743	0.224347
522.080690	0.224487
522.443580	0.222056
522.806413	0.222913
523.169189	0.222367
523.531908	0.221099
523.894569	0.224472
524.257174	0.224785
524.619722	0.222195
524.982213	0.223298
525.344647	0.222524
525.707025	0.222945
526.069345	0.221349
526.431608	0.222960
526.793815	0.220931
527.155964	0.224950
527.518057	0.223973
527.880093	0.224940
528.242072	0.223792
528.603995	0.225600
528.965860	0.227390
529.327669	0.226023
529.689421	0.227102
530.051117	0.227954
530.412755	0.225387
530.774337	0.228111
531.135862	0.228159
531.497331	0.227409
531.858743	0.230312
532.220098	0.227292
532.581396	0.229532
532.942638	0.230113
533.303824	0.231088
533.664953	0.231218
534.026025	0.232784
534.387040	0.230530
534.747999	0.230551
535.108902	0.229229
535.469748	0.234462
535.830537	0.232029
536.191270	0.232773
536.551947	0.231907
536.912567	0.232299
537.273131	0.234220
537.633638	0.234068
537.994089	0.234501
538.354483	0.235380
538.714821	0.232546
539.075103	0.232081
539.435328	0.233226
539.795497	0.236878
540.155609	0.233345
540.515665	0.231517
540.875665	0.237344
541.235609	0.235763
541.595496	0.235887
541.955328	0.232342
542.315102	0.235004
542.674821	0.235847
543.034483	0.235758
543.394090	0.235344
543.753640	0.237815
544.113134	0.232768
544.472571	0.235984
544.831953	0.233016
545.191278	0.236828
545.550548	0.236413
545.909761	0.232938
546.268918	0.233855
546.628019	0.232200
546.987064	0.234871
547.346053	0.236696
547.704986	0.234677
548.063863	0.235002
548.422684	0.235116
548.781449	0.236982
549.140158	0.234658
549.498811	0.237524
549.857408	0.240870
550.215949	0.235176
550.574434	0.238421
550.932864	0.236656
551.291237	0.235072
551.649555	0.236658
552.007817	0.236003
552.366022	0.236914
552.724173	0.237213
553.082267	0.237410
553.440305	0.234466
553.798288	0.239129
554.156215	0.235440
554.514086	0.235990
554.871902	0.239254
555.229661	0.238474
555.587365	0.238906
555.945014	0.241326
556.302606	0.238496
556.660143	0.241063
557.017625	0.237283
557.375050	0.239689
557.732421	0.236790
558.089735	0.238527
558.446994	0.238920
558.804197	0.238068
559.161345	0.237948
559.518437	0.241402
559.875474	0.239276
560.232455	0.238678
560.589381	0.239706
560.946251	0.240008
561.303065	0.237495
561.659825	0.238815
562.016528	0.240437
562.373177	0.243235
562.729770	0.240144
563.086307	0.242432
563.442789	0.240249
563.799216	0.243144
564.155587	0.241902
564.511904	0.243008
564.868164	0.243447
565.224370	0.243000
565.580520	0.244563
565.936615	0.244393
566.292654	0.247665
566.648638	0.244710
567.004567	0.245541
567.360441	0.246109
567.716260	0.248300
568.072023	0.245919
568.427732	0.246441
568.783385	0.248938
569.138982	0.247152
569.494525	0.246925
569.850013	0.249461
570.205445	0.248344
570.560823	0.250497
570.916145	0.252402
571.271412	0.250691
571.626625	0.252491
571.981782	0.252835
572.336884	0.253575
572.691931	0.253551
573.046923	0.254670
573.401860	0.255686
573.756743	0.257400
574.111570	0.256508
574.466342	0.256877
574.821059	0.256192
575.175722	0.259023
575.530330	0.258866
575.884882	0.259086
576.239380	0.261094
576.593823	0.261632
576.948211	0.260969
577.302544	0.264021
577.656823	0.263603
578.011047	0.263744
578.365216	0.264349
578.719330	0.266619
579.073389	0.266413
579.427394	0.267742
579.781344	0.268471
580.135239	0.269830
580.489080	0.269532
580.842866	0.272422
581.196597	0.272000
581.550273	0.271168
581.903895	0.272230
582.257463	0.270155
582.610975	0.273745
582.964434	0.272998
583.317837	0.275729
583.671186	0.275890
584.024481	0.275741
584.377721	0.278563
584.730906	0.279308
585.084037	0.278514
585.437113	0.279972
585.790135	0.279257
586.143103	0.282715
586.496016	0.283599
586.848874	0.280966
587.201679	0.281623
587.554428	0.285222
587.907124	0.283597
588.259765	0.284350
588.612352	0.284896
588.964884	0.288578
589.317362	0.288251
589.669786	0.288291
590.022155	0.287054
590.374470	0.286375
590.726731	0.288309
591.078937	0.292839
591.431090	0.289053
591.783188	0.293593
592.135232	0.293397
592.487222	0.293605
592.839157	0.291596
593.191038	0.294146
593.542866	0.296390
593.894639	0.299637
594.246358	0.298267
594.598022	0.297036
594.949633	0.300894
595.301190	0.301423
595.652692	0.300861
596.004141	0.297096
596.355535	0.305053
596.706876	0.305530
597.058162	0.307990
597.409395	0.305202
597.760573	0.302756
598.111698	0.306227
598.462768	0.306812
598.813785	0.307876
599.164748	0.309306
599.515657	0.309448
599.866511	0.312827
600.217312	0.307957
600.568060	0.313305
600.918753	0.309970
601.269392	0.310844
601.619978	0.313964
601.970510	0.312081
602.320988	0.312109
602.671412	0.309473
603.021783	0.312072
603.372100	0.313366
603.722363	0.312890
604.072572	0.313974
604.422728	0.313554
604.772830	0.315930
605.122878	0.315387
605.472872	0.316053
605.822813	0.314157
606.172701	0.316789
606.522534	0.314207
606.872314	0.314403
607.222041	0.315102
607.571714	0.313072
607.921333	0.314879
608.270899	0.314751
608.620411	0.311175
608.969870	0.315220
609.319276	0.315389
609.668627	0.315344
610.017926	0.313953
610.367171	0.312228
610.716362	0.313037
611.065500	0.313271
611.414585	0.312095
611.763616	0.312324
612.112594	0.313190
612.461518	0.311931
612.810389	0.309868
613.159207	0.312409
613.507971	0.314231
613.856682	0.309825
614.205340	0.311330
614.553945	0.308697
614.902496	0.312433
615.250994	0.310577
615.599439	0.311117
615.947830	0.310688
616.296169	0.311724
616.644454	0.310521
616.992686	0.310760
617.340864	0.308799
617.688990	0.312475
618.037063	0.308907
618.385082	0.311016
618.733048	0.308347
619.080961	0.310157
619.428821	0.309373
619.776628	0.309052
620.124382	0.311381
620.472083	0.311233
620.819731	0.310698
621.167326	0.314874
621.514868	0.314607
621.862357	0.318466
622.209793	0.318423
622.557176	0.320524
622.904506	0.321165
623.251783	0.323765
623.599007	0.326432
623.946179	0.325832
624.293297	0.327867
624.640363	0.331430
624.987376	0.332018
625.334336	0.334539
625.681243	0.336766
626.028097	0.337280
626.374899	0.338270
626.721647	0.338738
627.068343	0.341822
627.414987	0.342728
627.761577	0.345627
628.108115	0.343488
628.454600	0.348719
628.801032	0.345885
629.147412	0.347895
629.493739	0.348515
629.840014	0.351420
630.186236	0.349204
630.532405	0.354569
630.878521	0.351732
631.224585	0.353740
631.570597	0.357420
631.916556	0.355743
632.262462	0.356216
632.608316	0.358450
632.954117	0.358877
633.299866	0.359646
633.645562	0.360551
633.991206	0.364705
634.336797	0.367929
634.682336	0.369776
635.027823	0.371472
635.373257	0.372348
635.718639	0.375711
636.063968	0.374709
636.409245	0.380838
636.754470	0.380990
637.099642	0.383539
637.444762	0.386755
637.789829	0.386081
638.134845	0.389372
638.479808	0.390338
638.824719	0.390290
639.169577	0.394372
639.514383	0.393125
639.859137	0.397185
640.203839	0.397666
640.548489	0.397560
640.893086	0.398940
641.237632	0.400718
641.582125	0.399457
641.926566	0.400747
642.270955	0.401173
642.615292	0.400650
642.959576	0.399900
643.303809	0.401141
643.647990	0.400572
643.992118	0.400893
644.336195	0.405091
644.680219	0.402911
645.024192	0.403816
645.368112	0.397671
645.711981	0.396120
646.055797	0.391799
646.399562	0.394042
646.743274	0.385856
647.086935	0.383341
647.430544	0.383851
647.774101	0.382458
648.117606	0.381997
648.461059	0.382557
648.804460	0.384673
649.147810	0.390762
649.491108	0.391839
649.834354	0.393551
650.177548	0.398673
650.520690	0.404243
650.863781	0.405822
651.206820	0.404542
651.549807	0.409724
651.892742	0.413696
652.235626	0.413017
652.578458	0.413702
652.921238	0.419473
653.263967	0.417522
653.606644	0.421592
653.949269	0.421375
654.291843	0.425393
654.634365	0.422218
654.976836	0.424949
655.319255	0.425316
655.661622	0.427202
656.003938	0.427334
656.346203	0.429956
656.688416	0.427805
657.030577	0.431003
657.372687	0.433128
657.714746	0.433435
658.056753	0.430723
658.398708	0.435112
658.740612	0.435841
659.082465	0.432563
659.424266	0.433179
659.766016	0.432006
660.107715	0.434697
660.449362	0.433871
660.790958	0.434665
661.132503	0.434911
661.473996	0.432556
661.815438	0.433012
662.156829	0.433565
662.498168	0.434593
662.839456	0.435500
663.180693	0.433594
663.521879	0.433626
663.863013	0.434179
664.204097	0.432953
664.545129	0.429580
664.886110	0.430240
665.227040	0.427293
665.567918	0.430019
665.908746	0.428205
666.249522	0.427454
666.590248	0.428796
666.930922	0.426981
667.271545	0.425745
667.612118	0.425559
667.952639	0.427758
668.293109	0.426186
668.633528	0.429038
668.973896	0.429308
669.314213	0.429061
669.654480	0.431061
669.994695	0.430830
670.334859	0.432112
670.674973	0.432220
671.015035	0.432326
671.355047	0.432287
671.695008	0.433004
672.034918	0.435256
672.374777	0.434848
672.714585	0.435948
673.054342	0.435814
673.394049	0.436202
673.733705	0.433585
674.073310	0.434454
674.412864	0.437683
674.752368	0.438260
675.091820	0.438343
675.431223	0.442427
675.770574	0.442583
676.109875	0.445462
676.449125	0.445722
676.788324	0.448116
677.127473	0.453119
677.466571	0.453290
677.805619	0.454503
678.144616	0.455746
678.483562	0.457445
678.822458	0.460147
679.161303	0.461042
679.500098	0.461468
679.838842	0.463136
680.177535	0.462866
680.516179	0.461110
680.854771	0.460786
681.193314	0.453947
681.531805	0.445163
681.870247	0.433899
682.208638	0.426212
682.546978	0.424937
682.885268	0.426664
683.223508	0.433194
683.561697	0.436630
683.899836	0.439416
684.237925	0.443120
684.575963	0.445164
684.913951	0.448879
685.251889	0.443842
685.589776	0.446125
685.927614	0.448520
686.265401	0.442594
686.603137	0.444256
686.940824	0.437989
687.278460	0.436432
687.616046	0.435846
687.953582	0.430937
688.291068	0.432188
688.628504	0.427848
688.965889	0.429887
689.303224	0.433947
689.640510	0.437758
689.977745	0.443498
690.314930	0.451358
690.652065	0.456526
690.989150	0.464071
691.326185	0.470647
691.663170	0.474918
692.000105	0.481923
692.336990	0.489337
692.673825	0.491290
693.010610	0.498551
693.347345	0.504144
693.684030	0.504994
694.020665	0.510332
694.357251	0.519043
694.693786	0.518627
695.030272	0.523489
695.366707	0.526060
695.703093	0.529869
696.039429	0.527413
696.375716	0.529594
696.711952	0.532417
697.048139	0.533659
697.384276	0.535825
697.720363	0.534510
698.056400	0.533296
698.392388	0.538531
698.728326	0.541676
699.064214	0.544375
699.400053	0.545589
699.735842	0.549041
700.071581	0.551928
700.407270	0.554483
700.742910	0.556980
701.078501	0.563854
701.414042	0.564601
701.749533	0.567454
702.084974	0.576078
702.420366	0.567902
702.755709	0.576508
703.091002	0.583735
703.426246	0.577323
703.761440	0.583165
704.096584	0.588101
704.431679	0.584426
704.766725	0.586916
705.101721	0.588041
705.436668	0.585203
705.771565	0.591648
706.106413	0.588640
706.441212	0.583255
706.775961	0.582724
707.110661	0.585411
707.445311	0.581391
707.779913	0.578962
708.114465	0.577392
708.448967	0.574567
708.783421	0.565930
709.117825	0.560185
709.452180	0.560199
709.786485	0.554238
710.120742	0.544483
710.454949	0.545855
710.789107	0.538347
711.123216	0.529022
711.457275	0.531017
711.791286	0.521807
712.125247	0.521137
712.459159	0.531696
712.793023	0.524594
713.126837	0.527810
713.460602	0.529126
713.794318	0.538664
714.127985	0.536434
714.461602	0.547813
714.795171	0.550603
715.128691	0.558362
715.462162	0.565888
715.795584	0.571509
716.128957	0.573902
716.462281	0.580822
716.795556	0.583991
717.128782	0.589414
717.461960	0.598478
717.795088	0.597380
718.128167	0.604025
718.461198	0.612331
718.794180	0.612842
719.127113	0.616274
719.459997	0.619302
719.792833	0.625580
720.125619	0.627014
720.458357	0.632570
720.791046	0.632392
721.123686	0.636323
721.456278	0.642700
721.788821	0.640128
722.121315	0.643489
722.453761	0.648231
722.786158	0.646387
723.118506	0.642609
723.450805	0.650706
723.783056	0.646436
724.115259	0.643716
724.447412	0.643282
724.779518	0.645068
725.111574	0.643551
725.443582	0.639136
725.775542	0.641556
726.107453	0.633466
726.439315	0.632869
726.771129	0.631643
727.102895	0.624328
727.434612	0.617715
727.766281	0.615629
728.097901	0.615033
728.429473	0.614648
728.760996	0.613161
729.092471	0.612606
729.423897	0.617066
729.755276	0.616700
730.086606	0.616748
730.417887	0.610382
730.749120	0.601680
731.080305	0.592784
731.411442	0.587936
731.742530	0.593412
732.073570	0.592260
732.404562	0.584971
732.735506	0.585928
733.066401	0.591253
733.397249	0.600775
733.728048	0.611539
734.058798	0.624444
734.389501	0.635209
734.720156	0.645055
735.050762	0.652088
735.381320	0.653480
735.711831	0.663013
736.042293	0.668152
736.372707	0.663542
736.703073	0.668018
737.033391	0.670295
737.363661	0.666726
737.693883	0.662644
738.024056	0.661418
738.354182	0.661706
738.684260	0.651467
739.014290	0.646856
739.344272	0.647853
739.674207	0.641081
740.004093	0.640645
740.333931	0.641481
740.663722	0.641021
740.993464	0.641993
741.323159	0.645465
741.652806	0.650009
741.982405	0.655114
742.311956	0.659872
742.641460	0.662734
742.970915	0.665281
743.300323	0.673326
743.629683	0.680199
743.958996	0.682325
744.288260	0.686097
744.617477	0.692156
744.946647	0.694171
745.275768	0.698537
745.604842	0.698491
745.933869	0.708237
746.262847	0.709302
746.591778	0.703097
746.920662	0.709559
747.249498	0.715829
747.578286	0.706177
747.907027	0.701607
748.235720	0.703644
748.564365	0.698583
748.892963	0.698894
749.221514	0.701416
749.550017	0.705726
749.878473	0.706544
750.206881	0.712226
750.535242	0.713992
750.863555	0.714244
751.191821	0.714639
751.520039	0.718780
751.848210	0.722539
752.176334	0.715454
752.504411	0.714508
752.832440	0.722832
753.160421	0.726512
753.488356	0.724975
753.816243	0.721773
754.144082	0.730900
754.471875	0.733929
754.799620	0.730183
755.127318	0.730861
755.454969	0.731267
755.782572	0.729545
756.110129	0.735455
756.437638	0.737394
756.765100	0.733457
757.092515	0.731754
757.419882	0.730036
757.747203	0.737418
758.074477	0.735650
758.401703	0.732666
758.728882	0.729504
759.056014	0.727243
759.383099	0.725870
759.710138	0.727314
760.037129	0.723591
760.364073	0.716895
760.690970	0.719981
761.017820	0.725871
761.344623	0.720824
761.671379	0.711983
761.998088	0.700392
762.324751	0.677857
762.651366	0.634668
762.977935	0.568449
763.304456	0.516088
763.630931	0.506817
763.957359	0.545459
764.283740	0.590018
764.610074	0.617189
764.936362	0.648876
765.262602	0.675456
765.588796	0.696736
765.914943	0.715634
766.241044	0.732941
766.567097	0.738641
766.893104	0.749863
767.219064	0.755598
767.544978	0.762238
767.870845	0.776501
768.196665	0.779983
768.522438	0.777661
768.848165	0.779051
769.173846	0.788592
769.499479	0.792249
769.825066	0.795656
770.150607	0.801083
770.476101	0.796292
770.801548	0.796980
771.126949	0.808722
771.452303	0.813206
771.777611	0.811225
772.102872	0.810941
772.428087	0.816222
772.753256	0.820208
773.078378	0.820936
773.403453	0.830719
773.728482	0.834492
774.053465	0.828119
774.378401	0.831858
774.703291	0.840002
775.028135	0.840017
775.352932	0.842264
775.677683	0.843913
776.002388	0.845485
776.327046	0.844143
776.651658	0.847429
776.976224	0.851472
777.300743	0.851892
777.625216	0.854539
777.949643	0.855271
778.274024	0.855850
778.598359	0.857885
778.922647	0.855628
779.246889	0.855857
779.571086	0.860067
779.895236	0.861979
780.219339	0.859390
780.543397	0.856513
780.867409	0.855640
781.191374	0.857717
781.515294	0.859251
781.839167	0.857345
782.162995	0.861389
782.486776	0.858032
782.810511	0.859915
783.134201	0.862485
783.457844	0.860281
783.781441	0.863040
784.104993	0.869047
784.428498	0.869016
784.751958	0.864807
785.075372	0.868340
785.398739	0.871339
785.722061	0.867855
786.045337	0.862892
786.368568	0.867750
786.691752	0.870862
787.014891	0.855516
787.337983	0.846646
787.661030	0.840000
787.984031	0.822492
788.306987	0.809465
788.629897	0.810839
788.952760	0.815420
789.275579	0.819660
789.598351	0.834615
789.921078	0.847187
790.243759	0.851157
790.566395	0.855743
790.888984	0.862524
791.211529	0.867199
791.534027	0.870014
791.856480	0.873799
792.178888	0.877583
792.501249	0.880908
792.823566	0.882244
793.145836	0.881879
793.468062	0.883933
793.790241	0.883601
794.112375	0.881726
794.434464	0.877891
794.756507	0.876258
795.078505	0.876067
795.400457	0.871863
795.722364	0.858250
796.044226	0.851865
796.366042	0.850125
796.687812	0.853866
797.009538	0.850791
797.331218	0.853158
797.652852	0.859226
797.974442	0.862873
798.295986	0.862736
798.617484	0.865343
798.938938	0.869156
799.260346	0.874613
799.581709	0.876128
799.903026	0.879242
800.224299	0.878693
800.545526	0.883533
800.866708	0.887116
801.187845	0.891850
801.508936	0.889998
801.829983	0.888776
802.150984	0.890983
802.471940	0.896774
802.792851	0.895121
803.113717	0.897343
803.434538	0.894852
803.755314	0.897658
804.076045	0.898152
804.396731	0.898066
804.717372	0.898447
805.037967	0.900284
805.358518	0.897956
805.679024	0.896104
805.999485	0.895563
806.319901	0.895327
806.640272	0.896806
806.960598	0.895164
807.280879	0.891550
807.601115	0.891110
807.921306	0.894796
808.241453	0.894267
808.561554	0.892470
808.881611	0.891821
809.201623	0.894794
809.521590	0.895741
809.841513	0.896229
810.161390	0.894914
810.481223	0.896218
810.801011	0.901049
811.120755	0.901681
811.440453	0.899795
811.760107	0.899256
812.079716	0.898966
812.399281	0.902662
812.718801	0.905283
813.038276	0.905124
813.357707	0.905042
813.677093	0.902278
813.996434	0.905811
814.315731	0.908066
814.634983	0.908326
814.954191	0.907123
815.273354	0.904597
815.592473	0.900652
815.911547	0.900297
816.230577	0.897655
816.549562	0.894698
816.868502	0.895262
817.187399	0.891973
817.506250	0.886447
817.825058	0.888569
818.143821	0.885266
818.462539	0.880077
818.781213	0.872711
819.099843	0.859599
819.418429	0.843933
819.736970	0.828147
820.055466	0.807641
820.373919	0.781128
820.692327	0.747730
821.010691	0.713803
821.329011	0.634124
821.647286	0.517669
821.965517	0.403789
822.283704	0.360655
822.601847	0.361530
822.919945	0.397155
823.237999	0.431344
823.556010	0.478961
823.873976	0.535385
824.191897	0.586673
824.509775	0.629144
824.827609	0.674829
825.145398	0.698000
825.463144	0.701145
825.780845	0.684122
826.098502	0.664698
826.416116	0.618053
826.733685	0.573549
827.051210	0.565384
827.368692	0.580478
827.686129	0.617793
828.003522	0.671942
828.320872	0.719947
828.638177	0.764025
828.955439	0.797938
829.272656	0.819042
829.589830	0.837316
829.906960	0.852169
830.224046	0.864570
830.541088	0.875249
830.858086	0.879312
831.175041	0.885254
831.491952	0.885409
831.808819	0.881630
832.125642	0.874745
832.442421	0.859795
832.759157	0.837815
833.075849	0.791239
833.392497	0.727699
833.709101	0.685177
834.025662	0.696346
834.342179	0.726747
834.658653	0.767321
834.975083	0.803330
835.291469	0.829794
835.607811	0.852578
835.924110	0.868575
836.240366	0.885747
836.556578	0.899940
836.872746	0.907499
837.188871	0.913541
837.504952	0.919347
837.820990	0.922762
838.136984	0.925972
838.452935	0.928635
838.768842	0.931006
839.084706	0.923403
839.400526	0.898321
839.716303	0.856687
840.032037	0.834393
840.347727	0.837636
840.663373	0.856366
840.978977	0.877756
841.294537	0.899742
841.610054	0.917330
841.925527	0.924636
842.240957	0.932022
842.556344	0.938361
842.871687	0.945819
843.186987	0.948757
843.502244	0.949620
843.817458	0.950206
844.132629	0.954918
844.447756	0.959394
844.762840	0.959336
845.077881	0.958968
845.392879	0.958225
845.707833	0.962447
846.022745	0.963110
846.337613	0.964648
846.652438	0.965894
846.967221	0.963655
847.281960	0.964215
847.596656	0.966507
847.911309	0.965771
848.225919	0.967876
848.540485	0.967382
848.855009	0.967932
849.169490	0.967622
849.483928	0.968428
849.798323	0.968561
850.112675	0.970290
850.426984	0.968656
850.741251	0.968989
851.055474	0.970146
851.369654	0.967178
851.683792	0.969355
851.997887	0.967975
852.311938	0.969159
852.625947	0.968567
852.939914	0.967499
853.253837	0.969028
853.567718	0.970433
853.881555	0.970323
854.195350	0.967018
854.509103	0.968862
854.822812	0.969203
855.136479	0.969604
855.450103	0.968881
855.763685	0.968191
856.077224	0.968287
856.390720	0.969950
856.704173	0.969851
857.017584	0.967694
857.330953	0.965609
857.644278	0.967421
857.957561	0.967442
858.270802	0.967751
858.584000	0.966503
858.897155	0.965498
859.210268	0.967744
859.523339	0.968640
859.836367	0.968744
860.149352	0.969564
860.462295	0.967111
860.775195	0.969281
861.088054	0.968104
861.400869	0.969238
861.713642	0.969692
862.026373	0.969873
862.339062	0.970274
862.651708	0.967276
862.964312	0.967988
863.276873	0.968650
863.589392	0.968415
863.901869	0.965711
864.214303	0.965561
864.526696	0.962719
864.839045	0.962693
865.151353	0.960996
865.463619	0.961283
865.775842	0.962170
866.088023	0.961482
866.400162	0.962716
866.712258	0.961525
867.024313	0.962046
867.336325	0.963094
867.648296	0.963065
867.960224	0.960871
868.272110	0.960820
868.583954	0.964039
868.895755	0.964198
869.207515	0.960595
869.519233	0.959024
869.830909	0.960614
870.142542	0.960801
870.454134	0.960866
870.765684	0.959311
871.077191	0.957156
871.388657	0.958347
871.700081	0.957736
872.011463	0.956720
872.322803	0.957887
872.634101	0.955110
872.945357	0.954212
873.256571	0.953487
873.567744	0.951213
873.878874	0.953651
874.189963	0.951731
874.501010	0.950069
874.812015	0.949045
875.122979	0.950313
875.433900	0.951439
875.744780	0.953460
876.055618	0.950785
876.366415	0.948301
876.677169	0.948211
876.987882	0.950383
877.298554	0.949495
877.609183	0.947017
877.919771	0.942946
878.230317	0.941506
878.540822	0.937573
878.851285	0.934149
879.161707	0.924932
879.472087	0.913789
879.782425	0.896284
880.092722	0.862665
880.402977	0.808186
880.713191	0.746643
881.023363	0.686520
881.333494	0.650911
881.643583	0.623685
881.953631	0.623577
882.263637	0.652129
882.573602	0.691645
882.883526	0.717470
883.193408	0.742757
883.503248	0.765318
883.813048	0.793733
884.122806	0.823576
884.432522	0.847821
884.742197	0.866741
885.051831	0.877510
885.361424	0.888237
885.670975	0.901519
885.980485	0.910661
886.289954	0.917896
886.599382	0.923331
886.908768	0.927198
887.218113	0.932545
887.527417	0.938188
887.836680	0.939787
888.145901	0.941458
888.455082	0.945353
888.764221	0.948946
889.073319	0.949774
889.382376	0.951856
889.691392	0.952390
890.000366	0.952531
890.309300	0.953213
890.618193	0.951369
890.927044	0.950527
891.235855	0.949756
891.544625	0.950235
891.853353	0.950875
892.162041	0.947784
892.470687	0.941246
892.779293	0.936162
893.087858	0.931736
893.396381	0.924549
893.704864	0.910073
894.013306	0.887119
894.321707	0.859131
894.630068	0.843746
894.938387	0.838622
895.246665	0.840549
895.554903	0.854035
895.863100	0.866967
896.171256	0.884495
896.479371	0.903792
896.787446	0.917168
897.095480	0.923187
897.403473	0.927081
897.711425	0.930325
898.019336	0.938918
898.327207	0.940296
898.635038	0.943304
898.942827	0.943594
899.250576	0.947250
899.558284	0.951280
899.865952	0.952573
900.173579	0.954360
900.481165	0.954072
900.788711	0.959413
901.096216	0.960020
901.403681	0.959666
901.711105	0.961647
902.018489	0.961824
902.325832	0.961060
902.633135	0.960856
902.940397	0.955096
903.247619	0.942436
903.554800	0.915921
903.861941	0.874589
904.169041	0.838731
904.476101	0.820750
904.783121	0.820837
905.090100	0.838540
905.397039	0.860411
905.703938	0.882839
906.010796	0.902946
906.317614	0.921118
906.624391	0.931988
906.931129	0.941926
907.237826	0.950336
907.544483	0.957649
907.851099	0.961349
908.157675	0.967355
908.464211	0.969686
908.770707	0.971206
909.077163	0.973972
909.383578	0.973814
909.689954	0.973877
909.996289	0.974925
910.302584	0.977663
910.608839	0.978588
910.915054	0.977867
911.221229	0.977101
911.527363	0.976451
911.833458	0.976640
912.139513	0.976169
912.445527	0.974189
912.751502	0.973419
913.057436	0.971816
913.363331	0.968518
913.669186	0.965030
913.975000	0.960508
914.280775	0.953377
914.586510	0.946378
914.892205	0.932325
915.197859	0.911768
915.503475	0.882640
915.809050	0.862202
916.114585	0.856344
916.420081	0.854165
916.725536	0.850730
917.030952	0.859645
917.336328	0.873557
917.641665	0.888867
917.946961	0.903892
918.252218	0.916635
918.557435	0.925200
918.862612	0.934072
919.167750	0.940303
919.472848	0.945397
919.777906	0.951554
920.082925	0.956434
920.387904	0.960938
920.692843	0.961706
920.997743	0.963488
921.302603	0.966191
921.607423	0.967979
921.912204	0.971251
922.216946	0.970363
922.521647	0.972181
922.826310	0.973991
923.130932	0.976836
923.435516	0.977809
923.740059	0.979577
924.044564	0.978169
924.349028	0.979974
924.653454	0.983163
924.957840	0.984728
925.262186	0.983562
925.566493	0.983118
925.870761	0.984863
926.174989	0.984860
926.479178	0.988130
926.783328	0.987880
927.087438	0.987741
927.391509	0.987496
927.695541	0.989674
927.999533	0.988450
928.303486	0.989932
928.607400	0.991668
928.911275	0.988426
929.215110	0.990866
929.518906	0.990186
929.822663	0.989919
930.126381	0.991268
930.430060	0.989601
930.733699	0.990437
931.037299	0.988991
931.340861	0.991536
931.644383	0.989044
931.947866	0.989000
932.251309	0.990637
932.554714	0.989723
932.858080	0.989484
933.161407	0.990614
933.464694	0.990477
933.767943	0.989183
934.071153	0.990936
934.374323	0.992035
934.677455	0.989327
934.980548	0.992060
935.283602	0.990156
935.586617	0.991105
935.889593	0.990271
936.192530	0.990021
936.495428	0.990594
936.798287	0.990163
937.101108	0.989068
937.403890	0.988365
937.706632	0.988428
938.009336	0.986214
938.312002	0.985440
938.614628	0.984413
938.917216	0.981640
939.219765	0.982084
939.522275	0.981543
939.824747	0.982919
940.127179	0.981558
940.429573	0.983550
940.731929	0.983170
941.034246	0.983841
941.336524	0.984207
941.638763	0.985749
941.940964	0.985155
942.243126	0.985874
942.545250	0.986624
942.847335	0.987542
943.149381	0.987256
943.451389	0.986782
943.753359	0.988838
944.055290	0.990183
944.357182	0.988976
944.659036	0.988021
944.960851	0.988087
945.262628	0.990817
945.564367	0.990292
945.866067	0.989501
946.167729	0.989808
946.469352	0.988951
946.770937	0.989280
947.072484	0.990374
947.373992	0.990014
947.675462	0.989966
947.976893	0.989839
948.278286	0.988913
948.579641	0.991890
948.880958	0.990026
949.182236	0.989853
949.483476	0.990708
949.784678	0.990372
950.085841	0.991029
950.386967	0.990722
950.688054	0.989778
950.989103	0.990900
951.290114	0.987747
951.591087	0.989116
951.892021	0.988535
952.192917	0.989171
952.493776	0.987750
952.794596	0.987805
953.095378	0.987650
953.396122	0.988071
953.696828	0.987022
953.997496	0.988444
954.298126	0.990683
954.598718	0.990144
954.899272	0.990569
955.199788	0.989366
955.500266	0.991481
955.800706	0.992802
956.101108	0.992682
956.401472	0.992767
956.701798	0.993837
957.002087	0.992142
957.302337	0.994339
957.602550	0.996351
957.902724	0.994099
958.202861	0.995153
958.502960	0.995156
958.803022	0.993424
959.103045	0.995898
959.403031	0.995887
959.702979	0.995817
960.002889	0.995958
960.302762	0.994667
960.602596	0.995170
960.902393	0.994247
961.202153	0.995813
961.501875	0.995849
961.801559	0.994811
962.101205	0.995899
962.400814	0.996390
962.700385	0.996115
962.999918	0.996218
963.299414	0.996207
963.598873	0.995793
963.898293	0.995982
964.197677	0.995955
964.497022	0.995911
964.796331	0.997615
965.095601	0.995766
965.394835	0.997082
965.694030	0.995865
965.993189	0.996784
966.292309	0.996990
966.591393	0.997560
966.890439	0.997134
967.189447	0.996160
967.488419	0.997731
967.787353	0.995075
968.086249	0.996048
968.385108	0.995979
968.683930	0.996485
968.982714	0.997389
969.281462	0.997757
969.580172	0.996545
969.878844	0.996247
970.177480	0.995998
970.476078	0.997765
970.774639	0.996813
971.073162	0.997251
971.371649	0.996039
971.670098	0.995943
971.968510	0.997360
972.266885	0.995840
972.565223	0.995621
972.863524	0.996358
973.161788	0.997320
973.460014	0.997739
973.758204	0.995900
974.056356	0.996474
974.354471	0.993690
974.652550	0.996877
974.950591	0.996967
975.248595	0.995817
975.546563	0.996997
975.844493	0.998444
976.142386	0.996875
976.440243	0.997927
976.738062	0.997328
977.035845	0.998289
977.333590	0.997367
977.631299	0.997973
977.928971	0.997989
978.226606	0.996819
978.524204	0.995687
978.821765	0.997534
979.119290	0.996998
979.416777	0.997196
979.714228	0.997548
980.011642	0.996128
980.309020	0.996382
980.606360	0.996143
980.903664	0.997326
981.200931	0.995605
981.498162	0.995738
981.795356	0.994343
982.092513	0.993953
982.389633	0.993887
982.686717	0.991256
982.983764	0.991726
983.280775	0.989973
983.577749	0.990603
983.874686	0.991456
984.171587	0.991271
984.468451	0.993760
984.765279	0.994690
985.062070	0.994053
985.358824	0.994812
985.655543	0.994981
985.952224	0.995729
986.248869	0.997435
986.545478	0.996901
986.842050	0.998110
987.138586	0.994743
987.435086	0.997385
987.731549	0.999589
988.027975	0.998146
988.324366	0.997269
988.620719	0.998631
988.917037	0.996059
989.213318	0.997575
989.509563	0.999104
989.805772	0.999197
990.101944	0.998372
990.398080	0.997390
990.694180	0.998325
990.990244	0.996702
991.286271	0.997025
991.582262	0.998005
991.878217	0.998517
992.174136	0.998641
992.470019	0.999549
992.765865	0.998286
993.061676	0.997495
993.357450	0.997766
993.653188	0.997781
993.948890	0.997401
994.244556	0.997449
994.540186	0.996674
994.835780	0.996496
995.131337	0.997317
995.426859	0.997067
995.722345	0.997257
996.017795	0.996176
996.313208	0.996399
996.608586	0.995086
996.903928	0.996822
997.199234	0.995773
997.494504	0.996523
997.789738	0.996152
998.084936	0.996979
998.380099	0.998197
998.675225	0.997896
998.970316	0.999233
999.265371	0.997965
999.560390	0.998006
999.855373	0.999533
1000.150320	0.997878
1000.445232	0.998057
1000.740108	0.997734
1001.034948	0.997951
1001.329752	0.998738
1001.624521	0.998386
1001.919254	0.997871
1002.213951	0.997636
1002.508613	0.997759
1002.803239	0.998652
1003.097829	0.999382
1003.392384	0.998488
1003.686903	0.997269
1003.981386	0.998913
1004.275834	0.998986
1004.570246	0.998091
1004.864623	0.998800
1005.158964	0.999716
1005.453270	0.998424
1005.747540	0.998056
1006.041775	0.999116
1006.335974	0.999662
1006.630138	0.998350
1006.924266	0.999103
1007.218359	1.000464
1007.512416	0.998574
1007.806438	0.999477
1008.100425	0.999795
1008.394376	0.998601
1008.688292	0.999264
1008.982172	1.000970
1009.276017	0.998988
1009.569827	0.998756
1009.863602	0.998713
1010.157341	0.999208
1010.451045	0.999051
1010.744714	0.998955
1011.038347	0.999414
1011.331945	0.998428
1011.625508	0.998033
1011.919036	0.998848
1012.212528	0.998396
1012.505986	0.997956
1012.799408	0.998625
1013.092795	0.999801
1013.386147	0.999987
1013.679464	0.998927
1013.972745	0.997654
1014.265992	0.997401
1014.559204	0.998542
1014.852380	0.999157
1015.145521	0.998816
1015.438628	0.998892
1015.731699	0.999133
1016.024736	0.998202
1016.317737	0.999560
1016.610703	0.997942
1016.903635	0.999287
1017.196531	0.998020
1017.489393	0.999347
1017.782219	0.998026
1018.075011	0.998500
1018.367768	0.998488
1018.660490	0.999439
1018.953177	0.999439
1019.245829	0.999439
