Dividing Wavelength (nm)	Counts (n)	Blue Motor Position (mm): 0.000000	Red Motor Position (mm): 38.500000	
326.493990	0.999079
326.888308	0.999079
327.282561	0.999079
327.676750	0.998641
328.070874	0.999224
328.464933	0.999919
328.858929	0.999080
329.252859	0.998551
329.646726	0.999525
330.040528	1.000044
330.434265	0.999418
330.827938	1.000307
331.221547	1.000161
331.615091	0.999508
332.008571	0.999113
332.401986	1.000288
332.795338	1.000504
333.188625	0.997734
333.581847	0.999083
333.975006	0.999474
334.368100	0.999287
334.761129	1.000192
335.154095	1.000986
335.546996	0.998719
335.939833	0.997274
336.332606	0.996479
336.725315	0.996730
337.117960	0.998052
337.510540	0.997882
337.903056	0.996789
338.295508	0.994965
338.687896	0.996857
339.080220	0.997102
339.472480	0.997973
339.864676	0.996949
340.256807	0.996654
340.648875	0.997771
341.040879	0.997762
341.432818	0.997522
341.824694	0.996744
342.216506	0.997491
342.608253	0.996894
342.999937	0.996320
343.391557	0.997527
343.783113	0.997413
344.174605	0.997854
344.566033	0.997482
344.957397	0.996756
345.348697	0.997131
345.739934	0.997080
346.131106	0.997323
346.522215	0.996175
346.913260	0.996449
347.304241	0.997175
347.695159	0.997243
348.086012	0.995396
348.476802	0.997067
348.867528	0.997371
349.258191	0.996197
349.648789	0.996995
350.039324	0.997090
350.429796	0.995952
350.820203	0.997374
351.210548	0.997092
351.600828	0.997669
351.991045	0.996926
352.381198	0.996079
352.771288	0.995811
353.161314	0.997239
353.551276	0.997759
353.941175	0.997617
354.331010	0.996358
354.720782	0.997417
355.110490	0.996228
355.500135	0.997388
355.889717	0.995858
356.279235	0.997692
356.668689	0.995914
357.058080	0.997303
357.447408	0.997207
357.836672	0.998261
358.225873	0.997794
358.615010	0.996747
359.004084	0.998542
359.393095	0.997785
359.782043	0.996432
360.170927	0.998512
360.559748	0.997947
360.948505	0.997001
361.337199	0.996993
361.725830	0.998688
362.114398	0.996719
362.502903	0.996753
362.891344	0.998127
363.279722	0.997074
363.668037	0.996617
364.056289	0.997388
364.444478	0.998941
364.832603	0.997990
365.220665	0.997265
365.608665	0.997752
365.996601	0.995724
366.384474	0.997722
366.772284	0.996991
367.160031	0.996188
367.547715	0.996328
367.935336	0.997061
368.322893	0.996963
368.710388	0.996392
369.097820	0.996346
369.485189	0.996325
369.872495	0.996560
370.259738	0.995595
370.646918	0.997827
371.034035	0.997724
371.421090	0.998096
371.808081	0.995521
372.195010	0.997263
372.581875	0.997544
372.968678	0.997369
373.355418	0.996406
373.742096	0.996588
374.128710	0.998918
374.515262	0.996948
374.901751	0.997848
375.288177	0.997908
375.674540	0.998352
376.060841	0.998021
376.447079	0.998349
376.833254	0.997109
377.219367	0.997478
377.605417	0.998219
377.991404	0.997399
378.377329	0.997186
378.763191	0.997673
379.148991	0.998861
379.534727	0.998604
379.920402	0.998055
380.306013	0.997478
380.691563	0.998731
381.077049	0.998108
381.462474	0.997365
381.847835	0.998381
382.233134	0.996632
382.618371	0.998655
383.003545	0.997809
383.388657	0.997873
383.773706	0.998175
384.158693	0.998472
384.543618	0.998569
384.928480	0.998940
385.313280	0.998305
385.698017	0.998104
386.082692	0.998452
386.467305	0.998099
386.851856	0.997836
387.236344	0.997102
387.620770	0.996985
388.005133	0.999236
388.389435	0.999299
388.773674	0.997903
389.157851	0.999041
389.541965	0.998092
389.926018	0.997838
390.310008	0.999933
390.693936	0.998510
391.077802	0.997835
391.461606	0.998868
391.845348	0.999163
392.229027	1.000292
392.612645	0.998769
392.996200	1.000198
393.379694	0.997243
393.763125	0.999482
394.146494	0.997696
394.529801	0.997799
394.913047	0.999671
395.296230	0.999414
395.679351	0.998949
396.062410	0.999333
396.445408	0.999670
396.828343	0.997922
397.211217	0.998998
397.594028	0.999085
397.976778	0.998337
398.359466	0.997790
398.742092	0.997508
399.124656	0.998280
399.507158	0.998820
399.889598	0.998773
400.271977	0.998636
400.654294	1.000016
401.036549	0.999806
401.418742	0.999014
401.800874	0.998668
402.182944	0.998382
402.564952	0.998558
402.946898	0.999205
403.328783	0.998957
403.710606	0.998282
404.092367	0.998845
404.474067	0.998894
404.855705	0.998437
405.237282	0.999509
405.618797	0.999094
406.000250	0.998990
406.381642	0.999354
406.762972	0.999117
407.144240	0.999955
407.525447	0.999798
407.906593	0.999635
408.287677	0.999614
408.668700	0.999800
409.049661	0.998200
409.430560	0.999964
409.811399	0.999002
410.192176	0.998878
410.572891	0.999142
410.953545	0.999530
411.334138	0.998265
411.714669	1.000266
412.095139	0.998805
412.475547	1.000501
412.855894	0.999760
413.236180	0.999493
413.616405	0.999046
413.996568	1.000456
414.376670	1.000080
414.756711	0.998431
415.136691	0.999585
415.516609	0.998574
415.896466	0.998705
416.276262	0.999539
416.655997	0.999546
417.035670	0.998775
417.415283	0.999296
417.794834	0.999938
418.174324	0.998353
418.553753	0.999241
418.933121	0.998790
419.312428	0.999387
419.691674	0.999244
420.070859	0.999837
420.449983	0.999221
420.829045	0.999097
421.208047	0.999660
421.586988	1.000611
421.965867	0.998433
422.344686	1.000199
422.723444	0.999695
423.102141	0.999371
423.480777	0.999978
423.859352	0.998657
424.237866	0.998130
424.616319	0.999811
424.994712	0.999514
425.373044	1.000433
425.751314	0.999829
426.129524	0.999608
426.507673	0.999165
426.885762	1.000129
427.263789	0.999505
427.641756	0.999930
428.019662	1.000403
428.397508	0.999561
428.775292	0.998828
429.153016	0.999735
429.530679	1.000053
429.908282	0.999788
430.285824	0.999245
430.663305	0.999363
431.040726	0.999257
431.418086	0.999650
431.795385	0.999936
432.172624	0.999156
432.549802	0.999744
432.926920	0.999644
433.303977	0.999602
433.680974	1.000561
434.057910	0.999511
434.434786	1.000393
434.811601	0.999139
435.188355	0.999348
435.565050	0.999316
435.941683	0.999869
436.318257	1.000495
436.694770	0.999395
437.071222	0.999910
437.447614	0.999996
437.823946	0.999025
438.200218	0.999952
438.576429	0.999743
438.952580	1.000057
439.328670	0.999484
439.704700	0.999554
440.080670	0.999519
440.456580	0.999200
440.832429	0.999318
441.208218	1.000060
441.583947	0.999611
441.959616	1.000312
442.335224	0.999393
442.710773	1.001271
443.086261	0.999400
443.461689	0.998990
443.837057	0.999476
444.212365	0.999649
444.587612	0.999616
444.962800	0.998918
445.337927	0.999299
445.712995	0.999633
446.088002	1.000427
446.462949	1.000302
446.837837	1.000228
447.212664	1.000278
447.587431	1.000273
447.962139	0.999709
448.336786	0.999402
448.711374	1.000216
449.085901	0.999644
449.460369	1.000788
449.834776	0.999493
450.209124	1.000468
450.583412	0.999419
450.957640	0.999768
451.331808	0.999570
451.705917	0.999382
452.079965	0.999092
452.453954	0.999852
452.827883	0.999783
453.201752	1.000729
453.575562	1.000117
453.949311	1.000291
454.323001	0.999542
454.696632	0.999745
455.070202	0.999284
455.443713	0.999429
455.817164	1.000158
456.190556	1.000369
456.563888	1.000085
456.937160	1.000592
457.310373	0.999675
457.683526	0.999690
458.056619	0.999575
458.429653	1.000212
458.802628	0.999575
459.175542	0.999017
459.548398	1.000177
459.921194	0.999352
460.293930	0.999997
460.666607	0.998749
461.039224	0.998167
461.411782	0.999997
461.784280	0.999413
462.156719	1.000768
462.529099	1.000369
462.901419	1.000761
463.273680	1.000032
463.645882	0.999761
464.018024	1.000015
464.390106	0.999757
464.762130	1.000432
465.134094	0.999904
465.505999	1.000418
465.877845	0.999512
466.249631	1.000345
466.621358	0.999728
466.993026	0.999847
467.364634	1.000226
467.736184	1.000556
468.107674	0.999886
468.479105	0.999917
468.850477	1.000698
469.221790	0.999943
469.593043	1.000793
469.964238	1.000834
470.335373	0.999572
470.706449	1.000672
471.077467	1.000221
471.448425	1.000552
471.819324	1.000761
472.190164	0.999453
472.560945	1.000110
472.931667	0.999472
473.302330	0.999489
473.672934	1.000538
474.043479	1.000389
474.413965	0.999542
474.784393	1.000186
475.154761	0.999782
475.525070	0.999304
475.895321	1.000083
476.265513	0.999984
476.635645	1.000036
477.005719	1.000219
477.375734	0.999444
477.745691	0.999979
478.115588	1.000053
478.485427	1.000115
478.855207	1.000518
479.224928	0.999391
479.594591	0.999980
479.964194	1.000581
480.333739	0.999859
480.703226	1.000210
481.072653	1.000849
481.442022	1.000385
481.811333	0.999470
482.180584	1.000471
482.549777	0.999890
482.918912	1.000578
483.287988	1.000397
483.657005	0.999446
484.025964	1.000363
484.394864	1.000554
484.763706	0.999819
485.132489	1.000271
485.501213	1.000059
485.869879	0.999757
486.238487	0.999995
486.607036	1.000888
486.975527	0.999678
487.343959	0.999976
487.712333	1.000179
488.080648	0.999752
488.448905	1.000133
488.817104	1.000763
489.185244	1.000113
489.553326	0.999838
489.921350	0.999809
490.289315	0.999775
490.657222	1.000288
491.025070	1.000240
491.392861	1.000603
491.760593	0.999901
492.128267	0.999856
492.495883	1.000573
492.863440	1.000267
493.230939	1.000395
493.598380	1.000296
493.965763	0.999741
494.333088	0.999749
494.700354	0.999602
495.067563	0.999543
495.434713	0.999457
495.801805	1.000588
496.168839	1.000463
496.535815	0.998891
496.902733	0.999916
497.269593	0.999920
497.636395	0.999760
498.003139	0.999569
498.369825	1.000393
498.736453	1.000292
499.103023	0.999549
499.469535	0.999140
499.835989	0.999964
500.202385	0.999872
500.568723	0.999564
500.935003	1.000267
501.301226	0.999943
501.667390	0.999996
502.033497	0.999735
502.399546	1.000307
502.765537	0.999531
503.131470	0.998753
503.497345	0.999247
503.863163	1.000051
504.228923	0.999889
504.594625	1.000379
504.960269	1.000105
505.325856	1.000004
505.691385	0.999497
506.056856	0.999607
506.422270	0.999551
506.787625	0.999726
507.152924	0.999367
507.518164	0.999182
507.883347	0.999801
508.248472	0.999095
508.613540	0.999650
508.978550	0.999856
509.343503	0.999151
509.708398	0.999190
510.073236	0.999498
510.438016	1.000028
510.802738	0.999672
511.167403	0.999607
511.532010	0.998954
511.896561	0.999534
512.261053	0.999827
512.625488	0.998818
512.989866	0.999626
513.354186	0.999412
513.718449	0.999235
514.082655	0.999245
514.446803	0.999192
514.810894	0.999302
515.174927	0.999392
515.538904	0.998919
515.902822	0.999160
516.266684	0.999491
516.630488	0.999720
516.994235	0.998684
517.357925	0.998926
517.721558	0.999025
518.085133	0.998491
518.448651	0.999858
518.812112	0.998945
519.175516	0.999329
519.538863	0.999198
519.902152	0.998506
520.265385	0.998652
520.628560	0.998491
520.991678	0.999198
521.354739	0.999168
521.717743	0.999173
522.080690	0.999216
522.443580	0.998321
522.806413	0.998281
523.169189	0.998892
523.531908	0.998145
523.894569	0.999105
524.257174	0.998885
524.619722	0.998873
524.982213	0.998585
525.344647	0.998619
525.707025	0.997907
526.069345	0.997812
526.431608	0.998786
526.793815	0.998323
527.155964	0.998346
527.518057	0.998160
527.880093	0.998276
528.242072	0.998115
528.603995	0.998138
528.965860	0.999188
529.327669	0.998268
529.689421	0.997833
530.051117	0.998632
530.412755	0.997328
530.774337	0.998027
531.135862	0.998418
531.497331	0.998215
531.858743	0.998119
532.220098	0.997702
532.581396	0.998102
532.942638	0.998460
533.303824	0.997928
533.664953	0.997735
534.026025	0.997732
534.387040	0.997196
534.747999	0.997793
535.108902	0.998184
535.469748	0.997893
535.830537	0.997438
536.191270	0.997226
536.551947	0.996890
536.912567	0.996849
537.273131	0.997718
537.633638	0.995989
537.994089	0.996587
538.354483	0.996610
538.714821	0.996790
539.075103	0.996226
539.435328	0.996679
539.795497	0.996607
540.155609	0.995730
540.515665	0.995778
540.875665	0.995643
541.235609	0.995345
541.595496	0.995040
541.955328	0.994225
542.315102	0.994634
542.674821	0.994728
543.034483	0.994179
543.394090	0.994522
543.753640	0.995023
544.113134	0.993928
544.472571	0.993463
544.831953	0.993823
545.191278	0.993334
545.550548	0.994083
545.909761	0.992141
546.268918	0.993262
546.628019	0.992932
546.987064	0.991329
547.346053	0.992335
547.704986	0.991779
548.063863	0.992152
548.422684	0.990641
548.781449	0.991664
549.140158	0.989793
549.498811	0.990917
549.857408	0.990248
550.215949	0.989937
550.574434	0.988747
550.932864	0.988543
551.291237	0.988789
551.649555	0.987677
552.007817	0.987186
552.366022	0.987101
552.724173	0.987291
553.082267	0.986426
553.440305	0.984964
553.798288	0.984561
554.156215	0.984659
554.514086	0.983756
554.871902	0.983434
555.229661	0.982903
555.587365	0.982097
555.945014	0.982445
556.302606	0.981112
556.660143	0.980697
557.017625	0.979710
557.375050	0.978664
557.732421	0.977539
558.089735	0.977185
558.446994	0.977486
558.804197	0.976226
559.161345	0.975724
559.518437	0.975056
559.875474	0.972983
560.232455	0.971911
560.589381	0.972320
560.946251	0.969887
561.303065	0.970065
561.659825	0.968487
562.016528	0.968014
562.373177	0.967738
562.729770	0.966117
563.086307	0.965428
563.442789	0.963585
563.799216	0.962511
564.155587	0.961025
564.511904	0.959467
564.868164	0.958662
565.224370	0.957757
565.580520	0.956666
565.936615	0.955147
566.292654	0.953561
566.648638	0.952961
567.004567	0.950782
567.360441	0.951030
567.716260	0.948456
568.072023	0.947105
568.427732	0.945020
568.783385	0.944709
569.138982	0.942551
569.494525	0.940462
569.850013	0.939423
570.205445	0.937217
570.560823	0.936199
570.916145	0.933489
571.271412	0.931730
571.626625	0.930246
571.981782	0.928988
572.336884	0.926745
572.691931	0.925711
573.046923	0.921920
573.401860	0.921512
573.756743	0.919281
574.111570	0.916917
574.466342	0.915930
574.821059	0.913026
575.175722	0.910801
575.530330	0.908980
575.884882	0.906616
576.239380	0.904776
576.593823	0.903376
576.948211	0.900391
577.302544	0.899640
577.656823	0.896180
578.011047	0.894542
578.365216	0.891809
578.719330	0.890139
579.073389	0.887287
579.427394	0.885852
579.781344	0.883476
580.135239	0.881367
580.489080	0.878116
580.842866	0.876784
581.196597	0.873037
581.550273	0.870665
581.903895	0.867528
582.257463	0.864915
582.610975	0.861598
582.964434	0.860018
583.317837	0.857332
583.671186	0.855124
584.024481	0.851982
584.377721	0.849817
584.730906	0.847792
585.084037	0.843319
585.437113	0.842014
585.790135	0.838364
586.143103	0.835597
586.496016	0.834177
586.848874	0.830211
587.201679	0.827610
587.554428	0.825076
587.907124	0.821393
588.259765	0.819516
588.612352	0.816349
588.964884	0.814542
589.317362	0.811161
589.669786	0.808080
590.022155	0.804957
590.374470	0.801163
590.726731	0.799952
591.078937	0.797333
591.431090	0.792785
591.783188	0.792451
592.135232	0.788543
592.487222	0.786685
592.839157	0.782896
593.191038	0.780939
593.542866	0.778087
593.894639	0.777135
594.246358	0.772743
594.598022	0.769821
594.949633	0.767608
595.301190	0.763911
595.652692	0.761949
596.004141	0.756518
596.355535	0.757438
596.706876	0.753899
597.058162	0.751627
597.409395	0.747539
597.760573	0.743474
598.111698	0.742624
598.462768	0.738465
598.813785	0.736404
599.164748	0.733637
599.515657	0.731082
599.866511	0.727864
600.217312	0.723609
600.568060	0.723244
600.918753	0.718452
601.269392	0.715252
601.619978	0.713741
601.970510	0.709101
602.320988	0.707509
602.671412	0.701979
603.021783	0.701106
603.372100	0.698476
603.722363	0.694232
604.072572	0.692230
604.422728	0.688467
604.772830	0.686216
605.122878	0.682590
605.472872	0.681242
605.822813	0.676305
606.172701	0.675092
606.522534	0.670755
606.872314	0.667788
607.222041	0.664844
607.571714	0.661447
607.921333	0.657998
608.270899	0.655356
608.620411	0.650998
608.969870	0.650248
609.319276	0.646781
609.668627	0.643822
610.017926	0.639406
610.367171	0.635382
610.716362	0.633628
611.065500	0.630943
611.414585	0.626476
611.763616	0.624869
612.112594	0.621028
612.461518	0.617634
612.810389	0.614045
613.159207	0.612374
613.507971	0.610544
613.856682	0.605267
614.205340	0.603798
614.553945	0.598228
614.902496	0.597571
615.250994	0.593781
615.599439	0.591961
615.947830	0.587615
616.296169	0.586768
616.644454	0.583388
616.992686	0.580519
617.340864	0.576317
617.688990	0.576426
618.037063	0.572355
618.385082	0.570886
618.733048	0.565387
619.080961	0.565288
619.428821	0.562252
619.776628	0.558700
620.124382	0.557762
620.472083	0.554322
620.819731	0.551785
621.167326	0.551469
621.514868	0.549207
621.862357	0.549423
622.209793	0.546286
622.557176	0.544491
622.904506	0.542837
623.251783	0.542150
623.599007	0.540733
623.946179	0.538175
624.293297	0.536298
624.640363	0.537076
624.987376	0.534353
625.334336	0.534756
625.681243	0.533038
626.028097	0.531301
626.374899	0.530301
626.721647	0.526383
627.068343	0.527416
627.414987	0.525921
627.761577	0.525106
628.108115	0.521800
628.454600	0.523605
628.801032	0.518484
629.147412	0.519318
629.493739	0.516413
629.840014	0.516987
630.186236	0.513585
630.532405	0.515394
630.878521	0.512105
631.224585	0.511706
631.570597	0.513053
631.916556	0.509246
632.262462	0.507877
632.608316	0.507780
632.954117	0.506634
633.299866	0.505403
633.645562	0.503064
633.991206	0.505115
634.336797	0.505308
634.682336	0.504835
635.027823	0.504262
635.373257	0.502840
635.718639	0.503826
636.063968	0.500787
636.409245	0.503815
636.754470	0.501987
637.099642	0.502876
637.444762	0.503797
637.789829	0.501163
638.134845	0.502581
638.479808	0.501697
638.824719	0.500011
639.169577	0.501666
639.514383	0.498830
639.859137	0.501585
640.203839	0.499822
640.548489	0.498088
640.893086	0.498417
641.237632	0.498681
641.582125	0.495210
641.926566	0.495049
642.270955	0.494335
642.615292	0.493201
642.959576	0.490647
643.303809	0.490402
643.647990	0.488323
643.992118	0.487671
644.336195	0.490068
644.680219	0.486540
645.024192	0.486428
645.368112	0.479556
645.711981	0.477403
646.055797	0.473035
646.399562	0.474074
646.743274	0.466146
647.086935	0.463109
647.430544	0.462572
647.774101	0.460497
648.117606	0.458569
648.461059	0.458118
648.804460	0.458562
649.147810	0.462386
649.491108	0.462398
649.834354	0.462412
650.177548	0.465933
650.520690	0.470094
650.863781	0.469685
651.206820	0.467986
651.549807	0.471654
651.892742	0.473674
652.235626	0.472255
652.578458	0.472020
652.921238	0.477244
653.263967	0.474368
653.606644	0.477234
653.949269	0.475493
654.291843	0.479056
654.634365	0.474821
654.976836	0.476942
655.319255	0.476507
655.661622	0.476979
656.003938	0.476092
656.346203	0.478477
656.688416	0.475603
657.030577	0.478120
657.372687	0.478753
657.714746	0.479073
658.056753	0.475837
658.398708	0.478539
658.740612	0.478717
659.082465	0.474378
659.424266	0.474623
659.766016	0.473420
660.107715	0.475597
660.449362	0.474193
660.790958	0.474207
661.132503	0.473289
661.473996	0.471437
661.815438	0.471559
662.156829	0.470745
662.498168	0.471079
662.839456	0.471713
663.180693	0.469542
663.521879	0.468778
663.863013	0.469144
664.204097	0.466914
664.545129	0.463305
664.886110	0.463355
665.227040	0.460139
665.567918	0.462354
665.908746	0.460215
666.249522	0.459153
666.590248	0.460316
666.930922	0.457793
667.271545	0.456110
667.612118	0.456060
667.952639	0.457429
668.293109	0.455306
668.633528	0.458000
668.973896	0.457174
669.314213	0.456914
669.654480	0.458202
669.994695	0.458187
670.334859	0.458190
670.674973	0.458290
671.015035	0.458360
671.355047	0.457322
671.695008	0.458163
672.034918	0.460058
672.374777	0.459046
672.714585	0.459631
673.054342	0.459296
673.394049	0.459381
673.733705	0.456711
674.073310	0.457725
674.412864	0.460053
674.752368	0.460200
675.091820	0.460061
675.431223	0.463940
675.770574	0.463449
676.109875	0.466053
676.449125	0.466425
676.788324	0.467724
677.127473	0.473018
677.466571	0.472097
677.805619	0.473679
678.144616	0.474229
678.483562	0.476592
678.822458	0.478022
679.161303	0.479092
679.500098	0.479322
679.838842	0.480362
680.177535	0.479982
680.516179	0.478369
680.854771	0.477433
681.193314	0.470959
681.531805	0.462282
681.870247	0.450641
682.208638	0.443242
682.546978	0.442415
682.885268	0.443521
683.223508	0.449445
683.561697	0.453031
683.899836	0.455397
684.237925	0.458800
684.575963	0.461279
684.913951	0.463856
685.251889	0.459954
685.589776	0.461237
685.927614	0.463672
686.265401	0.457659
686.603137	0.459297
686.940824	0.453580
687.278460	0.451898
687.616046	0.450850
687.953582	0.445943
688.291068	0.447207
688.628504	0.442556
688.965889	0.444964
689.303224	0.449262
689.640510	0.452521
689.977745	0.458409
690.314930	0.465511
690.652065	0.469770
690.989150	0.477040
691.326185	0.483651
691.663170	0.487781
692.000105	0.494562
692.336990	0.501361
692.673825	0.503713
693.010610	0.510533
693.347345	0.515680
693.684030	0.516823
694.020665	0.521832
694.357251	0.530308
694.693786	0.529859
695.030272	0.533383
695.366707	0.537438
695.703093	0.540057
696.039429	0.538307
696.375716	0.539393
696.711952	0.542330
697.048139	0.544001
697.384276	0.546424
697.720363	0.544635
698.056400	0.543066
698.392388	0.548897
698.728326	0.552134
699.064214	0.554842
699.400053	0.555278
699.735842	0.558323
700.071581	0.560688
700.407270	0.564354
700.742910	0.566658
701.078501	0.572885
701.414042	0.572987
701.749533	0.576126
702.084974	0.584190
702.420366	0.577076
702.755709	0.584816
703.091002	0.591725
703.426246	0.586202
703.761440	0.591982
704.096584	0.596492
704.431679	0.592739
704.766725	0.595337
705.101721	0.596985
705.436668	0.592748
705.771565	0.599757
706.106413	0.596951
706.441212	0.591536
706.775961	0.590131
707.110661	0.593514
707.445311	0.590007
707.779913	0.587258
708.114465	0.585227
708.448967	0.581932
708.783421	0.574251
709.117825	0.568919
709.452180	0.569255
709.786485	0.562688
710.120742	0.552898
710.454949	0.554792
710.789107	0.547184
711.123216	0.538156
711.457275	0.540076
711.791286	0.530944
712.125247	0.529439
712.459159	0.540415
712.793023	0.533229
713.126837	0.537042
713.460602	0.537631
713.794318	0.547159
714.127985	0.545733
714.461602	0.555337
714.795171	0.558306
715.128691	0.565305
715.462162	0.573886
715.795584	0.579237
716.128957	0.581701
716.462281	0.588144
716.795556	0.592367
717.128782	0.597167
717.461960	0.606272
717.795088	0.604521
718.128167	0.610310
718.461198	0.618962
718.794180	0.620045
719.127113	0.622932
719.459997	0.626386
719.792833	0.632366
720.125619	0.634342
720.458357	0.639386
720.791046	0.638740
721.123686	0.643114
721.456278	0.649536
721.788821	0.646330
722.121315	0.650190
722.453761	0.655437
722.786158	0.652584
723.118506	0.649077
723.450805	0.657145
723.783056	0.653413
724.115259	0.649797
724.447412	0.649922
724.779518	0.651694
725.111574	0.649924
725.443582	0.646204
725.775542	0.647935
726.107453	0.640413
726.439315	0.639706
726.771129	0.638426
727.102895	0.631526
727.434612	0.624781
727.766281	0.623125
728.097901	0.622489
728.429473	0.622148
728.760996	0.620226
729.092471	0.620565
729.423897	0.624613
729.755276	0.623591
730.086606	0.623977
730.417887	0.617968
730.749120	0.608008
731.080305	0.599897
731.411442	0.595930
731.742530	0.600542
732.073570	0.600375
732.404562	0.591931
732.735506	0.593401
733.066401	0.598275
733.397249	0.607381
733.728048	0.618947
734.058798	0.630632
734.389501	0.641611
734.720156	0.651276
735.050762	0.659130
735.381320	0.659688
735.711831	0.669329
736.042293	0.673870
736.372707	0.670266
736.703073	0.675023
737.033391	0.677247
737.363661	0.673676
737.693883	0.669276
738.024056	0.668272
738.354182	0.667948
738.684260	0.657791
739.014290	0.653779
739.344272	0.654380
739.674207	0.647843
740.004093	0.646974
740.333931	0.647862
740.663722	0.648099
740.993464	0.648718
741.323159	0.652526
741.652806	0.657048
741.982405	0.661482
742.311956	0.666767
742.641460	0.668279
742.970915	0.672677
743.300323	0.680238
743.629683	0.686193
743.958996	0.688132
744.288260	0.692651
744.617477	0.698852
744.946647	0.700636
745.275768	0.705278
745.604842	0.705208
745.933869	0.714655
746.262847	0.714759
746.591778	0.708913
746.920662	0.714699
747.249498	0.721371
747.578286	0.712399
747.907027	0.708485
748.235720	0.709910
748.564365	0.705171
748.892963	0.704458
749.221514	0.706978
749.550017	0.712588
749.878473	0.712547
750.206881	0.718312
750.535242	0.720578
750.863555	0.719428
751.191821	0.720661
751.520039	0.723138
751.848210	0.728700
752.176334	0.721104
752.504411	0.720478
752.832440	0.727833
753.160421	0.731661
753.488356	0.730339
753.816243	0.728270
754.144082	0.736300
754.471875	0.739958
754.799620	0.735472
755.127318	0.736178
755.454969	0.736220
755.782572	0.735856
756.110129	0.741074
756.437638	0.743497
756.765100	0.739174
757.092515	0.738411
757.419882	0.737314
757.747203	0.741513
758.074477	0.741279
758.401703	0.738502
758.728882	0.734381
759.056014	0.732435
759.383099	0.731398
759.710138	0.733839
760.037129	0.729336
760.364073	0.723707
760.690970	0.725780
761.017820	0.732017
761.344623	0.727311
761.671379	0.718327
761.998088	0.707101
762.324751	0.684714
762.651366	0.643208
762.977935	0.576914
763.304456	0.525412
763.630931	0.516420
763.957359	0.554797
764.283740	0.598751
764.610074	0.625376
764.936362	0.655978
765.262602	0.682843
765.588796	0.703989
765.914943	0.721605
766.241044	0.739126
766.567097	0.745876
766.893104	0.755553
767.219064	0.761143
767.544978	0.767481
767.870845	0.782161
768.196665	0.784539
768.522438	0.783095
768.848165	0.784730
769.173846	0.793077
769.499479	0.797853
769.825066	0.800717
770.150607	0.806131
770.476101	0.800775
770.801548	0.803011
771.126949	0.813817
771.452303	0.817230
771.777611	0.816631
772.102872	0.815153
772.428087	0.822053
772.753256	0.823276
773.078378	0.825251
773.403453	0.836389
773.728482	0.839225
774.053465	0.832806
774.378401	0.835740
774.703291	0.844620
775.028135	0.845045
775.352932	0.846478
775.677683	0.849083
776.002388	0.849896
776.327046	0.848557
776.651658	0.852020
776.976224	0.855971
777.300743	0.855704
777.625216	0.858288
777.949643	0.859881
778.274024	0.859896
778.598359	0.861330
778.922647	0.859963
779.246889	0.860744
779.571086	0.863674
779.895236	0.866805
780.219339	0.863433
780.543397	0.860781
780.867409	0.859066
781.191374	0.861953
781.515294	0.862483
781.839167	0.861805
782.162995	0.865762
782.486776	0.862349
782.810511	0.863505
783.134201	0.866780
783.457844	0.864585
783.781441	0.866650
784.104993	0.874282
784.428498	0.873325
784.751958	0.868760
785.075372	0.871420
785.398739	0.875637
785.722061	0.871619
786.045337	0.866744
786.368568	0.872892
786.691752	0.874802
787.014891	0.860967
787.337983	0.851091
787.661030	0.844675
787.984031	0.828380
788.306987	0.814167
788.629897	0.816773
788.952760	0.820625
789.275579	0.824643
789.598351	0.839612
789.921078	0.852361
790.243759	0.855401
790.566395	0.860024
790.888984	0.866572
791.211529	0.871666
791.534027	0.873597
791.856480	0.877608
792.178888	0.882029
792.501249	0.884813
792.823566	0.885152
793.145836	0.885841
793.468062	0.887776
793.790241	0.888123
794.112375	0.886389
794.434464	0.880373
794.756507	0.880568
795.078505	0.880094
795.400457	0.875387
795.722364	0.863678
796.044226	0.856642
796.366042	0.855882
796.687812	0.859546
797.009538	0.854129
797.331218	0.857138
797.652852	0.861845
797.974442	0.867814
798.295986	0.867403
798.617484	0.870075
798.938938	0.874641
799.260346	0.879186
799.581709	0.880856
799.903026	0.882863
800.224299	0.883471
800.545526	0.886661
800.866708	0.891483
801.187845	0.896552
801.508936	0.894562
801.829983	0.893277
802.150984	0.896054
802.471940	0.900255
802.792851	0.899573
803.113717	0.900761
803.434538	0.899334
803.755314	0.900960
804.076045	0.902471
804.396731	0.902445
804.717372	0.901864
805.037967	0.904386
805.358518	0.902851
805.679024	0.898743
805.999485	0.899964
806.319901	0.899418
806.640272	0.900681
806.960598	0.898626
807.280879	0.895404
807.601115	0.895099
807.921306	0.898553
808.241453	0.898407
808.561554	0.896591
808.881611	0.897138
809.201623	0.899945
809.521590	0.898563
809.841513	0.900482
810.161390	0.899310
810.481223	0.900591
810.801011	0.905059
811.120755	0.905011
811.440453	0.905064
811.760107	0.903298
812.079716	0.902864
812.399281	0.906396
812.718801	0.909554
813.038276	0.909392
813.357707	0.909180
813.677093	0.906784
813.996434	0.910450
814.315731	0.911210
814.634983	0.912198
814.954191	0.910566
815.273354	0.908471
815.592473	0.903798
815.911547	0.904760
816.230577	0.901183
816.549562	0.898569
816.868502	0.899476
817.187399	0.896985
817.506250	0.890897
817.825058	0.893085
818.143821	0.889947
818.462539	0.884814
818.781213	0.877227
819.099843	0.865676
819.418429	0.850218
819.736970	0.834140
820.055466	0.814965
820.373919	0.789705
820.692327	0.758047
821.010691	0.723648
821.329011	0.648277
821.647286	0.534831
821.965517	0.423125
822.283704	0.380995
822.601847	0.383051
822.919945	0.418504
823.237999	0.450827
823.556010	0.496476
823.873976	0.552264
824.191897	0.601404
824.509775	0.642715
824.827609	0.686921
825.145398	0.709520
825.463144	0.712095
825.780845	0.694974
826.098502	0.676710
826.416116	0.632624
826.733685	0.589422
827.051210	0.580813
827.368692	0.595461
827.686129	0.632103
828.003522	0.684279
828.320872	0.729261
828.638177	0.773868
828.955439	0.805278
829.272656	0.826388
829.589830	0.843636
829.906960	0.858199
830.224046	0.870021
830.541088	0.881182
830.858086	0.885468
831.175041	0.892013
831.491952	0.891178
831.808819	0.887299
832.125642	0.880573
832.442421	0.866535
832.759157	0.844978
833.075849	0.799785
833.392497	0.737697
833.709101	0.697673
834.025662	0.706857
834.342179	0.737526
834.658653	0.776178
834.975083	0.811373
835.291469	0.837763
835.607811	0.858505
835.924110	0.874143
836.240366	0.891076
836.556578	0.905529
836.872746	0.911844
837.188871	0.917742
837.504952	0.922096
837.820990	0.926716
838.136984	0.929948
838.452935	0.933125
838.768842	0.932936
839.084706	0.927790
839.400526	0.902364
839.716303	0.862618
840.032037	0.840612
840.347727	0.845818
840.663373	0.862018
840.978977	0.883922
841.294537	0.906034
841.610054	0.921026
841.925527	0.929128
842.240957	0.934966
842.556344	0.941629
842.871687	0.948105
843.186987	0.952955
843.502244	0.952793
843.817458	0.955170
844.132629	0.957438
844.447756	0.962950
844.762840	0.962814
845.077881	0.961313
845.392879	0.962240
845.707833	0.965213
846.022745	0.965910
846.337613	0.967016
846.652438	0.968210
846.967221	0.967381
847.281960	0.966136
847.596656	0.969194
847.911309	0.966961
848.225919	0.969936
848.540485	0.970706
848.855009	0.970860
849.169490	0.970058
849.483928	0.972016
849.798323	0.971106
850.112675	0.972280
850.426984	0.971463
850.741251	0.972116
851.055474	0.971979
851.369654	0.970532
851.683792	0.971364
851.997887	0.972565
852.311938	0.971044
852.625947	0.971512
852.939914	0.969790
853.253837	0.972237
853.567718	0.972598
853.881555	0.971979
854.195350	0.969590
854.509103	0.970216
854.822812	0.971437
855.136479	0.972614
855.450103	0.970910
855.763685	0.969985
856.077224	0.971166
856.390720	0.972339
856.704173	0.972071
857.017584	0.971115
857.330953	0.968187
857.644278	0.970382
857.957561	0.969082
858.270802	0.970227
858.584000	0.968678
858.897155	0.968681
859.210268	0.969021
859.523339	0.969975
859.836367	0.971756
860.149352	0.971690
860.462295	0.970136
860.775195	0.972014
861.088054	0.971385
861.400869	0.970947
861.713642	0.971188
862.026373	0.972235
862.339062	0.972562
862.651708	0.969518
862.964312	0.969760
863.276873	0.971493
863.589392	0.969920
863.901869	0.969263
864.214303	0.967213
864.526696	0.965165
864.839045	0.966356
865.151353	0.963239
865.463619	0.964033
865.775842	0.964840
866.088023	0.963763
866.400162	0.965030
866.712258	0.965460
867.024313	0.965515
867.336325	0.966366
867.648296	0.966039
867.960224	0.965525
868.272110	0.963810
868.583954	0.966580
868.895755	0.965600
869.207515	0.964327
869.519233	0.961744
869.830909	0.963150
870.142542	0.964355
870.454134	0.965006
870.765684	0.963146
871.077191	0.959919
871.388657	0.961800
871.700081	0.958953
872.011463	0.961205
872.322803	0.961210
872.634101	0.959542
872.945357	0.957132
873.256571	0.956079
873.567744	0.956395
873.878874	0.955983
874.189963	0.955581
874.501010	0.954798
874.812015	0.951697
875.122979	0.954884
875.433900	0.955564
875.744780	0.957668
876.055618	0.953959
876.366415	0.952616
876.677169	0.952805
876.987882	0.955162
877.298554	0.954315
877.609183	0.950497
877.919771	0.948444
878.230317	0.946913
878.540822	0.943513
878.851285	0.939352
879.161707	0.930747
879.472087	0.920122
879.782425	0.904439
880.092722	0.872175
880.402977	0.821612
880.713191	0.763092
881.023363	0.707138
881.333494	0.674935
881.643583	0.647015
881.953631	0.646591
882.263637	0.675070
882.573602	0.713786
882.883526	0.737560
883.193408	0.760451
883.503248	0.781731
883.813048	0.808639
884.122806	0.836499
884.432522	0.858430
884.742197	0.878096
885.051831	0.888237
885.361424	0.896932
885.670975	0.908716
885.980485	0.918671
886.289954	0.923689
886.599382	0.928791
886.908768	0.933368
887.218113	0.938711
887.527417	0.942165
887.836680	0.945788
888.145901	0.946969
888.455082	0.950120
888.764221	0.952733
889.073319	0.956105
889.382376	0.955837
889.691392	0.956277
890.000366	0.956122
890.309300	0.956739
890.618193	0.956032
890.927044	0.955017
891.235855	0.955439
891.544625	0.954666
891.853353	0.955587
892.162041	0.952886
892.470687	0.946421
892.779293	0.941503
893.087858	0.938884
893.396381	0.930541
893.704864	0.919113
894.013306	0.895019
894.321707	0.869091
894.630068	0.856758
894.938387	0.852276
895.246665	0.852743
895.554903	0.865217
895.863100	0.876918
896.171256	0.893827
896.479371	0.911289
896.787446	0.924195
897.095480	0.930087
897.403473	0.933746
897.711425	0.936563
898.019336	0.945581
898.327207	0.946888
898.635038	0.949797
898.942827	0.948660
899.250576	0.951300
899.558284	0.956788
899.865952	0.957186
900.173579	0.958690
900.481165	0.958876
900.788711	0.962994
901.096216	0.963511
901.403681	0.964424
901.711105	0.965862
902.018489	0.967792
902.325832	0.965375
902.633135	0.964745
902.940397	0.958546
903.247619	0.948184
903.554800	0.923562
903.861941	0.886092
904.169041	0.853610
904.476101	0.836888
904.783121	0.838253
905.090100	0.853565
905.397039	0.873096
905.703938	0.893367
906.010796	0.912420
906.317614	0.928837
906.624391	0.938717
906.931129	0.948219
907.237826	0.955323
907.544483	0.963476
907.851099	0.965060
908.157675	0.970768
908.464211	0.972459
908.770707	0.974668
909.077163	0.976613
909.383578	0.976959
909.689954	0.976902
909.996289	0.978215
910.302584	0.980376
910.608839	0.981864
910.915054	0.981422
911.221229	0.979991
911.527363	0.979619
911.833458	0.980159
912.139513	0.979916
912.445527	0.978222
912.751502	0.975740
913.057436	0.974622
913.363331	0.973299
913.669186	0.968824
913.975000	0.965177
914.280775	0.958369
914.586510	0.953439
914.892205	0.940823
915.197859	0.921183
915.503475	0.895014
915.809050	0.877943
916.114585	0.872307
916.420081	0.870515
916.725536	0.866282
917.030952	0.874069
917.336328	0.885539
917.641665	0.899639
917.946961	0.914932
918.252218	0.925151
918.557435	0.933348
918.862612	0.941145
919.167750	0.947494
919.472848	0.951415
919.777906	0.956225
920.082925	0.962523
920.387904	0.965925
920.692843	0.966271
920.997743	0.966768
921.302603	0.970399
921.607423	0.971993
921.912204	0.975634
922.216946	0.974196
922.521647	0.975752
922.826310	0.977816
923.130932	0.979522
923.435516	0.979934
923.740059	0.981896
924.044564	0.979841
924.349028	0.982553
924.653454	0.984688
924.957840	0.986807
925.262186	0.986166
925.566493	0.985660
925.870761	0.986329
926.174989	0.988017
926.479178	0.989287
926.783328	0.989588
927.087438	0.989007
927.391509	0.989775
927.695541	0.991806
927.999533	0.990585
928.303486	0.991451
928.607400	0.992761
928.911275	0.990883
929.215110	0.992194
929.518906	0.993066
929.822663	0.991637
930.126381	0.991837
930.430060	0.991576
930.733699	0.990929
931.037299	0.990546
931.340861	0.992148
931.644383	0.992573
931.947866	0.991539
932.251309	0.992198
932.554714	0.991950
932.858080	0.991205
933.161407	0.992158
933.464694	0.992141
933.767943	0.990754
934.071153	0.991982
934.374323	0.992933
934.677455	0.992978
934.980548	0.991932
935.283602	0.992482
935.586617	0.992940
935.889593	0.992917
936.192530	0.992747
936.495428	0.992686
936.798287	0.992091
937.101108	0.991816
937.403890	0.991723
937.706632	0.990532
938.009336	0.989006
938.312002	0.987523
938.614628	0.985572
938.917216	0.985081
939.219765	0.983525
939.522275	0.985819
939.824747	0.985116
940.127179	0.985652
940.429573	0.986775
940.731929	0.985244
941.034246	0.986199
941.336524	0.987516
941.638763	0.988653
941.940964	0.988287
942.243126	0.987938
942.545250	0.989895
942.847335	0.990007
943.149381	0.989922
943.451389	0.989979
943.753359	0.989821
944.055290	0.992424
944.357182	0.992080
944.659036	0.989796
944.960851	0.990228
945.262628	0.990907
945.564367	0.991897
945.866067	0.991863
946.167729	0.991794
946.469352	0.990404
946.770937	0.991218
947.072484	0.992566
947.373992	0.991202
947.675462	0.991862
947.976893	0.991319
948.278286	0.991976
948.579641	0.993288
948.880958	0.992450
949.182236	0.991353
949.483476	0.992433
949.784678	0.991162
950.085841	0.992033
950.386967	0.992417
950.688054	0.992685
950.989103	0.992619
951.290114	0.990300
951.591087	0.990491
951.892021	0.991624
952.192917	0.989829
952.493776	0.989714
952.794596	0.990145
953.095378	0.988401
953.396122	0.990363
953.696828	0.988468
953.997496	0.992523
954.298126	0.993841
954.598718	0.992415
954.899272	0.992322
955.199788	0.990837
955.500266	0.992796
955.800706	0.994711
956.101108	0.995835
956.401472	0.994747
956.701798	0.995402
957.002087	0.994000
957.302337	0.995278
957.602550	0.995607
957.902724	0.994580
958.202861	0.995678
958.502960	0.996029
958.803022	0.994339
959.103045	0.996812
959.403031	0.996771
959.702979	0.996380
960.002889	0.997683
960.302762	0.995666
960.602596	0.997478
960.902393	0.996005
961.202153	0.997865
961.501875	0.997896
961.801559	0.995723
962.101205	0.995786
962.400814	0.997230
962.700385	0.996780
962.999918	0.996525
963.299414	0.996616
963.598873	0.996030
963.898293	0.997022
964.197677	0.996440
964.497022	0.997225
964.796331	0.999138
965.095601	0.997879
965.394835	0.996904
965.694030	0.996970
965.993189	0.997633
966.292309	0.997120
966.591393	0.998128
966.890439	0.998189
967.189447	0.997207
967.488419	0.998113
967.787353	0.997006
968.086249	0.996181
968.385108	0.997436
968.683930	0.998032
968.982714	0.997474
969.281462	0.997093
969.580172	0.997373
969.878844	0.997678
970.177480	0.997554
970.476078	0.997932
970.774639	0.998143
971.073162	0.997820
971.371649	0.996885
971.670098	0.997044
971.968510	0.997706
972.266885	0.996282
972.565223	0.996894
972.863524	0.996517
973.161788	0.996831
973.460014	0.998490
973.758204	0.996218
974.056356	0.996880
974.354471	0.995112
974.652550	0.997106
974.950591	0.996632
975.248595	0.995518
975.546563	0.997980
975.844493	0.998410
976.142386	0.997147
976.440243	0.997983
976.738062	0.997611
977.035845	0.998632
977.333590	0.997717
977.631299	0.998605
977.928971	0.997609
978.226606	0.997401
978.524204	0.995247
978.821765	0.997956
979.119290	0.996606
979.416777	0.997125
979.714228	0.997896
980.011642	0.996719
980.309020	0.998360
980.606360	0.996228
980.903664	0.999210
981.200931	0.996077
981.498162	0.996636
981.795356	0.996160
982.092513	0.994688
982.389633	0.994761
982.686717	0.993173
982.983764	0.992907
983.280775	0.991371
983.577749	0.991536
983.874686	0.992523
984.171587	0.993765
984.468451	0.994647
984.765279	0.996266
985.062070	0.995341
985.358824	0.996563
985.655543	0.994549
985.952224	0.996498
986.248869	0.998268
986.545478	0.997779
986.842050	0.999192
987.138586	0.996039
987.435086	0.998677
987.731549	0.998430
988.027975	0.998326
988.324366	0.998483
988.620719	0.998186
988.917037	0.996535
989.213318	0.998702
989.509563	0.998736
989.805772	0.997812
990.101944	0.997523
990.398080	0.997672
990.694180	0.998034
990.990244	0.997167
991.286271	0.997902
991.582262	0.999355
991.878217	0.998362
992.174136	0.999011
992.470019	0.999108
992.765865	0.998192
993.061676	0.998867
993.357450	0.997345
993.653188	0.995934
993.948890	0.997275
994.244556	0.998925
994.540186	0.997432
994.835780	0.996526
995.131337	0.996876
995.426859	0.996918
995.722345	0.999032
996.017795	0.995789
996.313208	0.997017
996.608586	0.996676
996.903928	0.997835
997.199234	0.996848
997.494504	0.997129
997.789738	0.996313
998.084936	0.995514
998.380099	0.999205
998.675225	0.997419
998.970316	0.998344
999.265371	0.999079
999.560390	0.997247
999.855373	0.998247
1000.150320	0.997899
1000.445232	0.998756
1000.740108	0.999236
1001.034948	0.999128
1001.329752	0.998675
1001.624521	0.998229
1001.919254	0.998637
1002.213951	0.997705
1002.508613	0.998207
1002.803239	0.999546
1003.097829	0.998968
1003.392384	0.999285
1003.686903	0.998457
1003.981386	0.999766
1004.275834	0.998810
1004.570246	0.998164
1004.864623	0.999273
1005.158964	0.999193
1005.453270	0.998848
1005.747540	0.996903
1006.041775	0.998875
1006.335974	1.000336
1006.630138	0.999183
1006.924266	1.001053
1007.218359	1.000921
1007.512416	0.998427
1007.806438	0.999466
1008.100425	0.999401
1008.394376	0.997972
1008.688292	0.998714
1008.982172	0.999946
1009.276017	0.999510
1009.569827	0.999394
1009.863602	0.998383
1010.157341	1.000004
1010.451045	0.999197
1010.744714	0.997680
1011.038347	0.999043
1011.331945	0.999404
1011.625508	0.997950
1011.919036	1.000075
1012.212528	0.997785
1012.505986	0.998109
1012.799408	0.998737
1013.092795	0.998725
1013.386147	0.998699
1013.679464	0.999286
1013.972745	0.998110
1014.265992	0.996476
1014.559204	0.999009
1014.852380	0.999501
1015.145521	0.999140
1015.438628	0.999189
1015.731699	0.999842
1016.024736	0.999614
1016.317737	0.998388
1016.610703	0.998460
1016.903635	0.999356
1017.196531	0.998363
1017.489393	0.999063
1017.782219	0.999074
1018.075011	0.998792
1018.367768	0.998617
1018.660490	0.998446
1018.953177	0.998446
1019.245829	0.998446
