Dividing Wavelength (nm)	Counts (n)	Blue Motor Position (mm): 0.000000	Red Motor Position (mm): 33.800000	
326.493990	1.000222
326.888308	1.000222
327.282561	1.000222
327.676750	0.999099
328.070874	0.999263
328.464933	1.000234
328.858929	0.998201
329.252859	0.999577
329.646726	1.000251
330.040528	0.999736
330.434265	0.999690
330.827938	1.000928
331.221547	1.000534
331.615091	1.000047
332.008571	1.000027
332.401986	1.000098
332.795338	1.000308
333.188625	0.998524
333.581847	1.000231
333.975006	1.000125
334.368100	0.999341
334.761129	0.998543
335.154095	1.000433
335.546996	0.997933
335.939833	0.994758
336.332606	0.996501
336.725315	0.997080
337.117960	0.996541
337.510540	0.995202
337.903056	0.997810
338.295508	0.995371
338.687896	0.996805
339.080220	0.995762
339.472480	0.996111
339.864676	0.995944
340.256807	0.996019
340.648875	0.996918
341.040879	0.996919
341.432818	0.996947
341.824694	0.995882
342.216506	0.996332
342.608253	0.996274
342.999937	0.996020
343.391557	0.995807
343.783113	0.996257
344.174605	0.996178
344.566033	0.996666
344.957397	0.995323
345.348697	0.994776
345.739934	0.997114
346.131106	0.995814
346.522215	0.996173
346.913260	0.995735
347.304241	0.997309
347.695159	0.995920
348.086012	0.995809
348.476802	0.996171
348.867528	0.996484
349.258191	0.995338
349.648789	0.996340
350.039324	0.996859
350.429796	0.996787
350.820203	0.996391
351.210548	0.995606
351.600828	0.996341
351.991045	0.996319
352.381198	0.994745
352.771288	0.995818
353.161314	0.995123
353.551276	0.997877
353.941175	0.995030
354.331010	0.996046
354.720782	0.997029
355.110490	0.996862
355.500135	0.998048
355.889717	0.996163
356.279235	0.996409
356.668689	0.996292
357.058080	0.995798
357.447408	0.996479
357.836672	0.996646
358.225873	0.997361
358.615010	0.996144
359.004084	0.998313
359.393095	0.997237
359.782043	0.996747
360.170927	0.996965
360.559748	0.996368
360.948505	0.995477
361.337199	0.996352
361.725830	0.995865
362.114398	0.995587
362.502903	0.995264
362.891344	0.997649
363.279722	0.995611
363.668037	0.997267
364.056289	0.996207
364.444478	0.998155
364.832603	0.996785
365.220665	0.995829
365.608665	0.995650
365.996601	0.996976
366.384474	0.995516
366.772284	0.995603
367.160031	0.996012
367.547715	0.995441
367.935336	0.996281
368.322893	0.994800
368.710388	0.995733
369.097820	0.995919
369.485189	0.996289
369.872495	0.994488
370.259738	0.993753
370.646918	0.996679
371.034035	0.995699
371.421090	0.997180
371.808081	0.996017
372.195010	0.997624
372.581875	0.997082
372.968678	0.996409
373.355418	0.996482
373.742096	0.995741
374.128710	0.997312
374.515262	0.995765
374.901751	0.996843
375.288177	0.996664
375.674540	0.997276
376.060841	0.996142
376.447079	0.996780
376.833254	0.997183
377.219367	0.996351
377.605417	0.996816
377.991404	0.996674
378.377329	0.996255
378.763191	0.996746
379.148991	0.998015
379.534727	0.997720
379.920402	0.996894
380.306013	0.996976
380.691563	0.997697
381.077049	0.996816
381.462474	0.997213
381.847835	0.997478
382.233134	0.998107
382.618371	0.997622
383.003545	0.997562
383.388657	0.997848
383.773706	0.997910
384.158693	0.996892
384.543618	0.998184
384.928480	0.997787
385.313280	0.998124
385.698017	0.998406
386.082692	0.998698
386.467305	0.998123
386.851856	0.997787
387.236344	0.998240
387.620770	0.996781
388.005133	0.996979
388.389435	0.998280
388.773674	0.997894
389.157851	0.997757
389.541965	0.998222
389.926018	0.997800
390.310008	0.999733
390.693936	0.997676
391.077802	0.998672
391.461606	0.998453
391.845348	0.998844
392.229027	0.999050
392.612645	0.997943
392.996200	0.998822
393.379694	0.999008
393.763125	0.998927
394.146494	0.998838
394.529801	0.998021
394.913047	0.998764
395.296230	0.999434
395.679351	0.998534
396.062410	0.998140
396.445408	0.997450
396.828343	0.998287
397.211217	0.997876
397.594028	0.999794
397.976778	0.998389
398.359466	0.998697
398.742092	0.998560
399.124656	0.998083
399.507158	0.998466
399.889598	0.998292
400.271977	0.998724
400.654294	0.997988
401.036549	0.999293
401.418742	0.998404
401.800874	0.998092
402.182944	0.998550
402.564952	0.998037
402.946898	0.999338
403.328783	0.998515
403.710606	0.998614
404.092367	0.998796
404.474067	0.998753
404.855705	0.998948
405.237282	0.998588
405.618797	0.998688
406.000250	0.998122
406.381642	1.000255
406.762972	0.999490
407.144240	0.999829
407.525447	0.998658
407.906593	0.999352
408.287677	0.998911
408.668700	0.999858
409.049661	0.997462
409.430560	0.999172
409.811399	0.999044
410.192176	0.998346
410.572891	0.998756
410.953545	0.998564
411.334138	0.997199
411.714669	0.999133
412.095139	0.998253
412.475547	0.999964
412.855894	0.998229
413.236180	0.999139
413.616405	0.998961
413.996568	1.000112
414.376670	0.999685
414.756711	0.999286
415.136691	1.000448
415.516609	0.999811
415.896466	0.999920
416.276262	0.998448
416.655997	0.999753
417.035670	0.998266
417.415283	0.999713
417.794834	0.999305
418.174324	0.999075
418.553753	0.998809
418.933121	0.998856
419.312428	0.998685
419.691674	0.998965
420.070859	1.000190
420.449983	0.999145
420.829045	0.999581
421.208047	0.999936
421.586988	1.000312
421.965867	0.999739
422.344686	0.999727
422.723444	0.999470
423.102141	0.998791
423.480777	1.000351
423.859352	0.998850
424.237866	0.998805
424.616319	0.999206
424.994712	0.999879
425.373044	0.999798
425.751314	0.999618
426.129524	0.999016
426.507673	1.000093
426.885762	1.000295
427.263789	1.000235
427.641756	0.999262
428.019662	1.000810
428.397508	0.999240
428.775292	0.999102
429.153016	0.999570
429.530679	0.999600
429.908282	0.999539
430.285824	0.999433
430.663305	0.999051
431.040726	0.998976
431.418086	1.000782
431.795385	0.999741
432.172624	0.999049
432.549802	0.999362
432.926920	0.999419
433.303977	0.999074
433.680974	0.999461
434.057910	0.999496
434.434786	1.000038
434.811601	0.999289
435.188355	0.999362
435.565050	0.998391
435.941683	1.000065
436.318257	1.000950
436.694770	0.998932
437.071222	1.000412
437.447614	1.000454
437.823946	0.999809
438.200218	0.999881
438.576429	0.999261
438.952580	1.000467
439.328670	0.999343
439.704700	0.999893
440.080670	0.999064
440.456580	0.999691
440.832429	0.999230
441.208218	0.999445
441.583947	0.999727
441.959616	1.000019
442.335224	0.998820
442.710773	0.999765
443.086261	0.999080
443.461689	0.998927
443.837057	0.998968
444.212365	1.000105
444.587612	0.999297
444.962800	0.999166
445.337927	0.999558
445.712995	0.999275
446.088002	0.999843
446.462949	0.999501
446.837837	0.999407
447.212664	0.999783
447.587431	1.000021
447.962139	0.999615
448.336786	1.000341
448.711374	1.000370
449.085901	0.999707
449.460369	0.999971
449.834776	0.999686
450.209124	0.999923
450.583412	0.999691
450.957640	0.999747
451.331808	0.999818
451.705917	0.999456
452.079965	0.999121
452.453954	0.999938
452.827883	0.999933
453.201752	0.999345
453.575562	1.000489
453.949311	0.999764
454.323001	0.999320
454.696632	0.999586
455.070202	0.999496
455.443713	0.998975
455.817164	0.999852
456.190556	0.999833
456.563888	0.999815
456.937160	0.999131
457.310373	0.999739
457.683526	0.999636
458.056619	0.999161
458.429653	1.000205
458.802628	0.998919
459.175542	0.999883
459.548398	0.999861
459.921194	0.999610
460.293930	0.999806
460.666607	0.998731
461.039224	0.998578
461.411782	1.000318
461.784280	0.998872
462.156719	1.000495
462.529099	1.000683
462.901419	0.999986
463.273680	0.999739
463.645882	1.000359
464.018024	1.000077
464.390106	0.999850
464.762130	1.000986
465.134094	0.999564
465.505999	1.000572
465.877845	1.000614
466.249631	1.000241
466.621358	1.000333
466.993026	1.000202
467.364634	0.999766
467.736184	1.000125
468.107674	1.000101
468.479105	0.999731
468.850477	1.000622
469.221790	0.999714
469.593043	0.999920
469.964238	1.000510
470.335373	0.999683
470.706449	0.999996
471.077467	0.999934
471.448425	1.000444
471.819324	1.000659
472.190164	0.999914
472.560945	1.000481
472.931667	0.999965
473.302330	0.999317
473.672934	1.000043
474.043479	0.999747
474.413965	0.999706
474.784393	1.000211
475.154761	0.999874
475.525070	0.999236
475.895321	1.000172
476.265513	0.999883
476.635645	1.000039
477.005719	1.000467
477.375734	0.999379
477.745691	1.000414
478.115588	1.000022
478.485427	0.999857
478.855207	0.999969
479.224928	1.000346
479.594591	0.999536
479.964194	1.000605
480.333739	0.999818
480.703226	0.999417
481.072653	1.000559
481.442022	1.000735
481.811333	0.999543
482.180584	1.000205
482.549777	0.999309
482.918912	0.999962
483.287988	1.000564
483.657005	0.999654
484.025964	1.000144
484.394864	0.999982
484.763706	1.000276
485.132489	0.999731
485.501213	0.999335
485.869879	0.999829
486.238487	0.999234
486.607036	0.999938
486.975527	0.999255
487.343959	0.998908
487.712333	0.998852
488.080648	0.998891
488.448905	0.999548
488.817104	0.999509
489.185244	0.999030
489.553326	0.999251
489.921350	0.997895
490.289315	0.998503
490.657222	0.998813
491.025070	0.997916
491.392861	0.998262
491.760593	0.997946
492.128267	0.997533
492.495883	0.996898
492.863440	0.997371
493.230939	0.997183
493.598380	0.996773
493.965763	0.996379
494.333088	0.996308
494.700354	0.995312
495.067563	0.995154
495.434713	0.994498
495.801805	0.995110
496.168839	0.993595
496.535815	0.992918
496.902733	0.992825
497.269593	0.992150
497.636395	0.991681
498.003139	0.990972
498.369825	0.991109
498.736453	0.989738
499.103023	0.988753
499.469535	0.987752
499.835989	0.987792
500.202385	0.987397
500.568723	0.986158
500.935003	0.985286
501.301226	0.984002
501.667390	0.983450
502.033497	0.982595
502.399546	0.981556
502.765537	0.980257
503.131470	0.979213
503.497345	0.977734
503.863163	0.978215
504.228923	0.975828
504.594625	0.974613
504.960269	0.973202
505.325856	0.971939
505.691385	0.969934
506.056856	0.968970
506.422270	0.966782
506.787625	0.966376
507.152924	0.963359
507.518164	0.961444
507.883347	0.960556
508.248472	0.958425
508.613540	0.956445
508.978550	0.954126
509.343503	0.951546
509.708398	0.949841
510.073236	0.947664
510.438016	0.946096
510.802738	0.943361
511.167403	0.940784
511.532010	0.938069
511.896561	0.935380
512.261053	0.933763
512.625488	0.930210
512.989866	0.927765
513.354186	0.924719
513.718449	0.921721
514.082655	0.919841
514.446803	0.916294
514.810894	0.913047
515.174927	0.909871
515.538904	0.906568
515.902822	0.903143
516.266684	0.900143
516.630488	0.896789
516.994235	0.892532
517.357925	0.888508
517.721558	0.885159
518.085133	0.880623
518.448651	0.878351
518.812112	0.874110
519.175516	0.869574
519.538863	0.865796
519.902152	0.862597
520.265385	0.856706
520.628560	0.854106
520.991678	0.848663
521.354739	0.845290
521.717743	0.841031
522.080690	0.836990
522.443580	0.830691
522.806413	0.826864
523.169189	0.822149
523.531908	0.817069
523.894569	0.813547
524.257174	0.809088
524.619722	0.802736
524.982213	0.799363
525.344647	0.792983
525.707025	0.789060
526.069345	0.782825
526.431608	0.778186
526.793815	0.772884
527.155964	0.769058
527.518057	0.764504
527.880093	0.759101
528.242072	0.753898
528.603995	0.747694
528.965860	0.744188
529.327669	0.737653
529.689421	0.733279
530.051117	0.728442
530.412755	0.720798
530.774337	0.717535
531.135862	0.710581
531.497331	0.706949
531.858743	0.701443
532.220098	0.695714
532.581396	0.690690
532.942638	0.686251
533.303824	0.680492
533.664953	0.674470
534.026025	0.669984
534.387040	0.663478
534.747999	0.658844
535.108902	0.652542
535.469748	0.649444
535.830537	0.643354
536.191270	0.638276
536.551947	0.632233
536.912567	0.627180
537.273131	0.624203
537.633638	0.617566
537.994089	0.612652
538.354483	0.608707
538.714821	0.601476
539.075103	0.596241
539.435328	0.590601
539.795497	0.588701
540.155609	0.580027
540.515665	0.574224
540.875665	0.572177
541.235609	0.566056
541.595496	0.561384
541.955328	0.552914
542.315102	0.550720
542.674821	0.546270
543.034483	0.540807
543.394090	0.535729
543.753640	0.532233
544.113134	0.523569
544.472571	0.521000
544.831953	0.513944
545.191278	0.511769
545.550548	0.506741
545.909761	0.499602
546.268918	0.495471
546.628019	0.490043
546.987064	0.486533
547.346053	0.484567
547.704986	0.477385
548.063863	0.473310
548.422684	0.469641
548.781449	0.465983
549.140158	0.459775
549.498811	0.457158
549.857408	0.456300
550.215949	0.447088
550.574434	0.445679
550.932864	0.439086
551.291237	0.435548
551.649555	0.431294
552.007817	0.427602
552.366022	0.424571
552.724173	0.421159
553.082267	0.417403
553.440305	0.410195
553.798288	0.411274
554.156215	0.403833
554.514086	0.400852
554.871902	0.400067
555.229661	0.395941
555.587365	0.392975
555.945014	0.392331
556.302606	0.385466
556.660143	0.384887
557.017625	0.377818
557.375050	0.377012
557.732421	0.370878
558.089735	0.369528
558.446994	0.366836
558.804197	0.362920
559.161345	0.359642
559.518437	0.360061
559.875474	0.354776
560.232455	0.351562
560.589381	0.350274
560.946251	0.346182
561.303065	0.342721
561.659825	0.340767
562.016528	0.339575
562.373177	0.339973
562.729770	0.334154
563.086307	0.334472
563.442789	0.330272
563.799216	0.329489
564.155587	0.326448
564.511904	0.325089
564.868164	0.323291
565.224370	0.321028
565.580520	0.320035
565.936615	0.318620
566.292654	0.318855
566.648638	0.314522
567.004567	0.313312
567.360441	0.311759
567.716260	0.311979
568.072023	0.308240
568.427732	0.307217
568.783385	0.308100
569.138982	0.304078
569.494525	0.302241
569.850013	0.303758
570.205445	0.300273
570.560823	0.301896
570.916145	0.301891
571.271412	0.298823
571.626625	0.299172
571.981782	0.298056
572.336884	0.297774
572.691931	0.296182
573.046923	0.295888
573.401860	0.295892
573.756743	0.296404
574.111570	0.294433
574.466342	0.294071
574.821059	0.291876
575.175722	0.293633
575.530330	0.292058
575.884882	0.291330
576.239380	0.292588
576.593823	0.291833
576.948211	0.290563
577.302544	0.293286
577.656823	0.291765
578.011047	0.291167
578.365216	0.291167
578.719330	0.292408
579.073389	0.291364
579.427394	0.291845
579.781344	0.292055
580.135239	0.292848
580.489080	0.292116
580.842866	0.293980
581.196597	0.293746
581.550273	0.291993
581.903895	0.292419
582.257463	0.290086
582.610975	0.293101
582.964434	0.291887
583.317837	0.293749
583.671186	0.293860
584.024481	0.293588
584.377721	0.295715
584.730906	0.295734
585.084037	0.294375
585.437113	0.296131
585.790135	0.295223
586.143103	0.297539
586.496016	0.298553
586.848874	0.295711
587.201679	0.296183
587.554428	0.299384
587.907124	0.297721
588.259765	0.297715
588.612352	0.298114
588.964884	0.302025
589.317362	0.301207
589.669786	0.300713
590.022155	0.299393
590.374470	0.298444
590.726731	0.300598
591.078937	0.304783
591.431090	0.300760
591.783188	0.305135
592.135232	0.305271
592.487222	0.305081
592.839157	0.303329
593.191038	0.305245
593.542866	0.307061
593.894639	0.310475
594.246358	0.308027
594.598022	0.307158
594.949633	0.311024
595.301190	0.311832
595.652692	0.310939
596.004141	0.307138
596.355535	0.314728
596.706876	0.315292
597.058162	0.317641
597.409395	0.314867
597.760573	0.312040
598.111698	0.315168
598.462768	0.315741
598.813785	0.317180
599.164748	0.318260
599.515657	0.318309
599.866511	0.321682
600.217312	0.317082
600.568060	0.322409
600.918753	0.318592
601.269392	0.319240
601.619978	0.322444
601.970510	0.320388
602.320988	0.320070
602.671412	0.317998
603.021783	0.320162
603.372100	0.321358
603.722363	0.321417
604.072572	0.322251
604.422728	0.322116
604.772830	0.323867
605.122878	0.323363
605.472872	0.324118
605.822813	0.322221
606.172701	0.324803
606.522534	0.321910
606.872314	0.322084
607.222041	0.322631
607.571714	0.321038
607.921333	0.322247
608.270899	0.322196
608.620411	0.319019
608.969870	0.322839
609.319276	0.322770
609.668627	0.322604
610.017926	0.320919
610.367171	0.319392
610.716362	0.320218
611.065500	0.320322
611.414585	0.319391
611.763616	0.320011
612.112594	0.320244
612.461518	0.319504
612.810389	0.317397
613.159207	0.320037
613.507971	0.321405
613.856682	0.316928
614.205340	0.318451
614.553945	0.315527
614.902496	0.319432
615.250994	0.317442
615.599439	0.318061
615.947830	0.317310
616.296169	0.318706
616.644454	0.318056
616.992686	0.318089
617.340864	0.315911
617.688990	0.319342
618.037063	0.316138
618.385082	0.317916
618.733048	0.314786
619.080961	0.317163
619.428821	0.316145
619.776628	0.316202
620.124382	0.318021
620.472083	0.318466
620.819731	0.317267
621.167326	0.321486
621.514868	0.321338
621.862357	0.325456
622.209793	0.325210
622.557176	0.327366
622.904506	0.328307
623.251783	0.330545
623.599007	0.332939
623.946179	0.332139
624.293297	0.334750
624.640363	0.338080
624.987376	0.338768
625.334336	0.341634
625.681243	0.343427
626.028097	0.343911
626.374899	0.345377
626.721647	0.344923
627.068343	0.348662
627.414987	0.349546
627.761577	0.351367
628.108115	0.350236
628.454600	0.354680
628.801032	0.352796
629.147412	0.354875
629.493739	0.355302
629.840014	0.357825
630.186236	0.355695
630.532405	0.360897
630.878521	0.358409
631.224585	0.360448
631.570597	0.364325
631.916556	0.362427
632.262462	0.362658
632.608316	0.364842
632.954117	0.365941
633.299866	0.366353
633.645562	0.367092
633.991206	0.371339
634.336797	0.374261
634.682336	0.376528
635.027823	0.378167
635.373257	0.378323
635.718639	0.381944
636.063968	0.381269
636.409245	0.386991
636.754470	0.387636
637.099642	0.390252
637.444762	0.393322
637.789829	0.392339
638.134845	0.395796
638.479808	0.396657
638.824719	0.396540
639.169577	0.400804
639.514383	0.399140
639.859137	0.403565
640.203839	0.403211
640.548489	0.404234
640.893086	0.405023
641.237632	0.406901
641.582125	0.405448
641.926566	0.407039
642.270955	0.406469
642.615292	0.407576
642.959576	0.406957
643.303809	0.407021
643.647990	0.406567
643.992118	0.407483
644.336195	0.410842
644.680219	0.408981
645.024192	0.409725
645.368112	0.403357
645.711981	0.402396
646.055797	0.397910
646.399562	0.400333
646.743274	0.392633
647.086935	0.389504
647.430544	0.389734
647.774101	0.388605
648.117606	0.388202
648.461059	0.388823
648.804460	0.391039
649.147810	0.396677
649.491108	0.397944
649.834354	0.399322
650.177548	0.404734
650.520690	0.409914
650.863781	0.411503
651.206820	0.410866
651.549807	0.415211
651.892742	0.419640
652.235626	0.419319
652.578458	0.419774
652.921238	0.426087
653.263967	0.423717
653.606644	0.427849
653.949269	0.427460
654.291843	0.431011
654.634365	0.428217
654.976836	0.431573
655.319255	0.431483
655.661622	0.433152
656.003938	0.433258
656.346203	0.435995
656.688416	0.433491
657.030577	0.436871
657.372687	0.438482
657.714746	0.440081
658.056753	0.437133
658.398708	0.440521
658.740612	0.442300
659.082465	0.437969
659.424266	0.438856
659.766016	0.438205
660.107715	0.440759
660.449362	0.439657
660.790958	0.440027
661.132503	0.440667
661.473996	0.438244
661.815438	0.439532
662.156829	0.439397
662.498168	0.440344
662.839456	0.441783
663.180693	0.439903
663.521879	0.439041
663.863013	0.439671
664.204097	0.438188
664.545129	0.435996
664.886110	0.435960
665.227040	0.433062
665.567918	0.436392
665.908746	0.433863
666.249522	0.433593
666.590248	0.434305
666.930922	0.432570
667.271545	0.431849
667.612118	0.431634
667.952639	0.433215
668.293109	0.432298
668.633528	0.434624
668.973896	0.435162
669.314213	0.434846
669.654480	0.436462
669.994695	0.437201
670.334859	0.437807
670.674973	0.437796
671.015035	0.438654
671.355047	0.438005
671.695008	0.439116
672.034918	0.440990
672.374777	0.440306
672.714585	0.441846
673.054342	0.441743
673.394049	0.441717
673.733705	0.439593
674.073310	0.440619
674.412864	0.443851
674.752368	0.444226
675.091820	0.444673
675.431223	0.448736
675.770574	0.448381
676.109875	0.452170
676.449125	0.451460
676.788324	0.453163
677.127473	0.458977
677.466571	0.458787
677.805619	0.460630
678.144616	0.461997
678.483562	0.463212
678.822458	0.466124
679.161303	0.467302
679.500098	0.467009
679.838842	0.469131
680.177535	0.468498
680.516179	0.467133
680.854771	0.466248
681.193314	0.459753
681.531805	0.450708
681.870247	0.439559
682.208638	0.431896
682.546978	0.430916
682.885268	0.433072
683.223508	0.439090
683.561697	0.442796
683.899836	0.445259
684.237925	0.448645
684.575963	0.451167
684.913951	0.454214
685.251889	0.450448
685.589776	0.452342
685.927614	0.454505
686.265401	0.449450
686.603137	0.450406
686.940824	0.443906
687.278460	0.442273
687.616046	0.441476
687.953582	0.436813
688.291068	0.437962
688.628504	0.434048
688.965889	0.435893
689.303224	0.440608
689.640510	0.443807
689.977745	0.449894
690.314930	0.457873
690.652065	0.462190
690.989150	0.469797
691.326185	0.475751
691.663170	0.480345
692.000105	0.487598
692.336990	0.494717
692.673825	0.496986
693.010610	0.504432
693.347345	0.508879
693.684030	0.510810
694.020665	0.515913
694.357251	0.524837
694.693786	0.524595
695.030272	0.528099
695.366707	0.531901
695.703093	0.535194
696.039429	0.533065
696.375716	0.534347
696.711952	0.537437
697.048139	0.539433
697.384276	0.541298
697.720363	0.539801
698.056400	0.538656
698.392388	0.544305
698.728326	0.547249
699.064214	0.550573
699.400053	0.550639
699.735842	0.554318
700.071581	0.556912
700.407270	0.559756
700.742910	0.562375
701.078501	0.568997
701.414042	0.569838
701.749533	0.572389
702.084974	0.580961
702.420366	0.573715
702.755709	0.581055
703.091002	0.589152
703.426246	0.581686
703.761440	0.588442
704.096584	0.592883
704.431679	0.590150
704.766725	0.592347
705.101721	0.593653
705.436668	0.589806
705.771565	0.597091
706.106413	0.593981
706.441212	0.589023
706.775961	0.587560
707.110661	0.590206
707.445311	0.586550
707.779913	0.584181
708.114465	0.582010
708.448967	0.579473
708.783421	0.571064
709.117825	0.566232
709.452180	0.566104
709.786485	0.559964
710.120742	0.549778
710.454949	0.551853
710.789107	0.544546
711.123216	0.535380
711.457275	0.537055
711.791286	0.527885
712.125247	0.526431
712.459159	0.536730
712.793023	0.530323
713.126837	0.534127
713.460602	0.533945
713.794318	0.543877
714.127985	0.542868
714.461602	0.552454
714.795171	0.555831
715.128691	0.563937
715.462162	0.571042
715.795584	0.576441
716.128957	0.579353
716.462281	0.586383
716.795556	0.590146
717.128782	0.594394
717.461960	0.603623
717.795088	0.601670
718.128167	0.608799
718.461198	0.617182
718.794180	0.618113
719.127113	0.620832
719.459997	0.624208
719.792833	0.630936
720.125619	0.631790
720.458357	0.637366
720.791046	0.637249
721.123686	0.640658
721.456278	0.647283
721.788821	0.644572
722.121315	0.648815
722.453761	0.653304
722.786158	0.650623
723.118506	0.647773
723.450805	0.655189
723.783056	0.651875
724.115259	0.648350
724.447412	0.648140
724.779518	0.649885
725.111574	0.649330
725.443582	0.643807
725.775542	0.645735
726.107453	0.638359
726.439315	0.638116
726.771129	0.637682
727.102895	0.630123
727.434612	0.623145
727.766281	0.620655
728.097901	0.619921
728.429473	0.620498
728.760996	0.618730
729.092471	0.617706
729.423897	0.622727
729.755276	0.621298
730.086606	0.621730
730.417887	0.616406
730.749120	0.607716
731.080305	0.598058
731.411442	0.593903
731.742530	0.598851
732.073570	0.598076
732.404562	0.590659
732.735506	0.591706
733.066401	0.596653
733.397249	0.606047
733.728048	0.617044
734.058798	0.629586
734.389501	0.639959
734.720156	0.649970
735.050762	0.657984
735.381320	0.657982
735.711831	0.668136
736.042293	0.672460
736.372707	0.667852
736.703073	0.672655
737.033391	0.676007
737.363661	0.672592
737.693883	0.667321
738.024056	0.666350
738.354182	0.667550
738.684260	0.656205
739.014290	0.652556
739.344272	0.653275
739.674207	0.646498
740.004093	0.645291
740.333931	0.646593
740.663722	0.646186
740.993464	0.647063
741.323159	0.650845
741.652806	0.655486
741.982405	0.660526
742.311956	0.664872
742.641460	0.667707
742.970915	0.670593
743.300323	0.678429
743.629683	0.684050
743.958996	0.687645
744.288260	0.690614
744.617477	0.697036
744.946647	0.698847
745.275768	0.703909
745.604842	0.703577
745.933869	0.713787
746.262847	0.713326
746.591778	0.707352
746.920662	0.714112
747.249498	0.719693
747.578286	0.711383
747.907027	0.708031
748.235720	0.708215
748.564365	0.703462
748.892963	0.703045
749.221514	0.706576
749.550017	0.711352
749.878473	0.710718
750.206881	0.717537
750.535242	0.718802
750.863555	0.719054
751.191821	0.719119
751.520039	0.722649
751.848210	0.727364
752.176334	0.720098
752.504411	0.718568
752.832440	0.727333
753.160421	0.731049
753.488356	0.728626
753.816243	0.726233
754.144082	0.734751
754.471875	0.738414
754.799620	0.734014
755.127318	0.734984
755.454969	0.735915
755.782572	0.735447
756.110129	0.740704
756.437638	0.741774
756.765100	0.739171
757.092515	0.736759
757.419882	0.735161
757.747203	0.740916
758.074477	0.740165
758.401703	0.737616
758.728882	0.732368
759.056014	0.732398
759.383099	0.730884
759.710138	0.731428
760.037129	0.728171
760.364073	0.722291
760.690970	0.724322
761.017820	0.729663
761.344623	0.726141
761.671379	0.717476
761.998088	0.705522
762.324751	0.683142
762.651366	0.642083
762.977935	0.575803
763.304456	0.523933
763.630931	0.514184
763.957359	0.553766
764.283740	0.597173
764.610074	0.624460
764.936362	0.654486
765.262602	0.681564
765.588796	0.703017
765.914943	0.719972
766.241044	0.737288
766.567097	0.744054
766.893104	0.754947
767.219064	0.760422
767.544978	0.766784
767.870845	0.779793
768.196665	0.784197
768.522438	0.782193
768.848165	0.784056
769.173846	0.792988
769.499479	0.797291
769.825066	0.800309
770.150607	0.805116
770.476101	0.800053
770.801548	0.801104
771.126949	0.813048
771.452303	0.816857
771.777611	0.815769
772.102872	0.814687
772.428087	0.819276
772.753256	0.823346
773.078378	0.824906
773.403453	0.833817
773.728482	0.838119
774.053465	0.831512
774.378401	0.835880
774.703291	0.843668
775.028135	0.842518
775.352932	0.845337
775.677683	0.848074
776.002388	0.848884
776.327046	0.847561
776.651658	0.851283
776.976224	0.854515
777.300743	0.854406
777.625216	0.857080
777.949643	0.858285
778.274024	0.857788
778.598359	0.861168
778.922647	0.859429
779.246889	0.859468
779.571086	0.863510
779.895236	0.866454
780.219339	0.862578
780.543397	0.860330
780.867409	0.857881
781.191374	0.861497
781.515294	0.860938
781.839167	0.861348
782.162995	0.864289
782.486776	0.861270
782.810511	0.863043
783.134201	0.866319
783.457844	0.863008
783.781441	0.866749
784.104993	0.871974
784.428498	0.872525
784.751958	0.867684
785.075372	0.870325
785.398739	0.873402
785.722061	0.871787
786.045337	0.866486
786.368568	0.870892
786.691752	0.874044
787.014891	0.858710
787.337983	0.850227
787.661030	0.843257
787.984031	0.825991
788.306987	0.812952
788.629897	0.815400
788.952760	0.819630
789.275579	0.823248
789.598351	0.838867
789.921078	0.852290
790.243759	0.853821
790.566395	0.859110
790.888984	0.866399
791.211529	0.870969
791.534027	0.873342
791.856480	0.876093
792.178888	0.881038
792.501249	0.883245
792.823566	0.884011
793.145836	0.885164
793.468062	0.886225
793.790241	0.885914
794.112375	0.884552
794.434464	0.879918
794.756507	0.879226
795.078505	0.880317
795.400457	0.874925
795.722364	0.861088
796.044226	0.855039
796.366042	0.853962
796.687812	0.857533
797.009538	0.853215
797.331218	0.857582
797.652852	0.860844
797.974442	0.866943
798.295986	0.866545
798.617484	0.868434
798.938938	0.873509
799.260346	0.877450
799.581709	0.879852
799.903026	0.881943
800.224299	0.882175
800.545526	0.886231
800.866708	0.890248
801.187845	0.895129
801.508936	0.893280
801.829983	0.891629
802.150984	0.894777
802.471940	0.899323
802.792851	0.898049
803.113717	0.899461
803.434538	0.897976
803.755314	0.899951
804.076045	0.901705
804.396731	0.902389
804.717372	0.900766
805.037967	0.903986
805.358518	0.901576
805.679024	0.898716
805.999485	0.897591
806.319901	0.897888
806.640272	0.899566
806.960598	0.898060
807.280879	0.894621
807.601115	0.894618
807.921306	0.897772
808.241453	0.899188
808.561554	0.894873
808.881611	0.896027
809.201623	0.898437
809.521590	0.898395
809.841513	0.899069
810.161390	0.897669
810.481223	0.899416
810.801011	0.903099
811.120755	0.905361
811.440453	0.903477
811.760107	0.902900
812.079716	0.901989
812.399281	0.906165
812.718801	0.908638
813.038276	0.909204
813.357707	0.908562
813.677093	0.905687
813.996434	0.908490
814.315731	0.909495
814.634983	0.910881
814.954191	0.909218
815.273354	0.907222
815.592473	0.903583
815.911547	0.903242
816.230577	0.901068
816.549562	0.898572
816.868502	0.899246
817.187399	0.895203
817.506250	0.889065
817.825058	0.892330
818.143821	0.889705
818.462539	0.885022
818.781213	0.875705
819.099843	0.864989
819.418429	0.849858
819.736970	0.832861
820.055466	0.813595
820.373919	0.788271
820.692327	0.755001
821.010691	0.722303
821.329011	0.646762
821.647286	0.532743
821.965517	0.420813
822.283704	0.378893
822.601847	0.380528
822.919945	0.416087
823.237999	0.448641
823.556010	0.494578
823.873976	0.549255
824.191897	0.599231
824.509775	0.640725
824.827609	0.685426
825.145398	0.708007
825.463144	0.711527
825.780845	0.693287
826.098502	0.674728
826.416116	0.630179
826.733685	0.587194
827.051210	0.578954
827.368692	0.593612
827.686129	0.629520
828.003522	0.682347
828.320872	0.728501
828.638177	0.771976
828.955439	0.804475
829.272656	0.825649
829.589830	0.841077
829.906960	0.857784
830.224046	0.869647
830.541088	0.879553
830.858086	0.883702
831.175041	0.890410
831.491952	0.888671
831.808819	0.886159
832.125642	0.879348
832.442421	0.865122
832.759157	0.843959
833.075849	0.798415
833.392497	0.735714
833.709101	0.696286
834.025662	0.705658
834.342179	0.736328
834.658653	0.775266
834.975083	0.810063
835.291469	0.836462
835.607811	0.857312
835.924110	0.874210
836.240366	0.890130
836.556578	0.904488
836.872746	0.911277
837.188871	0.916088
837.504952	0.922258
837.820990	0.925195
838.136984	0.929121
838.452935	0.931863
838.768842	0.932736
839.084706	0.927422
839.400526	0.901127
839.716303	0.862422
840.032037	0.840376
840.347727	0.844948
840.663373	0.861665
840.978977	0.882617
841.294537	0.904325
841.610054	0.920395
841.925527	0.928335
842.240957	0.934619
842.556344	0.941384
842.871687	0.948169
843.186987	0.951835
843.502244	0.951269
843.817458	0.953560
844.132629	0.956481
844.447756	0.961328
844.762840	0.961585
845.077881	0.960702
845.392879	0.961381
845.707833	0.963681
846.022745	0.966018
846.337613	0.967005
846.652438	0.967834
846.967221	0.965891
847.281960	0.965452
847.596656	0.968625
847.911309	0.966446
848.225919	0.968654
848.540485	0.969475
848.855009	0.969302
849.169490	0.970177
849.483928	0.970346
849.798323	0.970481
850.112675	0.970816
850.426984	0.970062
850.741251	0.971938
851.055474	0.970011
851.369654	0.969190
851.683792	0.971348
851.997887	0.970595
852.311938	0.972102
852.625947	0.970234
852.939914	0.969028
853.253837	0.970359
853.567718	0.971647
853.881555	0.972039
854.195350	0.969255
854.509103	0.971227
854.822812	0.971498
855.136479	0.971389
855.450103	0.971161
855.763685	0.969720
856.077224	0.971065
856.390720	0.971246
856.704173	0.971453
857.017584	0.969191
857.330953	0.967414
857.644278	0.968923
857.957561	0.969976
858.270802	0.969171
858.584000	0.969793
858.897155	0.967270
859.210268	0.967759
859.523339	0.969498
859.836367	0.971641
860.149352	0.971516
860.462295	0.969710
860.775195	0.970515
861.088054	0.970548
861.400869	0.970449
861.713642	0.970525
862.026373	0.971500
862.339062	0.972283
862.651708	0.969254
862.964312	0.969033
863.276873	0.969909
863.589392	0.968905
863.901869	0.968372
864.214303	0.966159
864.526696	0.965179
864.839045	0.964583
865.151353	0.963650
865.463619	0.963924
865.775842	0.963898
866.088023	0.963944
866.400162	0.963207
866.712258	0.964040
867.024313	0.963509
867.336325	0.965444
867.648296	0.965645
867.960224	0.962998
868.272110	0.963034
868.583954	0.964772
868.895755	0.965729
869.207515	0.963245
869.519233	0.960477
869.830909	0.963095
870.142542	0.963642
870.454134	0.963680
870.765684	0.962437
871.077191	0.959881
871.388657	0.960187
871.700081	0.960526
872.011463	0.959501
872.322803	0.958825
872.634101	0.958287
872.945357	0.956755
873.256571	0.954320
873.567744	0.954800
873.878874	0.955707
874.189963	0.954311
874.501010	0.954381
874.812015	0.951158
875.122979	0.952933
875.433900	0.955544
875.744780	0.955258
876.055618	0.953482
876.366415	0.951876
876.677169	0.951417
876.987882	0.953659
877.298554	0.953701
877.609183	0.949067
877.919771	0.947011
878.230317	0.945884
878.540822	0.943604
878.851285	0.937552
879.161707	0.930214
879.472087	0.918776
879.782425	0.903382
880.092722	0.870389
880.402977	0.819108
880.713191	0.761725
881.023363	0.704424
881.333494	0.671814
881.643583	0.643869
881.953631	0.643518
882.263637	0.672174
882.573602	0.710733
882.883526	0.735796
883.193408	0.758194
883.503248	0.779915
883.813048	0.805938
884.122806	0.834124
884.432522	0.857598
884.742197	0.875793
885.051831	0.885402
885.361424	0.896150
885.670975	0.907694
885.980485	0.917523
886.289954	0.923643
886.599382	0.927996
886.908768	0.930558
887.218113	0.936992
887.527417	0.940821
887.836680	0.944493
888.145901	0.946040
888.455082	0.948334
888.764221	0.953151
889.073319	0.954823
889.382376	0.955074
889.691392	0.955029
890.000366	0.954329
890.309300	0.956455
890.618193	0.954559
890.927044	0.954010
891.235855	0.953651
891.544625	0.954775
891.853353	0.953936
892.162041	0.951288
892.470687	0.944674
892.779293	0.940256
893.087858	0.936809
893.396381	0.929757
893.704864	0.917023
894.013306	0.894971
894.321707	0.868649
894.630068	0.855432
894.938387	0.850488
895.246665	0.852076
895.554903	0.863822
895.863100	0.875218
896.171256	0.892271
896.479371	0.911674
896.787446	0.923551
897.095480	0.929103
897.403473	0.930929
897.711425	0.935151
898.019336	0.942972
898.327207	0.945640
898.635038	0.948411
898.942827	0.946945
899.250576	0.949922
899.558284	0.954983
899.865952	0.956068
900.173579	0.957623
900.481165	0.956921
900.788711	0.961596
901.096216	0.963135
901.403681	0.964324
901.711105	0.964716
902.018489	0.965502
902.325832	0.964330
902.633135	0.963536
902.940397	0.958273
903.247619	0.947515
903.554800	0.922081
903.861941	0.884413
904.169041	0.851542
904.476101	0.835364
904.783121	0.836176
905.090100	0.850625
905.397039	0.870647
905.703938	0.892918
906.010796	0.910717
906.317614	0.926733
906.624391	0.938767
906.931129	0.947602
907.237826	0.954426
907.544483	0.961317
907.851099	0.964672
908.157675	0.969641
908.464211	0.971245
908.770707	0.974729
909.077163	0.976838
909.383578	0.976027
909.689954	0.976794
909.996289	0.978273
910.302584	0.979387
910.608839	0.980374
910.915054	0.979811
911.221229	0.979485
911.527363	0.978118
911.833458	0.978690
912.139513	0.978123
912.445527	0.977323
912.751502	0.975928
913.057436	0.975610
913.363331	0.971048
913.669186	0.968063
913.975000	0.963968
914.280775	0.958485
914.586510	0.951724
914.892205	0.939116
915.197859	0.919146
915.503475	0.892619
915.809050	0.875697
916.114585	0.870097
916.420081	0.868829
916.725536	0.863548
917.030952	0.872017
917.336328	0.884437
917.641665	0.898445
917.946961	0.912959
918.252218	0.924441
918.557435	0.932238
918.862612	0.940172
919.167750	0.946157
919.472848	0.949733
919.777906	0.956290
920.082925	0.961693
920.387904	0.964382
920.692843	0.965152
920.997743	0.966068
921.302603	0.969219
921.607423	0.972027
921.912204	0.973080
922.216946	0.973344
922.521647	0.975883
922.826310	0.977073
923.130932	0.977478
923.435516	0.980433
923.740059	0.980857
924.044564	0.980236
924.349028	0.982422
924.653454	0.984354
924.957840	0.987115
925.262186	0.985568
925.566493	0.984279
925.870761	0.985886
926.174989	0.987827
926.479178	0.989554
926.783328	0.989367
927.087438	0.988680
927.391509	0.989111
927.695541	0.991152
927.999533	0.990578
928.303486	0.990909
928.607400	0.991776
928.911275	0.990667
929.215110	0.991128
929.518906	0.991935
929.822663	0.990051
930.126381	0.991417
930.430060	0.991139
930.733699	0.991523
931.037299	0.989493
931.340861	0.991014
931.644383	0.990409
931.947866	0.990692
932.251309	0.991715
932.554714	0.991041
932.858080	0.991361
933.161407	0.991013
933.464694	0.991680
933.767943	0.990471
934.071153	0.991561
934.374323	0.991256
934.677455	0.992056
934.980548	0.991228
935.283602	0.991412
935.586617	0.992161
935.889593	0.991514
936.192530	0.991617
936.495428	0.991055
936.798287	0.991963
937.101108	0.991458
937.403890	0.989360
937.706632	0.989737
938.009336	0.987726
938.312002	0.986753
938.614628	0.985396
938.917216	0.984366
939.219765	0.983878
939.522275	0.985639
939.824747	0.984504
940.127179	0.984030
940.429573	0.986573
940.731929	0.985350
941.034246	0.985641
941.336524	0.986327
941.638763	0.987832
941.940964	0.986079
942.243126	0.987648
942.545250	0.988106
942.847335	0.989653
943.149381	0.988771
943.451389	0.988634
943.753359	0.989397
944.055290	0.990881
944.357182	0.991228
944.659036	0.988291
944.960851	0.989863
945.262628	0.991332
945.564367	0.989881
945.866067	0.990421
946.167729	0.991364
946.469352	0.990641
946.770937	0.990327
947.072484	0.991419
947.373992	0.991035
947.675462	0.990524
947.976893	0.991391
948.278286	0.990918
948.579641	0.992702
948.880958	0.992488
949.182236	0.992393
949.483476	0.992312
949.784678	0.990509
950.085841	0.992354
950.386967	0.990836
950.688054	0.990952
950.989103	0.991220
951.290114	0.990820
951.591087	0.990472
951.892021	0.989872
952.192917	0.988851
952.493776	0.989017
952.794596	0.989056
953.095378	0.987908
953.396122	0.989086
953.696828	0.988940
953.997496	0.989792
954.298126	0.990615
954.598718	0.991349
954.899272	0.991818
955.199788	0.991756
955.500266	0.992630
955.800706	0.993728
956.101108	0.994091
956.401472	0.994772
956.701798	0.994062
957.002087	0.992869
957.302337	0.994652
957.602550	0.995350
957.902724	0.994957
958.202861	0.995810
958.502960	0.995590
958.803022	0.993507
959.103045	0.996027
959.403031	0.996934
959.702979	0.994870
960.002889	0.996310
960.302762	0.995210
960.602596	0.996851
960.902393	0.995470
961.202153	0.997035
961.501875	0.996414
961.801559	0.995288
962.101205	0.994891
962.400814	0.996719
962.700385	0.995324
962.999918	0.997869
963.299414	0.996897
963.598873	0.995713
963.898293	0.996205
964.197677	0.996364
964.497022	0.995855
964.796331	0.996530
965.095601	0.995937
965.394835	0.996686
965.694030	0.997653
965.993189	0.997128
966.292309	0.997314
966.591393	0.996589
966.890439	0.997552
967.189447	0.996805
967.488419	0.997385
967.787353	0.995320
968.086249	0.995567
968.385108	0.996747
968.683930	0.997010
968.982714	0.998070
969.281462	0.996965
969.580172	0.996888
969.878844	0.997048
970.177480	0.996655
970.476078	0.996796
970.774639	0.997057
971.073162	0.998107
971.371649	0.996644
971.670098	0.996236
971.968510	0.997671
972.266885	0.996445
972.565223	0.995939
972.863524	0.995859
973.161788	0.996271
973.460014	0.997542
973.758204	0.995903
974.056356	0.996983
974.354471	0.993611
974.652550	0.996713
974.950591	0.996247
975.248595	0.997211
975.546563	0.996389
975.844493	0.998022
976.142386	0.996767
976.440243	0.998162
976.738062	0.997528
977.035845	0.997050
977.333590	0.996909
977.631299	0.998240
977.928971	0.996579
978.226606	0.996737
978.524204	0.995296
978.821765	0.998350
979.119290	0.995815
979.416777	0.996316
979.714228	0.997071
980.011642	0.996003
980.309020	0.997857
980.606360	0.996718
980.903664	0.998543
981.200931	0.997315
981.498162	0.995635
981.795356	0.995560
982.092513	0.994197
982.389633	0.995385
982.686717	0.991418
982.983764	0.992050
983.280775	0.990600
983.577749	0.990473
983.874686	0.992471
984.171587	0.992328
984.468451	0.992906
984.765279	0.995352
985.062070	0.993993
985.358824	0.995425
985.655543	0.995852
985.952224	0.995422
986.248869	0.996075
986.545478	0.997395
986.842050	0.997729
987.138586	0.995805
987.435086	0.997675
987.731549	0.997876
988.027975	0.998906
988.324366	0.997548
988.620719	0.997814
988.917037	0.997237
989.213318	0.998691
989.509563	0.998266
989.805772	0.997766
990.101944	0.998250
990.398080	0.997441
990.694180	0.997619
990.990244	0.996628
991.286271	0.997486
991.582262	0.998345
991.878217	0.998344
992.174136	0.998632
992.470019	0.998189
992.765865	0.997392
993.061676	0.997862
993.357450	0.998198
993.653188	0.996880
993.948890	0.998248
994.244556	0.997747
994.540186	0.996387
994.835780	0.997090
995.131337	0.997501
995.426859	0.995748
995.722345	0.998031
996.017795	0.997004
996.313208	0.996372
996.608586	0.996227
996.903928	0.996412
997.199234	0.995492
997.494504	0.996413
997.789738	0.997007
998.084936	0.997482
998.380099	0.997782
998.675225	0.996901
998.970316	0.998175
999.265371	0.998282
999.560390	0.998387
999.855373	0.998333
1000.150320	0.997531
1000.445232	0.998164
1000.740108	0.998296
1001.034948	0.997457
1001.329752	0.998214
1001.624521	0.998205
1001.919254	0.998665
1002.213951	0.998765
1002.508613	0.998170
1002.803239	0.998588
1003.097829	0.999621
1003.392384	0.998057
1003.686903	0.998607
1003.981386	0.997996
1004.275834	0.998443
1004.570246	0.997917
1004.864623	0.999224
1005.158964	0.998443
1005.453270	0.998396
1005.747540	0.998223
1006.041775	0.997949
1006.335974	0.999703
1006.630138	0.999356
1006.924266	0.998606
1007.218359	0.999982
1007.512416	0.998782
1007.806438	0.999226
1008.100425	0.998782
1008.394376	0.999118
1008.688292	0.998319
1008.982172	1.000135
1009.276017	0.998734
1009.569827	0.998295
1009.863602	0.998988
1010.157341	0.998571
1010.451045	0.999386
1010.744714	0.997018
1011.038347	0.998845
1011.331945	0.998658
1011.625508	0.998625
1011.919036	0.998310
1012.212528	0.998574
1012.505986	0.996941
1012.799408	0.998778
1013.092795	0.999291
1013.386147	0.998273
1013.679464	0.998259
1013.972745	0.997998
1014.265992	0.997615
1014.559204	0.999576
1014.852380	0.998446
1015.145521	0.999531
1015.438628	0.999061
1015.731699	0.998464
1016.024736	0.998251
1016.317737	0.998885
1016.610703	0.999265
1016.903635	0.999098
1017.196531	0.998560
1017.489393	0.999244
1017.782219	0.997931
1018.075011	0.998646
1018.367768	0.998422
1018.660490	0.999504
1018.953177	0.999504
1019.245829	0.999504
