Dividing Wavelength (nm)	Counts (n)	Blue Motor Position (mm): 0.000000	Red Motor Position (mm): 39.600000	
326.493990	1.000516
326.888308	1.000516
327.282561	1.000516
327.676750	1.001934
328.070874	0.999900
328.464933	0.999275
328.858929	0.999457
329.252859	0.998705
329.646726	0.999489
330.040528	0.999744
330.434265	0.999255
330.827938	0.999842
331.221547	1.000973
331.615091	0.999630
332.008571	1.000403
332.401986	0.999785
332.795338	0.999677
333.188625	0.998140
333.581847	0.999775
333.975006	0.999800
334.368100	0.997883
334.761129	0.999494
335.154095	1.001300
335.546996	0.998779
335.939833	0.996284
336.332606	0.997225
336.725315	0.997985
337.117960	0.998624
337.510540	0.996885
337.903056	0.997475
338.295508	0.996178
338.687896	0.997729
339.080220	0.997579
339.472480	0.996862
339.864676	0.996188
340.256807	0.998674
340.648875	0.999362
341.040879	0.998233
341.432818	0.995939
341.824694	0.997233
342.216506	0.999367
342.608253	0.998728
342.999937	0.996803
343.391557	0.997990
343.783113	0.997804
344.174605	0.997858
344.566033	0.997763
344.957397	0.996334
345.348697	0.996100
345.739934	0.997419
346.131106	0.997340
346.522215	0.997501
346.913260	0.996770
347.304241	0.998244
347.695159	0.997415
348.086012	0.996113
348.476802	0.998110
348.867528	0.997319
349.258191	0.996732
349.648789	0.997850
350.039324	0.996808
350.429796	0.998426
350.820203	0.998162
351.210548	0.997167
351.600828	0.996861
351.991045	0.996729
352.381198	0.995928
352.771288	0.997675
353.161314	0.997066
353.551276	0.998059
353.941175	0.997620
354.331010	0.996635
354.720782	0.998161
355.110490	0.996806
355.500135	0.998148
355.889717	0.998683
356.279235	0.997440
356.668689	0.996811
357.058080	0.997132
357.447408	0.998324
357.836672	0.997989
358.225873	0.998771
358.615010	0.998309
359.004084	0.999325
359.393095	0.997640
359.782043	0.998099
360.170927	0.997807
360.559748	0.997999
360.948505	0.996552
361.337199	0.998056
361.725830	0.997367
362.114398	0.998197
362.502903	0.996894
362.891344	0.999475
363.279722	0.996966
363.668037	0.998629
364.056289	0.996768
364.444478	0.997655
364.832603	0.998675
365.220665	0.998104
365.608665	0.997247
365.996601	0.997111
366.384474	0.998039
366.772284	0.998372
367.160031	0.996363
367.547715	0.997160
367.935336	0.997756
368.322893	0.997810
368.710388	0.996600
369.097820	0.997951
369.485189	0.996796
369.872495	0.996886
370.259738	0.995639
370.646918	0.997840
371.034035	0.998197
371.421090	0.997764
371.808081	0.996367
372.195010	0.998054
372.581875	0.998303
372.968678	0.997677
373.355418	0.997448
373.742096	0.997524
374.128710	0.998948
374.515262	0.997902
374.901751	0.998100
375.288177	0.998184
375.674540	0.997899
376.060841	0.997815
376.447079	0.998792
376.833254	0.997922
377.219367	0.997846
377.605417	0.997752
377.991404	0.998099
378.377329	0.997694
378.763191	0.997309
379.148991	0.998938
379.534727	0.998867
379.920402	0.998555
380.306013	0.999127
380.691563	0.998790
381.077049	0.997042
381.462474	0.998416
381.847835	0.997972
382.233134	0.998054
382.618371	0.998163
383.003545	0.998504
383.388657	0.997949
383.773706	0.998624
384.158693	0.998118
384.543618	0.997832
384.928480	0.998240
385.313280	0.998641
385.698017	0.999607
386.082692	0.999738
386.467305	0.998534
386.851856	0.997412
387.236344	0.998690
387.620770	0.997251
388.005133	0.998996
388.389435	0.999457
388.773674	0.998695
389.157851	0.999205
389.541965	0.999460
389.926018	0.998274
390.310008	0.999415
390.693936	0.997806
391.077802	0.998987
391.461606	0.997944
391.845348	0.998714
392.229027	0.999233
392.612645	0.998944
392.996200	0.999874
393.379694	0.998653
393.763125	0.999091
394.146494	0.999228
394.529801	0.998490
394.913047	0.998929
395.296230	0.998968
395.679351	0.999389
396.062410	0.998632
396.445408	0.999368
396.828343	0.998837
397.211217	0.999059
397.594028	0.999552
397.976778	0.998852
398.359466	0.997839
398.742092	0.999036
399.124656	0.999148
399.507158	1.000060
399.889598	0.998711
400.271977	0.999667
400.654294	0.999447
401.036549	0.999552
401.418742	0.999807
401.800874	0.997738
402.182944	0.999394
402.564952	0.998421
402.946898	1.000308
403.328783	0.999312
403.710606	0.999330
404.092367	0.998906
404.474067	0.998670
404.855705	0.999358
405.237282	0.999643
405.618797	0.999523
406.000250	0.998374
406.381642	0.999637
406.762972	0.999264
407.144240	0.999374
407.525447	0.999811
407.906593	0.999128
408.287677	1.000094
408.668700	0.999395
409.049661	0.998216
409.430560	0.999660
409.811399	0.998624
410.192176	0.998439
410.572891	0.998683
410.953545	0.998374
411.334138	0.998109
411.714669	0.999295
412.095139	0.999704
412.475547	1.000310
412.855894	0.999107
413.236180	1.000328
413.616405	0.999855
413.996568	1.000459
414.376670	0.999971
414.756711	0.998672
415.136691	0.999507
415.516609	0.998061
415.896466	0.998761
416.276262	0.998172
416.655997	0.999581
417.035670	0.998449
417.415283	0.999523
417.794834	0.999072
418.174324	0.999573
418.553753	1.000004
418.933121	0.998906
419.312428	0.998459
419.691674	0.999222
420.070859	0.999740
420.449983	0.999852
420.829045	0.999541
421.208047	0.999625
421.586988	1.000308
421.965867	0.998943
422.344686	1.000188
422.723444	0.999269
423.102141	1.000068
423.480777	0.998959
423.859352	0.998695
424.237866	0.999341
424.616319	0.999572
424.994712	0.999913
425.373044	1.000453
425.751314	0.999002
426.129524	0.999985
426.507673	1.000102
426.885762	0.999955
427.263789	0.999991
427.641756	0.999814
428.019662	1.000547
428.397508	0.999837
428.775292	0.999065
429.153016	0.999052
429.530679	0.999793
429.908282	1.000402
430.285824	1.000129
430.663305	0.998641
431.040726	0.999975
431.418086	1.000285
431.795385	1.000493
432.172624	0.998925
432.549802	1.000036
432.926920	0.999508
433.303977	0.999118
433.680974	1.000412
434.057910	0.999690
434.434786	1.000172
434.811601	0.999201
435.188355	0.998690
435.565050	0.999074
435.941683	1.000731
436.318257	1.001238
436.694770	0.999025
437.071222	1.000171
437.447614	0.999970
437.823946	0.999241
438.200218	1.000395
438.576429	1.000308
438.952580	1.000287
439.328670	0.999488
439.704700	1.000429
440.080670	1.000004
440.456580	0.999723
440.832429	0.999409
441.208218	1.000409
441.583947	1.000143
441.959616	1.000481
442.335224	0.999726
442.710773	1.000921
443.086261	0.999175
443.461689	0.999212
443.837057	0.999935
444.212365	1.000356
444.587612	0.999618
444.962800	1.000404
445.337927	1.000235
445.712995	0.999770
446.088002	1.000604
446.462949	1.000243
446.837837	0.999940
447.212664	1.000385
447.587431	1.000224
447.962139	0.999808
448.336786	1.000959
448.711374	0.999613
449.085901	0.999514
449.460369	1.001030
449.834776	0.999792
450.209124	1.000971
450.583412	0.999993
450.957640	0.999733
451.331808	1.000937
451.705917	0.999497
452.079965	0.999929
452.453954	1.000556
452.827883	1.000439
453.201752	0.999962
453.575562	1.000218
453.949311	1.000640
454.323001	0.999688
454.696632	0.999197
455.070202	0.999777
455.443713	0.999396
455.817164	0.999655
456.190556	1.000381
456.563888	1.000260
456.937160	1.000576
457.310373	0.999522
457.683526	1.000000
458.056619	1.000207
458.429653	1.000396
458.802628	0.999198
459.175542	0.999455
459.548398	0.999832
459.921194	1.000272
460.293930	0.999537
460.666607	0.998991
461.039224	0.999513
461.411782	1.000482
461.784280	0.999901
462.156719	1.001173
462.529099	1.000065
462.901419	0.999514
463.273680	1.000345
463.645882	1.000059
464.018024	0.999864
464.390106	1.000542
464.762130	1.000631
465.134094	1.000311
465.505999	1.000821
465.877845	0.999990
466.249631	1.000591
466.621358	1.000137
466.993026	1.000388
467.364634	1.000165
467.736184	1.000847
468.107674	1.000271
468.479105	0.999300
468.850477	0.999843
469.221790	1.000426
469.593043	1.000507
469.964238	1.000818
470.335373	1.000514
470.706449	1.000279
471.077467	1.000152
471.448425	1.000024
471.819324	1.000548
472.190164	0.999577
472.560945	0.999897
472.931667	1.000291
473.302330	0.999711
473.672934	1.000585
474.043479	1.000174
474.413965	0.999863
474.784393	0.999825
475.154761	0.999980
475.525070	0.999837
475.895321	1.000145
476.265513	0.999918
476.635645	0.999981
477.005719	1.000505
477.375734	1.000165
477.745691	0.999658
478.115588	1.000336
478.485427	1.000185
478.855207	0.999981
479.224928	1.000118
479.594591	1.000246
479.964194	1.000536
480.333739	1.000288
480.703226	1.000953
481.072653	1.000862
481.442022	1.000903
481.811333	0.999710
482.180584	1.000464
482.549777	0.999792
482.918912	1.000069
483.287988	1.000563
483.657005	0.999905
484.025964	1.001521
484.394864	1.000236
484.763706	1.000371
485.132489	1.000167
485.501213	1.000602
485.869879	0.999785
486.238487	1.000936
486.607036	1.000535
486.975527	0.999597
487.343959	1.000253
487.712333	0.999665
488.080648	1.000489
488.448905	1.000112
488.817104	1.000917
489.185244	1.000499
489.553326	1.000629
489.921350	1.000176
490.289315	1.000121
490.657222	1.000554
491.025070	1.000628
491.392861	1.000900
491.760593	1.000841
492.128267	1.000633
492.495883	1.000183
492.863440	1.000540
493.230939	1.001056
493.598380	0.999712
493.965763	1.000060
494.333088	1.000470
494.700354	1.000452
495.067563	0.999918
495.434713	0.999343
495.801805	1.000909
496.168839	1.000199
496.535815	1.000274
496.902733	1.000124
497.269593	0.999634
497.636395	1.000499
498.003139	0.999823
498.369825	1.000887
498.736453	1.000173
499.103023	0.999026
499.469535	1.000073
499.835989	1.000146
500.202385	1.000169
500.568723	1.000006
500.935003	1.000380
501.301226	1.000508
501.667390	1.000200
502.033497	0.999659
502.399546	1.000957
502.765537	0.999957
503.131470	0.999795
503.497345	1.000026
503.863163	1.001213
504.228923	1.000642
504.594625	1.000313
504.960269	1.000041
505.325856	1.000300
505.691385	0.999842
506.056856	0.999703
506.422270	0.999560
506.787625	1.000641
507.152924	0.999785
507.518164	0.999160
507.883347	1.000284
508.248472	0.999852
508.613540	1.000403
508.978550	1.000623
509.343503	1.000182
509.708398	1.000277
510.073236	1.000464
510.438016	1.000214
510.802738	1.000258
511.167403	1.000034
511.532010	0.999769
511.896561	0.999669
512.261053	1.000977
512.625488	0.999092
512.989866	0.999976
513.354186	0.999559
513.718449	0.999733
514.082655	0.999833
514.446803	0.999757
514.810894	0.999996
515.174927	0.999419
515.538904	0.999261
515.902822	0.999770
516.266684	0.999995
516.630488	1.000537
516.994235	0.999638
517.357925	0.999276
517.721558	0.999256
518.085133	0.999623
518.448651	1.000390
518.812112	0.999820
519.175516	0.998813
519.538863	0.999860
519.902152	0.999187
520.265385	0.999095
520.628560	0.999969
520.991678	0.999622
521.354739	0.999840
521.717743	1.000069
522.080690	0.999237
522.443580	0.999436
522.806413	0.999347
523.169189	0.998555
523.531908	0.999003
523.894569	0.998621
524.257174	0.998745
524.619722	0.998947
524.982213	0.999774
525.344647	0.999050
525.707025	0.998879
526.069345	0.998672
526.431608	0.999343
526.793815	0.999251
527.155964	0.998880
527.518057	0.999498
527.880093	0.999225
528.242072	0.999150
528.603995	0.999219
528.965860	0.999342
529.327669	0.999077
529.689421	0.998959
530.051117	0.998854
530.412755	0.999085
530.774337	0.998684
531.135862	0.998816
531.497331	0.998845
531.858743	0.998747
532.220098	0.999466
532.581396	0.999022
532.942638	0.999224
533.303824	0.998848
533.664953	0.998574
534.026025	0.998763
534.387040	0.998511
534.747999	0.998858
535.108902	0.998115
535.469748	0.998323
535.830537	0.998003
536.191270	0.998669
536.551947	0.998010
536.912567	0.998367
537.273131	0.999098
537.633638	0.997527
537.994089	0.998124
538.354483	0.998455
538.714821	0.998289
539.075103	0.998310
539.435328	0.998138
539.795497	0.998275
540.155609	0.997821
540.515665	0.997567
540.875665	0.997279
541.235609	0.997458
541.595496	0.997831
541.955328	0.996922
542.315102	0.997758
542.674821	0.998055
543.034483	0.997463
543.394090	0.997108
543.753640	0.997562
544.113134	0.997635
544.472571	0.997861
544.831953	0.997377
545.191278	0.997648
545.550548	0.997919
545.909761	0.997580
546.268918	0.998134
546.628019	0.998165
546.987064	0.997319
547.346053	0.997336
547.704986	0.997591
548.063863	0.997286
548.422684	0.997441
548.781449	0.997739
549.140158	0.996590
549.498811	0.997225
549.857408	0.996810
550.215949	0.997136
550.574434	0.996621
550.932864	0.996325
551.291237	0.997304
551.649555	0.996539
552.007817	0.996207
552.366022	0.996319
552.724173	0.997105
553.082267	0.997002
553.440305	0.996288
553.798288	0.995779
554.156215	0.995756
554.514086	0.996419
554.871902	0.995725
555.229661	0.995340
555.587365	0.995475
555.945014	0.996555
556.302606	0.994907
556.660143	0.994877
557.017625	0.994398
557.375050	0.995076
557.732421	0.994158
558.089735	0.995081
558.446994	0.995339
558.804197	0.994547
559.161345	0.994878
559.518437	0.994802
559.875474	0.993636
560.232455	0.993274
560.589381	0.993895
560.946251	0.992687
561.303065	0.993424
561.659825	0.992978
562.016528	0.991797
562.373177	0.992297
562.729770	0.992219
563.086307	0.992062
563.442789	0.991607
563.799216	0.991359
564.155587	0.990792
564.511904	0.990173
564.868164	0.989975
565.224370	0.990002
565.580520	0.989811
565.936615	0.989319
566.292654	0.988357
566.648638	0.988531
567.004567	0.988086
567.360441	0.988956
567.716260	0.988237
568.072023	0.987463
568.427732	0.987354
568.783385	0.987304
569.138982	0.986259
569.494525	0.985702
569.850013	0.985032
570.205445	0.984333
570.560823	0.984514
570.916145	0.983572
571.271412	0.982874
571.626625	0.982421
571.981782	0.981611
572.336884	0.981894
572.691931	0.981308
573.046923	0.980064
573.401860	0.979583
573.756743	0.978679
574.111570	0.978809
574.466342	0.978064
574.821059	0.977385
575.175722	0.976615
575.530330	0.976032
575.884882	0.974926
576.239380	0.975216
576.593823	0.974965
576.948211	0.973463
577.302544	0.972157
577.656823	0.971414
578.011047	0.970807
578.365216	0.969931
578.719330	0.968635
579.073389	0.968577
579.427394	0.967384
579.781344	0.966840
580.135239	0.965602
580.489080	0.964025
580.842866	0.963549
581.196597	0.961511
581.550273	0.961519
581.903895	0.960205
582.257463	0.958513
582.610975	0.957338
582.964434	0.956738
583.317837	0.955820
583.671186	0.954173
584.024481	0.952488
584.377721	0.951428
584.730906	0.950363
585.084037	0.949358
585.437113	0.948245
585.790135	0.946149
586.143103	0.945128
586.496016	0.944507
586.848874	0.941592
587.201679	0.941074
587.554428	0.938921
587.907124	0.936957
588.259765	0.936450
588.612352	0.935063
588.964884	0.933908
589.317362	0.932033
589.669786	0.929866
590.022155	0.928518
590.374470	0.925967
590.726731	0.925412
591.078937	0.923436
591.431090	0.920798
591.783188	0.920215
592.135232	0.917927
592.487222	0.917687
592.839157	0.914680
593.191038	0.913528
593.542866	0.911971
593.894639	0.910087
594.246358	0.907637
594.598022	0.905686
594.949633	0.903935
595.301190	0.902258
595.652692	0.900559
596.004141	0.898356
596.355535	0.897217
596.706876	0.895099
597.058162	0.893310
597.409395	0.891027
597.760573	0.888200
598.111698	0.886862
598.462768	0.883791
598.813785	0.882676
599.164748	0.880713
599.515657	0.878970
599.866511	0.876824
600.217312	0.874299
600.568060	0.873449
600.918753	0.871178
601.269392	0.868934
601.619978	0.866902
601.970510	0.863942
602.320988	0.862355
602.671412	0.858061
603.021783	0.857538
603.372100	0.856252
603.722363	0.852450
604.072572	0.850562
604.422728	0.848481
604.772830	0.846197
605.122878	0.843668
605.472872	0.842592
605.822813	0.838302
606.172701	0.836744
606.522534	0.833752
606.872314	0.830909
607.222041	0.828372
607.571714	0.825993
607.921333	0.823080
608.270899	0.820126
608.620411	0.817723
608.969870	0.815861
609.319276	0.813269
609.668627	0.810162
610.017926	0.806575
610.367171	0.803478
610.716362	0.801614
611.065500	0.798378
611.414585	0.795605
611.763616	0.794252
612.112594	0.790625
612.461518	0.787954
612.810389	0.784409
613.159207	0.782887
613.507971	0.780829
613.856682	0.776496
614.205340	0.774815
614.553945	0.770078
614.902496	0.768501
615.250994	0.765837
615.599439	0.763378
615.947830	0.759892
616.296169	0.757865
616.644454	0.754968
616.992686	0.751946
617.340864	0.747480
617.688990	0.746671
618.037063	0.742669
618.385082	0.740355
618.733048	0.735909
619.080961	0.735179
619.428821	0.731796
619.776628	0.727198
620.124382	0.726112
620.472083	0.722404
620.819731	0.720911
621.167326	0.718814
621.514868	0.716341
621.862357	0.715889
622.209793	0.714248
622.557176	0.710898
622.904506	0.709739
623.251783	0.707536
623.599007	0.706011
623.946179	0.703303
624.293297	0.701357
624.640363	0.701054
624.987376	0.697249
625.334336	0.697382
625.681243	0.695497
626.028097	0.693365
626.374899	0.691529
626.721647	0.687806
627.068343	0.687719
627.414987	0.685499
627.761577	0.684112
628.108115	0.680094
628.454600	0.679958
628.801032	0.675475
629.147412	0.675057
629.493739	0.672275
629.840014	0.671855
630.186236	0.667485
630.532405	0.668350
630.878521	0.663836
631.224585	0.662794
631.570597	0.662397
631.916556	0.658782
632.262462	0.657080
632.608316	0.655382
632.954117	0.652922
633.299866	0.652236
633.645562	0.648877
633.991206	0.649827
634.336797	0.648832
634.682336	0.647801
635.027823	0.646056
635.373257	0.644462
635.718639	0.643414
636.063968	0.640339
636.409245	0.642238
636.754470	0.639631
637.099642	0.638922
637.444762	0.638726
637.789829	0.635342
638.134845	0.635098
638.479808	0.634038
638.824719	0.631317
639.169577	0.631982
639.514383	0.628077
639.859137	0.629081
640.203839	0.626802
640.548489	0.624335
640.893086	0.623307
641.237632	0.622589
641.582125	0.618855
641.926566	0.617098
642.270955	0.615975
642.615292	0.614144
642.959576	0.611118
643.303809	0.610211
643.647990	0.607509
643.992118	0.605479
644.336195	0.607185
644.680219	0.602750
645.024192	0.602356
645.368112	0.595677
645.711981	0.593441
646.055797	0.588625
646.399562	0.589292
646.743274	0.581192
647.086935	0.578443
647.430544	0.577681
647.774101	0.573810
648.117606	0.572477
648.461059	0.570410
648.804460	0.569600
649.147810	0.571624
649.491108	0.571070
649.834354	0.569961
650.177548	0.571514
650.520690	0.573445
650.863781	0.572539
651.206820	0.569820
651.549807	0.571494
651.892742	0.572343
652.235626	0.570572
652.578458	0.569763
652.921238	0.572353
653.263967	0.569183
653.606644	0.571450
653.949269	0.568129
654.291843	0.569846
654.634365	0.565747
654.976836	0.566286
655.319255	0.565473
655.661622	0.565165
656.003938	0.562418
656.346203	0.564019
656.688416	0.560587
657.030577	0.561947
657.372687	0.561611
657.714746	0.561049
658.056753	0.556534
658.398708	0.558646
658.740612	0.558440
659.082465	0.553301
659.424266	0.553345
659.766016	0.550780
660.107715	0.551559
660.449362	0.549595
660.790958	0.548674
661.132503	0.547721
661.473996	0.545191
661.815438	0.544208
662.156829	0.543725
662.498168	0.542831
662.839456	0.542891
663.180693	0.539931
663.521879	0.537935
663.863013	0.537942
664.204097	0.534807
664.545129	0.531612
664.886110	0.530548
665.227040	0.526925
665.567918	0.528861
665.908746	0.525653
666.249522	0.524414
666.590248	0.524498
666.930922	0.522451
667.271545	0.519995
667.612118	0.519010
667.952639	0.519704
668.293109	0.516708
668.633528	0.518828
668.973896	0.517508
669.314213	0.516278
669.654480	0.516578
669.994695	0.515631
670.334859	0.514876
670.674973	0.514441
671.015035	0.512827
671.355047	0.511724
671.695008	0.512098
672.034918	0.512852
672.374777	0.511472
672.714585	0.512209
673.054342	0.511036
673.394049	0.509731
673.733705	0.506770
674.073310	0.507348
674.412864	0.508798
674.752368	0.508264
675.091820	0.507336
675.431223	0.511065
675.770574	0.509253
676.109875	0.511330
676.449125	0.509563
676.788324	0.510974
677.127473	0.515592
677.466571	0.514090
677.805619	0.514537
678.144616	0.514251
678.483562	0.514665
678.822458	0.516290
679.161303	0.517028
679.500098	0.516199
679.838842	0.517302
680.177535	0.516208
680.516179	0.514629
680.854771	0.512882
681.193314	0.506550
681.531805	0.498477
681.870247	0.488125
682.208638	0.480759
682.546978	0.479310
682.885268	0.479881
683.223508	0.484741
683.561697	0.487527
683.899836	0.489815
684.237925	0.491927
684.575963	0.494319
684.913951	0.496453
685.251889	0.492338
685.589776	0.493969
685.927614	0.495222
686.265401	0.489871
686.603137	0.490568
686.940824	0.485194
687.278460	0.483406
687.616046	0.482418
687.953582	0.477656
688.291068	0.479231
688.628504	0.474424
688.965889	0.476600
689.303224	0.479758
689.640510	0.482157
689.977745	0.486780
690.314930	0.493481
690.652065	0.496993
690.989150	0.503167
691.326185	0.508235
691.663170	0.511720
692.000105	0.517668
692.336990	0.523609
692.673825	0.525548
693.010610	0.531757
693.347345	0.536977
693.684030	0.537566
694.020665	0.541488
694.357251	0.550188
694.693786	0.548721
695.030272	0.552136
695.366707	0.555276
695.703093	0.558098
696.039429	0.555200
696.375716	0.557247
696.711952	0.559619
697.048139	0.561303
697.384276	0.562146
697.720363	0.560571
698.056400	0.559921
698.392388	0.564876
698.728326	0.567416
699.064214	0.570078
699.400053	0.569568
699.735842	0.572705
700.071581	0.575973
700.407270	0.578227
700.742910	0.580082
701.078501	0.586230
701.414042	0.586005
701.749533	0.588329
702.084974	0.596635
702.420366	0.589225
702.755709	0.596216
703.091002	0.603992
703.426246	0.596806
703.761440	0.602058
704.096584	0.606941
704.431679	0.603416
704.766725	0.605089
705.101721	0.606260
705.436668	0.602639
705.771565	0.609599
706.106413	0.605445
706.441212	0.600941
706.775961	0.600020
707.110661	0.603216
707.445311	0.599018
707.779913	0.595751
708.114465	0.594713
708.448967	0.591747
708.783421	0.583239
709.117825	0.578090
709.452180	0.578300
709.786485	0.571748
710.120742	0.562172
710.454949	0.564256
710.789107	0.556283
711.123216	0.547723
711.457275	0.549882
711.791286	0.541127
712.125247	0.539977
712.459159	0.550061
712.793023	0.543421
713.126837	0.546871
713.460602	0.546864
713.794318	0.555656
714.127985	0.553741
714.461602	0.563739
714.795171	0.566792
715.128691	0.573531
715.462162	0.580528
715.795584	0.585728
716.128957	0.588695
716.462281	0.594870
716.795556	0.598574
717.128782	0.602594
717.461960	0.612422
717.795088	0.610994
718.128167	0.616597
718.461198	0.625679
718.794180	0.625380
719.127113	0.627217
719.459997	0.631498
719.792833	0.637801
720.125619	0.638761
720.458357	0.644358
720.791046	0.643902
721.123686	0.647168
721.456278	0.654331
721.788821	0.651104
722.121315	0.654779
722.453761	0.658623
722.786158	0.657414
723.118506	0.653695
723.450805	0.661126
723.783056	0.657374
724.115259	0.654458
724.447412	0.653749
724.779518	0.655450
725.111574	0.654616
725.443582	0.650230
725.775542	0.651860
726.107453	0.643749
726.439315	0.643713
726.771129	0.642938
727.102895	0.635807
727.434612	0.628931
727.766281	0.626407
728.097901	0.625988
728.429473	0.626088
728.760996	0.624663
729.092471	0.624771
729.423897	0.628080
729.755276	0.627355
730.086606	0.627407
730.417887	0.621362
730.749120	0.613284
731.080305	0.603299
731.411442	0.599369
731.742530	0.604240
732.073570	0.603209
732.404562	0.595774
732.735506	0.597006
733.066401	0.601817
733.397249	0.610555
733.728048	0.622202
734.058798	0.634157
734.389501	0.644314
734.720156	0.653917
735.050762	0.661894
735.381320	0.663147
735.711831	0.672099
736.042293	0.676775
736.372707	0.672709
736.703073	0.676697
737.033391	0.679046
737.363661	0.675388
737.693883	0.670935
738.024056	0.670790
738.354182	0.671236
738.684260	0.659948
739.014290	0.656041
739.344272	0.656706
739.674207	0.650739
740.004093	0.649963
740.333931	0.650635
740.663722	0.650185
740.993464	0.650254
741.323159	0.654952
741.652806	0.659592
741.982405	0.664432
742.311956	0.669327
742.641460	0.670821
742.970915	0.673905
743.300323	0.681905
743.629683	0.688271
743.958996	0.690131
744.288260	0.694415
744.617477	0.700701
744.946647	0.701676
745.275768	0.707397
745.604842	0.706340
745.933869	0.716976
746.262847	0.716731
746.591778	0.710564
746.920662	0.717292
747.249498	0.723125
747.578286	0.713543
747.907027	0.710454
748.235720	0.711621
748.564365	0.705912
748.892963	0.706447
749.221514	0.709123
749.550017	0.714215
749.878473	0.713454
750.206881	0.720494
750.535242	0.721462
750.863555	0.720984
751.191821	0.723255
751.520039	0.725077
751.848210	0.730735
752.176334	0.723088
752.504411	0.721787
752.832440	0.729992
753.160421	0.733703
753.488356	0.732151
753.816243	0.728820
754.144082	0.738160
754.471875	0.741540
754.799620	0.736538
755.127318	0.738026
755.454969	0.738383
755.782572	0.736955
756.110129	0.742678
756.437638	0.745135
756.765100	0.741485
757.092515	0.739500
757.419882	0.737733
757.747203	0.743483
758.074477	0.742320
758.401703	0.740619
758.728882	0.735651
759.056014	0.733958
759.383099	0.733011
759.710138	0.734078
760.037129	0.730400
760.364073	0.724596
760.690970	0.727039
761.017820	0.732744
761.344623	0.728886
761.671379	0.719012
761.998088	0.707939
762.324751	0.684873
762.651366	0.644706
762.977935	0.578725
763.304456	0.527009
763.630931	0.517791
763.957359	0.556300
764.283740	0.601122
764.610074	0.627520
764.936362	0.657833
765.262602	0.684433
765.588796	0.704748
765.914943	0.722749
766.241044	0.740413
766.567097	0.746422
766.893104	0.756230
767.219064	0.761913
767.544978	0.768945
767.870845	0.782831
768.196665	0.785582
768.522438	0.783383
768.848165	0.785570
769.173846	0.793214
769.499479	0.799486
769.825066	0.801868
770.150607	0.807777
770.476101	0.802690
770.801548	0.803111
771.126949	0.814775
771.452303	0.818325
771.777611	0.818082
772.102872	0.817042
772.428087	0.821690
772.753256	0.825729
773.078378	0.827728
773.403453	0.836515
773.728482	0.840072
774.053465	0.833079
774.378401	0.837237
774.703291	0.846524
775.028135	0.844595
775.352932	0.846613
775.677683	0.849652
776.002388	0.850973
776.327046	0.849037
776.651658	0.852962
776.976224	0.855880
777.300743	0.856552
777.625216	0.859011
777.949643	0.860455
778.274024	0.859853
778.598359	0.862484
778.922647	0.860884
779.246889	0.861762
779.571086	0.865693
779.895236	0.867602
780.219339	0.864344
780.543397	0.861495
780.867409	0.860067
781.191374	0.862001
781.515294	0.863834
781.839167	0.862796
782.162995	0.866830
782.486776	0.862938
782.810511	0.863939
783.134201	0.866988
783.457844	0.865152
783.781441	0.867969
784.104993	0.874322
784.428498	0.874288
784.751958	0.869128
785.075372	0.871628
785.398739	0.875334
785.722061	0.872298
786.045337	0.868472
786.368568	0.872591
786.691752	0.875417
787.014891	0.860790
787.337983	0.850467
787.661030	0.845153
787.984031	0.827454
788.306987	0.815354
788.629897	0.817806
788.952760	0.822151
789.275579	0.825974
789.598351	0.840873
789.921078	0.853509
790.243759	0.855015
790.566395	0.860706
790.888984	0.868289
791.211529	0.872125
791.534027	0.876025
791.856480	0.877752
792.178888	0.882609
792.501249	0.884553
792.823566	0.886269
793.145836	0.886119
793.468062	0.888075
793.790241	0.888072
794.112375	0.887035
794.434464	0.881994
794.756507	0.880838
795.078505	0.881119
795.400457	0.874987
795.722364	0.864075
796.044226	0.856104
796.366042	0.855368
796.687812	0.860181
797.009538	0.855542
797.331218	0.859100
797.652852	0.863478
797.974442	0.868755
798.295986	0.867451
798.617484	0.869619
798.938938	0.874512
799.260346	0.879310
799.581709	0.881638
799.903026	0.883239
800.224299	0.883870
800.545526	0.888518
800.866708	0.892335
801.187845	0.895393
801.508936	0.895193
801.829983	0.893820
802.150984	0.895851
802.471940	0.900391
802.792851	0.900820
803.113717	0.902039
803.434538	0.899314
803.755314	0.901263
804.076045	0.903013
804.396731	0.903540
804.717372	0.903504
805.037967	0.905757
805.358518	0.902005
805.679024	0.900123
805.999485	0.899744
806.319901	0.900228
806.640272	0.901989
806.960598	0.899343
807.280879	0.896590
807.601115	0.896194
807.921306	0.898887
808.241453	0.899074
808.561554	0.897134
808.881611	0.896055
809.201623	0.900101
809.521590	0.898196
809.841513	0.900446
810.161390	0.899168
810.481223	0.900986
810.801011	0.904748
811.120755	0.905677
811.440453	0.904723
811.760107	0.903048
812.079716	0.903316
812.399281	0.907419
812.718801	0.909827
813.038276	0.910325
813.357707	0.909795
813.677093	0.906396
813.996434	0.910091
814.315731	0.912006
814.634983	0.912844
814.954191	0.910621
815.273354	0.907532
815.592473	0.904241
815.911547	0.905443
816.230577	0.902633
816.549562	0.900441
816.868502	0.901365
817.187399	0.896235
817.506250	0.891867
817.825058	0.893385
818.143821	0.890363
818.462539	0.885828
818.781213	0.877113
819.099843	0.865881
819.418429	0.851415
819.736970	0.834283
820.055466	0.815466
820.373919	0.791102
820.692327	0.758797
821.010691	0.724562
821.329011	0.649480
821.647286	0.536828
821.965517	0.425161
822.283704	0.382607
822.601847	0.385052
822.919945	0.420346
823.237999	0.452766
823.556010	0.497923
823.873976	0.553286
824.191897	0.602441
824.509775	0.644832
824.827609	0.688198
825.145398	0.710874
825.463144	0.713659
825.780845	0.696100
826.098502	0.678293
826.416116	0.633124
826.733685	0.589730
827.051210	0.582725
827.368692	0.596822
827.686129	0.633052
828.003522	0.684570
828.320872	0.730476
828.638177	0.773907
828.955439	0.806332
829.272656	0.827985
829.589830	0.844892
829.906960	0.858222
830.224046	0.872500
830.541088	0.881865
830.858086	0.885123
831.175041	0.891796
831.491952	0.891570
831.808819	0.887741
832.125642	0.882264
832.442421	0.867390
832.759157	0.845962
833.075849	0.801183
833.392497	0.738321
833.709101	0.698297
834.025662	0.708610
834.342179	0.739154
834.658653	0.777598
834.975083	0.812676
835.291469	0.838259
835.607811	0.860029
835.924110	0.875604
836.240366	0.891961
836.556578	0.905182
836.872746	0.913309
837.188871	0.917807
837.504952	0.924204
837.820990	0.926864
838.136984	0.929551
838.452935	0.932953
838.768842	0.935331
839.084706	0.928685
839.400526	0.903682
839.716303	0.864077
840.032037	0.841585
840.347727	0.846425
840.663373	0.863073
840.978977	0.884159
841.294537	0.906983
841.610054	0.922563
841.925527	0.929247
842.240957	0.936521
842.556344	0.943364
842.871687	0.949083
843.186987	0.952874
843.502244	0.953468
843.817458	0.954243
844.132629	0.958620
844.447756	0.963169
844.762840	0.963603
845.077881	0.962421
845.392879	0.962821
845.707833	0.965131
846.022745	0.966878
846.337613	0.967217
846.652438	0.968653
846.967221	0.966892
847.281960	0.968000
847.596656	0.969719
847.911309	0.968680
848.225919	0.969983
848.540485	0.970402
848.855009	0.970429
849.169490	0.970197
849.483928	0.973114
849.798323	0.971783
850.112675	0.972265
850.426984	0.972167
850.741251	0.971485
851.055474	0.972643
851.369654	0.970709
851.683792	0.972111
851.997887	0.972381
852.311938	0.973466
852.625947	0.972388
852.939914	0.971943
853.253837	0.971947
853.567718	0.973384
853.881555	0.974030
854.195350	0.970058
854.509103	0.972527
854.822812	0.971958
855.136479	0.972417
855.450103	0.972654
855.763685	0.971945
856.077224	0.970468
856.390720	0.972973
856.704173	0.973162
857.017584	0.970838
857.330953	0.968845
857.644278	0.971031
857.957561	0.971667
858.270802	0.971266
858.584000	0.970543
858.897155	0.969510
859.210268	0.968919
859.523339	0.970191
859.836367	0.971536
860.149352	0.973290
860.462295	0.971117
860.775195	0.972563
861.088054	0.971042
861.400869	0.971659
861.713642	0.972791
862.026373	0.972754
862.339062	0.973948
862.651708	0.969906
862.964312	0.969924
863.276873	0.972466
863.589392	0.971888
863.901869	0.970240
864.214303	0.968338
864.526696	0.966372
864.839045	0.966141
865.151353	0.965462
865.463619	0.964870
865.775842	0.964994
866.088023	0.964979
866.400162	0.965725
866.712258	0.966463
867.024313	0.966153
867.336325	0.965990
867.648296	0.966770
867.960224	0.966214
868.272110	0.965263
868.583954	0.966871
868.895755	0.965994
869.207515	0.964462
869.519233	0.961978
869.830909	0.964029
870.142542	0.965461
870.454134	0.964607
870.765684	0.963342
871.077191	0.961549
871.388657	0.962474
871.700081	0.960416
872.011463	0.961898
872.322803	0.962042
872.634101	0.959525
872.945357	0.957885
873.256571	0.956194
873.567744	0.957051
873.878874	0.958201
874.189963	0.955760
874.501010	0.954655
874.812015	0.952979
875.122979	0.954513
875.433900	0.957098
875.744780	0.958282
876.055618	0.954198
876.366415	0.953788
876.677169	0.952530
876.987882	0.954901
877.298554	0.954147
877.609183	0.951123
877.919771	0.948016
878.230317	0.946147
878.540822	0.944612
878.851285	0.941340
879.161707	0.932054
879.472087	0.920521
879.782425	0.905363
880.092722	0.872821
880.402977	0.822156
880.713191	0.764917
881.023363	0.708298
881.333494	0.676355
881.643583	0.647996
881.953631	0.648008
882.263637	0.676995
882.573602	0.714737
882.883526	0.739351
883.193408	0.761484
883.503248	0.782065
883.813048	0.808889
884.122806	0.837916
884.432522	0.860134
884.742197	0.878468
885.051831	0.888280
885.361424	0.898579
885.670975	0.908410
885.980485	0.919253
886.289954	0.925426
886.599382	0.930039
886.908768	0.933851
887.218113	0.939218
887.527417	0.944838
887.836680	0.945295
888.145901	0.948459
888.455082	0.949437
888.764221	0.954622
889.073319	0.956315
889.382376	0.957194
889.691392	0.956739
890.000366	0.956397
890.309300	0.957576
890.618193	0.957639
890.927044	0.955206
891.235855	0.955167
891.544625	0.955457
891.853353	0.956991
892.162041	0.954062
892.470687	0.946440
892.779293	0.942353
893.087858	0.938749
893.396381	0.931862
893.704864	0.919153
894.013306	0.896312
894.321707	0.870534
894.630068	0.857473
894.938387	0.853614
895.246665	0.854468
895.554903	0.866263
895.863100	0.878416
896.171256	0.894594
896.479371	0.913670
896.787446	0.924570
897.095480	0.931429
897.403473	0.933493
897.711425	0.938149
898.019336	0.945431
898.327207	0.948287
898.635038	0.950994
898.942827	0.950127
899.250576	0.953610
899.558284	0.955885
899.865952	0.958046
900.173579	0.959192
900.481165	0.959217
900.788711	0.963944
901.096216	0.965605
901.403681	0.964836
901.711105	0.967274
902.018489	0.966232
902.325832	0.966031
902.633135	0.965162
902.940397	0.959482
903.247619	0.949796
903.554800	0.925162
903.861941	0.886955
904.169041	0.853888
904.476101	0.837394
904.783121	0.839184
905.090100	0.853393
905.397039	0.874492
905.703938	0.895259
906.010796	0.913517
906.317614	0.929410
906.624391	0.940509
906.931129	0.948648
907.237826	0.956148
907.544483	0.962808
907.851099	0.966191
908.157675	0.970898
908.464211	0.972326
908.770707	0.976646
909.077163	0.978273
909.383578	0.977058
909.689954	0.977689
909.996289	0.979160
910.302584	0.982240
910.608839	0.982579
910.915054	0.982292
911.221229	0.981539
911.527363	0.979928
911.833458	0.980888
912.139513	0.980066
912.445527	0.979123
912.751502	0.976942
913.057436	0.976382
913.363331	0.973282
913.669186	0.969701
913.975000	0.964995
914.280775	0.960100
914.586510	0.953580
914.892205	0.941224
915.197859	0.921733
915.503475	0.896233
915.809050	0.878062
916.114585	0.873378
916.420081	0.870637
916.725536	0.867282
917.030952	0.874426
917.336328	0.886073
917.641665	0.901691
917.946961	0.916211
918.252218	0.926671
918.557435	0.934760
918.862612	0.943775
919.167750	0.948093
919.472848	0.951906
919.777906	0.958145
920.082925	0.962738
920.387904	0.967159
920.692843	0.967225
920.997743	0.968647
921.302603	0.972697
921.607423	0.972038
921.912204	0.975420
922.216946	0.976738
922.521647	0.976869
922.826310	0.977970
923.130932	0.979981
923.435516	0.982002
923.740059	0.982745
924.044564	0.982300
924.349028	0.982915
924.653454	0.985965
924.957840	0.987991
925.262186	0.987211
925.566493	0.987250
925.870761	0.987540
926.174989	0.989436
926.479178	0.991416
926.783328	0.990181
927.087438	0.990951
927.391509	0.990616
927.695541	0.992183
927.999533	0.991869
928.303486	0.992491
928.607400	0.993221
928.911275	0.991137
929.215110	0.993701
929.518906	0.993224
929.822663	0.991254
930.126381	0.993110
930.430060	0.991426
930.733699	0.992614
931.037299	0.991857
931.340861	0.992972
931.644383	0.992022
931.947866	0.991653
932.251309	0.992637
932.554714	0.992898
932.858080	0.992395
933.161407	0.992560
933.464694	0.992411
933.767943	0.992043
934.071153	0.993391
934.374323	0.994206
934.677455	0.992982
934.980548	0.992946
935.283602	0.992105
935.586617	0.993264
935.889593	0.992556
936.192530	0.992016
936.495428	0.992778
936.798287	0.992259
937.101108	0.992599
937.403890	0.992707
937.706632	0.991630
938.009336	0.989693
938.312002	0.989348
938.614628	0.986690
938.917216	0.986155
939.219765	0.984098
939.522275	0.985271
939.824747	0.986843
940.127179	0.985188
940.429573	0.986819
940.731929	0.987032
941.034246	0.987534
941.336524	0.987729
941.638763	0.988535
941.940964	0.989263
942.243126	0.988825
942.545250	0.990301
942.847335	0.991099
943.149381	0.990689
943.451389	0.989764
943.753359	0.990339
944.055290	0.993112
944.357182	0.991727
944.659036	0.991108
944.960851	0.991536
945.262628	0.990986
945.564367	0.993702
945.866067	0.992715
946.167729	0.991720
946.469352	0.991667
946.770937	0.991163
947.072484	0.993463
947.373992	0.991291
947.675462	0.992120
947.976893	0.992501
948.278286	0.992621
948.579641	0.994080
948.880958	0.992842
949.182236	0.992689
949.483476	0.993559
949.784678	0.992995
950.085841	0.993871
950.386967	0.993134
950.688054	0.993216
950.989103	0.993073
951.290114	0.991501
951.591087	0.992097
951.892021	0.991857
952.192917	0.991206
952.493776	0.991435
952.794596	0.990292
953.095378	0.990937
953.396122	0.990021
953.696828	0.990313
953.997496	0.991612
954.298126	0.992979
954.598718	0.992612
954.899272	0.993339
955.199788	0.992414
955.500266	0.993337
955.800706	0.995633
956.101108	0.995602
956.401472	0.995211
956.701798	0.995731
957.002087	0.994001
957.302337	0.994823
957.602550	0.997309
957.902724	0.995997
958.202861	0.995109
958.502960	0.996549
958.803022	0.994685
959.103045	0.997154
959.403031	0.997173
959.702979	0.995829
960.002889	0.997368
960.302762	0.996160
960.602596	0.997032
960.902393	0.996242
961.202153	0.998268
961.501875	0.997558
961.801559	0.996530
962.101205	0.997871
962.400814	0.997982
962.700385	0.996703
962.999918	0.997019
963.299414	0.997358
963.598873	0.996547
963.898293	0.997077
964.197677	0.997846
964.497022	0.997850
964.796331	0.998617
965.095601	0.998076
965.394835	0.999045
965.694030	0.998160
965.993189	0.999734
966.292309	0.997442
966.591393	0.999471
966.890439	0.998872
967.189447	0.997990
967.488419	0.999305
967.787353	0.997206
968.086249	0.997214
968.385108	0.998253
968.683930	0.998587
968.982714	0.998937
969.281462	0.999100
969.580172	0.998681
969.878844	0.997900
970.177480	0.997799
970.476078	0.998632
970.774639	0.997620
971.073162	0.999458
971.371649	0.998007
971.670098	0.997699
971.968510	0.998727
972.266885	0.995100
972.565223	0.997391
972.863524	0.997627
973.161788	0.997581
973.460014	0.999077
973.758204	0.997022
974.056356	0.998687
974.354471	0.996116
974.652550	0.996924
974.950591	0.997290
975.248595	0.996517
975.546563	0.998461
975.844493	0.998039
976.142386	0.998644
976.440243	0.999011
976.738062	0.997734
977.035845	0.999498
977.333590	0.997234
977.631299	0.998888
977.928971	0.997140
978.226606	0.998553
978.524204	0.997647
978.821765	0.998782
979.119290	0.998037
979.416777	0.998053
979.714228	0.998609
980.011642	0.997229
980.309020	0.998757
980.606360	0.997802
980.903664	0.999166
981.200931	0.997160
981.498162	0.996372
981.795356	0.995631
982.092513	0.995391
982.389633	0.996192
982.686717	0.992555
982.983764	0.993857
983.280775	0.991497
983.577749	0.993071
983.874686	0.993066
984.171587	0.993237
984.468451	0.995083
984.765279	0.996463
985.062070	0.994731
985.358824	0.996430
985.655543	0.995911
985.952224	0.996909
986.248869	0.997729
986.545478	0.997426
986.842050	0.999313
987.138586	0.995971
987.435086	0.997587
987.731549	0.998977
988.027975	0.998259
988.324366	0.997873
988.620719	0.998415
988.917037	0.996850
989.213318	0.999319
989.509563	0.999383
989.805772	0.999959
990.101944	0.998431
990.398080	0.998312
990.694180	0.998460
990.990244	0.998395
991.286271	0.999061
991.582262	0.998269
991.878217	0.998788
992.174136	0.999027
992.470019	0.999575
992.765865	0.998864
993.061676	0.998570
993.357450	0.998031
993.653188	0.997647
993.948890	0.997665
994.244556	0.999546
994.540186	0.998211
994.835780	0.997435
995.131337	0.998404
995.426859	0.996991
995.722345	0.997843
996.017795	0.996135
996.313208	0.997757
996.608586	0.995953
996.903928	0.998414
997.199234	0.997760
997.494504	0.997337
997.789738	0.996959
998.084936	0.997025
998.380099	0.997053
998.675225	0.996997
998.970316	0.997958
999.265371	0.999618
999.560390	0.999746
999.855373	0.998704
1000.150320	0.998761
1000.445232	0.999808
1000.740108	0.998212
1001.034948	0.999307
1001.329752	0.999315
1001.624521	0.999542
1001.919254	0.997932
1002.213951	0.998769
1002.508613	0.998343
1002.803239	1.000028
1003.097829	0.999355
1003.392384	0.998695
1003.686903	0.999133
1003.981386	0.999001
1004.275834	0.999613
1004.570246	0.998067
1004.864623	0.999474
1005.158964	0.999921
1005.453270	0.998778
1005.747540	0.998698
1006.041775	0.999989
1006.335974	1.000130
1006.630138	0.999384
1006.924266	1.000030
1007.218359	1.000754
1007.512416	1.000493
1007.806438	1.000028
1008.100425	1.000036
1008.394376	0.998984
1008.688292	0.999022
1008.982172	1.001372
1009.276017	0.998920
1009.569827	0.999560
1009.863602	1.000449
1010.157341	0.998623
1010.451045	1.000488
1010.744714	1.000127
1011.038347	0.999830
1011.331945	0.999172
1011.625508	0.998801
1011.919036	0.998667
1012.212528	0.999257
1012.505986	0.998155
1012.799408	0.999175
1013.092795	0.999160
1013.386147	0.999160
1013.679464	0.999008
1013.972745	0.999143
1014.265992	0.997989
1014.559204	0.999168
1014.852380	1.000009
1015.145521	0.998776
1015.438628	0.999458
1015.731699	0.998599
1016.024736	0.999439
1016.317737	0.999214
1016.610703	0.999467
1016.903635	0.999343
1017.196531	0.999589
1017.489393	0.999809
1017.782219	1.000593
1018.075011	0.998480
1018.367768	1.000698
1018.660490	0.999684
1018.953177	0.999684
1019.245829	0.999684
