Dividing Wavelength (nm)	Counts (n)	Blue Motor Position (mm): 0.000000	Red Motor Position (mm): 32.700000	
326.493990	1.000290
326.888308	1.000290
327.282561	1.000290
327.676750	1.000230
328.070874	0.999958
328.464933	0.999861
328.858929	0.999050
329.252859	1.000367
329.646726	0.999587
330.040528	0.999863
330.434265	0.998278
330.827938	1.000164
331.221547	1.000136
331.615091	0.999497
332.008571	0.999336
332.401986	0.999298
332.795338	1.000926
333.188625	0.998327
333.581847	1.000402
333.975006	0.999343
334.368100	0.999523
334.761129	1.000518
335.154095	0.999929
335.546996	0.997476
335.939833	0.994886
336.332606	0.995680
336.725315	0.996512
337.117960	0.997479
337.510540	0.996579
337.903056	0.997011
338.295508	0.995441
338.687896	0.995152
339.080220	0.995863
339.472480	0.996268
339.864676	0.995631
340.256807	0.995979
340.648875	0.997039
341.040879	0.996810
341.432818	0.995648
341.824694	0.996007
342.216506	0.997135
342.608253	0.996675
342.999937	0.995584
343.391557	0.996111
343.783113	0.996491
344.174605	0.995021
344.566033	0.996087
344.957397	0.995615
345.348697	0.994990
345.739934	0.996442
346.131106	0.994496
346.522215	0.994758
346.913260	0.995802
347.304241	0.996118
347.695159	0.994840
348.086012	0.995537
348.476802	0.995046
348.867528	0.997445
349.258191	0.995023
349.648789	0.995612
350.039324	0.996326
350.429796	0.995913
350.820203	0.995999
351.210548	0.996062
351.600828	0.996140
351.991045	0.995528
352.381198	0.994776
352.771288	0.995949
353.161314	0.996063
353.551276	0.996013
353.941175	0.995520
354.331010	0.995693
354.720782	0.997775
355.110490	0.995296
355.500135	0.996469
355.889717	0.996396
356.279235	0.995713
356.668689	0.995807
357.058080	0.995587
357.447408	0.996555
357.836672	0.996450
358.225873	0.996973
358.615010	0.995353
359.004084	0.997840
359.393095	0.995622
359.782043	0.994989
360.170927	0.996161
360.559748	0.996311
360.948505	0.995000
361.337199	0.996292
361.725830	0.996968
362.114398	0.995364
362.502903	0.997335
362.891344	0.997793
363.279722	0.995097
363.668037	0.995882
364.056289	0.995527
364.444478	0.997221
364.832603	0.997221
365.220665	0.995912
365.608665	0.995558
365.996601	0.996822
366.384474	0.996488
366.772284	0.997236
367.160031	0.995980
367.547715	0.995191
367.935336	0.996022
368.322893	0.996400
368.710388	0.995491
369.097820	0.996342
369.485189	0.994823
369.872495	0.995310
370.259738	0.994937
370.646918	0.997021
371.034035	0.997077
371.421090	0.996794
371.808081	0.995837
372.195010	0.996203
372.581875	0.996390
372.968678	0.996457
373.355418	0.995480
373.742096	0.995446
374.128710	0.996627
374.515262	0.995617
374.901751	0.996990
375.288177	0.997867
375.674540	0.996867
376.060841	0.996238
376.447079	0.996295
376.833254	0.996054
377.219367	0.997341
377.605417	0.997720
377.991404	0.996212
378.377329	0.995305
378.763191	0.996322
379.148991	0.996786
379.534727	0.997074
379.920402	0.995900
380.306013	0.997327
380.691563	0.997448
381.077049	0.996733
381.462474	0.996889
381.847835	0.997762
382.233134	0.996276
382.618371	0.996623
383.003545	0.996740
383.388657	0.997113
383.773706	0.997548
384.158693	0.997570
384.543618	0.997122
384.928480	0.998096
385.313280	0.997128
385.698017	0.998233
386.082692	0.998154
386.467305	0.997430
386.851856	0.998058
387.236344	0.996727
387.620770	0.996738
388.005133	0.997297
388.389435	0.998034
388.773674	0.997971
389.157851	0.997794
389.541965	0.997806
389.926018	0.998223
390.310008	0.998314
390.693936	0.997435
391.077802	0.997591
391.461606	0.997270
391.845348	0.997679
392.229027	0.997887
392.612645	0.997937
392.996200	0.999501
393.379694	0.997298
393.763125	0.998881
394.146494	0.997601
394.529801	0.997122
394.913047	0.997982
395.296230	0.998646
395.679351	0.997545
396.062410	0.998259
396.445408	0.997770
396.828343	0.997305
397.211217	0.997504
397.594028	0.998341
397.976778	0.998047
398.359466	0.998215
398.742092	0.996927
399.124656	0.997252
399.507158	0.998181
399.889598	0.998781
400.271977	0.998302
400.654294	0.997630
401.036549	0.998828
401.418742	0.998704
401.800874	0.996817
402.182944	0.998334
402.564952	0.996256
402.946898	0.998558
403.328783	0.997731
403.710606	0.998275
404.092367	0.997264
404.474067	0.999042
404.855705	0.996838
405.237282	0.998895
405.618797	0.997807
406.000250	0.997367
406.381642	0.998652
406.762972	0.997870
407.144240	0.998953
407.525447	0.998351
407.906593	0.997628
408.287677	0.998149
408.668700	0.998990
409.049661	0.997143
409.430560	0.998698
409.811399	0.997661
410.192176	0.997727
410.572891	0.998192
410.953545	0.997430
411.334138	0.997623
411.714669	0.998104
412.095139	0.997415
412.475547	0.998822
412.855894	0.997585
413.236180	0.998205
413.616405	0.998469
413.996568	0.998684
414.376670	0.997870
414.756711	0.997843
415.136691	0.998342
415.516609	0.997980
415.896466	0.997797
416.276262	0.997099
416.655997	0.998484
417.035670	0.997405
417.415283	0.997634
417.794834	0.998446
418.174324	0.998908
418.553753	0.998499
418.933121	0.998618
419.312428	0.998369
419.691674	0.998251
420.070859	0.998287
420.449983	0.999111
420.829045	0.998044
421.208047	0.998568
421.586988	0.999366
421.965867	0.998405
422.344686	0.999475
422.723444	0.998668
423.102141	0.998110
423.480777	0.998153
423.859352	0.998027
424.237866	0.998386
424.616319	0.998145
424.994712	0.998118
425.373044	0.998660
425.751314	0.998083
426.129524	0.998004
426.507673	0.999679
426.885762	0.998882
427.263789	0.998828
427.641756	0.998599
428.019662	0.998968
428.397508	0.998184
428.775292	0.997792
429.153016	0.998296
429.530679	0.998773
429.908282	0.998663
430.285824	0.998136
430.663305	0.998108
431.040726	0.998211
431.418086	0.999664
431.795385	0.998880
432.172624	0.998007
432.549802	0.998759
432.926920	0.998541
433.303977	0.997834
433.680974	0.998633
434.057910	0.997887
434.434786	0.999065
434.811601	0.998262
435.188355	0.998142
435.565050	0.998395
435.941683	0.999053
436.318257	0.999324
436.694770	0.997424
437.071222	0.999166
437.447614	0.998661
437.823946	0.998497
438.200218	0.998737
438.576429	0.997810
438.952580	0.998756
439.328670	0.998036
439.704700	0.999045
440.080670	0.999292
440.456580	0.998371
440.832429	0.997817
441.208218	0.998590
441.583947	0.998517
441.959616	0.998732
442.335224	0.998131
442.710773	0.999815
443.086261	0.998254
443.461689	0.997673
443.837057	0.998389
444.212365	0.998084
444.587612	0.998440
444.962800	0.998166
445.337927	0.998268
445.712995	0.998367
446.088002	0.999358
446.462949	0.998995
446.837837	0.998832
447.212664	0.998943
447.587431	0.998848
447.962139	0.999104
448.336786	0.999313
448.711374	0.999207
449.085901	0.998049
449.460369	0.998837
449.834776	0.998173
450.209124	0.999147
450.583412	0.998488
450.957640	0.999146
451.331808	0.998151
451.705917	0.998484
452.079965	0.998432
452.453954	0.998841
452.827883	0.998915
453.201752	0.998331
453.575562	0.999041
453.949311	0.999627
454.323001	0.998163
454.696632	0.998329
455.070202	0.998476
455.443713	0.998106
455.817164	0.998305
456.190556	0.998394
456.563888	0.998506
456.937160	0.998847
457.310373	0.999109
457.683526	0.998028
458.056619	0.998406
458.429653	0.998568
458.802628	0.997907
459.175542	0.998411
459.548398	0.998252
459.921194	0.998331
460.293930	0.999371
460.666607	0.998557
461.039224	0.997853
461.411782	0.998488
461.784280	0.997873
462.156719	0.998803
462.529099	0.998772
462.901419	0.998233
463.273680	0.998053
463.645882	0.998183
464.018024	0.998309
464.390106	0.998142
464.762130	0.999025
465.134094	0.998854
465.505999	0.999338
465.877845	0.999269
466.249631	0.999609
466.621358	0.998822
466.993026	0.999114
467.364634	0.997627
467.736184	0.999271
468.107674	0.998198
468.479105	0.997936
468.850477	0.998965
469.221790	0.998090
469.593043	0.998884
469.964238	0.999367
470.335373	0.998133
470.706449	0.998681
471.077467	0.998986
471.448425	0.998368
471.819324	0.999286
472.190164	0.997889
472.560945	0.998306
472.931667	0.998378
473.302330	0.997763
473.672934	0.998066
474.043479	0.998155
474.413965	0.998234
474.784393	0.998182
475.154761	0.998251
475.525070	0.997572
475.895321	0.997928
476.265513	0.997756
476.635645	0.997421
477.005719	0.998201
477.375734	0.997423
477.745691	0.998362
478.115588	0.997917
478.485427	0.997704
478.855207	0.997661
479.224928	0.998415
479.594591	0.997755
479.964194	0.998227
480.333739	0.997451
480.703226	0.996856
481.072653	0.997460
481.442022	0.997239
481.811333	0.996308
482.180584	0.996802
482.549777	0.995834
482.918912	0.995192
483.287988	0.995670
483.657005	0.995224
484.025964	0.995608
484.394864	0.995108
484.763706	0.994384
485.132489	0.994525
485.501213	0.993367
485.869879	0.992926
486.238487	0.993107
486.607036	0.992316
486.975527	0.990986
487.343959	0.990766
487.712333	0.990151
488.080648	0.989451
488.448905	0.989188
488.817104	0.988742
489.185244	0.987588
489.553326	0.986877
489.921350	0.984972
490.289315	0.982924
490.657222	0.983387
491.025070	0.982102
491.392861	0.980841
491.760593	0.980310
492.128267	0.979241
492.495883	0.979089
492.863440	0.977919
493.230939	0.976964
493.598380	0.974879
493.965763	0.973285
494.333088	0.972817
494.700354	0.970637
495.067563	0.969655
495.434713	0.967716
495.801805	0.967395
496.168839	0.964265
496.535815	0.961623
496.902733	0.960971
497.269593	0.958402
497.636395	0.957446
498.003139	0.954670
498.369825	0.953558
498.736453	0.950154
499.103023	0.947877
499.469535	0.945498
499.835989	0.943867
500.202385	0.941063
500.568723	0.938769
500.935003	0.935774
501.301226	0.932551
501.667390	0.930703
502.033497	0.926778
502.399546	0.925063
502.765537	0.920416
503.131470	0.917732
503.497345	0.914207
503.863163	0.912897
504.228923	0.907490
504.594625	0.904580
504.960269	0.901774
505.325856	0.897663
505.691385	0.893352
506.056856	0.889724
506.422270	0.884908
506.787625	0.881846
507.152924	0.876741
507.518164	0.873962
507.883347	0.869211
508.248472	0.865248
508.613540	0.860284
508.978550	0.856490
509.343503	0.851347
509.708398	0.846783
510.073236	0.841600
510.438016	0.837298
510.802738	0.832508
511.167403	0.827194
511.532010	0.821686
511.896561	0.816681
512.261053	0.811914
512.625488	0.805728
512.989866	0.801643
513.354186	0.795792
513.718449	0.790861
514.082655	0.785174
514.446803	0.779524
514.810894	0.773870
515.174927	0.768223
515.538904	0.763005
515.902822	0.756228
516.266684	0.752406
516.630488	0.746177
516.994235	0.740208
517.357925	0.732803
517.721558	0.727446
518.085133	0.720060
518.448651	0.716015
518.812112	0.710538
519.175516	0.703597
519.538863	0.697171
519.902152	0.693319
520.265385	0.684460
520.628560	0.680316
520.991678	0.673515
521.354739	0.668148
521.717743	0.662021
522.080690	0.656752
522.443580	0.647926
522.806413	0.642637
523.169189	0.636777
523.531908	0.630337
523.894569	0.625988
524.257174	0.619909
524.619722	0.612152
524.982213	0.607737
525.344647	0.600735
525.707025	0.595577
526.069345	0.588159
526.431608	0.582734
526.793815	0.575983
527.155964	0.572214
527.518057	0.566501
527.880093	0.561092
528.242072	0.554625
528.603995	0.549619
528.965860	0.545490
529.327669	0.538826
529.689421	0.533953
530.051117	0.529028
530.412755	0.520702
530.774337	0.518532
531.135862	0.511703
531.497331	0.506878
531.858743	0.502638
532.220098	0.495861
532.581396	0.492373
532.942638	0.487595
533.303824	0.482933
533.664953	0.477124
534.026025	0.473603
534.387040	0.467104
534.747999	0.462381
535.108902	0.456601
535.469748	0.455167
535.830537	0.449026
536.191270	0.444354
536.551947	0.438975
536.912567	0.435298
537.273131	0.432351
537.633638	0.427879
537.994089	0.423133
538.354483	0.419976
538.714821	0.413611
539.075103	0.409078
539.435328	0.405119
539.795497	0.404588
540.155609	0.396944
540.515665	0.392140
540.875665	0.392580
541.235609	0.387221
541.595496	0.383306
541.955328	0.376248
542.315102	0.375641
542.674821	0.372620
543.034483	0.369131
543.394090	0.365508
543.753640	0.363756
544.113134	0.355816
544.472571	0.355603
544.831953	0.349227
545.191278	0.350117
545.550548	0.346935
545.909761	0.340509
546.268918	0.338187
546.628019	0.333809
546.987064	0.333120
547.346053	0.332522
547.704986	0.327467
548.063863	0.325219
548.422684	0.322776
548.781449	0.321731
549.140158	0.316859
549.498811	0.317157
549.857408	0.318013
550.215949	0.310469
550.574434	0.311203
550.932864	0.306669
551.291237	0.304063
551.649555	0.302624
552.007817	0.300442
552.366022	0.299278
552.724173	0.297764
553.082267	0.296581
553.440305	0.291284
553.798288	0.294156
554.156215	0.288606
554.514086	0.287775
554.871902	0.289521
555.229661	0.287067
555.587365	0.285947
555.945014	0.287237
556.302606	0.282491
556.660143	0.283657
557.017625	0.278720
557.375050	0.279755
557.732421	0.275268
558.089735	0.276151
558.446994	0.275069
558.804197	0.273230
559.161345	0.271927
559.518437	0.273979
559.875474	0.270797
560.232455	0.269180
560.589381	0.269508
560.946251	0.268243
561.303065	0.265263
561.659825	0.265714
562.016528	0.266294
562.373177	0.268381
562.729770	0.264821
563.086307	0.266185
563.442789	0.263439
563.799216	0.265340
564.155587	0.263301
564.511904	0.263884
564.868164	0.263129
565.224370	0.262625
565.580520	0.263661
565.936615	0.263332
566.292654	0.265419
566.648638	0.262291
567.004567	0.262406
567.360441	0.262626
567.716260	0.264421
568.072023	0.261823
568.427732	0.261997
568.783385	0.264285
569.138982	0.262026
569.494525	0.261204
569.850013	0.263896
570.205445	0.261907
570.560823	0.264124
570.916145	0.265511
571.271412	0.263847
571.626625	0.264989
571.981782	0.265140
572.336884	0.265790
572.691931	0.265286
573.046923	0.266340
573.401860	0.267360
573.756743	0.268823
574.111570	0.267685
574.466342	0.267953
574.821059	0.267319
575.175722	0.269471
575.530330	0.269222
575.884882	0.269330
576.239380	0.271367
576.593823	0.271295
576.948211	0.270800
577.302544	0.274191
577.656823	0.273338
578.011047	0.273505
578.365216	0.274264
578.719330	0.276033
579.073389	0.275597
579.427394	0.276748
579.781344	0.277523
580.135239	0.278623
580.489080	0.278370
580.842866	0.281300
581.196597	0.281035
581.550273	0.279753
581.903895	0.280550
582.257463	0.278832
582.610975	0.281948
582.964434	0.281365
583.317837	0.283656
583.671186	0.284037
584.024481	0.284081
584.377721	0.286403
584.730906	0.286821
585.084037	0.286048
585.437113	0.288087
585.790135	0.287079
586.143103	0.290034
586.496016	0.291351
586.848874	0.288996
587.201679	0.289281
587.554428	0.292550
587.907124	0.291244
588.259765	0.291874
588.612352	0.292283
588.964884	0.296332
589.317362	0.295654
589.669786	0.295521
590.022155	0.294092
590.374470	0.293346
590.726731	0.295689
591.078937	0.300036
591.431090	0.296365
591.783188	0.300551
592.135232	0.301293
592.487222	0.301017
592.839157	0.299127
593.191038	0.301818
593.542866	0.303357
593.894639	0.307009
594.246358	0.304806
594.598022	0.304142
594.949633	0.307731
595.301190	0.308593
595.652692	0.307640
596.004141	0.304039
596.355535	0.312144
596.706876	0.312241
597.058162	0.314742
597.409395	0.312217
597.760573	0.309878
598.111698	0.312690
598.462768	0.313298
598.813785	0.314576
599.164748	0.316095
599.515657	0.316319
599.866511	0.319460
600.217312	0.314995
600.568060	0.320248
600.918753	0.316459
601.269392	0.317317
601.619978	0.320788
601.970510	0.318470
602.320988	0.318391
602.671412	0.316347
603.021783	0.318612
603.372100	0.319762
603.722363	0.319724
604.072572	0.320420
604.422728	0.320378
604.772830	0.322164
605.122878	0.321718
605.472872	0.322635
605.822813	0.320614
606.172701	0.323236
606.522534	0.320963
606.872314	0.320954
607.222041	0.321550
607.571714	0.320112
607.921333	0.321335
608.270899	0.320869
608.620411	0.318076
608.969870	0.321278
609.319276	0.321561
609.668627	0.321451
610.017926	0.319986
610.367171	0.318583
610.716362	0.319233
611.065500	0.319708
611.414585	0.318381
611.763616	0.318976
612.112594	0.318942
612.461518	0.318676
612.810389	0.316330
613.159207	0.319079
613.507971	0.320434
613.856682	0.316287
614.205340	0.317901
614.553945	0.314458
614.902496	0.318702
615.250994	0.316650
615.599439	0.317204
615.947830	0.316738
616.296169	0.317378
616.644454	0.317142
616.992686	0.317371
617.340864	0.315349
617.688990	0.318842
618.037063	0.315317
618.385082	0.317423
618.733048	0.314253
619.080961	0.316516
619.428821	0.315695
619.776628	0.315337
620.124382	0.317539
620.472083	0.317814
620.819731	0.316798
621.167326	0.320878
621.514868	0.320641
621.862357	0.324727
622.209793	0.324356
622.557176	0.326604
622.904506	0.327711
623.251783	0.329786
623.599007	0.332225
623.946179	0.331936
624.293297	0.334070
624.640363	0.337482
624.987376	0.338362
625.334336	0.340429
625.681243	0.342920
626.028097	0.343715
626.374899	0.344386
626.721647	0.344670
627.068343	0.347902
627.414987	0.348832
627.761577	0.351541
628.108115	0.349396
628.454600	0.354691
628.801032	0.352276
629.147412	0.354038
629.493739	0.354463
629.840014	0.357344
630.186236	0.355109
630.532405	0.360376
630.878521	0.357790
631.224585	0.359786
631.570597	0.363778
631.916556	0.362097
632.262462	0.362507
632.608316	0.364519
632.954117	0.365455
633.299866	0.366077
633.645562	0.366875
633.991206	0.370776
634.336797	0.373942
634.682336	0.375877
635.027823	0.377489
635.373257	0.377886
635.718639	0.381862
636.063968	0.380691
636.409245	0.386473
636.754470	0.387311
637.099642	0.389655
637.444762	0.392920
637.789829	0.391877
638.134845	0.395496
638.479808	0.396394
638.824719	0.395785
639.169577	0.400580
639.514383	0.398781
639.859137	0.403062
640.203839	0.403188
640.548489	0.403305
640.893086	0.405173
641.237632	0.406492
641.582125	0.405317
641.926566	0.406353
642.270955	0.406505
642.615292	0.406910
642.959576	0.406196
643.303809	0.406825
643.647990	0.406252
643.992118	0.406814
644.336195	0.410834
644.680219	0.408902
645.024192	0.409544
645.368112	0.403094
645.711981	0.401848
646.055797	0.397375
646.399562	0.399980
646.743274	0.391989
647.086935	0.388867
647.430544	0.389458
647.774101	0.388126
648.117606	0.387822
648.461059	0.388423
648.804460	0.390869
649.147810	0.395825
649.491108	0.397566
649.834354	0.398929
650.177548	0.404904
650.520690	0.409702
650.863781	0.411324
651.206820	0.410677
651.549807	0.414886
651.892742	0.418886
652.235626	0.418875
652.578458	0.419952
652.921238	0.425350
653.263967	0.423795
653.606644	0.427223
653.949269	0.427128
654.291843	0.431149
654.634365	0.427780
654.976836	0.430640
655.319255	0.431120
655.661622	0.432233
656.003938	0.432640
656.346203	0.435824
656.688416	0.433678
657.030577	0.437400
657.372687	0.438856
657.714746	0.439597
658.056753	0.436726
658.398708	0.440598
658.740612	0.441734
659.082465	0.437520
659.424266	0.438363
659.766016	0.437388
660.107715	0.440113
660.449362	0.439370
660.790958	0.440176
661.132503	0.440363
661.473996	0.438189
661.815438	0.438891
662.156829	0.439322
662.498168	0.439837
662.839456	0.441429
663.180693	0.438707
663.521879	0.439328
663.863013	0.440530
664.204097	0.438729
664.545129	0.435278
664.886110	0.435513
665.227040	0.433164
665.567918	0.435776
665.908746	0.433774
666.249522	0.433348
666.590248	0.434317
666.930922	0.432277
667.271545	0.431440
667.612118	0.431461
667.952639	0.433254
668.293109	0.431434
668.633528	0.434825
668.973896	0.434368
669.314213	0.434995
669.654480	0.436592
669.994695	0.436975
670.334859	0.437767
670.674973	0.438101
671.015035	0.438140
671.355047	0.438408
671.695008	0.439012
672.034918	0.440885
672.374777	0.440033
672.714585	0.441190
673.054342	0.441642
673.394049	0.441324
673.733705	0.439220
674.073310	0.440161
674.412864	0.443052
674.752368	0.444126
675.091820	0.444280
675.431223	0.448831
675.770574	0.448618
676.109875	0.451214
676.449125	0.451178
676.788324	0.453457
677.127473	0.458823
677.466571	0.457945
677.805619	0.460260
678.144616	0.461602
678.483562	0.462665
678.822458	0.465725
679.161303	0.466542
679.500098	0.467230
679.838842	0.469380
680.177535	0.468725
680.516179	0.466570
680.854771	0.466308
681.193314	0.459474
681.531805	0.451151
681.870247	0.439379
682.208638	0.431681
682.546978	0.430448
682.885268	0.432219
683.223508	0.438468
683.561697	0.442328
683.899836	0.444950
684.237925	0.448432
684.575963	0.450745
684.913951	0.454326
685.251889	0.450178
685.589776	0.451872
685.927614	0.453783
686.265401	0.449146
686.603137	0.450121
686.940824	0.443831
687.278460	0.442047
687.616046	0.442294
687.953582	0.436323
688.291068	0.437880
688.628504	0.434037
688.965889	0.435831
689.303224	0.439746
689.640510	0.444105
689.977745	0.449525
690.314930	0.457795
690.652065	0.462016
690.989150	0.469526
691.326185	0.475871
691.663170	0.480511
692.000105	0.487719
692.336990	0.494316
692.673825	0.497179
693.010610	0.503657
693.347345	0.509532
693.684030	0.510886
694.020665	0.515682
694.357251	0.524293
694.693786	0.524458
695.030272	0.527739
695.366707	0.531286
695.703093	0.535056
696.039429	0.532722
696.375716	0.534010
696.711952	0.537427
697.048139	0.539118
697.384276	0.541273
697.720363	0.538977
698.056400	0.538801
698.392388	0.544117
698.728326	0.547208
699.064214	0.550083
699.400053	0.550159
699.735842	0.554191
700.071581	0.557338
700.407270	0.559844
700.742910	0.562433
701.078501	0.569112
701.414042	0.569252
701.749533	0.572359
702.084974	0.581547
702.420366	0.573358
702.755709	0.580960
703.091002	0.588281
703.426246	0.581789
703.761440	0.588124
704.096584	0.592802
704.431679	0.589312
704.766725	0.591337
705.101721	0.593376
705.436668	0.589409
705.771565	0.596889
706.106413	0.593112
706.441212	0.588175
706.775961	0.587034
707.110661	0.590142
707.445311	0.585656
707.779913	0.584169
708.114465	0.582165
708.448967	0.578909
708.783421	0.571351
709.117825	0.565800
709.452180	0.566147
709.786485	0.559706
710.120742	0.549704
710.454949	0.551370
710.789107	0.543692
711.123216	0.535023
711.457275	0.536471
711.791286	0.527514
712.125247	0.526026
712.459159	0.537252
712.793023	0.529825
713.126837	0.533610
713.460602	0.534161
713.794318	0.543780
714.127985	0.542229
714.461602	0.552209
714.795171	0.555441
715.128691	0.563534
715.462162	0.570754
715.795584	0.575858
716.128957	0.579200
716.462281	0.586577
716.795556	0.589361
717.128782	0.594115
717.461960	0.603944
717.795088	0.602003
718.128167	0.608349
718.461198	0.617079
718.794180	0.617512
719.127113	0.620407
719.459997	0.624295
719.792833	0.630505
720.125619	0.631849
720.458357	0.637642
720.791046	0.636491
721.123686	0.640763
721.456278	0.647146
721.788821	0.644693
722.121315	0.648568
722.453761	0.652669
722.786158	0.650784
723.118506	0.646611
723.450805	0.655575
723.783056	0.651101
724.115259	0.648545
724.447412	0.647700
724.779518	0.649620
725.111574	0.648483
725.443582	0.643926
725.775542	0.646023
726.107453	0.638403
726.439315	0.638552
726.771129	0.636894
727.102895	0.629646
727.434612	0.623614
727.766281	0.620942
728.097901	0.619866
728.429473	0.620378
728.760996	0.618189
729.092471	0.618176
729.423897	0.622010
729.755276	0.621604
730.086606	0.621392
730.417887	0.616880
730.749120	0.607416
731.080305	0.597216
731.411442	0.593523
731.742530	0.598171
732.073570	0.598256
732.404562	0.589698
732.735506	0.591856
733.066401	0.596546
733.397249	0.605452
733.728048	0.616753
734.058798	0.629452
734.389501	0.639381
734.720156	0.649365
735.050762	0.657029
735.381320	0.658477
735.711831	0.667711
736.042293	0.672696
736.372707	0.667908
736.703073	0.672960
737.033391	0.675766
737.363661	0.671937
737.693883	0.666961
738.024056	0.666425
738.354182	0.666756
738.684260	0.656281
739.014290	0.652810
739.344272	0.653114
739.674207	0.646385
740.004093	0.645817
740.333931	0.646086
740.663722	0.646556
740.993464	0.647210
741.323159	0.649875
741.652806	0.655318
741.982405	0.660216
742.311956	0.664952
742.641460	0.667341
742.970915	0.670392
743.300323	0.678328
743.629683	0.684744
743.958996	0.686925
744.288260	0.691005
744.617477	0.696343
744.946647	0.698323
745.275768	0.703568
745.604842	0.702946
745.933869	0.713774
746.262847	0.713648
746.591778	0.707690
746.920662	0.713557
747.249498	0.719697
747.578286	0.710949
747.907027	0.706739
748.235720	0.708306
748.564365	0.702698
748.892963	0.702658
749.221514	0.706147
749.550017	0.711014
749.878473	0.710726
750.206881	0.717435
750.535242	0.718769
750.863555	0.718560
751.191821	0.718834
751.520039	0.721618
751.848210	0.726943
752.176334	0.720075
752.504411	0.719163
752.832440	0.727101
753.160421	0.730175
753.488356	0.728377
753.816243	0.726202
754.144082	0.734387
754.471875	0.738126
754.799620	0.733690
755.127318	0.735212
755.454969	0.734786
755.782572	0.734505
756.110129	0.739154
756.437638	0.742360
756.765100	0.738063
757.092515	0.736421
757.419882	0.735541
757.747203	0.741011
758.074477	0.740587
758.401703	0.737326
758.728882	0.732461
759.056014	0.731270
759.383099	0.730186
759.710138	0.731753
760.037129	0.728261
760.364073	0.721971
760.690970	0.725007
761.017820	0.730524
761.344623	0.725461
761.671379	0.717444
761.998088	0.704597
762.324751	0.683208
762.651366	0.641901
762.977935	0.575380
763.304456	0.523368
763.630931	0.513947
763.957359	0.552398
764.283740	0.597065
764.610074	0.624203
764.936362	0.654522
765.262602	0.680905
765.588796	0.702192
765.914943	0.720543
766.241044	0.737570
766.567097	0.744419
766.893104	0.754802
767.219064	0.760196
767.544978	0.766624
767.870845	0.780158
768.196665	0.784209
768.522438	0.781542
768.848165	0.783566
769.173846	0.791845
769.499479	0.796864
769.825066	0.800269
770.150607	0.804802
770.476101	0.800581
770.801548	0.800561
771.126949	0.812226
771.452303	0.816582
771.777611	0.815903
772.102872	0.814956
772.428087	0.819331
772.753256	0.823620
773.078378	0.824982
773.403453	0.834026
773.728482	0.838510
774.053465	0.831445
774.378401	0.836054
774.703291	0.843155
775.028135	0.843290
775.352932	0.844678
775.677683	0.848309
776.002388	0.848010
776.327046	0.847716
776.651658	0.850471
776.976224	0.854189
777.300743	0.855140
777.625216	0.856634
777.949643	0.857968
778.274024	0.858191
778.598359	0.859342
778.922647	0.858368
779.246889	0.860101
779.571086	0.863661
779.895236	0.865600
780.219339	0.862543
780.543397	0.860018
780.867409	0.858231
781.191374	0.861193
781.515294	0.862722
781.839167	0.860453
782.162995	0.864447
782.486776	0.861078
782.810511	0.862036
783.134201	0.864737
783.457844	0.863060
783.781441	0.866979
784.104993	0.871773
784.428498	0.872462
784.751958	0.868352
785.075372	0.869997
785.398739	0.874301
785.722061	0.870496
786.045337	0.865562
786.368568	0.870962
786.691752	0.873369
787.014891	0.859628
787.337983	0.850679
787.661030	0.843499
787.984031	0.826142
788.306987	0.812722
788.629897	0.814773
788.952760	0.819240
789.275579	0.823611
789.598351	0.839299
789.921078	0.851328
790.243759	0.853550
790.566395	0.858488
790.888984	0.865288
791.211529	0.870759
791.534027	0.873489
791.856480	0.876569
792.178888	0.880190
792.501249	0.883678
792.823566	0.884299
793.145836	0.883724
793.468062	0.886304
793.790241	0.887201
794.112375	0.884685
794.434464	0.879909
794.756507	0.879993
795.078505	0.879093
795.400457	0.874459
795.722364	0.862380
796.044226	0.855569
796.366042	0.854276
796.687812	0.857129
797.009538	0.854357
797.331218	0.856128
797.652852	0.861545
797.974442	0.866840
798.295986	0.865412
798.617484	0.868347
798.938938	0.873150
799.260346	0.877147
799.581709	0.879391
799.903026	0.882285
800.224299	0.881847
800.545526	0.885767
800.866708	0.890496
801.187845	0.893489
801.508936	0.893248
801.829983	0.891813
802.150984	0.893687
802.471940	0.898991
802.792851	0.899621
803.113717	0.899985
803.434538	0.898457
803.755314	0.899502
804.076045	0.901849
804.396731	0.901066
804.717372	0.901043
805.037967	0.903298
805.358518	0.900688
805.679024	0.897930
805.999485	0.899003
806.319901	0.898497
806.640272	0.900277
806.960598	0.897776
807.280879	0.895251
807.601115	0.894660
807.921306	0.897162
808.241453	0.897406
808.561554	0.895958
808.881611	0.895613
809.201623	0.898306
809.521590	0.897679
809.841513	0.899557
810.161390	0.897496
810.481223	0.899502
810.801011	0.902353
811.120755	0.904794
811.440453	0.902847
811.760107	0.902461
812.079716	0.901413
812.399281	0.905206
812.718801	0.909626
813.038276	0.909096
813.357707	0.908551
813.677093	0.904990
813.996434	0.907953
814.315731	0.910215
814.634983	0.910856
814.954191	0.909820
815.273354	0.906704
815.592473	0.903112
815.911547	0.903582
816.230577	0.900257
816.549562	0.897239
816.868502	0.899328
817.187399	0.893988
817.506250	0.890445
817.825058	0.891463
818.143821	0.888255
818.462539	0.882577
818.781213	0.874881
819.099843	0.865613
819.418429	0.849379
819.736970	0.833036
820.055466	0.813096
820.373919	0.788733
820.692327	0.755289
821.010691	0.721979
821.329011	0.646047
821.647286	0.532586
821.965517	0.420067
822.283704	0.377666
822.601847	0.379901
822.919945	0.415639
823.237999	0.448300
823.556010	0.493981
823.873976	0.548986
824.191897	0.598995
824.509775	0.640703
824.827609	0.684787
825.145398	0.707871
825.463144	0.709765
825.780845	0.692657
826.098502	0.675212
826.416116	0.630739
826.733685	0.587031
827.051210	0.578332
827.368692	0.592848
827.686129	0.629320
828.003522	0.681341
828.320872	0.728515
828.638177	0.772201
828.955439	0.803872
829.272656	0.825598
829.589830	0.842427
829.906960	0.858334
830.224046	0.869931
830.541088	0.879581
830.858086	0.882900
831.175041	0.889590
831.491952	0.889438
831.808819	0.886501
832.125642	0.879419
832.442421	0.864769
832.759157	0.843243
833.075849	0.798374
833.392497	0.735949
833.709101	0.695434
834.025662	0.703845
834.342179	0.735853
834.658653	0.774407
834.975083	0.809710
835.291469	0.835308
835.607811	0.857428
835.924110	0.872704
836.240366	0.890780
836.556578	0.903351
836.872746	0.910837
837.188871	0.916480
837.504952	0.922101
837.820990	0.925452
838.136984	0.929380
838.452935	0.931729
838.768842	0.933176
839.084706	0.926051
839.400526	0.901465
839.716303	0.862473
840.032037	0.839650
840.347727	0.844058
840.663373	0.862055
840.978977	0.883149
841.294537	0.904894
841.610054	0.920941
841.925527	0.927196
842.240957	0.935602
842.556344	0.941102
842.871687	0.946618
843.186987	0.951876
843.502244	0.950519
843.817458	0.952986
844.132629	0.956836
844.447756	0.962067
844.762840	0.962199
845.077881	0.960997
845.392879	0.960615
845.707833	0.963841
846.022745	0.965364
846.337613	0.965537
846.652438	0.967731
846.967221	0.965739
847.281960	0.965930
847.596656	0.967653
847.911309	0.966615
848.225919	0.968610
848.540485	0.969378
848.855009	0.970048
849.169490	0.969108
849.483928	0.969901
849.798323	0.970152
850.112675	0.969734
850.426984	0.970767
850.741251	0.970672
851.055474	0.971386
851.369654	0.968404
851.683792	0.970427
851.997887	0.970257
852.311938	0.971891
852.625947	0.970624
852.939914	0.969698
853.253837	0.969310
853.567718	0.970528
853.881555	0.971286
854.195350	0.968912
854.509103	0.970231
854.822812	0.970203
855.136479	0.970379
855.450103	0.971032
855.763685	0.969787
856.077224	0.969300
856.390720	0.972224
856.704173	0.971601
857.017584	0.969607
857.330953	0.968476
857.644278	0.968656
857.957561	0.970142
858.270802	0.969515
858.584000	0.969065
858.897155	0.967810
859.210268	0.968493
859.523339	0.968987
859.836367	0.971595
860.149352	0.971190
860.462295	0.970626
860.775195	0.971318
861.088054	0.969580
861.400869	0.970652
861.713642	0.970776
862.026373	0.970644
862.339062	0.972065
862.651708	0.968718
862.964312	0.967769
863.276873	0.970578
863.589392	0.968785
863.901869	0.967884
864.214303	0.965974
864.526696	0.964913
864.839045	0.964696
865.151353	0.963114
865.463619	0.964368
865.775842	0.963071
866.088023	0.963383
866.400162	0.962628
866.712258	0.963795
867.024313	0.964450
867.336325	0.964307
867.648296	0.964365
867.960224	0.963652
868.272110	0.962228
868.583954	0.964139
868.895755	0.965777
869.207515	0.962596
869.519233	0.960325
869.830909	0.962971
870.142542	0.963973
870.454134	0.962845
870.765684	0.962175
871.077191	0.958981
871.388657	0.959963
871.700081	0.959449
872.011463	0.959779
872.322803	0.959493
872.634101	0.958941
872.945357	0.955792
873.256571	0.955331
873.567744	0.954967
873.878874	0.955687
874.189963	0.954445
874.501010	0.952672
874.812015	0.950708
875.122979	0.953291
875.433900	0.954943
875.744780	0.954605
876.055618	0.952756
876.366415	0.952344
876.677169	0.950256
876.987882	0.953030
877.298554	0.952251
877.609183	0.949984
877.919771	0.947800
878.230317	0.945158
878.540822	0.944004
878.851285	0.938677
879.161707	0.929454
879.472087	0.919325
879.782425	0.903301
880.092722	0.870218
880.402977	0.819588
880.713191	0.761218
881.023363	0.703638
881.333494	0.670329
881.643583	0.643116
881.953631	0.643321
882.263637	0.671621
882.573602	0.710574
882.883526	0.735086
883.193408	0.758137
883.503248	0.778206
883.813048	0.804959
884.122806	0.833955
884.432522	0.856480
884.742197	0.875214
885.051831	0.886245
885.361424	0.895541
885.670975	0.907747
885.980485	0.917494
886.289954	0.922944
886.599382	0.927464
886.908768	0.930169
887.218113	0.936839
887.527417	0.941286
887.836680	0.944560
888.145901	0.946173
888.455082	0.948125
888.764221	0.953334
889.073319	0.955076
889.382376	0.954880
889.691392	0.955291
890.000366	0.954940
890.309300	0.955935
890.618193	0.955339
890.927044	0.953335
891.235855	0.953928
891.544625	0.953595
891.853353	0.954319
892.162041	0.950940
892.470687	0.944947
892.779293	0.939795
893.087858	0.937211
893.396381	0.930041
893.704864	0.917234
894.013306	0.893607
894.321707	0.866932
894.630068	0.853410
894.938387	0.850037
895.246665	0.851358
895.554903	0.862777
895.863100	0.875553
896.171256	0.892612
896.479371	0.911641
896.787446	0.922058
897.095480	0.928771
897.403473	0.931476
897.711425	0.935221
898.019336	0.943041
898.327207	0.944788
898.635038	0.947463
898.942827	0.946688
899.250576	0.949818
899.558284	0.953715
899.865952	0.956456
900.173579	0.956807
900.481165	0.957894
900.788711	0.961236
901.096216	0.963125
901.403681	0.963448
901.711105	0.965008
902.018489	0.964607
902.325832	0.964680
902.633135	0.963586
902.940397	0.958340
903.247619	0.946464
903.554800	0.921632
903.861941	0.884311
904.169041	0.850670
904.476101	0.834366
904.783121	0.835144
905.090100	0.850044
905.397039	0.871407
905.703938	0.891211
906.010796	0.910493
906.317614	0.927621
906.624391	0.936934
906.931129	0.946441
907.237826	0.954982
907.544483	0.962073
907.851099	0.965347
908.157675	0.968637
908.464211	0.971242
908.770707	0.974656
909.077163	0.976543
909.383578	0.975878
909.689954	0.976216
909.996289	0.976100
910.302584	0.978188
910.608839	0.980504
910.915054	0.979825
911.221229	0.979324
911.527363	0.978095
911.833458	0.978241
912.139513	0.979172
912.445527	0.976607
912.751502	0.974900
913.057436	0.973894
913.363331	0.972356
913.669186	0.969385
913.975000	0.963155
914.280775	0.957719
914.586510	0.950938
914.892205	0.938303
915.197859	0.919272
915.503475	0.891944
915.809050	0.873744
916.114585	0.869746
916.420081	0.867131
916.725536	0.863766
917.030952	0.871173
917.336328	0.884405
917.641665	0.898580
917.946961	0.913715
918.252218	0.924408
918.557435	0.932244
918.862612	0.939771
919.167750	0.945452
919.472848	0.950027
919.777906	0.954299
920.082925	0.960017
920.387904	0.964583
920.692843	0.964406
920.997743	0.965097
921.302603	0.969275
921.607423	0.971092
921.912204	0.973374
922.216946	0.973036
922.521647	0.975451
922.826310	0.976533
923.130932	0.979489
923.435516	0.978123
923.740059	0.981404
924.044564	0.979724
924.349028	0.981952
924.653454	0.982538
924.957840	0.986075
925.262186	0.985453
925.566493	0.984631
925.870761	0.986603
926.174989	0.987119
926.479178	0.988713
926.783328	0.990278
927.087438	0.989315
927.391509	0.988844
927.695541	0.990187
927.999533	0.990264
928.303486	0.990180
928.607400	0.991286
928.911275	0.989456
929.215110	0.990368
929.518906	0.991726
929.822663	0.990067
930.126381	0.991984
930.430060	0.990842
930.733699	0.991539
931.037299	0.990404
931.340861	0.991370
931.644383	0.990347
931.947866	0.989330
932.251309	0.990822
932.554714	0.991076
932.858080	0.990661
933.161407	0.990081
933.464694	0.991867
933.767943	0.989996
934.071153	0.991714
934.374323	0.992052
934.677455	0.991886
934.980548	0.992123
935.283602	0.992184
935.586617	0.991399
935.889593	0.991464
936.192530	0.990810
936.495428	0.991030
936.798287	0.991523
937.101108	0.991197
937.403890	0.990006
937.706632	0.989704
938.009336	0.987311
938.312002	0.986339
938.614628	0.986114
938.917216	0.984501
939.219765	0.983215
939.522275	0.984074
939.824747	0.983493
940.127179	0.983779
940.429573	0.986720
940.731929	0.985023
941.034246	0.985266
941.336524	0.986167
941.638763	0.986648
941.940964	0.987637
942.243126	0.987363
942.545250	0.986956
942.847335	0.988989
943.149381	0.988759
943.451389	0.989631
943.753359	0.990328
944.055290	0.991082
944.357182	0.990086
944.659036	0.989651
944.960851	0.990296
945.262628	0.989745
945.564367	0.991552
945.866067	0.990333
946.167729	0.990450
946.469352	0.989754
946.770937	0.989158
947.072484	0.991635
947.373992	0.990047
947.675462	0.991164
947.976893	0.990833
948.278286	0.990731
948.579641	0.990978
948.880958	0.991235
949.182236	0.991951
949.483476	0.992255
949.784678	0.992076
950.085841	0.991850
950.386967	0.991198
950.688054	0.991219
950.989103	0.991231
951.290114	0.989937
951.591087	0.990083
951.892021	0.989124
952.192917	0.989883
952.493776	0.988237
952.794596	0.990084
953.095378	0.988576
953.396122	0.989441
953.696828	0.988006
953.997496	0.990471
954.298126	0.991140
954.598718	0.991581
954.899272	0.991777
955.199788	0.991362
955.500266	0.992318
955.800706	0.993338
956.101108	0.994176
956.401472	0.992784
956.701798	0.994243
957.002087	0.992861
957.302337	0.992712
957.602550	0.995288
957.902724	0.994633
958.202861	0.995879
958.502960	0.995204
958.803022	0.994533
959.103045	0.995964
959.403031	0.994911
959.702979	0.995355
960.002889	0.995707
960.302762	0.994322
960.602596	0.996658
960.902393	0.995096
961.202153	0.996888
961.501875	0.997230
961.801559	0.995748
962.101205	0.995660
962.400814	0.995964
962.700385	0.996703
962.999918	0.997150
963.299414	0.997071
963.598873	0.994947
963.898293	0.997088
964.197677	0.995666
964.497022	0.997038
964.796331	0.997526
965.095601	0.997455
965.394835	0.995512
965.694030	0.996424
965.993189	0.996045
966.292309	0.996584
966.591393	0.997591
966.890439	0.997211
967.189447	0.997172
967.488419	0.997864
967.787353	0.995508
968.086249	0.996129
968.385108	0.996974
968.683930	0.998010
968.982714	0.996268
969.281462	0.996688
969.580172	0.997163
969.878844	0.997254
970.177480	0.996837
970.476078	0.998011
970.774639	0.995407
971.073162	0.996614
971.371649	0.996954
971.670098	0.995713
971.968510	0.997274
972.266885	0.994892
972.565223	0.996496
972.863524	0.995511
973.161788	0.995740
973.460014	0.997331
973.758204	0.995767
974.056356	0.996979
974.354471	0.994458
974.652550	0.996295
974.950591	0.996323
975.248595	0.995008
975.546563	0.997068
975.844493	0.997284
976.142386	0.997735
976.440243	0.996785
976.738062	0.996946
977.035845	0.997467
977.333590	0.997148
977.631299	0.998587
977.928971	0.996505
978.226606	0.997557
978.524204	0.996488
978.821765	0.998732
979.119290	0.996788
979.416777	0.996856
979.714228	0.996938
980.011642	0.996548
980.309020	0.997230
980.606360	0.997703
980.903664	0.999089
981.200931	0.996461
981.498162	0.995643
981.795356	0.995591
982.092513	0.993944
982.389633	0.995200
982.686717	0.991441
982.983764	0.993076
983.280775	0.991472
983.577749	0.990326
983.874686	0.992990
984.171587	0.991824
984.468451	0.995405
984.765279	0.995864
985.062070	0.994671
985.358824	0.995644
985.655543	0.994880
985.952224	0.997576
986.248869	0.996133
986.545478	0.996475
986.842050	0.998658
987.138586	0.995838
987.435086	0.996760
987.731549	0.997677
988.027975	0.998220
988.324366	0.997223
988.620719	0.997301
988.917037	0.996967
989.213318	0.998239
989.509563	0.997749
989.805772	0.998877
990.101944	0.998128
990.398080	0.996986
990.694180	0.996574
990.990244	0.996961
991.286271	0.997445
991.582262	0.998143
991.878217	0.997972
992.174136	0.999129
992.470019	0.998900
992.765865	0.998174
993.061676	0.997507
993.357450	0.998104
993.653188	0.996158
993.948890	0.997756
994.244556	0.997836
994.540186	0.996828
994.835780	0.996334
995.131337	0.997976
995.426859	0.996216
995.722345	0.997799
996.017795	0.997102
996.313208	0.995860
996.608586	0.995843
996.903928	0.997178
997.199234	0.997167
997.494504	0.996292
997.789738	0.996772
998.084936	0.995470
998.380099	0.997611
998.675225	0.998519
998.970316	0.999270
999.265371	0.998243
999.560390	0.997404
999.855373	0.998411
1000.150320	0.998078
1000.445232	0.997929
1000.740108	0.997150
1001.034948	0.998105
1001.329752	0.998499
1001.624521	0.998778
1001.919254	0.998259
1002.213951	0.997749
1002.508613	0.998266
1002.803239	0.999263
1003.097829	0.997657
1003.392384	0.999088
1003.686903	0.997978
1003.981386	0.998804
1004.275834	0.998801
1004.570246	0.998493
1004.864623	0.999294
1005.158964	0.998373
1005.453270	0.998881
1005.747540	0.997593
1006.041775	0.998371
1006.335974	0.998590
1006.630138	0.998709
1006.924266	0.998467
1007.218359	1.000021
1007.512416	0.997480
1007.806438	0.998472
1008.100425	0.998892
1008.394376	0.998598
1008.688292	0.997353
1008.982172	1.000695
1009.276017	0.998578
1009.569827	0.997422
1009.863602	0.998101
1010.157341	1.000224
1010.451045	0.999204
1010.744714	0.997839
1011.038347	0.998677
1011.331945	0.999514
1011.625508	0.998437
1011.919036	0.999312
1012.212528	0.999001
1012.505986	0.997542
1012.799408	0.999204
1013.092795	0.999915
1013.386147	0.999268
1013.679464	0.998581
1013.972745	0.998617
1014.265992	0.997415
1014.559204	0.998129
1014.852380	0.999159
1015.145521	0.998451
1015.438628	0.998643
1015.731699	0.999316
1016.024736	0.998952
1016.317737	0.998766
1016.610703	0.998438
1016.903635	0.998920
1017.196531	0.998385
1017.489393	0.999333
1017.782219	0.998871
1018.075011	0.997920
1018.367768	0.998394
1018.660490	0.999811
1018.953177	0.999811
1019.245829	0.999811
