Dividing Wavelength (nm)	Counts (n)	Blue Motor Position (mm): 0.000000	Red Motor Position (mm): 34.600000	
326.493990	0.999660
326.888308	0.999660
327.282561	0.999660
327.676750	1.000403
328.070874	0.998504
328.464933	0.999374
328.858929	0.999280
329.252859	0.999569
329.646726	1.000210
330.040528	0.999084
330.434265	0.999058
330.827938	1.001297
331.221547	0.999362
331.615091	1.001162
332.008571	1.000250
332.401986	0.999944
332.795338	1.001039
333.188625	0.998634
333.581847	1.001722
333.975006	1.000620
334.368100	0.999188
334.761129	0.999499
335.154095	1.000506
335.546996	0.998149
335.939833	0.996175
336.332606	0.996158
336.725315	0.996409
337.117960	0.997398
337.510540	0.996116
337.903056	0.997809
338.295508	0.994908
338.687896	0.996866
339.080220	0.996294
339.472480	0.996379
339.864676	0.996133
340.256807	0.996896
340.648875	0.997117
341.040879	0.995857
341.432818	0.996376
341.824694	0.996228
342.216506	0.997951
342.608253	0.995534
342.999937	0.995994
343.391557	0.996978
343.783113	0.995464
344.174605	0.995978
344.566033	0.996880
344.957397	0.995535
345.348697	0.996209
345.739934	0.995967
346.131106	0.996598
346.522215	0.996392
346.913260	0.995923
347.304241	0.996498
347.695159	0.996146
348.086012	0.994661
348.476802	0.995792
348.867528	0.996642
349.258191	0.995372
349.648789	0.997486
350.039324	0.996811
350.429796	0.996982
350.820203	0.997142
351.210548	0.996963
351.600828	0.996963
351.991045	0.996884
352.381198	0.994957
352.771288	0.996042
353.161314	0.996270
353.551276	0.996381
353.941175	0.996238
354.331010	0.996378
354.720782	0.997205
355.110490	0.995985
355.500135	0.996374
355.889717	0.996122
356.279235	0.996267
356.668689	0.996346
357.058080	0.996555
357.447408	0.998230
357.836672	0.997588
358.225873	0.997011
358.615010	0.997752
359.004084	0.998167
359.393095	0.997427
359.782043	0.995470
360.170927	0.995938
360.559748	0.997284
360.948505	0.995762
361.337199	0.996508
361.725830	0.997639
362.114398	0.997102
362.502903	0.997108
362.891344	0.997322
363.279722	0.996436
363.668037	0.996218
364.056289	0.997864
364.444478	0.998079
364.832603	0.998140
365.220665	0.996326
365.608665	0.996309
365.996601	0.996268
366.384474	0.996876
366.772284	0.997394
367.160031	0.996032
367.547715	0.994807
367.935336	0.996089
368.322893	0.996163
368.710388	0.995632
369.097820	0.996020
369.485189	0.997214
369.872495	0.996099
370.259738	0.993837
370.646918	0.997568
371.034035	0.998093
371.421090	0.996846
371.808081	0.997193
372.195010	0.997070
372.581875	0.995886
372.968678	0.996385
373.355418	0.997365
373.742096	0.996951
374.128710	0.998641
374.515262	0.996618
374.901751	0.998070
375.288177	0.997179
375.674540	0.997833
376.060841	0.996297
376.447079	0.998061
376.833254	0.997158
377.219367	0.997133
377.605417	0.997177
377.991404	0.998134
378.377329	0.996906
378.763191	0.997460
379.148991	0.998433
379.534727	0.998428
379.920402	0.997123
380.306013	0.998127
380.691563	0.998159
381.077049	0.997843
381.462474	0.998312
381.847835	0.997940
382.233134	0.997607
382.618371	0.998383
383.003545	0.998027
383.388657	0.997847
383.773706	0.998592
384.158693	0.998178
384.543618	0.997133
384.928480	1.000049
385.313280	0.997991
385.698017	0.998680
386.082692	0.998242
386.467305	0.998931
386.851856	0.998666
387.236344	0.997429
387.620770	0.997934
388.005133	0.998600
388.389435	0.998557
388.773674	0.998218
389.157851	0.999101
389.541965	0.998235
389.926018	0.998131
390.310008	0.999107
390.693936	0.998052
391.077802	0.999127
391.461606	0.998329
391.845348	0.998677
392.229027	0.999130
392.612645	0.998866
392.996200	0.999057
393.379694	0.999338
393.763125	0.999396
394.146494	0.999456
394.529801	0.998791
394.913047	0.999828
395.296230	0.998838
395.679351	0.998520
396.062410	0.998994
396.445408	0.999648
396.828343	0.998672
397.211217	0.998865
397.594028	1.000213
397.976778	0.999083
398.359466	0.998883
398.742092	0.998636
399.124656	0.998171
399.507158	0.999106
399.889598	0.999169
400.271977	1.000152
400.654294	0.999846
401.036549	0.999201
401.418742	0.999112
401.800874	0.999249
402.182944	0.999574
402.564952	0.999021
402.946898	0.999380
403.328783	0.999400
403.710606	0.999585
404.092367	0.999617
404.474067	0.998645
404.855705	0.999310
405.237282	0.999640
405.618797	1.000116
406.000250	0.999584
406.381642	0.999224
406.762972	0.999925
407.144240	1.000745
407.525447	0.999925
407.906593	0.999032
408.287677	1.000704
408.668700	1.000153
409.049661	0.999294
409.430560	0.999870
409.811399	0.999154
410.192176	0.999283
410.572891	0.999575
410.953545	0.999200
411.334138	0.998393
411.714669	0.999951
412.095139	0.999023
412.475547	1.000369
412.855894	0.999579
413.236180	0.999864
413.616405	0.999847
413.996568	1.000505
414.376670	0.999634
414.756711	0.999949
415.136691	0.999878
415.516609	0.999784
415.896466	0.999492
416.276262	0.998243
416.655997	1.000830
417.035670	0.999489
417.415283	1.000021
417.794834	0.999648
418.174324	1.000303
418.553753	0.999807
418.933121	0.999274
419.312428	0.999745
419.691674	0.999327
420.070859	1.000304
420.449983	0.999606
420.829045	0.999848
421.208047	1.000561
421.586988	1.000878
421.965867	0.999537
422.344686	1.000417
422.723444	0.999936
423.102141	1.000993
423.480777	1.000321
423.859352	1.000115
424.237866	0.999307
424.616319	1.000439
424.994712	0.999873
425.373044	0.999809
425.751314	1.000183
426.129524	0.999754
426.507673	1.000981
426.885762	1.000667
427.263789	0.999985
427.641756	0.999900
428.019662	1.000730
428.397508	0.999789
428.775292	0.999670
429.153016	0.999162
429.530679	1.001165
429.908282	1.000421
430.285824	0.999642
430.663305	0.999629
431.040726	0.999949
431.418086	1.001278
431.795385	1.000938
432.172624	0.999697
432.549802	1.000486
432.926920	1.000875
433.303977	0.999815
433.680974	1.000701
434.057910	1.000259
434.434786	1.000840
434.811601	0.999595
435.188355	0.999739
435.565050	1.000009
435.941683	1.000436
436.318257	1.001440
436.694770	1.000118
437.071222	1.001233
437.447614	1.000938
437.823946	1.000530
438.200218	1.000368
438.576429	1.000726
438.952580	1.000768
439.328670	1.000022
439.704700	1.001286
440.080670	0.999932
440.456580	0.999199
440.832429	1.000108
441.208218	1.001204
441.583947	1.000847
441.959616	1.001631
442.335224	0.999949
442.710773	1.000911
443.086261	1.000246
443.461689	1.000181
443.837057	1.000372
444.212365	1.001012
444.587612	1.000129
444.962800	1.000299
445.337927	1.000693
445.712995	1.000758
446.088002	1.001119
446.462949	1.000580
446.837837	1.001111
447.212664	1.000932
447.587431	1.000562
447.962139	1.000440
448.336786	1.000883
448.711374	1.000897
449.085901	0.999541
449.460369	1.001194
449.834776	0.999502
450.209124	1.001368
450.583412	0.999998
450.957640	1.000249
451.331808	1.000684
451.705917	1.000806
452.079965	1.000404
452.453954	1.000772
452.827883	1.000084
453.201752	1.000568
453.575562	1.000859
453.949311	1.001037
454.323001	1.000655
454.696632	1.000391
455.070202	1.000475
455.443713	0.999854
455.817164	1.001301
456.190556	1.001048
456.563888	1.001029
456.937160	1.000812
457.310373	1.000507
457.683526	1.000185
458.056619	1.000320
458.429653	1.000387
458.802628	0.999609
459.175542	0.999879
459.548398	1.000075
459.921194	1.000196
460.293930	1.000509
460.666607	0.999891
461.039224	0.999546
461.411782	1.000902
461.784280	1.000186
462.156719	1.000936
462.529099	1.001096
462.901419	1.000574
463.273680	1.000252
463.645882	1.000765
464.018024	1.000742
464.390106	1.000881
464.762130	1.001690
465.134094	1.001255
465.505999	1.001254
465.877845	1.000765
466.249631	1.001291
466.621358	1.000879
466.993026	1.000604
467.364634	1.000662
467.736184	1.000921
468.107674	1.000707
468.479105	1.000871
468.850477	1.000930
469.221790	1.000696
469.593043	1.000807
469.964238	1.001161
470.335373	1.000474
470.706449	1.000435
471.077467	1.001668
471.448425	1.000922
471.819324	1.001821
472.190164	1.000773
472.560945	1.001084
472.931667	1.000914
473.302330	1.000997
473.672934	1.001186
474.043479	1.000880
474.413965	1.000663
474.784393	1.000893
475.154761	1.000450
475.525070	1.000103
475.895321	1.001134
476.265513	1.000532
476.635645	1.000727
477.005719	1.001201
477.375734	1.000657
477.745691	1.000579
478.115588	1.000961
478.485427	1.000848
478.855207	1.000813
479.224928	1.000779
479.594591	1.000866
479.964194	1.000844
480.333739	1.001046
480.703226	1.000579
481.072653	1.001374
481.442022	1.001075
481.811333	1.000515
482.180584	1.001479
482.549777	1.001030
482.918912	1.001227
483.287988	1.000693
483.657005	1.000959
484.025964	1.001472
484.394864	1.001473
484.763706	1.001987
485.132489	1.000468
485.501213	1.001046
485.869879	1.001533
486.238487	1.001747
486.607036	1.001249
486.975527	1.000152
487.343959	1.000862
487.712333	1.000091
488.080648	1.000333
488.448905	1.000331
488.817104	1.000697
489.185244	1.000852
489.553326	1.000943
489.921350	1.000824
490.289315	1.000783
490.657222	1.001003
491.025070	1.000681
491.392861	1.001173
491.760593	1.000833
492.128267	1.000366
492.495883	1.000396
492.863440	1.000927
493.230939	1.000331
493.598380	1.000239
493.965763	0.999764
494.333088	1.000519
494.700354	1.000017
495.067563	0.999942
495.434713	1.000335
495.801805	1.000559
496.168839	0.999420
496.535815	0.999246
496.902733	0.999766
497.269593	0.999128
497.636395	0.998832
498.003139	0.999301
498.369825	0.999368
498.736453	0.998886
499.103023	0.998294
499.469535	0.998214
499.835989	0.997804
500.202385	0.997712
500.568723	0.997779
500.935003	0.997835
501.301226	0.997385
501.667390	0.997191
502.033497	0.996653
502.399546	0.997384
502.765537	0.995587
503.131470	0.995426
503.497345	0.994599
503.863163	0.995290
504.228923	0.994391
504.594625	0.993528
504.960269	0.993762
505.325856	0.993362
505.691385	0.992142
506.056856	0.990956
506.422270	0.990473
506.787625	0.990413
507.152924	0.989692
507.518164	0.988746
507.883347	0.988020
508.248472	0.987348
508.613540	0.986528
508.978550	0.985916
509.343503	0.984521
509.708398	0.983611
510.073236	0.983445
510.438016	0.981946
510.802738	0.980963
511.167403	0.979455
511.532010	0.978695
511.896561	0.977156
512.261053	0.977013
512.625488	0.974316
512.989866	0.973616
513.354186	0.972259
513.718449	0.970508
514.082655	0.969380
514.446803	0.968059
514.810894	0.966150
515.174927	0.964382
515.538904	0.962633
515.902822	0.961282
516.266684	0.959897
516.630488	0.958247
516.994235	0.955506
517.357925	0.953789
517.721558	0.952514
518.085133	0.949534
518.448651	0.948438
518.812112	0.946375
519.175516	0.943325
519.538863	0.941390
519.902152	0.939335
520.265385	0.935973
520.628560	0.933941
520.991678	0.931462
521.354739	0.928790
521.717743	0.926612
522.080690	0.924356
522.443580	0.919553
522.806413	0.917559
523.169189	0.914497
523.531908	0.911521
523.894569	0.908594
524.257174	0.905822
524.619722	0.902392
524.982213	0.899761
525.344647	0.895704
525.707025	0.892357
526.069345	0.888363
526.431608	0.884361
526.793815	0.882134
527.155964	0.878204
527.518057	0.874836
527.880093	0.872195
528.242072	0.867145
528.603995	0.863154
528.965860	0.860965
529.327669	0.856093
529.689421	0.852336
530.051117	0.848682
530.412755	0.843651
530.774337	0.841004
531.135862	0.836184
531.497331	0.832547
531.858743	0.828287
532.220098	0.823399
532.581396	0.819988
532.942638	0.816460
533.303824	0.811957
533.664953	0.806644
534.026025	0.802914
534.387040	0.797561
534.747999	0.793351
535.108902	0.788591
535.469748	0.785122
535.830537	0.780035
536.191270	0.775613
536.551947	0.770348
536.912567	0.766260
537.273131	0.762351
537.633638	0.756805
537.994089	0.752382
538.354483	0.747472
538.714821	0.742652
539.075103	0.736955
539.435328	0.732268
539.795497	0.729976
540.155609	0.721884
540.515665	0.716936
540.875665	0.713547
541.235609	0.708332
541.595496	0.703048
541.955328	0.695968
542.315102	0.693301
542.674821	0.688644
543.034483	0.683541
543.394090	0.678038
543.753640	0.673653
544.113134	0.666391
544.472571	0.663795
544.831953	0.657121
545.191278	0.653671
545.550548	0.649422
545.909761	0.642303
546.268918	0.637853
546.628019	0.632280
546.987064	0.628167
547.346053	0.625200
547.704986	0.617976
548.063863	0.614154
548.422684	0.609941
548.781449	0.605078
549.140158	0.598671
549.498811	0.595466
549.857408	0.593201
550.215949	0.584024
550.574434	0.580958
550.932864	0.574095
551.291237	0.570298
551.649555	0.564756
552.007817	0.560502
552.366022	0.556746
552.724173	0.552308
553.082267	0.547938
553.440305	0.539324
553.798288	0.539789
554.156215	0.531365
554.514086	0.527472
554.871902	0.525219
555.229661	0.520144
555.587365	0.516540
555.945014	0.514820
556.302606	0.506146
556.660143	0.505303
557.017625	0.496363
557.375050	0.494251
557.732421	0.488113
558.089735	0.485323
558.446994	0.481634
558.804197	0.476898
559.161345	0.472054
559.518437	0.471521
559.875474	0.464399
560.232455	0.459890
560.589381	0.457953
560.946251	0.452049
561.303065	0.448656
561.659825	0.444595
562.016528	0.441890
562.373177	0.441135
562.729770	0.434422
563.086307	0.432994
563.442789	0.428161
563.799216	0.425244
564.155587	0.421206
564.511904	0.418262
564.868164	0.415400
565.224370	0.412094
565.580520	0.409359
565.936615	0.407410
566.292654	0.405466
566.648638	0.400220
567.004567	0.397172
567.360441	0.394633
567.716260	0.393291
568.072023	0.388492
568.427732	0.385816
568.783385	0.385927
569.138982	0.380418
569.494525	0.377065
569.850013	0.376930
570.205445	0.372476
570.560823	0.372526
570.916145	0.371459
571.271412	0.367223
571.626625	0.365802
571.981782	0.363640
572.336884	0.361536
572.691931	0.359711
573.046923	0.357135
573.401860	0.356055
573.756743	0.355412
574.111570	0.352046
574.466342	0.350275
574.821059	0.347375
575.175722	0.347338
575.530330	0.344877
575.884882	0.342937
576.239380	0.343120
576.593823	0.341403
576.948211	0.338831
577.302544	0.340458
577.656823	0.337670
578.011047	0.336361
578.365216	0.335132
578.719330	0.334963
579.073389	0.332884
579.427394	0.332748
579.781344	0.332145
580.135239	0.331815
580.489080	0.330138
580.842866	0.331159
581.196597	0.329524
581.550273	0.326920
581.903895	0.326387
582.257463	0.323527
582.610975	0.325358
582.964434	0.323678
583.317837	0.324578
583.671186	0.324267
584.024481	0.322625
584.377721	0.323850
584.730906	0.323362
585.084037	0.321163
585.437113	0.322359
585.790135	0.320102
586.143103	0.321961
586.496016	0.321825
586.848874	0.318645
587.201679	0.318488
587.554428	0.321095
587.907124	0.318247
588.259765	0.318307
588.612352	0.317949
588.964884	0.320957
589.317362	0.319787
589.669786	0.318797
590.022155	0.316725
590.374470	0.315119
590.726731	0.316776
591.078937	0.320476
591.431090	0.315987
591.783188	0.319900
592.135232	0.319117
592.487222	0.318874
592.839157	0.316345
593.191038	0.317899
593.542866	0.319130
593.894639	0.322203
594.246358	0.319749
594.598022	0.318662
594.949633	0.321690
595.301190	0.322099
595.652692	0.320877
596.004141	0.316563
596.355535	0.323648
596.706876	0.323721
597.058162	0.326150
597.409395	0.322641
597.760573	0.320001
598.111698	0.322734
598.462768	0.323146
598.813785	0.323875
599.164748	0.324913
599.515657	0.325047
599.866511	0.327530
600.217312	0.323141
600.568060	0.327901
600.918753	0.324644
601.269392	0.324833
601.619978	0.327668
601.970510	0.325183
602.320988	0.325242
602.671412	0.322417
603.021783	0.324894
603.372100	0.326096
603.722363	0.325442
604.072572	0.326038
604.422728	0.325831
604.772830	0.327382
605.122878	0.326969
605.472872	0.327532
605.822813	0.325548
606.172701	0.328051
606.522534	0.325591
606.872314	0.325156
607.222041	0.326312
607.571714	0.323902
607.921333	0.325563
608.270899	0.325145
608.620411	0.321555
608.969870	0.325637
609.319276	0.325416
609.668627	0.325546
610.017926	0.324125
610.367171	0.322508
610.716362	0.322736
611.065500	0.323076
611.414585	0.321655
611.763616	0.322030
612.112594	0.322350
612.461518	0.322168
612.810389	0.319511
613.159207	0.321750
613.507971	0.323426
613.856682	0.319077
614.205340	0.320760
614.553945	0.317521
614.902496	0.321428
615.250994	0.319140
615.599439	0.320219
615.947830	0.319460
616.296169	0.320079
616.644454	0.319448
616.992686	0.319653
617.340864	0.317590
617.688990	0.321228
618.037063	0.317647
618.385082	0.319425
618.733048	0.316422
619.080961	0.318706
619.428821	0.317400
619.776628	0.317557
620.124382	0.319086
620.472083	0.319624
620.819731	0.318964
621.167326	0.322669
621.514868	0.322408
621.862357	0.326643
622.209793	0.326236
622.557176	0.328201
622.904506	0.329410
623.251783	0.331735
623.599007	0.333807
623.946179	0.333446
624.293297	0.335478
624.640363	0.339035
624.987376	0.339909
625.334336	0.342216
625.681243	0.344451
626.028097	0.344680
626.374899	0.345816
626.721647	0.346177
627.068343	0.349174
627.414987	0.350541
627.761577	0.352683
628.108115	0.350555
628.454600	0.356052
628.801032	0.353024
629.147412	0.355377
629.493739	0.355680
629.840014	0.358277
630.186236	0.355900
630.532405	0.361427
630.878521	0.359294
631.224585	0.361339
631.570597	0.364233
631.916556	0.363286
632.262462	0.363378
632.608316	0.365638
632.954117	0.366123
633.299866	0.367160
633.645562	0.367544
633.991206	0.371936
634.336797	0.374600
634.682336	0.376935
635.027823	0.378533
635.373257	0.379061
635.718639	0.382580
636.063968	0.381416
636.409245	0.387157
636.754470	0.388203
637.099642	0.390269
637.444762	0.393905
637.789829	0.392435
638.134845	0.396671
638.479808	0.397028
638.824719	0.397039
639.169577	0.401061
639.514383	0.399870
639.859137	0.404278
640.203839	0.403574
640.548489	0.404459
640.893086	0.405623
641.237632	0.407315
641.582125	0.405276
641.926566	0.407297
642.270955	0.407047
642.615292	0.407817
642.959576	0.407308
643.303809	0.407747
643.647990	0.406603
643.992118	0.407572
644.336195	0.410987
644.680219	0.409347
645.024192	0.409704
645.368112	0.403929
645.711981	0.402628
646.055797	0.398253
646.399562	0.400627
646.743274	0.392517
647.086935	0.390534
647.430544	0.390541
647.774101	0.389146
648.117606	0.388673
648.461059	0.389032
648.804460	0.391724
649.147810	0.396492
649.491108	0.398750
649.834354	0.400099
650.177548	0.405548
650.520690	0.410444
650.863781	0.411592
651.206820	0.411165
651.549807	0.415814
651.892742	0.419587
652.235626	0.418986
652.578458	0.420300
652.921238	0.426597
653.263967	0.424072
653.606644	0.428348
653.949269	0.427663
654.291843	0.431538
654.634365	0.428392
654.976836	0.432010
655.319255	0.431802
655.661622	0.433438
656.003938	0.433387
656.346203	0.436190
656.688416	0.434123
657.030577	0.437446
657.372687	0.439548
657.714746	0.439902
658.056753	0.436947
658.398708	0.440828
658.740612	0.442189
659.082465	0.437894
659.424266	0.439121
659.766016	0.438480
660.107715	0.440895
660.449362	0.440253
660.790958	0.440790
661.132503	0.441120
661.473996	0.438523
661.815438	0.439308
662.156829	0.440039
662.498168	0.440676
662.839456	0.441871
663.180693	0.439532
663.521879	0.439359
663.863013	0.440462
664.204097	0.439321
664.545129	0.436049
664.886110	0.436125
665.227040	0.433783
665.567918	0.436669
665.908746	0.434296
666.249522	0.434308
666.590248	0.435137
666.930922	0.433147
667.271545	0.431867
667.612118	0.432752
667.952639	0.433690
668.293109	0.432564
668.633528	0.435318
668.973896	0.434890
669.314213	0.435183
669.654480	0.437076
669.994695	0.437586
670.334859	0.438425
670.674973	0.438501
671.015035	0.438766
671.355047	0.438957
671.695008	0.439736
672.034918	0.441326
672.374777	0.441120
672.714585	0.442339
673.054342	0.442083
673.394049	0.441788
673.733705	0.439489
674.073310	0.440772
674.412864	0.444059
674.752368	0.444482
675.091820	0.444688
675.431223	0.449167
675.770574	0.448761
676.109875	0.451781
676.449125	0.452103
676.788324	0.454323
677.127473	0.459253
677.466571	0.459531
677.805619	0.461109
678.144616	0.462064
678.483562	0.463946
678.822458	0.466316
679.161303	0.467085
679.500098	0.467661
679.838842	0.469141
680.177535	0.469432
680.516179	0.467721
680.854771	0.466792
681.193314	0.459332
681.531805	0.451571
681.870247	0.439403
682.208638	0.432513
682.546978	0.431609
682.885268	0.433207
683.223508	0.439423
683.561697	0.443027
683.899836	0.445518
684.237925	0.449277
684.575963	0.451679
684.913951	0.454757
685.251889	0.450551
685.589776	0.452247
685.927614	0.454635
686.265401	0.448983
686.603137	0.450892
686.940824	0.444617
687.278460	0.442943
687.616046	0.442042
687.953582	0.437278
688.291068	0.438450
688.628504	0.434112
688.965889	0.436449
689.303224	0.440596
689.640510	0.444416
689.977745	0.450257
690.314930	0.458318
690.652065	0.462469
690.989150	0.470412
691.326185	0.476628
691.663170	0.481593
692.000105	0.487884
692.336990	0.495141
692.673825	0.497695
693.010610	0.504684
693.347345	0.509821
693.684030	0.511435
694.020665	0.516261
694.357251	0.525007
694.693786	0.524625
695.030272	0.528883
695.366707	0.531833
695.703093	0.535562
696.039429	0.533438
696.375716	0.534954
696.711952	0.538234
697.048139	0.539513
697.384276	0.541615
697.720363	0.540297
698.056400	0.539387
698.392388	0.544444
698.728326	0.547324
699.064214	0.549975
699.400053	0.551293
699.735842	0.554725
700.071581	0.557076
700.407270	0.560629
700.742910	0.562321
701.078501	0.569516
701.414042	0.570212
701.749533	0.572745
702.084974	0.581626
702.420366	0.573758
702.755709	0.581560
703.091002	0.589315
703.426246	0.582542
703.761440	0.589072
704.096584	0.593390
704.431679	0.589785
704.766725	0.592488
705.101721	0.594101
705.436668	0.589838
705.771565	0.597587
706.106413	0.593284
706.441212	0.588822
706.775961	0.587741
707.110661	0.590421
707.445311	0.587046
707.779913	0.584168
708.114465	0.582763
708.448967	0.579730
708.783421	0.571609
709.117825	0.566505
709.452180	0.566753
709.786485	0.560684
710.120742	0.549715
710.454949	0.551634
710.789107	0.543976
711.123216	0.535271
711.457275	0.536637
711.791286	0.528290
712.125247	0.526646
712.459159	0.537744
712.793023	0.530554
713.126837	0.534122
713.460602	0.535070
713.794318	0.544150
714.127985	0.542805
714.461602	0.552541
714.795171	0.556828
715.128691	0.563142
715.462162	0.571432
715.795584	0.576608
716.128957	0.579615
716.462281	0.586313
716.795556	0.589598
717.128782	0.595308
717.461960	0.604214
717.795088	0.602872
718.128167	0.608769
718.461198	0.617385
718.794180	0.618106
719.127113	0.620685
719.459997	0.624017
719.792833	0.630680
720.125619	0.631990
720.458357	0.637957
720.791046	0.637283
721.123686	0.640531
721.456278	0.647573
721.788821	0.645309
722.121315	0.649193
722.453761	0.653367
722.786158	0.650910
723.118506	0.648295
723.450805	0.655694
723.783056	0.651925
724.115259	0.649308
724.447412	0.648566
724.779518	0.649192
725.111574	0.648624
725.443582	0.644354
725.775542	0.646022
726.107453	0.638481
726.439315	0.638754
726.771129	0.637239
727.102895	0.630612
727.434612	0.623478
727.766281	0.621866
728.097901	0.620646
728.429473	0.621095
728.760996	0.618801
729.092471	0.618566
729.423897	0.622723
729.755276	0.622531
730.086606	0.621390
730.417887	0.616308
730.749120	0.607350
731.080305	0.598373
731.411442	0.595062
731.742530	0.598893
732.073570	0.599088
732.404562	0.590040
732.735506	0.592213
733.066401	0.596843
733.397249	0.606293
733.728048	0.617153
734.058798	0.629781
734.389501	0.639764
734.720156	0.649807
735.050762	0.658299
735.381320	0.658049
735.711831	0.668660
736.042293	0.672853
736.372707	0.668187
736.703073	0.673139
737.033391	0.675710
737.363661	0.672363
737.693883	0.667302
738.024056	0.667024
738.354182	0.667941
738.684260	0.656511
739.014290	0.653109
739.344272	0.653569
739.674207	0.646945
740.004093	0.646128
740.333931	0.646932
740.663722	0.646506
740.993464	0.647951
741.323159	0.651024
741.652806	0.656062
741.982405	0.659693
742.311956	0.665455
742.641460	0.667634
742.970915	0.671240
743.300323	0.678510
743.629683	0.684523
743.958996	0.686995
744.288260	0.691295
744.617477	0.697954
744.946647	0.698493
745.275768	0.703715
745.604842	0.703571
745.933869	0.713808
746.262847	0.714877
746.591778	0.707753
746.920662	0.713909
747.249498	0.720838
747.578286	0.711426
747.907027	0.708057
748.235720	0.709096
748.564365	0.703187
748.892963	0.703738
749.221514	0.705933
749.550017	0.711662
749.878473	0.710979
750.206881	0.717981
750.535242	0.718664
750.863555	0.718361
751.191821	0.719940
751.520039	0.722672
751.848210	0.727908
752.176334	0.720086
752.504411	0.719753
752.832440	0.726689
753.160421	0.731670
753.488356	0.728586
753.816243	0.726929
754.144082	0.735525
754.471875	0.738979
754.799620	0.733976
755.127318	0.735396
755.454969	0.735703
755.782572	0.735216
756.110129	0.740118
756.437638	0.742191
756.765100	0.738996
757.092515	0.736912
757.419882	0.735775
757.747203	0.740744
758.074477	0.740202
758.401703	0.737997
758.728882	0.733102
759.056014	0.732059
759.383099	0.731171
759.710138	0.732198
760.037129	0.727769
760.364073	0.722443
760.690970	0.724709
761.017820	0.730955
761.344623	0.725958
761.671379	0.716437
761.998088	0.706081
762.324751	0.682954
762.651366	0.642211
762.977935	0.575946
763.304456	0.523939
763.630931	0.514366
763.957359	0.553463
764.283740	0.597036
764.610074	0.624208
764.936362	0.655594
765.262602	0.681720
765.588796	0.702570
765.914943	0.721319
766.241044	0.737903
766.567097	0.744829
766.893104	0.754190
767.219064	0.761160
767.544978	0.766932
767.870845	0.780899
768.196665	0.784793
768.522438	0.782505
768.848165	0.782849
769.173846	0.793051
769.499479	0.796164
769.825066	0.800117
770.150607	0.805341
770.476101	0.800264
770.801548	0.801274
771.126949	0.811725
771.452303	0.816982
771.777611	0.816041
772.102872	0.815825
772.428087	0.820093
772.753256	0.823647
773.078378	0.824763
773.403453	0.835548
773.728482	0.838942
774.053465	0.832268
774.378401	0.835942
774.703291	0.845116
775.028135	0.843786
775.352932	0.844701
775.677683	0.848409
776.002388	0.849571
776.327046	0.847135
776.651658	0.851085
776.976224	0.855040
777.300743	0.855491
777.625216	0.856941
777.949643	0.859062
778.274024	0.859507
778.598359	0.860575
778.922647	0.858517
779.246889	0.859950
779.571086	0.863368
779.895236	0.866783
780.219339	0.863272
780.543397	0.859942
780.867409	0.859081
781.191374	0.860653
781.515294	0.861655
781.839167	0.861153
782.162995	0.864911
782.486776	0.860715
782.810511	0.862925
783.134201	0.865907
783.457844	0.864183
783.781441	0.867222
784.104993	0.871658
784.428498	0.872697
784.751958	0.868755
785.075372	0.870649
785.398739	0.874511
785.722061	0.871384
786.045337	0.866702
786.368568	0.871599
786.691752	0.873008
787.014891	0.858931
787.337983	0.851029
787.661030	0.843228
787.984031	0.826337
788.306987	0.813000
788.629897	0.815741
788.952760	0.819214
789.275579	0.823676
789.598351	0.839310
789.921078	0.851550
790.243759	0.854087
790.566395	0.858888
790.888984	0.866379
791.211529	0.870242
791.534027	0.873943
791.856480	0.876132
792.178888	0.881085
792.501249	0.883502
792.823566	0.884361
793.145836	0.884442
793.468062	0.886633
793.790241	0.887450
794.112375	0.885364
794.434464	0.880368
794.756507	0.880385
795.078505	0.879651
795.400457	0.875017
795.722364	0.862039
796.044226	0.854992
796.366042	0.854758
796.687812	0.857561
797.009538	0.854530
797.331218	0.856429
797.652852	0.862221
797.974442	0.866772
798.295986	0.867190
798.617484	0.868204
798.938938	0.873498
799.260346	0.877797
799.581709	0.880276
799.903026	0.882002
800.224299	0.883232
800.545526	0.886834
800.866708	0.890505
801.187845	0.894636
801.508936	0.894121
801.829983	0.892111
802.150984	0.894232
802.471940	0.899635
802.792851	0.899035
803.113717	0.900395
803.434538	0.898797
803.755314	0.900365
804.076045	0.901126
804.396731	0.901444
804.717372	0.901800
805.037967	0.903322
805.358518	0.901122
805.679024	0.898832
805.999485	0.899657
806.319901	0.898703
806.640272	0.900225
806.960598	0.898712
807.280879	0.895553
807.601115	0.894076
807.921306	0.898078
808.241453	0.898875
808.561554	0.896256
808.881611	0.895505
809.201623	0.898277
809.521590	0.897837
809.841513	0.899370
810.161390	0.898548
810.481223	0.899534
810.801011	0.903188
811.120755	0.905298
811.440453	0.903922
811.760107	0.902825
812.079716	0.902025
812.399281	0.906795
812.718801	0.908786
813.038276	0.909797
813.357707	0.908471
813.677093	0.905954
813.996434	0.908872
814.315731	0.909926
814.634983	0.912175
814.954191	0.909627
815.273354	0.907564
815.592473	0.902532
815.911547	0.903623
816.230577	0.900888
816.549562	0.898667
816.868502	0.899789
817.187399	0.895470
817.506250	0.890911
817.825058	0.892697
818.143821	0.888343
818.462539	0.884446
818.781213	0.876124
819.099843	0.865413
819.418429	0.848542
819.736970	0.832943
820.055466	0.813221
820.373919	0.788836
820.692327	0.756080
821.010691	0.721691
821.329011	0.646617
821.647286	0.533706
821.965517	0.420994
822.283704	0.378776
822.601847	0.380686
822.919945	0.416746
823.237999	0.448790
823.556010	0.494475
823.873976	0.550002
824.191897	0.599577
824.509775	0.641498
824.827609	0.685722
825.145398	0.707964
825.463144	0.710531
825.780845	0.693835
826.098502	0.675428
826.416116	0.630313
826.733685	0.587552
827.051210	0.579867
827.368692	0.593722
827.686129	0.630459
828.003522	0.683232
828.320872	0.728498
828.638177	0.771907
828.955439	0.804471
829.272656	0.826144
829.589830	0.842838
829.906960	0.857455
830.224046	0.869428
830.541088	0.880411
830.858086	0.884082
831.175041	0.890489
831.491952	0.889834
831.808819	0.885524
832.125642	0.880142
832.442421	0.864636
832.759157	0.844417
833.075849	0.799266
833.392497	0.735903
833.709101	0.695467
834.025662	0.705215
834.342179	0.736420
834.658653	0.775476
834.975083	0.810839
835.291469	0.836740
835.607811	0.857799
835.924110	0.873344
836.240366	0.890967
836.556578	0.903676
836.872746	0.910471
837.188871	0.917665
837.504952	0.922216
837.820990	0.925631
838.136984	0.929113
838.452935	0.932010
838.768842	0.933751
839.084706	0.926944
839.400526	0.902957
839.716303	0.862291
840.032037	0.840119
840.347727	0.844185
840.663373	0.862465
840.978977	0.882276
841.294537	0.905219
841.610054	0.920663
841.925527	0.927074
842.240957	0.934500
842.556344	0.942015
842.871687	0.947386
843.186987	0.952285
843.502244	0.951728
843.817458	0.952681
844.132629	0.957137
844.447756	0.961677
844.762840	0.962549
845.077881	0.960886
845.392879	0.961820
845.707833	0.964991
846.022745	0.966595
846.337613	0.966871
846.652438	0.967656
846.967221	0.965723
847.281960	0.966321
847.596656	0.968050
847.911309	0.966977
848.225919	0.968711
848.540485	0.969583
848.855009	0.970197
849.169490	0.969337
849.483928	0.970641
849.798323	0.970291
850.112675	0.970469
850.426984	0.971932
850.741251	0.970223
851.055474	0.971564
851.369654	0.968995
851.683792	0.970834
851.997887	0.971196
852.311938	0.971483
852.625947	0.971426
852.939914	0.969652
853.253837	0.970536
853.567718	0.971294
853.881555	0.971669
854.195350	0.969592
854.509103	0.972088
854.822812	0.971264
855.136479	0.970803
855.450103	0.970558
855.763685	0.969388
856.077224	0.969700
856.390720	0.971197
856.704173	0.970983
857.017584	0.970570
857.330953	0.967094
857.644278	0.969437
857.957561	0.970576
858.270802	0.970546
858.584000	0.968608
858.897155	0.968534
859.210268	0.968686
859.523339	0.969410
859.836367	0.971650
860.149352	0.971138
860.462295	0.969477
860.775195	0.971109
861.088054	0.970302
861.400869	0.970394
861.713642	0.971742
862.026373	0.971513
862.339062	0.972572
862.651708	0.969905
862.964312	0.969016
863.276873	0.970197
863.589392	0.969232
863.901869	0.968039
864.214303	0.967262
864.526696	0.966207
864.839045	0.963955
865.151353	0.963021
865.463619	0.963780
865.775842	0.964754
866.088023	0.963145
866.400162	0.963503
866.712258	0.964566
867.024313	0.963023
867.336325	0.965083
867.648296	0.965237
867.960224	0.965286
868.272110	0.963336
868.583954	0.965987
868.895755	0.965739
869.207515	0.964058
869.519233	0.960782
869.830909	0.962722
870.142542	0.963630
870.454134	0.963230
870.765684	0.962402
871.077191	0.959621
871.388657	0.961268
871.700081	0.959572
872.011463	0.960265
872.322803	0.959908
872.634101	0.958357
872.945357	0.956307
873.256571	0.955363
873.567744	0.954692
873.878874	0.956303
874.189963	0.953741
874.501010	0.953672
874.812015	0.951100
875.122979	0.953222
875.433900	0.955017
875.744780	0.955920
876.055618	0.953551
876.366415	0.951950
876.677169	0.953458
876.987882	0.953929
877.298554	0.952339
877.609183	0.949915
877.919771	0.946935
878.230317	0.945036
878.540822	0.942648
878.851285	0.938791
879.161707	0.930920
879.472087	0.919200
879.782425	0.903018
880.092722	0.870809
880.402977	0.819728
880.713191	0.762056
881.023363	0.705379
881.333494	0.672568
881.643583	0.644105
881.953631	0.643948
882.263637	0.672379
882.573602	0.710914
882.883526	0.736190
883.193408	0.758210
883.503248	0.779860
883.813048	0.806479
884.122806	0.835023
884.432522	0.858353
884.742197	0.876344
885.051831	0.887331
885.361424	0.896436
885.670975	0.907447
885.980485	0.917368
886.289954	0.923217
886.599382	0.928876
886.908768	0.931339
887.218113	0.937496
887.527417	0.941780
887.836680	0.944575
888.145901	0.946694
888.455082	0.948675
888.764221	0.953572
889.073319	0.955341
889.382376	0.955348
889.691392	0.955164
890.000366	0.955339
890.309300	0.956817
890.618193	0.955796
890.927044	0.953629
891.235855	0.954073
891.544625	0.954052
891.853353	0.954476
892.162041	0.952767
892.470687	0.945632
892.779293	0.941390
893.087858	0.936711
893.396381	0.930345
893.704864	0.916984
894.013306	0.895148
894.321707	0.870056
894.630068	0.854998
894.938387	0.850854
895.246665	0.851517
895.554903	0.864335
895.863100	0.875837
896.171256	0.892437
896.479371	0.912179
896.787446	0.923680
897.095480	0.929412
897.403473	0.932539
897.711425	0.935875
898.019336	0.943976
898.327207	0.946322
898.635038	0.948412
898.942827	0.948424
899.250576	0.951280
899.558284	0.955219
899.865952	0.956654
900.173579	0.957601
900.481165	0.957905
900.788711	0.961779
901.096216	0.963669
901.403681	0.963899
901.711105	0.965103
902.018489	0.965775
902.325832	0.964653
902.633135	0.964703
902.940397	0.957770
903.247619	0.945972
903.554800	0.921946
903.861941	0.885371
904.169041	0.851174
904.476101	0.834424
904.783121	0.835998
905.090100	0.851664
905.397039	0.871975
905.703938	0.892042
906.010796	0.910326
906.317614	0.927046
906.624391	0.937340
906.931129	0.947665
907.237826	0.955733
907.544483	0.962016
907.851099	0.964220
908.157675	0.969819
908.464211	0.971486
908.770707	0.974734
909.077163	0.975563
909.383578	0.976610
909.689954	0.976746
909.996289	0.977268
910.302584	0.979080
910.608839	0.981422
910.915054	0.980014
911.221229	0.978513
911.527363	0.977864
911.833458	0.978597
912.139513	0.979269
912.445527	0.978272
912.751502	0.975421
913.057436	0.973933
913.363331	0.972804
913.669186	0.968887
913.975000	0.963417
914.280775	0.958485
914.586510	0.952884
914.892205	0.938985
915.197859	0.920093
915.503475	0.893469
915.809050	0.874331
916.114585	0.870747
916.420081	0.867823
916.725536	0.865027
917.030952	0.872272
917.336328	0.883588
917.641665	0.898429
917.946961	0.913158
918.252218	0.923982
918.557435	0.932924
918.862612	0.940859
919.167750	0.946122
919.472848	0.951319
919.777906	0.955723
920.082925	0.961235
920.387904	0.963715
920.692843	0.966373
920.997743	0.966629
921.302603	0.970087
921.607423	0.970675
921.912204	0.973947
922.216946	0.973874
922.521647	0.975110
922.826310	0.976621
923.130932	0.979193
923.435516	0.979193
923.740059	0.981058
924.044564	0.980468
924.349028	0.981967
924.653454	0.984159
924.957840	0.985520
925.262186	0.986099
925.566493	0.984874
925.870761	0.986822
926.174989	0.986859
926.479178	0.989079
926.783328	0.989456
927.087438	0.988994
927.391509	0.987895
927.695541	0.990476
927.999533	0.990448
928.303486	0.990383
928.607400	0.991543
928.911275	0.990650
929.215110	0.991659
929.518906	0.992231
929.822663	0.991697
930.126381	0.993204
930.430060	0.990867
930.733699	0.991539
931.037299	0.989298
931.340861	0.991224
931.644383	0.991088
931.947866	0.990755
932.251309	0.991792
932.554714	0.991442
932.858080	0.992586
933.161407	0.991150
933.464694	0.992682
933.767943	0.989683
934.071153	0.992647
934.374323	0.992085
934.677455	0.991337
934.980548	0.992654
935.283602	0.992114
935.586617	0.992116
935.889593	0.991158
936.192530	0.992636
936.495428	0.992277
936.798287	0.991380
937.101108	0.990067
937.403890	0.989657
937.706632	0.989486
938.009336	0.987102
938.312002	0.987198
938.614628	0.986129
938.917216	0.984498
939.219765	0.982900
939.522275	0.984540
939.824747	0.985188
940.127179	0.984099
940.429573	0.986097
940.731929	0.985499
941.034246	0.986840
941.336524	0.985922
941.638763	0.986534
941.940964	0.987791
942.243126	0.988098
942.545250	0.989222
942.847335	0.989035
943.149381	0.987915
943.451389	0.987420
943.753359	0.989410
944.055290	0.991647
944.357182	0.991165
944.659036	0.989103
944.960851	0.989762
945.262628	0.991156
945.564367	0.990356
945.866067	0.991001
946.167729	0.991940
946.469352	0.990124
946.770937	0.989092
947.072484	0.991778
947.373992	0.990913
947.675462	0.991698
947.976893	0.992007
948.278286	0.992197
948.579641	0.992791
948.880958	0.992835
949.182236	0.992204
949.483476	0.992917
949.784678	0.991975
950.085841	0.992472
950.386967	0.991866
950.688054	0.991801
950.989103	0.992081
951.290114	0.990489
951.591087	0.989639
951.892021	0.989876
952.192917	0.989608
952.493776	0.989600
952.794596	0.988674
953.095378	0.988872
953.396122	0.989351
953.696828	0.988938
953.997496	0.990057
954.298126	0.992284
954.598718	0.991144
954.899272	0.991855
955.199788	0.992355
955.500266	0.993092
955.800706	0.993751
956.101108	0.994344
956.401472	0.995030
956.701798	0.994067
957.002087	0.994454
957.302337	0.995076
957.602550	0.996082
957.902724	0.995830
958.202861	0.994707
958.502960	0.995373
958.803022	0.995495
959.103045	0.996351
959.403031	0.996090
959.702979	0.996062
960.002889	0.996353
960.302762	0.994275
960.602596	0.996639
960.902393	0.995407
961.202153	0.997614
961.501875	0.996899
961.801559	0.996325
962.101205	0.995242
962.400814	0.996535
962.700385	0.996855
962.999918	0.996949
963.299414	0.996714
963.598873	0.995643
963.898293	0.997359
964.197677	0.996375
964.497022	0.997384
964.796331	0.997730
965.095601	0.997335
965.394835	0.996718
965.694030	0.997794
965.993189	0.997317
966.292309	0.996436
966.591393	0.998033
966.890439	0.997480
967.189447	0.997229
967.488419	0.997485
967.787353	0.996831
968.086249	0.995558
968.385108	0.996548
968.683930	0.997361
968.982714	0.997569
969.281462	0.997133
969.580172	0.996465
969.878844	0.997292
970.177480	0.996621
970.476078	0.997497
970.774639	0.997118
971.073162	0.998621
971.371649	0.995862
971.670098	0.996559
971.968510	0.998516
972.266885	0.996485
972.565223	0.996517
972.863524	0.996955
973.161788	0.997016
973.460014	0.998858
973.758204	0.996198
974.056356	0.996536
974.354471	0.994181
974.652550	0.997642
974.950591	0.997121
975.248595	0.997313
975.546563	0.997655
975.844493	0.997928
976.142386	0.997550
976.440243	0.997637
976.738062	0.997945
977.035845	0.998024
977.333590	0.998336
977.631299	0.999312
977.928971	0.996083
978.226606	0.997119
978.524204	0.997509
978.821765	0.998438
979.119290	0.996912
979.416777	0.997276
979.714228	0.997003
980.011642	0.993970
980.309020	0.997492
980.606360	0.997791
980.903664	0.998370
981.200931	0.995816
981.498162	0.996513
981.795356	0.994984
982.092513	0.994979
982.389633	0.994847
982.686717	0.991169
982.983764	0.991270
983.280775	0.991684
983.577749	0.990669
983.874686	0.992872
984.171587	0.992470
984.468451	0.994659
984.765279	0.995014
985.062070	0.994771
985.358824	0.996735
985.655543	0.995255
985.952224	0.996185
986.248869	0.996825
986.545478	0.996840
986.842050	0.998763
987.138586	0.996228
987.435086	0.997333
987.731549	0.999196
988.027975	0.997592
988.324366	0.997049
988.620719	0.998434
988.917037	0.997438
989.213318	0.998415
989.509563	0.998653
989.805772	0.999270
990.101944	0.998648
990.398080	0.997725
990.694180	0.997912
990.990244	0.996996
991.286271	0.998149
991.582262	0.998223
991.878217	0.996832
992.174136	0.998424
992.470019	0.998416
992.765865	0.998770
993.061676	0.998824
993.357450	0.997735
993.653188	0.996214
993.948890	0.997403
994.244556	0.998643
994.540186	0.997342
994.835780	0.996180
995.131337	0.997411
995.426859	0.996398
995.722345	0.997959
996.017795	0.996791
996.313208	0.995968
996.608586	0.996230
996.903928	0.996254
997.199234	0.997313
997.494504	0.997001
997.789738	0.997273
998.084936	0.997189
998.380099	0.998545
998.675225	0.997236
998.970316	0.999035
999.265371	0.998505
999.560390	0.998039
999.855373	0.999396
1000.150320	0.998487
1000.445232	0.997691
1000.740108	0.997225
1001.034948	0.999124
1001.329752	0.999647
1001.624521	0.998509
1001.919254	0.998876
1002.213951	0.999103
1002.508613	0.998618
1002.803239	0.999506
1003.097829	0.998471
1003.392384	0.998184
1003.686903	0.998330
1003.981386	0.999061
1004.275834	0.998868
1004.570246	0.998773
1004.864623	0.999028
1005.158964	1.000140
1005.453270	0.998351
1005.747540	0.997961
1006.041775	0.999269
1006.335974	0.999313
1006.630138	0.999631
1006.924266	0.999565
1007.218359	1.001115
1007.512416	1.000386
1007.806438	0.999285
1008.100425	0.998925
1008.394376	1.000304
1008.688292	0.998623
1008.982172	1.001099
1009.276017	0.999146
1009.569827	0.999580
1009.863602	0.998621
1010.157341	0.999181
1010.451045	0.999005
1010.744714	0.998219
1011.038347	0.999779
1011.331945	0.999428
1011.625508	0.997777
1011.919036	0.997589
1012.212528	0.998669
1012.505986	0.998137
1012.799408	0.998324
1013.092795	0.999108
1013.386147	0.999049
1013.679464	0.999234
1013.972745	0.997640
1014.265992	0.997136
1014.559204	0.998207
1014.852380	0.998313
1015.145521	0.998217
1015.438628	0.999624
1015.731699	0.998783
1016.024736	0.999975
1016.317737	0.998933
1016.610703	0.998580
1016.903635	0.999326
1017.196531	0.998725
1017.489393	0.999743
1017.782219	0.998464
1018.075011	0.999324
1018.367768	0.999512
1018.660490	0.998469
1018.953177	0.998469
1019.245829	0.998469
