Dividing Wavelength (nm)	Counts (n)	Blue Motor Position (mm): 0.000000	Red Motor Position (mm): 38.900000	
326.493990	0.999806
326.888308	0.999806
327.282561	0.999806
327.676750	0.999840
328.070874	0.998674
328.464933	1.000317
328.858929	0.999261
329.252859	1.000091
329.646726	0.998746
330.040528	0.999571
330.434265	0.998895
330.827938	1.000784
331.221547	1.000661
331.615091	1.000258
332.008571	1.000226
332.401986	0.999647
332.795338	1.000089
333.188625	0.998798
333.581847	1.000848
333.975006	0.999470
334.368100	0.998671
334.761129	0.999693
335.154095	1.000721
335.546996	0.998673
335.939833	0.996618
336.332606	0.996801
336.725315	0.997163
337.117960	0.998652
337.510540	0.997357
337.903056	0.997759
338.295508	0.996117
338.687896	0.997605
339.080220	0.996953
339.472480	0.997119
339.864676	0.997417
340.256807	0.998174
340.648875	0.997950
341.040879	0.998145
341.432818	0.997564
341.824694	0.995071
342.216506	0.998635
342.608253	0.998123
342.999937	0.996575
343.391557	0.997948
343.783113	0.997643
344.174605	0.997365
344.566033	0.998181
344.957397	0.996756
345.348697	0.996704
345.739934	0.997580
346.131106	0.997195
346.522215	0.996764
346.913260	0.996945
347.304241	0.997360
347.695159	0.997127
348.086012	0.996727
348.476802	0.996294
348.867528	0.997576
349.258191	0.996588
349.648789	0.997153
350.039324	0.997142
350.429796	0.998338
350.820203	0.998087
351.210548	0.996567
351.600828	0.997441
351.991045	0.998182
352.381198	0.995471
352.771288	0.996961
353.161314	0.998035
353.551276	0.998392
353.941175	0.996612
354.331010	0.996142
354.720782	0.997698
355.110490	0.997365
355.500135	0.998315
355.889717	0.996833
356.279235	0.996375
356.668689	0.997415
357.058080	0.997264
357.447408	0.998432
357.836672	0.998384
358.225873	0.997556
358.615010	0.998233
359.004084	0.998683
359.393095	0.997989
359.782043	0.997511
360.170927	0.998136
360.559748	0.998745
360.948505	0.996617
361.337199	0.997951
361.725830	0.997496
362.114398	0.997141
362.502903	0.998729
362.891344	0.998947
363.279722	0.998145
363.668037	0.997081
364.056289	0.997585
364.444478	0.998376
364.832603	0.996429
365.220665	0.997104
365.608665	0.996663
365.996601	0.997302
366.384474	0.998314
366.772284	0.997959
367.160031	0.997175
367.547715	0.996931
367.935336	0.997289
368.322893	0.997290
368.710388	0.995549
369.097820	0.996954
369.485189	0.996763
369.872495	0.997400
370.259738	0.996166
370.646918	0.997879
371.034035	0.998408
371.421090	0.997125
371.808081	0.997355
372.195010	0.997663
372.581875	0.998470
372.968678	0.997184
373.355418	0.997837
373.742096	0.996691
374.128710	0.997364
374.515262	0.996608
374.901751	0.997824
375.288177	0.998624
375.674540	0.998154
376.060841	0.996254
376.447079	0.997502
376.833254	0.997717
377.219367	0.997512
377.605417	0.997830
377.991404	0.998796
378.377329	0.996033
378.763191	0.998202
379.148991	0.999031
379.534727	0.998057
379.920402	0.998042
380.306013	0.998050
380.691563	0.998792
381.077049	0.997934
381.462474	0.998769
381.847835	0.997941
382.233134	0.997575
382.618371	0.998040
383.003545	0.997858
383.388657	0.997003
383.773706	0.998334
384.158693	0.998308
384.543618	0.998214
384.928480	0.998156
385.313280	0.998676
385.698017	0.998736
386.082692	0.998948
386.467305	0.998256
386.851856	0.998213
387.236344	0.998163
387.620770	0.997776
388.005133	0.998586
388.389435	0.998786
388.773674	0.997573
389.157851	0.999200
389.541965	0.999379
389.926018	0.997927
390.310008	0.999345
390.693936	0.998450
391.077802	0.999344
391.461606	0.999765
391.845348	0.998876
392.229027	0.999992
392.612645	0.998960
392.996200	0.999828
393.379694	0.998070
393.763125	0.999970
394.146494	0.999125
394.529801	0.998185
394.913047	0.999805
395.296230	0.998390
395.679351	0.999293
396.062410	0.998279
396.445408	0.999484
396.828343	0.999073
397.211217	0.998600
397.594028	0.999522
397.976778	0.997976
398.359466	0.998835
398.742092	0.998421
399.124656	0.997606
399.507158	0.998786
399.889598	0.999049
400.271977	0.999205
400.654294	0.999550
401.036549	0.999224
401.418742	0.998947
401.800874	0.998473
402.182944	0.998898
402.564952	0.998323
402.946898	0.999367
403.328783	0.999714
403.710606	0.998889
404.092367	0.999426
404.474067	0.999391
404.855705	0.998737
405.237282	0.999513
405.618797	0.999190
406.000250	0.998140
406.381642	0.999660
406.762972	0.998799
407.144240	0.999240
407.525447	0.999356
407.906593	0.999204
408.287677	0.998977
408.668700	0.999627
409.049661	0.998983
409.430560	0.999095
409.811399	0.998522
410.192176	0.999095
410.572891	0.998748
410.953545	0.998876
411.334138	0.998420
411.714669	0.999627
412.095139	0.998577
412.475547	1.000062
412.855894	1.000009
413.236180	0.999914
413.616405	0.998666
413.996568	0.999394
414.376670	0.999240
414.756711	0.999647
415.136691	0.999050
415.516609	0.999076
415.896466	0.999039
416.276262	0.998202
416.655997	0.999349
417.035670	0.999052
417.415283	0.999307
417.794834	0.999213
418.174324	0.998801
418.553753	0.999736
418.933121	0.999191
419.312428	0.999566
419.691674	0.999033
420.070859	0.999537
420.449983	0.999094
420.829045	0.999584
421.208047	0.999696
421.586988	1.000589
421.965867	0.999124
422.344686	0.999740
422.723444	0.999369
423.102141	0.999562
423.480777	0.999779
423.859352	0.999345
424.237866	0.998265
424.616319	0.998703
424.994712	0.999386
425.373044	1.000286
425.751314	0.999660
426.129524	0.999398
426.507673	0.999977
426.885762	1.000784
427.263789	0.999537
427.641756	0.999478
428.019662	1.000361
428.397508	0.999145
428.775292	0.999357
429.153016	0.999066
429.530679	1.000254
429.908282	0.999942
430.285824	0.999279
430.663305	0.998644
431.040726	0.998863
431.418086	1.001483
431.795385	0.999450
432.172624	0.999608
432.549802	0.999466
432.926920	0.999324
433.303977	0.999357
433.680974	0.999388
434.057910	0.999788
434.434786	0.998870
434.811601	0.999378
435.188355	0.998929
435.565050	0.998964
435.941683	1.000141
436.318257	1.000882
436.694770	0.999412
437.071222	0.999969
437.447614	0.999442
437.823946	0.999875
438.200218	0.999306
438.576429	0.999505
438.952580	0.999915
439.328670	0.999324
439.704700	1.000165
440.080670	1.000520
440.456580	0.999464
440.832429	0.999393
441.208218	0.999923
441.583947	1.000182
441.959616	0.999727
442.335224	0.999235
442.710773	1.000340
443.086261	0.999412
443.461689	0.999248
443.837057	0.998990
444.212365	0.999301
444.587612	0.999335
444.962800	0.999164
445.337927	0.999646
445.712995	1.000124
446.088002	0.999927
446.462949	0.999688
446.837837	1.000091
447.212664	1.000431
447.587431	0.999620
447.962139	0.999346
448.336786	0.999507
448.711374	1.000091
449.085901	0.999188
449.460369	1.000050
449.834776	0.998860
450.209124	1.000271
450.583412	1.000060
450.957640	0.999900
451.331808	0.999555
451.705917	0.999780
452.079965	0.998870
452.453954	1.000462
452.827883	0.999631
453.201752	0.999672
453.575562	1.000161
453.949311	0.999671
454.323001	0.999073
454.696632	0.999870
455.070202	0.999850
455.443713	0.999604
455.817164	0.999740
456.190556	0.999842
456.563888	0.999831
456.937160	1.000445
457.310373	0.998941
457.683526	0.999740
458.056619	0.999341
458.429653	0.999860
458.802628	0.999360
459.175542	0.999897
459.548398	0.999527
459.921194	0.999414
460.293930	1.000277
460.666607	0.999202
461.039224	0.999021
461.411782	1.000483
461.784280	0.999844
462.156719	1.000641
462.529099	1.000498
462.901419	1.000226
463.273680	0.999787
463.645882	0.999606
464.018024	1.000369
464.390106	1.000427
464.762130	1.000509
465.134094	0.999999
465.505999	1.000071
465.877845	1.000040
466.249631	1.000803
466.621358	1.000255
466.993026	0.999626
467.364634	0.999900
467.736184	1.000398
468.107674	1.000179
468.479105	0.999269
468.850477	1.000068
469.221790	0.999989
469.593043	1.000812
469.964238	1.001045
470.335373	0.999327
470.706449	1.000420
471.077467	1.000051
471.448425	1.000081
471.819324	1.000618
472.190164	0.999744
472.560945	1.000414
472.931667	0.999549
473.302330	0.999493
473.672934	1.000700
474.043479	1.000582
474.413965	0.999116
474.784393	0.999733
475.154761	0.999849
475.525070	0.999153
475.895321	1.000928
476.265513	1.000096
476.635645	0.999324
477.005719	1.000117
477.375734	1.000149
477.745691	0.999805
478.115588	0.999919
478.485427	1.000205
478.855207	0.999918
479.224928	0.999831
479.594591	0.999889
479.964194	1.000084
480.333739	1.000057
480.703226	1.000295
481.072653	1.000810
481.442022	1.000862
481.811333	0.999294
482.180584	1.000439
482.549777	0.999672
482.918912	0.999701
483.287988	1.000407
483.657005	0.999822
484.025964	0.999800
484.394864	1.000190
484.763706	1.000175
485.132489	1.000541
485.501213	1.000005
485.869879	1.000123
486.238487	1.000263
486.607036	0.999742
486.975527	0.999200
487.343959	0.999793
487.712333	1.000013
488.080648	0.999921
488.448905	0.999596
488.817104	1.000224
489.185244	0.999830
489.553326	0.999775
489.921350	0.999501
490.289315	1.000417
490.657222	1.000421
491.025070	1.000067
491.392861	1.000602
491.760593	1.000404
492.128267	0.999999
492.495883	0.999839
492.863440	0.999858
493.230939	0.999714
493.598380	0.999964
493.965763	1.000401
494.333088	1.000185
494.700354	1.000152
495.067563	1.000352
495.434713	0.999721
495.801805	1.000133
496.168839	1.000387
496.535815	0.999636
496.902733	0.999329
497.269593	0.999940
497.636395	1.000102
498.003139	0.999318
498.369825	1.000219
498.736453	0.999552
499.103023	0.999643
499.469535	0.999963
499.835989	0.999692
500.202385	1.000187
500.568723	0.999871
500.935003	0.999731
501.301226	0.999808
501.667390	0.999817
502.033497	0.999836
502.399546	0.999930
502.765537	0.999141
503.131470	0.999642
503.497345	0.999258
503.863163	1.000550
504.228923	0.999770
504.594625	1.000351
504.960269	1.000376
505.325856	0.999685
505.691385	0.999326
506.056856	0.999723
506.422270	0.999576
506.787625	0.999894
507.152924	0.999621
507.518164	0.999255
507.883347	1.000006
508.248472	0.998924
508.613540	0.999678
508.978550	0.999615
509.343503	0.998717
509.708398	0.999907
510.073236	0.999845
510.438016	1.000038
510.802738	0.999782
511.167403	0.999118
511.532010	0.999170
511.896561	0.998935
512.261053	0.999975
512.625488	0.998437
512.989866	0.999306
513.354186	0.999594
513.718449	0.999075
514.082655	0.999437
514.446803	0.999739
514.810894	0.999473
515.174927	0.999943
515.538904	0.999487
515.902822	0.999012
516.266684	0.999592
516.630488	0.999849
516.994235	0.998852
517.357925	0.998467
517.721558	0.999290
518.085133	0.998322
518.448651	0.999949
518.812112	0.998837
519.175516	0.999445
519.538863	0.999386
519.902152	0.999231
520.265385	0.998755
520.628560	0.998822
520.991678	0.999233
521.354739	0.998945
521.717743	0.999218
522.080690	0.999115
522.443580	0.998956
522.806413	0.999093
523.169189	0.998531
523.531908	0.998103
523.894569	0.999214
524.257174	0.999322
524.619722	0.998778
524.982213	0.999410
525.344647	0.999159
525.707025	0.998293
526.069345	0.997990
526.431608	0.998469
526.793815	0.998731
527.155964	0.998987
527.518057	0.998619
527.880093	0.998193
528.242072	0.998527
528.603995	0.998469
528.965860	0.998830
529.327669	0.998391
529.689421	0.998331
530.051117	0.998519
530.412755	0.998136
530.774337	0.998349
531.135862	0.998313
531.497331	0.997974
531.858743	0.997974
532.220098	0.998130
532.581396	0.998591
532.942638	0.999206
533.303824	0.997944
533.664953	0.998363
534.026025	0.997444
534.387040	0.997760
534.747999	0.998326
535.108902	0.998092
535.469748	0.997861
535.830537	0.998018
536.191270	0.998297
536.551947	0.997495
536.912567	0.998072
537.273131	0.998343
537.633638	0.996415
537.994089	0.997664
538.354483	0.997864
538.714821	0.997412
539.075103	0.996815
539.435328	0.997217
539.795497	0.997043
540.155609	0.996663
540.515665	0.997320
540.875665	0.996367
541.235609	0.996801
541.595496	0.996197
541.955328	0.996095
542.315102	0.996624
542.674821	0.996434
543.034483	0.996386
543.394090	0.995906
543.753640	0.996670
544.113134	0.996451
544.472571	0.996389
544.831953	0.996238
545.191278	0.996160
545.550548	0.996629
545.909761	0.995272
546.268918	0.995669
546.628019	0.995709
546.987064	0.995096
547.346053	0.995191
547.704986	0.995938
548.063863	0.995337
548.422684	0.995038
548.781449	0.994982
549.140158	0.994345
549.498811	0.994462
549.857408	0.994244
550.215949	0.994173
550.574434	0.993245
550.932864	0.993238
551.291237	0.992840
551.649555	0.992776
552.007817	0.992561
552.366022	0.992078
552.724173	0.992801
553.082267	0.992278
553.440305	0.991485
553.798288	0.991991
554.156215	0.991009
554.514086	0.990290
554.871902	0.990253
555.229661	0.990046
555.587365	0.989725
555.945014	0.990781
556.302606	0.988685
556.660143	0.989325
557.017625	0.988574
557.375050	0.988307
557.732421	0.987428
558.089735	0.987617
558.446994	0.987886
558.804197	0.986635
559.161345	0.986273
559.518437	0.986169
559.875474	0.984103
560.232455	0.984118
560.589381	0.984632
560.946251	0.983010
561.303065	0.982627
561.659825	0.982003
562.016528	0.981374
562.373177	0.981476
562.729770	0.980424
563.086307	0.979788
563.442789	0.979404
563.799216	0.978519
564.155587	0.977852
564.511904	0.976216
564.868164	0.975672
565.224370	0.975544
565.580520	0.974753
565.936615	0.973751
566.292654	0.973353
566.648638	0.972393
567.004567	0.970722
567.360441	0.970755
567.716260	0.969558
568.072023	0.969125
568.427732	0.967093
568.783385	0.967091
569.138982	0.965871
569.494525	0.964657
569.850013	0.964128
570.205445	0.961738
570.560823	0.961555
570.916145	0.959686
571.271412	0.958744
571.626625	0.957341
571.981782	0.956422
572.336884	0.955010
572.691931	0.954332
573.046923	0.952012
573.401860	0.951080
573.756743	0.949198
574.111570	0.948142
574.466342	0.946411
574.821059	0.945316
575.175722	0.943699
575.530330	0.943165
575.884882	0.940836
576.239380	0.939927
576.593823	0.937746
576.948211	0.936153
577.302544	0.935870
577.656823	0.933468
578.011047	0.931881
578.365216	0.929716
578.719330	0.927600
579.073389	0.926721
579.427394	0.924817
579.781344	0.922877
580.135239	0.921677
580.489080	0.919151
580.842866	0.917500
581.196597	0.915277
581.550273	0.912992
581.903895	0.910730
582.257463	0.909086
582.610975	0.906287
582.964434	0.904449
583.317837	0.903239
583.671186	0.900337
584.024481	0.898208
584.377721	0.896046
584.730906	0.894126
585.084037	0.891560
585.437113	0.890380
585.790135	0.887609
586.143103	0.885385
586.496016	0.884454
586.848874	0.880470
587.201679	0.878495
587.554428	0.875897
587.907124	0.873324
588.259765	0.871853
588.612352	0.868925
588.964884	0.867019
589.317362	0.863936
589.669786	0.861165
590.022155	0.859062
590.374470	0.855989
590.726731	0.854272
591.078937	0.851044
591.431090	0.847627
591.783188	0.846713
592.135232	0.843605
592.487222	0.842176
592.839157	0.837963
593.191038	0.836999
593.542866	0.834820
593.894639	0.832284
594.246358	0.828653
594.598022	0.826325
594.949633	0.824223
595.301190	0.822065
595.652692	0.819342
596.004141	0.814862
596.355535	0.815457
596.706876	0.812784
597.058162	0.809838
597.409395	0.806094
597.760573	0.803387
598.111698	0.802129
598.462768	0.797857
598.813785	0.797188
599.164748	0.793705
599.515657	0.791493
599.866511	0.789124
600.217312	0.786101
600.568060	0.784881
600.918753	0.781048
601.269392	0.778739
601.619978	0.776226
601.970510	0.772417
602.320988	0.770300
602.671412	0.765447
603.021783	0.763959
603.372100	0.762621
603.722363	0.758721
604.072572	0.755896
604.422728	0.753219
604.772830	0.750600
605.122878	0.747345
605.472872	0.745817
605.822813	0.741157
606.172701	0.739706
606.522534	0.735908
606.872314	0.733158
607.222041	0.730282
607.571714	0.726870
607.921333	0.723788
608.270899	0.720192
608.620411	0.716298
608.969870	0.715021
609.319276	0.711730
609.668627	0.708425
610.017926	0.704924
610.367171	0.701088
610.716362	0.698558
611.065500	0.695205
611.414585	0.691205
611.763616	0.689824
612.112594	0.687319
612.461518	0.683481
612.810389	0.679621
613.159207	0.677370
613.507971	0.675823
613.856682	0.670207
614.205340	0.668583
614.553945	0.663488
614.902496	0.663041
615.250994	0.658809
615.599439	0.656519
615.947830	0.652874
616.296169	0.651407
616.644454	0.647953
616.992686	0.645108
617.340864	0.640795
617.688990	0.640080
618.037063	0.635939
618.385082	0.634216
618.733048	0.628992
619.080961	0.628543
619.428821	0.625170
619.776628	0.620918
620.124382	0.620189
620.472083	0.616264
620.819731	0.614111
621.167326	0.613202
621.514868	0.610614
621.862357	0.610437
622.209793	0.607818
622.557176	0.605590
622.904506	0.603414
623.251783	0.602614
623.599007	0.601036
623.946179	0.598050
624.293297	0.596836
624.640363	0.597420
624.987376	0.593778
625.334336	0.593517
625.681243	0.592321
626.028097	0.589362
626.374899	0.588362
626.721647	0.584619
627.068343	0.585378
627.414987	0.583134
627.761577	0.582101
628.108115	0.578761
628.454600	0.579549
628.801032	0.574623
629.147412	0.574566
629.493739	0.571154
629.840014	0.571531
630.186236	0.568283
630.532405	0.568953
630.878521	0.565512
631.224585	0.564913
631.570597	0.565435
631.916556	0.561902
632.262462	0.560288
632.608316	0.559292
632.954117	0.557589
633.299866	0.556257
633.645562	0.553853
633.991206	0.554823
634.336797	0.554975
634.682336	0.554080
635.027823	0.552837
635.373257	0.551038
635.718639	0.550804
636.063968	0.548345
636.409245	0.551057
636.754470	0.548444
637.099642	0.548519
637.444762	0.548732
637.789829	0.545705
638.134845	0.547015
638.479808	0.545509
638.824719	0.544100
639.169577	0.544671
639.514383	0.541946
639.859137	0.543356
640.203839	0.541844
640.548489	0.539577
640.893086	0.539347
641.237632	0.538983
641.582125	0.535343
641.926566	0.535034
642.270955	0.533513
642.615292	0.532224
642.959576	0.529642
643.303809	0.528267
643.647990	0.526116
643.992118	0.525990
644.336195	0.527618
644.680219	0.523688
645.024192	0.523509
645.368112	0.516834
645.711981	0.514686
646.055797	0.510047
646.399562	0.510662
646.743274	0.502786
647.086935	0.500319
647.430544	0.498913
647.774101	0.496178
648.117606	0.494908
648.461059	0.493976
648.804460	0.493583
649.147810	0.497054
649.491108	0.496619
649.834354	0.496189
650.177548	0.498898
650.520690	0.501771
650.863781	0.501680
651.206820	0.499466
651.549807	0.501941
651.892742	0.504123
652.235626	0.502478
652.578458	0.502108
652.921238	0.505923
653.263967	0.503081
653.606644	0.505572
653.949269	0.503890
654.291843	0.506621
654.634365	0.502217
654.976836	0.503957
655.319255	0.503215
655.661622	0.503735
656.003938	0.502425
656.346203	0.504214
656.688416	0.500368
657.030577	0.502594
657.372687	0.503278
657.714746	0.503037
658.056753	0.499310
658.398708	0.502146
658.740612	0.501912
659.082465	0.497840
659.424266	0.497326
659.766016	0.495704
660.107715	0.497014
660.449362	0.495672
660.790958	0.495004
661.132503	0.494135
661.473996	0.492224
661.815438	0.492089
662.156829	0.490755
662.498168	0.490865
662.839456	0.491222
663.180693	0.488098
663.521879	0.487699
663.863013	0.488020
664.204097	0.485431
664.545129	0.482135
664.886110	0.481809
665.227040	0.478596
665.567918	0.480436
665.908746	0.477800
666.249522	0.476967
666.590248	0.477354
666.930922	0.474928
667.271545	0.473098
667.612118	0.472943
667.952639	0.474243
668.293109	0.471701
668.633528	0.473709
668.973896	0.472753
669.314213	0.472651
669.654480	0.473632
669.994695	0.473093
670.334859	0.473342
670.674973	0.472579
671.015035	0.472559
671.355047	0.471941
671.695008	0.472031
672.034918	0.473477
672.374777	0.472217
672.714585	0.473068
673.054342	0.472679
673.394049	0.471917
673.733705	0.469372
674.073310	0.470348
674.412864	0.472575
674.752368	0.472229
675.091820	0.471899
675.431223	0.475656
675.770574	0.475283
676.109875	0.477352
676.449125	0.476469
676.788324	0.478754
677.127473	0.483510
677.466571	0.482037
677.805619	0.483483
678.144616	0.484011
678.483562	0.485746
678.822458	0.487474
679.161303	0.488186
679.500098	0.487880
679.838842	0.489236
680.177535	0.488511
680.516179	0.486799
680.854771	0.485337
681.193314	0.478913
681.531805	0.470520
681.870247	0.459286
682.208638	0.451882
682.546978	0.450988
682.885268	0.451801
683.223508	0.457208
683.561697	0.460562
683.899836	0.463237
684.237925	0.466398
684.575963	0.468662
684.913951	0.471019
685.251889	0.467006
685.589776	0.468948
685.927614	0.470872
686.265401	0.465169
686.603137	0.466558
686.940824	0.460294
687.278460	0.459151
687.616046	0.458047
687.953582	0.453001
688.291068	0.454553
688.628504	0.449989
688.965889	0.452069
689.303224	0.456030
689.640510	0.459070
689.977745	0.464787
690.314930	0.471779
690.652065	0.475969
690.989150	0.482202
691.326185	0.488764
691.663170	0.493123
692.000105	0.499350
692.336990	0.506192
692.673825	0.508830
693.010610	0.515068
693.347345	0.520598
693.684030	0.521604
694.020665	0.526442
694.357251	0.534234
694.693786	0.533499
695.030272	0.538358
695.366707	0.540996
695.703093	0.543637
696.039429	0.542221
696.375716	0.543847
696.711952	0.546449
697.048139	0.547751
697.384276	0.549473
697.720363	0.547710
698.056400	0.547289
698.392388	0.552319
698.728326	0.554878
699.064214	0.558010
699.400053	0.558634
699.735842	0.561208
700.071581	0.564750
700.407270	0.566929
700.742910	0.569417
701.078501	0.575527
701.414042	0.575527
701.749533	0.578141
702.084974	0.587114
702.420366	0.579701
702.755709	0.586509
703.091002	0.594129
703.426246	0.588223
703.761440	0.593723
704.096584	0.598551
704.431679	0.595225
704.766725	0.597210
705.101721	0.598593
705.436668	0.594352
705.771565	0.601895
706.106413	0.598666
706.441212	0.593550
706.775961	0.592922
707.110661	0.594836
707.445311	0.591989
707.779913	0.588072
708.114465	0.587511
708.448967	0.584227
708.783421	0.575347
709.117825	0.570537
709.452180	0.570456
709.786485	0.564608
710.120742	0.553729
710.454949	0.556543
710.789107	0.549076
711.123216	0.540821
711.457275	0.541500
711.791286	0.533119
712.125247	0.531553
712.459159	0.542061
712.793023	0.535080
713.126837	0.539383
713.460602	0.539258
713.794318	0.548800
714.127985	0.547446
714.461602	0.557371
714.795171	0.559834
715.128691	0.568128
715.462162	0.575197
715.795584	0.580384
716.128957	0.583220
716.462281	0.590409
716.795556	0.593753
717.128782	0.598084
717.461960	0.608346
717.795088	0.606272
718.128167	0.611647
718.461198	0.620298
718.794180	0.621299
719.127113	0.624523
719.459997	0.627327
719.792833	0.632998
720.125619	0.634941
720.458357	0.640533
720.791046	0.639517
721.123686	0.644040
721.456278	0.650421
721.788821	0.647731
722.121315	0.651987
722.453761	0.656543
722.786158	0.653813
723.118506	0.649553
723.450805	0.658351
723.783056	0.653928
724.115259	0.651365
724.447412	0.651374
724.779518	0.652456
725.111574	0.651595
725.443582	0.647589
725.775542	0.648155
726.107453	0.641512
726.439315	0.641088
726.771129	0.639457
727.102895	0.633478
727.434612	0.626486
727.766281	0.624587
728.097901	0.623334
728.429473	0.622444
728.760996	0.621775
729.092471	0.620879
729.423897	0.625353
729.755276	0.624174
730.086606	0.624942
730.417887	0.619423
730.749120	0.609539
731.080305	0.600938
731.411442	0.596375
731.742530	0.601449
732.073570	0.600782
732.404562	0.592707
732.735506	0.594581
733.066401	0.599533
733.397249	0.607925
733.728048	0.619816
734.058798	0.631953
734.389501	0.642460
734.720156	0.651800
735.050762	0.660061
735.381320	0.660262
735.711831	0.669765
736.042293	0.675711
736.372707	0.670142
736.703073	0.675535
737.033391	0.677779
737.363661	0.674621
737.693883	0.669765
738.024056	0.668886
738.354182	0.669327
738.684260	0.658367
739.014290	0.654149
739.344272	0.655689
739.674207	0.648625
740.004093	0.647656
740.333931	0.648551
740.663722	0.649477
740.993464	0.648788
741.323159	0.653068
741.652806	0.658072
741.982405	0.662853
742.311956	0.667064
742.641460	0.669460
742.970915	0.672597
743.300323	0.681024
743.629683	0.687683
743.958996	0.688351
744.288260	0.692594
744.617477	0.698512
744.946647	0.700439
745.275768	0.705859
745.604842	0.705043
745.933869	0.714945
746.262847	0.716084
746.591778	0.710181
746.920662	0.715488
747.249498	0.722160
747.578286	0.712742
747.907027	0.709555
748.235720	0.710033
748.564365	0.704833
748.892963	0.704590
749.221514	0.708268
749.550017	0.712862
749.878473	0.712010
750.206881	0.718726
750.535242	0.720397
750.863555	0.719997
751.191821	0.721259
751.520039	0.724403
751.848210	0.729301
752.176334	0.721544
752.504411	0.721137
752.832440	0.728151
753.160421	0.732100
753.488356	0.730587
753.816243	0.728289
754.144082	0.736588
754.471875	0.740122
754.799620	0.735902
755.127318	0.737587
755.454969	0.736872
755.782572	0.736731
756.110129	0.741104
756.437638	0.743691
756.765100	0.740402
757.092515	0.738395
757.419882	0.737013
757.747203	0.742617
758.074477	0.741308
758.401703	0.739658
758.728882	0.734312
759.056014	0.733222
759.383099	0.731709
759.710138	0.732696
760.037129	0.729842
760.364073	0.724157
760.690970	0.727112
761.017820	0.731793
761.344623	0.727222
761.671379	0.719002
761.998088	0.708003
762.324751	0.685204
762.651366	0.643444
762.977935	0.577951
763.304456	0.525993
763.630931	0.516013
763.957359	0.554813
764.283740	0.599517
764.610074	0.626071
764.936362	0.656207
765.262602	0.683210
765.588796	0.704081
765.914943	0.721702
766.241044	0.738923
766.567097	0.746342
766.893104	0.754714
767.219064	0.761993
767.544978	0.768151
767.870845	0.782570
768.196665	0.786187
768.522438	0.784022
768.848165	0.784779
769.173846	0.792935
769.499479	0.797626
769.825066	0.801278
770.150607	0.806347
770.476101	0.802142
770.801548	0.802789
771.126949	0.814345
771.452303	0.818461
771.777611	0.816935
772.102872	0.815622
772.428087	0.820853
772.753256	0.825178
773.078378	0.826652
773.403453	0.836752
773.728482	0.839654
774.053465	0.833094
774.378401	0.836045
774.703291	0.845143
775.028135	0.844824
775.352932	0.845309
775.677683	0.849980
776.002388	0.849787
776.327046	0.849392
776.651658	0.852436
776.976224	0.856403
777.300743	0.856495
777.625216	0.857924
777.949643	0.859548
778.274024	0.859831
778.598359	0.861417
778.922647	0.860834
779.246889	0.860562
779.571086	0.864855
779.895236	0.867225
780.219339	0.864069
780.543397	0.861821
780.867409	0.859338
781.191374	0.862445
781.515294	0.863923
781.839167	0.861918
782.162995	0.865147
782.486776	0.862061
782.810511	0.863173
783.134201	0.867100
783.457844	0.865104
783.781441	0.866712
784.104993	0.873613
784.428498	0.873571
784.751958	0.869382
785.075372	0.871683
785.398739	0.875806
785.722061	0.872143
786.045337	0.868074
786.368568	0.872279
786.691752	0.875228
787.014891	0.860503
787.337983	0.851363
787.661030	0.844137
787.984031	0.826752
788.306987	0.815820
788.629897	0.816609
788.952760	0.821069
789.275579	0.824901
789.598351	0.839986
789.921078	0.853794
790.243759	0.855117
790.566395	0.860094
790.888984	0.867486
791.211529	0.872128
791.534027	0.874902
791.856480	0.877990
792.178888	0.882009
792.501249	0.883953
792.823566	0.885741
793.145836	0.885813
793.468062	0.887947
793.790241	0.888340
794.112375	0.886136
794.434464	0.881552
794.756507	0.881186
795.078505	0.879513
795.400457	0.875423
795.722364	0.864050
796.044226	0.854767
796.366042	0.855791
796.687812	0.859532
797.009538	0.855692
797.331218	0.858132
797.652852	0.863333
797.974442	0.868632
798.295986	0.867379
798.617484	0.870549
798.938938	0.874842
799.260346	0.878898
799.581709	0.881415
799.903026	0.883851
800.224299	0.883696
800.545526	0.887645
800.866708	0.892088
801.187845	0.896610
801.508936	0.894703
801.829983	0.893152
802.150984	0.896043
802.471940	0.900301
802.792851	0.900086
803.113717	0.900461
803.434538	0.899495
803.755314	0.901369
804.076045	0.903181
804.396731	0.903277
804.717372	0.903578
805.037967	0.904588
805.358518	0.904314
805.679024	0.900545
805.999485	0.899945
806.319901	0.899456
806.640272	0.901166
806.960598	0.898716
807.280879	0.896898
807.601115	0.895702
807.921306	0.898758
808.241453	0.898568
808.561554	0.897481
808.881611	0.896886
809.201623	0.898481
809.521590	0.899374
809.841513	0.900029
810.161390	0.898640
810.481223	0.900797
810.801011	0.904403
811.120755	0.906818
811.440453	0.904335
811.760107	0.903194
812.079716	0.902767
812.399281	0.905829
812.718801	0.909221
813.038276	0.910329
813.357707	0.908996
813.677093	0.906561
813.996434	0.910328
814.315731	0.912536
814.634983	0.912329
814.954191	0.910537
815.273354	0.907911
815.592473	0.904414
815.911547	0.904669
816.230577	0.902599
816.549562	0.898609
816.868502	0.900849
817.187399	0.897395
817.506250	0.890941
817.825058	0.893708
818.143821	0.890502
818.462539	0.885774
818.781213	0.877714
819.099843	0.866215
819.418429	0.850981
819.736970	0.834839
820.055466	0.815003
820.373919	0.790816
820.692327	0.758064
821.010691	0.724225
821.329011	0.649057
821.647286	0.536224
821.965517	0.423775
822.283704	0.382437
822.601847	0.383815
822.919945	0.419391
823.237999	0.451483
823.556010	0.497348
823.873976	0.552895
824.191897	0.601487
824.509775	0.643485
824.827609	0.688290
825.145398	0.710393
825.463144	0.712488
825.780845	0.696047
826.098502	0.676937
826.416116	0.632623
826.733685	0.589780
827.051210	0.581561
827.368692	0.596296
827.686129	0.632162
828.003522	0.683913
828.320872	0.730525
828.638177	0.773709
828.955439	0.805825
829.272656	0.827472
829.589830	0.843362
829.906960	0.858593
830.224046	0.870861
830.541088	0.881689
830.858086	0.884768
831.175041	0.891883
831.491952	0.890919
831.808819	0.886890
832.125642	0.880850
832.442421	0.867071
832.759157	0.845570
833.075849	0.800346
833.392497	0.737792
833.709101	0.698161
834.025662	0.707930
834.342179	0.738608
834.658653	0.776231
834.975083	0.812322
835.291469	0.838048
835.607811	0.859754
835.924110	0.874833
836.240366	0.891555
836.556578	0.905435
836.872746	0.912972
837.188871	0.917265
837.504952	0.924062
837.820990	0.927045
838.136984	0.929755
838.452935	0.933558
838.768842	0.934891
839.084706	0.928690
839.400526	0.902577
839.716303	0.863819
840.032037	0.841712
840.347727	0.845994
840.663373	0.863587
840.978977	0.884179
841.294537	0.906444
841.610054	0.921247
841.925527	0.929574
842.240957	0.935415
842.556344	0.943248
842.871687	0.948997
843.186987	0.952273
843.502244	0.952066
843.817458	0.954030
844.132629	0.959035
844.447756	0.963928
844.762840	0.962936
845.077881	0.962114
845.392879	0.962423
845.707833	0.965185
846.022745	0.967066
846.337613	0.966929
846.652438	0.968040
846.967221	0.966670
847.281960	0.967180
847.596656	0.970219
847.911309	0.967257
848.225919	0.970106
848.540485	0.971426
848.855009	0.970852
849.169490	0.970274
849.483928	0.971134
849.798323	0.971612
850.112675	0.973094
850.426984	0.971545
850.741251	0.972857
851.055474	0.972494
851.369654	0.971508
851.683792	0.971526
851.997887	0.971842
852.311938	0.973143
852.625947	0.972333
852.939914	0.970702
853.253837	0.971912
853.567718	0.972902
853.881555	0.972627
854.195350	0.969157
854.509103	0.972869
854.822812	0.972262
855.136479	0.971477
855.450103	0.970826
855.763685	0.970544
856.077224	0.971246
856.390720	0.972371
856.704173	0.973182
857.017584	0.970395
857.330953	0.968741
857.644278	0.970837
857.957561	0.970397
858.270802	0.971036
858.584000	0.969349
858.897155	0.968699
859.210268	0.969154
859.523339	0.970257
859.836367	0.972381
860.149352	0.972382
860.462295	0.971682
860.775195	0.971490
861.088054	0.972353
861.400869	0.972265
861.713642	0.973673
862.026373	0.973693
862.339062	0.972932
862.651708	0.969410
862.964312	0.970002
863.276873	0.971390
863.589392	0.970205
863.901869	0.969000
864.214303	0.967651
864.526696	0.967284
864.839045	0.966421
865.151353	0.964620
865.463619	0.965569
865.775842	0.965540
866.088023	0.964970
866.400162	0.965499
866.712258	0.964986
867.024313	0.964892
867.336325	0.965976
867.648296	0.966048
867.960224	0.964765
868.272110	0.964162
868.583954	0.966156
868.895755	0.966369
869.207515	0.964245
869.519233	0.962779
869.830909	0.964361
870.142542	0.965257
870.454134	0.964684
870.765684	0.963399
871.077191	0.961317
871.388657	0.961640
871.700081	0.961266
872.011463	0.961544
872.322803	0.961868
872.634101	0.959692
872.945357	0.957882
873.256571	0.955538
873.567744	0.956178
873.878874	0.957207
874.189963	0.955117
874.501010	0.954095
874.812015	0.953088
875.122979	0.953703
875.433900	0.956645
875.744780	0.957259
876.055618	0.954620
876.366415	0.953676
876.677169	0.953623
876.987882	0.954654
877.298554	0.953761
877.609183	0.952123
877.919771	0.948510
878.230317	0.946246
878.540822	0.944589
878.851285	0.940616
879.161707	0.931503
879.472087	0.920351
879.782425	0.904418
880.092722	0.873078
880.402977	0.822477
880.713191	0.763563
881.023363	0.707717
881.333494	0.675164
881.643583	0.646761
881.953631	0.647062
882.263637	0.675596
882.573602	0.714114
882.883526	0.738342
883.193408	0.760161
883.503248	0.782427
883.813048	0.808822
884.122806	0.837495
884.432522	0.859722
884.742197	0.879346
885.051831	0.886976
885.361424	0.898529
885.670975	0.909112
885.980485	0.919907
886.289954	0.925106
886.599382	0.929741
886.908768	0.932511
887.218113	0.939408
887.527417	0.943112
887.836680	0.945974
888.145901	0.948432
888.455082	0.950773
888.764221	0.954527
889.073319	0.956569
889.382376	0.956267
889.691392	0.957502
890.000366	0.955856
890.309300	0.957947
890.618193	0.956122
890.927044	0.953823
891.235855	0.956018
891.544625	0.956097
891.853353	0.956370
892.162041	0.952317
892.470687	0.948207
892.779293	0.942087
893.087858	0.938358
893.396381	0.931871
893.704864	0.918959
894.013306	0.896809
894.321707	0.870217
894.630068	0.857716
894.938387	0.852762
895.246665	0.854756
895.554903	0.865635
895.863100	0.879028
896.171256	0.893944
896.479371	0.913613
896.787446	0.925282
897.095480	0.931084
897.403473	0.933374
897.711425	0.937748
898.019336	0.945249
898.327207	0.946981
898.635038	0.949820
898.942827	0.949076
899.250576	0.952975
899.558284	0.956606
899.865952	0.958281
900.173579	0.958725
900.481165	0.960056
900.788711	0.963896
901.096216	0.965053
901.403681	0.965272
901.711105	0.967162
902.018489	0.966764
902.325832	0.966494
902.633135	0.965689
902.940397	0.960259
903.247619	0.948518
903.554800	0.924715
903.861941	0.887166
904.169041	0.852968
904.476101	0.837194
904.783121	0.839018
905.090100	0.853991
905.397039	0.874594
905.703938	0.894988
906.010796	0.913019
906.317614	0.929394
906.624391	0.939531
906.931129	0.949081
907.237826	0.955858
907.544483	0.962440
907.851099	0.966032
908.157675	0.971563
908.464211	0.973373
908.770707	0.974790
909.077163	0.976837
909.383578	0.977297
909.689954	0.978440
909.996289	0.978120
910.302584	0.980502
910.608839	0.982849
910.915054	0.979878
911.221229	0.980287
911.527363	0.979400
911.833458	0.979677
912.139513	0.981286
912.445527	0.978314
912.751502	0.976198
913.057436	0.976195
913.363331	0.973963
913.669186	0.969580
913.975000	0.964622
914.280775	0.960649
914.586510	0.955081
914.892205	0.941360
915.197859	0.920768
915.503475	0.894926
915.809050	0.876709
916.114585	0.872566
916.420081	0.869877
916.725536	0.866923
917.030952	0.874522
917.336328	0.886514
917.641665	0.901107
917.946961	0.915523
918.252218	0.926220
918.557435	0.934192
918.862612	0.942205
919.167750	0.947746
919.472848	0.952489
919.777906	0.956897
920.082925	0.963617
920.387904	0.966128
920.692843	0.966285
920.997743	0.968528
921.302603	0.972266
921.607423	0.972742
921.912204	0.975601
922.216946	0.974031
922.521647	0.977508
922.826310	0.978203
923.130932	0.980296
923.435516	0.980406
923.740059	0.982387
924.044564	0.980977
924.349028	0.982848
924.653454	0.985995
924.957840	0.987238
925.262186	0.986761
925.566493	0.986557
925.870761	0.986919
926.174989	0.988749
926.479178	0.991034
926.783328	0.990821
927.087438	0.990100
927.391509	0.990791
927.695541	0.991420
927.999533	0.990743
928.303486	0.992496
928.607400	0.993420
928.911275	0.991981
929.215110	0.991815
929.518906	0.992545
929.822663	0.991161
930.126381	0.993672
930.430060	0.992658
930.733699	0.992528
931.037299	0.990649
931.340861	0.992524
931.644383	0.992223
931.947866	0.991267
932.251309	0.993099
932.554714	0.993183
932.858080	0.993690
933.161407	0.991933
933.464694	0.993762
933.767943	0.991433
934.071153	0.992672
934.374323	0.993709
934.677455	0.993015
934.980548	0.993473
935.283602	0.992368
935.586617	0.992389
935.889593	0.991766
936.192530	0.992255
936.495428	0.991929
936.798287	0.991907
937.101108	0.991934
937.403890	0.990119
937.706632	0.990869
938.009336	0.989045
938.312002	0.988405
938.614628	0.987543
938.917216	0.986286
939.219765	0.984012
939.522275	0.986531
939.824747	0.984668
940.127179	0.986585
940.429573	0.986836
940.731929	0.986142
941.034246	0.986535
941.336524	0.988663
941.638763	0.989858
941.940964	0.988800
942.243126	0.987954
942.545250	0.989788
942.847335	0.990615
943.149381	0.989737
943.451389	0.990363
943.753359	0.991034
944.055290	0.993528
944.357182	0.992686
944.659036	0.990258
944.960851	0.991470
945.262628	0.991558
945.564367	0.992395
945.866067	0.992046
946.167729	0.991694
946.469352	0.992043
946.770937	0.990862
947.072484	0.992677
947.373992	0.992643
947.675462	0.991744
947.976893	0.991887
948.278286	0.992492
948.579641	0.994098
948.880958	0.992890
949.182236	0.992814
949.483476	0.991679
949.784678	0.992074
950.085841	0.993378
950.386967	0.993253
950.688054	0.993196
950.989103	0.993782
951.290114	0.991166
951.591087	0.990590
951.892021	0.991291
952.192917	0.990949
952.493776	0.990027
952.794596	0.989462
953.095378	0.990036
953.396122	0.990247
953.696828	0.989118
953.997496	0.991580
954.298126	0.992532
954.598718	0.991805
954.899272	0.993728
955.199788	0.992758
955.500266	0.994545
955.800706	0.993832
956.101108	0.995096
956.401472	0.995189
956.701798	0.995635
957.002087	0.994813
957.302337	0.994606
957.602550	0.997033
957.902724	0.995451
958.202861	0.996823
958.502960	0.996594
958.803022	0.994857
959.103045	0.997869
959.403031	0.997022
959.702979	0.996861
960.002889	0.997298
960.302762	0.996285
960.602596	0.996296
960.902393	0.996417
961.202153	0.998479
961.501875	0.998389
961.801559	0.996128
962.101205	0.997393
962.400814	0.996758
962.700385	0.996932
962.999918	0.996626
963.299414	0.997302
963.598873	0.996583
963.898293	0.997543
964.197677	0.996469
964.497022	0.997241
964.796331	0.999130
965.095601	0.997888
965.394835	0.997671
965.694030	0.996826
965.993189	0.998210
966.292309	0.997578
966.591393	0.998707
966.890439	0.999264
967.189447	0.997754
967.488419	0.998471
967.787353	0.996347
968.086249	0.996938
968.385108	0.998156
968.683930	0.997749
968.982714	0.998265
969.281462	0.997880
969.580172	0.998066
969.878844	0.998657
970.177480	0.998512
970.476078	0.998064
970.774639	0.997951
971.073162	0.998452
971.371649	0.996389
971.670098	0.996407
971.968510	0.998594
972.266885	0.996618
972.565223	0.997235
972.863524	0.997540
973.161788	0.996871
973.460014	0.998416
973.758204	0.996440
974.056356	0.997294
974.354471	0.995891
974.652550	0.996097
974.950591	0.997518
975.248595	0.996580
975.546563	0.997836
975.844493	0.999998
976.142386	0.997363
976.440243	0.997342
976.738062	0.997204
977.035845	0.999001
977.333590	0.998127
977.631299	0.998158
977.928971	0.997439
978.226606	0.997752
978.524204	0.996889
978.821765	0.999189
979.119290	0.997737
979.416777	0.998413
979.714228	0.997375
980.011642	0.997476
980.309020	0.998979
980.606360	0.997724
980.903664	0.998749
981.200931	0.997035
981.498162	0.995736
981.795356	0.995271
982.092513	0.995262
982.389633	0.997079
982.686717	0.992707
982.983764	0.992885
983.280775	0.992278
983.577749	0.992621
983.874686	0.993459
984.171587	0.992888
984.468451	0.996229
984.765279	0.996102
985.062070	0.996132
985.358824	0.996099
985.655543	0.996860
985.952224	0.996451
986.248869	0.997479
986.545478	0.997618
986.842050	0.998827
987.138586	0.997507
987.435086	0.997246
987.731549	0.998884
988.027975	0.998521
988.324366	0.997854
988.620719	0.997881
988.917037	0.997239
989.213318	0.999365
989.509563	0.999305
989.805772	0.999508
990.101944	0.997896
990.398080	0.997953
990.694180	0.998657
990.990244	0.997547
991.286271	0.998081
991.582262	0.998871
991.878217	0.998155
992.174136	1.000097
992.470019	0.999128
992.765865	0.997761
993.061676	0.998161
993.357450	0.998518
993.653188	0.997832
993.948890	0.999146
994.244556	0.997912
994.540186	0.997842
994.835780	0.996961
995.131337	0.998621
995.426859	0.997489
995.722345	0.999231
996.017795	0.997918
996.313208	0.996603
996.608586	0.996318
996.903928	0.997802
997.199234	0.996777
997.494504	0.997048
997.789738	0.996903
998.084936	0.997582
998.380099	0.998140
998.675225	0.997809
998.970316	0.999067
999.265371	0.998945
999.560390	0.998913
999.855373	0.999245
1000.150320	0.999163
1000.445232	0.999330
1000.740108	0.998801
1001.034948	0.998805
1001.329752	1.000043
1001.624521	0.999300
1001.919254	0.999388
1002.213951	0.998534
1002.508613	0.997976
1002.803239	0.999832
1003.097829	0.999595
1003.392384	0.999243
1003.686903	0.998972
1003.981386	0.997855
1004.275834	0.999538
1004.570246	0.998906
1004.864623	0.999802
1005.158964	0.999603
1005.453270	0.998659
1005.747540	0.997675
1006.041775	0.998244
1006.335974	1.000549
1006.630138	0.999195
1006.924266	1.000843
1007.218359	1.001150
1007.512416	1.000585
1007.806438	0.999591
1008.100425	0.999628
1008.394376	0.999016
1008.688292	0.999145
1008.982172	1.001247
1009.276017	0.999847
1009.569827	0.998879
1009.863602	1.000158
1010.157341	0.999623
1010.451045	1.000490
1010.744714	0.999432
1011.038347	1.000827
1011.331945	0.999848
1011.625508	0.998504
1011.919036	0.999300
1012.212528	0.999100
1012.505986	0.997948
1012.799408	0.998574
1013.092795	0.999973
1013.386147	0.999313
1013.679464	1.000320
1013.972745	0.998731
1014.265992	0.997725
1014.559204	0.999313
1014.852380	1.000279
1015.145521	0.998802
1015.438628	1.000249
1015.731699	0.998593
1016.024736	0.999231
1016.317737	0.999386
1016.610703	0.999736
1016.903635	0.998977
1017.196531	0.998833
1017.489393	1.000046
1017.782219	0.999044
1018.075011	0.998585
1018.367768	0.999509
1018.660490	1.000873
1018.953177	1.000873
1019.245829	1.000873
