Dividing Wavelength (nm)	Counts (n)	Blue Motor Position (mm): 0.000000	Red Motor Position (mm): 32.900000	
326.493990	1.000077
326.888308	1.000077
327.282561	1.000077
327.676750	0.999107
328.070874	0.999314
328.464933	0.999780
328.858929	0.999085
329.252859	0.999358
329.646726	0.999497
330.040528	1.000867
330.434265	0.998385
330.827938	1.001009
331.221547	1.001568
331.615091	1.000580
332.008571	0.999844
332.401986	0.999952
332.795338	1.000443
333.188625	0.998509
333.581847	1.000505
333.975006	0.999229
334.368100	0.999639
334.761129	0.999727
335.154095	1.000600
335.546996	0.998642
335.939833	0.995378
336.332606	0.995640
336.725315	0.996508
337.117960	0.997317
337.510540	0.995844
337.903056	0.996388
338.295508	0.995644
338.687896	0.996378
339.080220	0.995420
339.472480	0.996234
339.864676	0.995815
340.256807	0.996306
340.648875	0.996912
341.040879	0.997094
341.432818	0.996249
341.824694	0.995803
342.216506	0.996463
342.608253	0.996237
342.999937	0.996083
343.391557	0.995984
343.783113	0.994751
344.174605	0.995982
344.566033	0.996114
344.957397	0.995890
345.348697	0.996018
345.739934	0.996028
346.131106	0.995244
346.522215	0.996416
346.913260	0.995612
347.304241	0.995867
347.695159	0.995830
348.086012	0.995612
348.476802	0.995882
348.867528	0.994670
349.258191	0.995481
349.648789	0.996574
350.039324	0.995464
350.429796	0.997022
350.820203	0.996078
351.210548	0.996200
351.600828	0.995698
351.991045	0.996906
352.381198	0.994706
352.771288	0.995283
353.161314	0.995224
353.551276	0.996456
353.941175	0.995741
354.331010	0.995975
354.720782	0.996349
355.110490	0.996613
355.500135	0.995767
355.889717	0.995378
356.279235	0.996343
356.668689	0.995496
357.058080	0.996394
357.447408	0.995698
357.836672	0.996094
358.225873	0.996149
358.615010	0.995949
359.004084	0.997543
359.393095	0.995205
359.782043	0.996429
360.170927	0.996927
360.559748	0.997382
360.948505	0.994715
361.337199	0.995719
361.725830	0.996522
362.114398	0.994697
362.502903	0.996786
362.891344	0.996949
363.279722	0.996346
363.668037	0.996190
364.056289	0.995757
364.444478	0.996769
364.832603	0.995765
365.220665	0.996694
365.608665	0.995498
365.996601	0.996309
366.384474	0.996233
366.772284	0.996141
367.160031	0.996574
367.547715	0.994699
367.935336	0.996996
368.322893	0.996557
368.710388	0.994868
369.097820	0.995858
369.485189	0.995495
369.872495	0.994743
370.259738	0.995067
370.646918	0.996883
371.034035	0.996558
371.421090	0.996366
371.808081	0.996056
372.195010	0.996652
372.581875	0.997712
372.968678	0.996046
373.355418	0.995623
373.742096	0.997408
374.128710	0.997721
374.515262	0.995873
374.901751	0.996515
375.288177	0.996608
375.674540	0.996654
376.060841	0.996299
376.447079	0.996912
376.833254	0.996755
377.219367	0.996598
377.605417	0.996224
377.991404	0.996800
378.377329	0.996418
378.763191	0.997184
379.148991	0.997641
379.534727	0.997862
379.920402	0.996710
380.306013	0.997378
380.691563	0.997709
381.077049	0.996786
381.462474	0.997376
381.847835	0.997489
382.233134	0.997020
382.618371	0.998364
383.003545	0.997580
383.388657	0.996161
383.773706	0.998250
384.158693	0.997585
384.543618	0.996811
384.928480	0.998347
385.313280	0.997748
385.698017	0.997151
386.082692	0.997631
386.467305	0.998486
386.851856	0.996936
387.236344	0.996507
387.620770	0.996357
388.005133	0.997021
388.389435	0.997945
388.773674	0.997383
389.157851	0.998030
389.541965	0.998746
389.926018	0.997169
390.310008	0.998052
390.693936	0.997405
391.077802	0.997732
391.461606	0.997585
391.845348	0.998180
392.229027	0.999309
392.612645	0.997758
392.996200	0.999067
393.379694	0.997659
393.763125	0.999241
394.146494	0.998166
394.529801	0.998188
394.913047	0.998046
395.296230	0.997018
395.679351	0.997621
396.062410	0.997654
396.445408	0.997815
396.828343	0.997767
397.211217	0.998289
397.594028	0.998385
397.976778	0.998353
398.359466	0.998065
398.742092	0.997165
399.124656	0.996916
399.507158	0.998526
399.889598	0.997970
400.271977	0.998942
400.654294	0.998842
401.036549	0.999166
401.418742	0.999313
401.800874	0.997303
402.182944	0.998230
402.564952	0.997480
402.946898	0.997669
403.328783	0.998538
403.710606	0.997848
404.092367	0.997848
404.474067	0.998378
404.855705	0.998012
405.237282	0.997959
405.618797	0.999052
406.000250	0.998295
406.381642	0.999147
406.762972	0.998520
407.144240	0.999462
407.525447	0.998930
407.906593	0.998490
408.287677	0.998664
408.668700	0.998680
409.049661	0.998081
409.430560	0.999029
409.811399	0.997762
410.192176	0.998464
410.572891	0.997757
410.953545	0.998087
411.334138	0.997313
411.714669	0.998255
412.095139	0.998083
412.475547	0.998734
412.855894	0.998445
413.236180	0.998173
413.616405	0.998115
413.996568	0.999084
414.376670	0.998410
414.756711	0.998185
415.136691	0.998461
415.516609	0.998630
415.896466	0.997699
416.276262	0.997117
416.655997	0.998071
417.035670	0.997848
417.415283	0.998589
417.794834	0.997873
418.174324	0.999021
418.553753	0.998805
418.933121	0.998321
419.312428	0.998363
419.691674	0.997840
420.070859	0.999240
420.449983	0.998037
420.829045	0.998302
421.208047	0.999008
421.586988	0.999706
421.965867	0.998458
422.344686	0.999126
422.723444	0.997982
423.102141	0.998678
423.480777	0.998533
423.859352	0.998657
424.237866	0.998070
424.616319	0.998458
424.994712	0.998984
425.373044	0.999504
425.751314	0.998245
426.129524	0.998068
426.507673	0.998808
426.885762	0.999009
427.263789	0.998935
427.641756	0.999033
428.019662	0.999615
428.397508	0.998539
428.775292	0.998084
429.153016	0.997992
429.530679	0.998942
429.908282	0.999138
430.285824	0.998536
430.663305	0.998146
431.040726	0.998555
431.418086	0.999043
431.795385	0.999577
432.172624	0.998206
432.549802	0.999188
432.926920	0.999280
433.303977	0.998106
433.680974	0.998519
434.057910	0.998033
434.434786	0.999166
434.811601	0.998651
435.188355	0.998229
435.565050	0.997995
435.941683	0.998133
436.318257	0.998842
436.694770	0.997960
437.071222	0.998627
437.447614	0.999091
437.823946	0.997872
438.200218	0.998980
438.576429	0.999151
438.952580	0.999015
439.328670	0.998220
439.704700	0.998427
440.080670	0.999829
440.456580	0.998194
440.832429	0.998573
441.208218	0.999026
441.583947	0.998783
441.959616	0.999045
442.335224	0.998776
442.710773	0.999021
443.086261	0.998293
443.461689	0.998575
443.837057	0.998724
444.212365	0.998588
444.587612	0.998833
444.962800	0.998730
445.337927	0.998061
445.712995	0.998834
446.088002	0.999231
446.462949	0.998951
446.837837	0.998608
447.212664	0.998812
447.587431	0.998360
447.962139	0.998747
448.336786	0.998720
448.711374	0.999372
449.085901	0.998352
449.460369	0.999339
449.834776	0.998151
450.209124	0.999657
450.583412	0.998403
450.957640	0.998922
451.331808	0.998461
451.705917	0.998268
452.079965	0.998396
452.453954	0.999004
452.827883	0.998393
453.201752	0.999215
453.575562	0.999255
453.949311	0.999148
454.323001	0.998463
454.696632	0.998813
455.070202	0.998476
455.443713	0.998553
455.817164	0.998537
456.190556	0.998381
456.563888	0.998591
456.937160	0.998416
457.310373	0.998489
457.683526	0.998511
458.056619	0.998853
458.429653	0.999390
458.802628	0.997983
459.175542	0.998067
459.548398	0.998189
459.921194	0.998502
460.293930	0.998909
460.666607	0.998425
461.039224	0.998297
461.411782	0.998684
461.784280	0.998583
462.156719	0.999357
462.529099	0.998870
462.901419	0.998796
463.273680	0.998600
463.645882	0.998654
464.018024	0.999245
464.390106	0.998720
464.762130	0.999350
465.134094	0.998629
465.505999	0.999128
465.877845	0.998570
466.249631	0.999331
466.621358	0.998479
466.993026	0.999073
467.364634	0.998895
467.736184	0.998458
468.107674	0.998527
468.479105	0.998538
468.850477	0.998554
469.221790	0.998790
469.593043	0.999378
469.964238	0.999524
470.335373	0.998373
470.706449	0.997590
471.077467	0.999065
471.448425	0.998942
471.819324	0.999174
472.190164	0.998291
472.560945	0.997824
472.931667	0.998242
473.302330	0.997624
473.672934	0.998457
474.043479	0.998272
474.413965	0.998205
474.784393	0.998580
475.154761	0.998589
475.525070	0.997789
475.895321	0.999163
476.265513	0.997816
476.635645	0.997896
477.005719	0.998498
477.375734	0.997868
477.745691	0.998065
478.115588	0.997792
478.485427	0.997819
478.855207	0.998339
479.224928	0.997681
479.594591	0.997986
479.964194	0.998200
480.333739	0.997628
480.703226	0.997855
481.072653	0.998459
481.442022	0.997869
481.811333	0.997011
482.180584	0.998077
482.549777	0.997088
482.918912	0.997398
483.287988	0.997213
483.657005	0.996499
484.025964	0.996884
484.394864	0.996658
484.763706	0.996368
485.132489	0.995346
485.501213	0.995241
485.869879	0.994955
486.238487	0.995343
486.607036	0.994899
486.975527	0.993681
487.343959	0.994219
487.712333	0.992839
488.080648	0.992568
488.448905	0.991840
488.817104	0.991451
489.185244	0.991336
489.553326	0.990443
489.921350	0.989552
490.289315	0.987174
490.657222	0.987158
491.025070	0.986813
491.392861	0.985823
491.760593	0.985239
492.128267	0.984564
492.495883	0.984298
492.863440	0.982742
493.230939	0.982162
493.598380	0.980887
493.965763	0.979863
494.333088	0.979509
494.700354	0.976795
495.067563	0.976764
495.434713	0.975488
495.801805	0.974415
496.168839	0.973079
496.535815	0.970509
496.902733	0.969580
497.269593	0.967609
497.636395	0.966684
498.003139	0.964278
498.369825	0.963177
498.736453	0.960798
499.103023	0.958718
499.469535	0.956546
499.835989	0.955672
500.202385	0.953227
500.568723	0.951238
500.935003	0.949100
501.301226	0.946289
501.667390	0.942822
502.033497	0.940492
502.399546	0.939171
502.765537	0.935615
503.131470	0.933249
503.497345	0.929705
503.863163	0.928708
504.228923	0.924613
504.594625	0.921484
504.960269	0.919534
505.325856	0.916089
505.691385	0.912243
506.056856	0.909041
506.422270	0.905528
506.787625	0.903130
507.152924	0.898044
507.518164	0.894903
507.883347	0.891274
508.248472	0.888271
508.613540	0.883070
508.978550	0.879950
509.343503	0.875941
509.708398	0.870725
510.073236	0.866515
510.438016	0.862915
510.802738	0.857745
511.167403	0.853137
511.532010	0.848086
511.896561	0.843601
512.261053	0.839086
512.625488	0.833879
512.989866	0.829305
513.354186	0.824118
513.718449	0.819626
514.082655	0.814541
514.446803	0.809434
514.810894	0.803755
515.174927	0.798916
515.538904	0.794215
515.902822	0.787705
516.266684	0.784080
516.630488	0.778470
516.994235	0.773291
517.357925	0.766126
517.721558	0.761016
518.085133	0.754292
518.448651	0.750082
518.812112	0.745592
519.175516	0.738338
519.538863	0.732607
519.902152	0.728007
520.265385	0.719251
520.628560	0.715643
520.991678	0.708857
521.354739	0.703226
521.717743	0.698584
522.080690	0.692666
522.443580	0.684457
522.806413	0.678840
523.169189	0.673540
523.531908	0.666824
523.894569	0.662493
524.257174	0.656425
524.619722	0.648937
524.982213	0.645210
525.344647	0.637549
525.707025	0.632336
526.069345	0.625235
526.431608	0.619656
526.793815	0.613477
527.155964	0.609370
527.518057	0.603740
527.880093	0.598093
528.242072	0.591655
528.603995	0.586259
528.965860	0.581736
529.327669	0.575047
529.689421	0.569982
530.051117	0.565265
530.412755	0.557098
530.774337	0.554301
531.135862	0.547080
531.497331	0.542819
531.858743	0.538058
532.220098	0.530985
532.581396	0.527068
532.942638	0.522640
533.303824	0.517974
533.664953	0.511297
534.026025	0.507453
534.387040	0.500976
534.747999	0.495713
535.108902	0.490007
535.469748	0.488116
535.830537	0.481485
536.191270	0.476599
536.551947	0.470850
536.912567	0.466629
537.273131	0.463837
537.633638	0.458491
537.994089	0.453793
538.354483	0.450321
538.714821	0.443514
539.075103	0.438693
539.435328	0.434522
539.795497	0.433968
540.155609	0.425907
540.515665	0.420648
540.875665	0.421031
541.235609	0.415078
541.595496	0.411356
541.955328	0.403966
542.315102	0.402472
542.674821	0.399117
543.034483	0.394953
543.394090	0.391016
543.753640	0.389008
544.113134	0.380646
544.472571	0.380364
544.831953	0.373324
545.191278	0.373676
545.550548	0.370063
545.909761	0.363291
546.268918	0.360761
546.628019	0.356031
546.987064	0.354819
547.346053	0.353881
547.704986	0.348490
548.063863	0.345554
548.422684	0.343385
548.781449	0.341707
549.140158	0.336695
549.498811	0.336530
549.857408	0.336983
550.215949	0.328856
550.574434	0.329686
550.932864	0.324555
551.291237	0.321534
551.649555	0.319874
552.007817	0.317251
552.366022	0.315994
552.724173	0.314153
553.082267	0.311862
553.440305	0.306659
553.798288	0.308963
554.156215	0.303330
554.514086	0.301938
554.871902	0.303280
555.229661	0.300758
555.587365	0.299245
555.945014	0.300362
556.302606	0.295050
556.660143	0.296090
557.017625	0.290608
557.375050	0.291236
557.732421	0.286921
558.089735	0.287253
558.446994	0.286003
558.804197	0.283705
559.161345	0.282310
559.518437	0.284327
559.875474	0.280314
560.232455	0.278515
560.589381	0.278710
560.946251	0.277332
561.303065	0.273926
561.659825	0.274083
562.016528	0.274462
562.373177	0.276419
562.729770	0.271866
563.086307	0.273427
563.442789	0.270494
563.799216	0.272074
564.155587	0.270139
564.511904	0.270212
564.868164	0.269427
565.224370	0.268386
565.580520	0.269430
565.936615	0.268687
566.292654	0.270822
566.648638	0.267084
567.004567	0.267539
567.360441	0.267552
567.716260	0.268789
568.072023	0.266145
568.427732	0.266076
568.783385	0.268128
569.138982	0.265616
569.494525	0.264697
569.850013	0.267262
570.205445	0.265386
570.560823	0.267422
570.916145	0.268648
571.271412	0.266669
571.626625	0.267713
571.981782	0.267699
572.336884	0.268297
572.691931	0.268015
573.046923	0.268720
573.401860	0.269440
573.756743	0.271404
574.111570	0.269830
574.466342	0.269940
574.821059	0.268736
575.175722	0.271363
575.530330	0.270833
575.884882	0.270754
576.239380	0.272868
576.593823	0.273015
576.948211	0.272434
577.302544	0.275036
577.656823	0.274550
578.011047	0.274600
578.365216	0.275395
578.719330	0.276962
579.073389	0.276722
579.427394	0.277938
579.781344	0.278478
580.135239	0.279811
580.489080	0.279265
580.842866	0.282504
581.196597	0.282294
581.550273	0.280469
581.903895	0.281407
582.257463	0.279507
582.610975	0.282749
582.964434	0.281792
583.317837	0.284503
583.671186	0.284515
584.024481	0.284787
584.377721	0.287165
584.730906	0.287919
585.084037	0.286651
585.437113	0.288597
585.790135	0.288191
586.143103	0.290804
586.496016	0.292081
586.848874	0.289433
587.201679	0.289922
587.554428	0.293296
587.907124	0.292297
588.259765	0.292581
588.612352	0.292872
588.964884	0.296612
589.317362	0.296386
589.669786	0.296309
590.022155	0.294618
590.374470	0.293611
590.726731	0.296091
591.078937	0.300493
591.431090	0.296675
591.783188	0.301104
592.135232	0.301244
592.487222	0.301652
592.839157	0.299750
593.191038	0.301971
593.542866	0.303487
593.894639	0.307311
594.246358	0.304643
594.598022	0.304346
594.949633	0.308061
595.301190	0.308957
595.652692	0.308233
596.004141	0.304319
596.355535	0.312128
596.706876	0.312579
597.058162	0.315056
597.409395	0.312230
597.760573	0.310195
598.111698	0.313308
598.462768	0.313846
598.813785	0.314804
599.164748	0.316054
599.515657	0.316424
599.866511	0.320029
600.217312	0.315059
600.568060	0.320456
600.918753	0.316425
601.269392	0.317846
601.619978	0.320498
601.970510	0.318609
602.320988	0.318296
602.671412	0.316318
603.021783	0.318771
603.372100	0.319993
603.722363	0.319837
604.072572	0.320228
604.422728	0.320201
604.772830	0.322291
605.122878	0.321783
605.472872	0.322376
605.822813	0.320967
606.172701	0.323478
606.522534	0.320727
606.872314	0.320832
607.222041	0.321928
607.571714	0.320002
607.921333	0.321441
608.270899	0.321053
608.620411	0.317709
608.969870	0.321606
609.319276	0.321951
609.668627	0.321678
610.017926	0.320468
610.367171	0.318661
610.716362	0.319564
611.065500	0.319535
611.414585	0.318114
611.763616	0.318984
612.112594	0.319111
612.461518	0.318903
612.810389	0.316499
613.159207	0.318960
613.507971	0.320951
613.856682	0.316471
614.205340	0.318351
614.553945	0.314594
614.902496	0.318771
615.250994	0.316924
615.599439	0.317397
615.947830	0.316771
616.296169	0.317984
616.644454	0.317318
616.992686	0.317277
617.340864	0.315047
617.688990	0.319234
618.037063	0.315643
618.385082	0.317033
618.733048	0.314303
619.080961	0.316431
619.428821	0.316046
619.776628	0.315312
620.124382	0.317213
620.472083	0.317523
620.819731	0.316971
621.167326	0.320972
621.514868	0.320618
621.862357	0.324818
622.209793	0.324808
622.557176	0.326754
622.904506	0.327804
623.251783	0.329967
623.599007	0.332082
623.946179	0.331891
624.293297	0.333881
624.640363	0.337721
624.987376	0.338267
625.334336	0.341037
625.681243	0.343081
626.028097	0.343697
626.374899	0.344635
626.721647	0.344865
627.068343	0.348193
627.414987	0.348766
627.761577	0.351690
628.108115	0.349678
628.454600	0.354722
628.801032	0.351959
629.147412	0.353725
629.493739	0.354382
629.840014	0.358031
630.186236	0.355172
630.532405	0.360393
630.878521	0.357971
631.224585	0.360280
631.570597	0.364263
631.916556	0.362270
632.262462	0.362403
632.608316	0.364349
632.954117	0.365272
633.299866	0.366403
633.645562	0.366482
633.991206	0.370621
634.336797	0.373712
634.682336	0.375902
635.027823	0.377621
635.373257	0.378222
635.718639	0.381877
636.063968	0.380545
636.409245	0.386923
636.754470	0.386776
637.099642	0.389927
637.444762	0.393369
637.789829	0.391967
638.134845	0.395673
638.479808	0.396541
638.824719	0.396058
639.169577	0.400235
639.514383	0.398891
639.859137	0.403084
640.203839	0.403204
640.548489	0.403551
640.893086	0.404614
641.237632	0.406509
641.582125	0.404855
641.926566	0.406520
642.270955	0.406878
642.615292	0.407252
642.959576	0.405951
643.303809	0.406491
643.647990	0.406301
643.992118	0.406669
644.336195	0.410109
644.680219	0.408638
645.024192	0.409294
645.368112	0.403164
645.711981	0.401815
646.055797	0.397492
646.399562	0.400109
646.743274	0.392074
647.086935	0.388981
647.430544	0.389619
647.774101	0.388297
648.117606	0.387882
648.461059	0.388339
648.804460	0.391021
649.147810	0.395760
649.491108	0.398050
649.834354	0.399488
650.177548	0.404653
650.520690	0.410391
650.863781	0.411341
651.206820	0.410639
651.549807	0.415390
651.892742	0.418847
652.235626	0.418212
652.578458	0.419949
652.921238	0.425190
653.263967	0.423498
653.606644	0.427285
653.949269	0.426824
654.291843	0.431264
654.634365	0.427790
654.976836	0.430954
655.319255	0.431328
655.661622	0.432678
656.003938	0.432424
656.346203	0.435800
656.688416	0.433275
657.030577	0.436531
657.372687	0.439116
657.714746	0.439241
658.056753	0.436635
658.398708	0.440371
658.740612	0.441868
659.082465	0.437711
659.424266	0.438172
659.766016	0.437934
660.107715	0.439936
660.449362	0.439248
660.790958	0.439998
661.132503	0.440508
661.473996	0.438141
661.815438	0.439700
662.156829	0.439619
662.498168	0.440034
662.839456	0.441140
663.180693	0.439421
663.521879	0.439380
663.863013	0.439643
664.204097	0.438084
664.545129	0.435437
664.886110	0.435743
665.227040	0.433054
665.567918	0.435771
665.908746	0.433534
666.249522	0.433420
666.590248	0.433934
666.930922	0.433052
667.271545	0.430703
667.612118	0.431707
667.952639	0.433074
668.293109	0.431707
668.633528	0.435153
668.973896	0.434729
669.314213	0.435365
669.654480	0.436248
669.994695	0.436900
670.334859	0.437452
670.674973	0.437701
671.015035	0.438337
671.355047	0.437907
671.695008	0.439037
672.034918	0.440824
672.374777	0.439952
672.714585	0.441274
673.054342	0.441352
673.394049	0.441994
673.733705	0.438888
674.073310	0.440639
674.412864	0.443368
674.752368	0.444117
675.091820	0.443865
675.431223	0.448514
675.770574	0.448419
676.109875	0.451660
676.449125	0.451881
676.788324	0.453520
677.127473	0.458782
677.466571	0.458668
677.805619	0.460620
678.144616	0.461141
678.483562	0.462732
678.822458	0.465802
679.161303	0.466860
679.500098	0.466799
679.838842	0.468928
680.177535	0.467937
680.516179	0.466893
680.854771	0.465752
681.193314	0.459499
681.531805	0.450607
681.870247	0.439089
682.208638	0.432011
682.546978	0.430537
682.885268	0.432814
683.223508	0.438790
683.561697	0.442756
683.899836	0.445205
684.237925	0.448875
684.575963	0.451220
684.913951	0.454930
685.251889	0.450071
685.589776	0.452175
685.927614	0.454432
686.265401	0.448772
686.603137	0.450262
686.940824	0.443898
687.278460	0.442788
687.616046	0.441835
687.953582	0.436640
688.291068	0.438023
688.628504	0.433324
688.965889	0.435823
689.303224	0.439985
689.640510	0.444089
689.977745	0.449597
690.314930	0.457314
690.652065	0.461919
690.989150	0.469434
691.326185	0.476009
691.663170	0.480444
692.000105	0.487908
692.336990	0.494707
692.673825	0.497104
693.010610	0.504360
693.347345	0.509632
693.684030	0.510651
694.020665	0.515516
694.357251	0.524726
694.693786	0.523910
695.030272	0.528389
695.366707	0.531384
695.703093	0.535306
696.039429	0.532655
696.375716	0.534688
696.711952	0.537226
697.048139	0.539359
697.384276	0.541096
697.720363	0.539430
698.056400	0.538616
698.392388	0.544138
698.728326	0.546903
699.064214	0.549897
699.400053	0.550938
699.735842	0.553864
700.071581	0.557089
700.407270	0.559969
700.742910	0.562075
701.078501	0.569333
701.414042	0.568641
701.749533	0.571920
702.084974	0.581033
702.420366	0.573050
702.755709	0.581187
703.091002	0.588512
703.426246	0.581961
703.761440	0.588590
704.096584	0.592478
704.431679	0.590450
704.766725	0.591588
705.101721	0.592612
705.436668	0.588857
705.771565	0.597110
706.106413	0.592986
706.441212	0.589167
706.775961	0.586989
707.110661	0.589404
707.445311	0.586505
707.779913	0.583339
708.114465	0.582711
708.448967	0.579627
708.783421	0.571162
709.117825	0.565708
709.452180	0.566158
709.786485	0.559744
710.120742	0.549656
710.454949	0.551921
710.789107	0.544388
711.123216	0.534907
711.457275	0.536812
711.791286	0.527391
712.125247	0.526279
712.459159	0.537517
712.793023	0.529964
713.126837	0.534168
713.460602	0.534560
713.794318	0.543880
714.127985	0.542282
714.461602	0.552882
714.795171	0.555984
715.128691	0.563907
715.462162	0.570512
715.795584	0.575828
716.128957	0.579040
716.462281	0.586518
716.795556	0.589768
717.128782	0.594422
717.461960	0.603542
717.795088	0.601725
718.128167	0.607800
718.461198	0.617545
718.794180	0.618096
719.127113	0.620563
719.459997	0.624330
719.792833	0.629353
720.125619	0.631973
720.458357	0.637487
720.791046	0.637125
721.123686	0.640137
721.456278	0.647143
721.788821	0.644785
722.121315	0.648871
722.453761	0.653239
722.786158	0.650379
723.118506	0.646845
723.450805	0.654709
723.783056	0.651008
724.115259	0.647892
724.447412	0.647806
724.779518	0.649142
725.111574	0.648633
725.443582	0.643940
725.775542	0.646643
726.107453	0.638380
726.439315	0.638228
726.771129	0.636703
727.102895	0.630024
727.434612	0.622502
727.766281	0.620975
728.097901	0.620300
728.429473	0.620022
728.760996	0.618741
729.092471	0.618519
729.423897	0.622316
729.755276	0.621499
730.086606	0.621280
730.417887	0.615509
730.749120	0.606833
731.080305	0.597316
731.411442	0.593627
731.742530	0.599358
732.073570	0.597596
732.404562	0.590054
732.735506	0.591571
733.066401	0.596397
733.397249	0.605145
733.728048	0.616697
734.058798	0.629478
734.389501	0.640270
734.720156	0.649088
735.050762	0.656888
735.381320	0.658113
735.711831	0.667610
736.042293	0.672464
736.372707	0.668676
736.703073	0.672831
737.033391	0.675924
737.363661	0.671806
737.693883	0.667299
738.024056	0.666168
738.354182	0.666688
738.684260	0.656092
739.014290	0.651497
739.344272	0.652708
739.674207	0.645831
740.004093	0.646186
740.333931	0.646631
740.663722	0.646532
740.993464	0.646571
741.323159	0.650584
741.652806	0.655699
741.982405	0.659737
742.311956	0.664465
742.641460	0.666705
742.970915	0.670275
743.300323	0.678429
743.629683	0.685154
743.958996	0.686767
744.288260	0.691184
744.617477	0.696934
744.946647	0.697858
745.275768	0.703546
745.604842	0.703622
745.933869	0.713692
746.262847	0.714363
746.591778	0.707164
746.920662	0.713807
747.249498	0.720469
747.578286	0.711336
747.907027	0.707282
748.235720	0.708568
748.564365	0.702993
748.892963	0.702979
749.221514	0.705963
749.550017	0.710595
749.878473	0.710804
750.206881	0.717198
750.535242	0.718700
750.863555	0.718050
751.191821	0.719734
751.520039	0.722373
751.848210	0.726799
752.176334	0.719538
752.504411	0.719315
752.832440	0.726780
753.160421	0.731511
753.488356	0.729828
753.816243	0.726536
754.144082	0.734700
754.471875	0.738381
754.799620	0.733946
755.127318	0.734894
755.454969	0.735277
755.782572	0.734049
756.110129	0.739108
756.437638	0.741449
756.765100	0.737900
757.092515	0.736195
757.419882	0.735792
757.747203	0.741573
758.074477	0.740284
758.401703	0.738137
758.728882	0.731967
759.056014	0.731046
759.383099	0.730383
759.710138	0.731132
760.037129	0.728737
760.364073	0.722024
760.690970	0.724455
761.017820	0.729434
761.344623	0.726282
761.671379	0.716488
761.998088	0.705322
762.324751	0.682358
762.651366	0.641345
762.977935	0.575444
763.304456	0.524022
763.630931	0.513652
763.957359	0.553174
764.283740	0.597180
764.610074	0.624100
764.936362	0.655632
765.262602	0.681474
765.588796	0.702732
765.914943	0.720192
766.241044	0.738273
766.567097	0.744488
766.893104	0.753652
767.219064	0.760532
767.544978	0.766746
767.870845	0.779969
768.196665	0.784249
768.522438	0.782210
768.848165	0.783258
769.173846	0.792570
769.499479	0.796533
769.825066	0.800424
770.150607	0.805553
770.476101	0.799493
770.801548	0.802121
771.126949	0.812798
771.452303	0.816362
771.777611	0.815837
772.102872	0.814401
772.428087	0.820401
772.753256	0.822772
773.078378	0.825961
773.403453	0.834278
773.728482	0.838103
774.053465	0.831908
774.378401	0.835716
774.703291	0.844597
775.028135	0.843765
775.352932	0.845541
775.677683	0.847967
776.002388	0.848944
776.327046	0.848267
776.651658	0.850890
776.976224	0.854621
777.300743	0.854122
777.625216	0.857159
777.949643	0.858362
778.274024	0.858902
778.598359	0.860279
778.922647	0.859131
779.246889	0.859701
779.571086	0.863971
779.895236	0.866385
780.219339	0.863132
780.543397	0.859502
780.867409	0.858748
781.191374	0.860198
781.515294	0.861673
781.839167	0.860872
782.162995	0.865101
782.486776	0.861390
782.810511	0.862374
783.134201	0.865481
783.457844	0.862845
783.781441	0.866681
784.104993	0.872454
784.428498	0.872484
784.751958	0.868973
785.075372	0.869707
785.398739	0.874003
785.722061	0.869911
786.045337	0.867216
786.368568	0.870994
786.691752	0.873384
787.014891	0.859295
787.337983	0.850408
787.661030	0.843207
787.984031	0.826034
788.306987	0.812971
788.629897	0.815375
788.952760	0.818849
789.275579	0.824337
789.598351	0.838194
789.921078	0.851519
790.243759	0.853378
790.566395	0.858240
790.888984	0.865358
791.211529	0.870780
791.534027	0.874391
791.856480	0.876618
792.178888	0.881066
792.501249	0.883202
792.823566	0.884636
793.145836	0.884404
793.468062	0.887399
793.790241	0.886652
794.112375	0.884749
794.434464	0.880938
794.756507	0.879407
795.078505	0.879365
795.400457	0.874099
795.722364	0.862374
796.044226	0.854170
796.366042	0.854161
796.687812	0.857220
797.009538	0.853456
797.331218	0.855479
797.652852	0.861425
797.974442	0.866678
798.295986	0.865499
798.617484	0.868800
798.938938	0.872472
799.260346	0.877893
799.581709	0.879322
799.903026	0.881951
800.224299	0.883597
800.545526	0.886914
800.866708	0.889593
801.187845	0.894436
801.508936	0.893235
801.829983	0.892151
802.150984	0.893811
802.471940	0.899052
802.792851	0.899286
803.113717	0.900432
803.434538	0.897894
803.755314	0.900646
804.076045	0.902001
804.396731	0.901981
804.717372	0.901446
805.037967	0.902412
805.358518	0.901337
805.679024	0.898412
805.999485	0.897541
806.319901	0.899462
806.640272	0.900209
806.960598	0.897502
807.280879	0.894660
807.601115	0.894342
807.921306	0.897210
808.241453	0.898289
808.561554	0.895458
808.881611	0.895853
809.201623	0.898020
809.521590	0.898070
809.841513	0.898913
810.161390	0.898123
810.481223	0.899890
810.801011	0.903411
811.120755	0.904621
811.440453	0.903947
811.760107	0.902394
812.079716	0.901719
812.399281	0.905997
812.718801	0.908478
813.038276	0.908003
813.357707	0.908377
813.677093	0.905299
813.996434	0.908908
814.315731	0.909784
814.634983	0.911259
814.954191	0.910309
815.273354	0.906591
815.592473	0.903394
815.911547	0.902814
816.230577	0.900704
816.549562	0.897855
816.868502	0.898813
817.187399	0.895203
817.506250	0.889965
817.825058	0.892256
818.143821	0.889219
818.462539	0.882886
818.781213	0.875579
819.099843	0.864773
819.418429	0.848223
819.736970	0.833077
820.055466	0.814426
820.373919	0.787284
820.692327	0.755812
821.010691	0.721956
821.329011	0.646477
821.647286	0.532818
821.965517	0.420713
822.283704	0.378256
822.601847	0.380308
822.919945	0.415171
823.237999	0.448301
823.556010	0.494137
823.873976	0.548988
824.191897	0.599034
824.509775	0.640516
824.827609	0.685783
825.145398	0.707909
825.463144	0.710496
825.780845	0.693676
826.098502	0.674613
826.416116	0.630575
826.733685	0.586351
827.051210	0.578266
827.368692	0.593078
827.686129	0.629294
828.003522	0.681677
828.320872	0.728154
828.638177	0.771147
828.955439	0.803906
829.272656	0.825161
829.589830	0.842130
829.906960	0.857722
830.224046	0.869503
830.541088	0.879661
830.858086	0.883589
831.175041	0.890457
831.491952	0.888975
831.808819	0.885545
832.125642	0.879754
832.442421	0.864576
832.759157	0.844567
833.075849	0.798382
833.392497	0.735881
833.709101	0.695203
834.025662	0.705060
834.342179	0.735436
834.658653	0.774104
834.975083	0.810437
835.291469	0.836192
835.607811	0.857585
835.924110	0.873082
836.240366	0.890866
836.556578	0.902960
836.872746	0.910096
837.188871	0.916644
837.504952	0.921645
837.820990	0.924810
838.136984	0.928934
838.452935	0.931706
838.768842	0.932709
839.084706	0.926269
839.400526	0.901422
839.716303	0.862531
840.032037	0.840109
840.347727	0.843809
840.663373	0.862278
840.978977	0.882466
841.294537	0.904609
841.610054	0.920909
841.925527	0.928005
842.240957	0.934108
842.556344	0.941731
842.871687	0.947287
843.186987	0.951933
843.502244	0.951841
843.817458	0.953527
844.132629	0.956824
844.447756	0.961150
844.762840	0.961081
845.077881	0.960919
845.392879	0.961423
845.707833	0.964039
846.022745	0.965356
846.337613	0.966431
846.652438	0.966831
846.967221	0.965145
847.281960	0.966043
847.596656	0.968470
847.911309	0.967317
848.225919	0.968177
848.540485	0.968697
848.855009	0.969672
849.169490	0.969549
849.483928	0.969168
849.798323	0.969743
850.112675	0.970396
850.426984	0.970212
850.741251	0.970735
851.055474	0.970615
851.369654	0.968534
851.683792	0.969932
851.997887	0.970645
852.311938	0.972397
852.625947	0.972078
852.939914	0.969486
853.253837	0.970604
853.567718	0.971198
853.881555	0.971362
854.195350	0.968512
854.509103	0.970407
854.822812	0.970477
855.136479	0.971047
855.450103	0.970655
855.763685	0.970227
856.077224	0.968967
856.390720	0.971223
856.704173	0.971614
857.017584	0.970041
857.330953	0.969043
857.644278	0.969111
857.957561	0.970121
858.270802	0.970329
858.584000	0.969441
858.897155	0.968393
859.210268	0.968122
859.523339	0.969309
859.836367	0.971247
860.149352	0.972080
860.462295	0.969910
860.775195	0.971536
861.088054	0.970816
861.400869	0.971065
861.713642	0.972058
862.026373	0.970320
862.339062	0.971700
862.651708	0.968858
862.964312	0.968118
863.276873	0.970705
863.589392	0.969199
863.901869	0.968307
864.214303	0.965360
864.526696	0.965518
864.839045	0.965577
865.151353	0.962970
865.463619	0.964459
865.775842	0.963634
866.088023	0.963982
866.400162	0.963670
866.712258	0.964770
867.024313	0.964267
867.336325	0.964509
867.648296	0.964536
867.960224	0.963651
868.272110	0.962740
868.583954	0.964953
868.895755	0.964186
869.207515	0.964088
869.519233	0.961118
869.830909	0.962381
870.142542	0.963950
870.454134	0.963710
870.765684	0.962347
871.077191	0.958178
871.388657	0.959497
871.700081	0.959060
872.011463	0.959599
872.322803	0.959004
872.634101	0.958425
872.945357	0.956492
873.256571	0.954571
873.567744	0.954146
873.878874	0.955201
874.189963	0.954192
874.501010	0.954174
874.812015	0.951175
875.122979	0.952126
875.433900	0.955052
875.744780	0.955724
876.055618	0.952482
876.366415	0.951402
876.677169	0.952603
876.987882	0.953030
877.298554	0.953489
877.609183	0.949886
877.919771	0.946368
878.230317	0.944828
878.540822	0.942583
878.851285	0.938214
879.161707	0.930058
879.472087	0.917366
879.782425	0.902307
880.092722	0.869726
880.402977	0.819617
880.713191	0.761242
881.023363	0.703858
881.333494	0.671553
881.643583	0.642915
881.953631	0.642992
882.263637	0.671108
882.573602	0.711017
882.883526	0.734966
883.193408	0.758388
883.503248	0.778699
883.813048	0.806549
884.122806	0.834525
884.432522	0.856828
884.742197	0.875686
885.051831	0.885895
885.361424	0.895893
885.670975	0.906992
885.980485	0.917650
886.289954	0.923068
886.599382	0.927834
886.908768	0.931371
887.218113	0.936651
887.527417	0.941827
887.836680	0.944788
888.145901	0.946249
888.455082	0.947814
888.764221	0.952889
889.073319	0.953903
889.382376	0.954902
889.691392	0.954843
890.000366	0.954968
890.309300	0.956135
890.618193	0.954692
890.927044	0.955341
891.235855	0.952710
891.544625	0.952763
891.853353	0.954501
892.162041	0.950658
892.470687	0.945213
892.779293	0.940072
893.087858	0.937883
893.396381	0.930813
893.704864	0.916705
894.013306	0.894116
894.321707	0.868069
894.630068	0.854126
894.938387	0.850071
895.246665	0.850456
895.554903	0.862850
895.863100	0.875328
896.171256	0.891615
896.479371	0.910953
896.787446	0.923015
897.095480	0.930081
897.403473	0.930639
897.711425	0.935765
898.019336	0.943123
898.327207	0.946205
898.635038	0.947629
898.942827	0.947561
899.250576	0.950852
899.558284	0.954293
899.865952	0.956058
900.173579	0.957534
900.481165	0.957497
900.788711	0.961359
901.096216	0.963876
901.403681	0.962929
901.711105	0.965043
902.018489	0.964843
902.325832	0.964410
902.633135	0.963043
902.940397	0.958463
903.247619	0.945876
903.554800	0.921790
903.861941	0.884406
904.169041	0.851093
904.476101	0.833584
904.783121	0.835740
905.090100	0.851659
905.397039	0.871408
905.703938	0.891970
906.010796	0.910443
906.317614	0.927860
906.624391	0.937741
906.931129	0.946358
907.237826	0.954453
907.544483	0.960679
907.851099	0.964000
908.157675	0.970065
908.464211	0.971051
908.770707	0.973491
909.077163	0.975363
909.383578	0.976391
909.689954	0.976519
909.996289	0.976074
910.302584	0.979086
910.608839	0.979716
910.915054	0.980043
911.221229	0.978800
911.527363	0.979058
911.833458	0.978719
912.139513	0.978512
912.445527	0.976507
912.751502	0.975735
913.057436	0.974324
913.363331	0.972073
913.669186	0.967528
913.975000	0.962990
914.280775	0.957495
914.586510	0.952023
914.892205	0.939339
915.197859	0.919446
915.503475	0.892437
915.809050	0.874750
916.114585	0.869699
916.420081	0.867539
916.725536	0.864491
917.030952	0.871024
917.336328	0.883355
917.641665	0.898552
917.946961	0.913403
918.252218	0.924304
918.557435	0.931630
918.862612	0.940198
919.167750	0.944911
919.472848	0.949964
919.777906	0.955780
920.082925	0.961279
920.387904	0.964446
920.692843	0.965115
920.997743	0.966660
921.302603	0.969324
921.607423	0.970113
921.912204	0.973980
922.216946	0.972640
922.521647	0.975643
922.826310	0.977175
923.130932	0.978499
923.435516	0.980132
923.740059	0.981534
924.044564	0.979026
924.349028	0.982073
924.653454	0.983313
924.957840	0.984946
925.262186	0.984989
925.566493	0.985125
925.870761	0.985628
926.174989	0.987498
926.479178	0.989635
926.783328	0.990113
927.087438	0.989272
927.391509	0.988985
927.695541	0.990914
927.999533	0.991049
928.303486	0.989087
928.607400	0.992142
928.911275	0.990049
929.215110	0.992329
929.518906	0.991955
929.822663	0.990633
930.126381	0.992482
930.430060	0.990907
930.733699	0.990844
931.037299	0.990462
931.340861	0.993200
931.644383	0.991276
931.947866	0.989885
932.251309	0.992729
932.554714	0.990900
932.858080	0.990463
933.161407	0.989569
933.464694	0.992231
933.767943	0.990066
934.071153	0.992829
934.374323	0.992463
934.677455	0.991484
934.980548	0.991619
935.283602	0.990672
935.586617	0.991164
935.889593	0.991450
936.192530	0.990843
936.495428	0.991736
936.798287	0.991265
937.101108	0.991149
937.403890	0.990085
937.706632	0.989611
938.009336	0.987520
938.312002	0.987679
938.614628	0.985848
938.917216	0.984717
939.219765	0.982458
939.522275	0.984388
939.824747	0.984259
940.127179	0.984674
940.429573	0.985393
940.731929	0.985130
941.034246	0.986183
941.336524	0.985780
941.638763	0.986719
941.940964	0.986584
942.243126	0.986254
942.545250	0.987999
942.847335	0.989788
943.149381	0.989190
943.451389	0.988579
943.753359	0.989572
944.055290	0.992347
944.357182	0.989797
944.659036	0.988880
944.960851	0.990617
945.262628	0.990900
945.564367	0.991407
945.866067	0.990513
946.167729	0.991525
946.469352	0.990167
946.770937	0.988743
947.072484	0.991767
947.373992	0.990626
947.675462	0.990597
947.976893	0.990592
948.278286	0.990532
948.579641	0.993191
948.880958	0.991233
949.182236	0.992266
949.483476	0.992067
949.784678	0.990846
950.085841	0.992398
950.386967	0.991951
950.688054	0.990941
950.989103	0.992501
951.290114	0.991705
951.591087	0.991070
951.892021	0.991459
952.192917	0.989636
952.493776	0.988950
952.794596	0.989052
953.095378	0.989620
953.396122	0.987960
953.696828	0.988729
953.997496	0.989453
954.298126	0.992216
954.598718	0.991015
954.899272	0.992199
955.199788	0.990941
955.500266	0.991891
955.800706	0.993421
956.101108	0.993490
956.401472	0.994240
956.701798	0.994358
957.002087	0.993092
957.302337	0.994780
957.602550	0.996003
957.902724	0.995226
958.202861	0.996111
958.502960	0.996981
958.803022	0.995517
959.103045	0.996492
959.403031	0.995107
959.702979	0.994593
960.002889	0.995887
960.302762	0.995670
960.602596	0.995227
960.902393	0.994770
961.202153	0.996372
961.501875	0.998468
961.801559	0.995794
962.101205	0.995789
962.400814	0.995956
962.700385	0.997221
962.999918	0.995859
963.299414	0.996931
963.598873	0.995299
963.898293	0.995942
964.197677	0.995722
964.497022	0.995866
964.796331	0.997378
965.095601	0.997420
965.394835	0.996368
965.694030	0.997266
965.993189	0.996960
966.292309	0.997362
966.591393	0.997812
966.890439	0.997964
967.189447	0.996863
967.488419	0.997535
967.787353	0.996603
968.086249	0.996367
968.385108	0.995941
968.683930	0.996302
968.982714	0.997783
969.281462	0.997067
969.580172	0.997534
969.878844	0.997193
970.177480	0.996792
970.476078	0.997290
970.774639	0.996928
971.073162	0.998211
971.371649	0.996487
971.670098	0.997154
971.968510	0.996402
972.266885	0.995372
972.565223	0.995913
972.863524	0.995111
973.161788	0.996150
973.460014	0.997651
973.758204	0.996016
974.056356	0.997228
974.354471	0.994741
974.652550	0.996984
974.950591	0.995786
975.248595	0.996928
975.546563	0.995946
975.844493	0.998460
976.142386	0.996462
976.440243	0.997207
976.738062	0.997887
977.035845	0.997577
977.333590	0.997479
977.631299	0.998412
977.928971	0.996685
978.226606	0.997720
978.524204	0.996952
978.821765	0.998373
979.119290	0.996932
979.416777	0.996863
979.714228	0.996778
980.011642	0.996936
980.309020	0.996313
980.606360	0.997076
980.903664	0.997882
981.200931	0.996069
981.498162	0.994594
981.795356	0.995027
982.092513	0.994170
982.389633	0.994690
982.686717	0.991619
982.983764	0.992470
983.280775	0.990739
983.577749	0.991292
983.874686	0.991804
984.171587	0.993342
984.468451	0.996039
984.765279	0.994777
985.062070	0.994895
985.358824	0.995561
985.655543	0.994786
985.952224	0.995537
986.248869	0.996953
986.545478	0.996030
986.842050	0.998618
987.138586	0.995654
987.435086	0.998111
987.731549	0.999935
988.027975	0.997100
988.324366	0.997382
988.620719	0.997534
988.917037	0.996322
989.213318	0.998006
989.509563	0.998942
989.805772	0.998122
990.101944	0.996656
990.398080	0.997617
990.694180	0.997455
990.990244	0.997292
991.286271	0.997584
991.582262	0.998289
991.878217	0.997399
992.174136	0.999109
992.470019	0.998149
992.765865	0.997846
993.061676	0.998260
993.357450	0.997863
993.653188	0.996793
993.948890	0.997208
994.244556	0.997746
994.540186	0.997654
994.835780	0.996730
995.131337	0.997774
995.426859	0.996788
995.722345	0.997681
996.017795	0.995566
996.313208	0.995201
996.608586	0.994407
996.903928	0.996149
997.199234	0.995918
997.494504	0.996125
997.789738	0.996415
998.084936	0.997179
998.380099	0.997017
998.675225	0.997721
998.970316	0.997539
999.265371	0.998026
999.560390	0.997966
999.855373	0.999154
1000.150320	0.999132
1000.445232	0.997981
1000.740108	0.997567
1001.034948	0.998178
1001.329752	0.997924
1001.624521	0.998941
1001.919254	0.998736
1002.213951	0.998959
1002.508613	0.997632
1002.803239	0.998869
1003.097829	0.999592
1003.392384	0.999283
1003.686903	0.998243
1003.981386	0.998616
1004.275834	0.999304
1004.570246	0.997978
1004.864623	0.999110
1005.158964	0.999109
1005.453270	0.998848
1005.747540	0.998157
1006.041775	0.998451
1006.335974	0.999012
1006.630138	0.998975
1006.924266	0.999729
1007.218359	1.000405
1007.512416	0.999209
1007.806438	0.999139
1008.100425	0.998440
1008.394376	0.998778
1008.688292	0.998630
1008.982172	1.000743
1009.276017	0.999313
1009.569827	0.998484
1009.863602	0.998815
1010.157341	0.999657
1010.451045	0.998891
1010.744714	0.998448
1011.038347	0.999220
1011.331945	0.999402
1011.625508	0.998703
1011.919036	0.997628
1012.212528	0.999393
1012.505986	0.996625
1012.799408	0.998420
1013.092795	0.999416
1013.386147	0.998143
1013.679464	0.999221
1013.972745	0.998192
1014.265992	0.996790
1014.559204	0.998342
1014.852380	0.999704
1015.145521	0.999210
1015.438628	0.998422
1015.731699	0.998709
1016.024736	0.998841
1016.317737	0.999081
1016.610703	0.998309
1016.903635	0.999693
1017.196531	0.998406
1017.489393	0.999706
1017.782219	0.999117
1018.075011	0.998225
1018.367768	0.998638
1018.660490	1.000001
1018.953177	1.000001
1019.245829	1.000001
