Dividing Wavelength (nm)	Counts (n)	Blue Motor Position (mm): 0.000000	Red Motor Position (mm): 38.300000	
326.493990	0.999374
326.888308	0.999374
327.282561	0.999374
327.676750	1.000307
328.070874	1.000372
328.464933	0.999663
328.858929	0.999496
329.252859	0.998998
329.646726	0.999962
330.040528	0.999417
330.434265	0.999152
330.827938	1.000856
331.221547	1.000134
331.615091	0.999540
332.008571	1.000160
332.401986	0.999032
332.795338	0.999348
333.188625	0.998438
333.581847	0.999879
333.975006	0.999807
334.368100	0.999486
334.761129	0.999859
335.154095	1.000390
335.546996	0.998866
335.939833	0.996622
336.332606	0.996132
336.725315	0.998214
337.117960	0.997594
337.510540	0.997035
337.903056	0.996722
338.295508	0.997126
338.687896	0.996784
339.080220	0.996745
339.472480	0.996557
339.864676	0.997872
340.256807	0.998603
340.648875	0.997603
341.040879	0.998341
341.432818	0.997070
341.824694	0.996503
342.216506	0.997761
342.608253	0.997785
342.999937	0.997812
343.391557	0.996685
343.783113	0.997141
344.174605	0.997143
344.566033	0.997416
344.957397	0.996403
345.348697	0.996661
345.739934	0.997903
346.131106	0.996324
346.522215	0.997009
346.913260	0.995924
347.304241	0.997279
347.695159	0.996309
348.086012	0.996652
348.476802	0.997428
348.867528	0.995882
349.258191	0.995204
349.648789	0.997475
350.039324	0.997072
350.429796	0.997964
350.820203	0.997512
351.210548	0.997347
351.600828	0.997598
351.991045	0.996936
352.381198	0.995836
352.771288	0.996748
353.161314	0.996507
353.551276	0.998346
353.941175	0.996929
354.331010	0.997761
354.720782	0.998486
355.110490	0.996885
355.500135	0.997133
355.889717	0.996609
356.279235	0.996743
356.668689	0.997679
357.058080	0.997538
357.447408	0.998052
357.836672	0.997154
358.225873	0.998079
358.615010	0.995764
359.004084	0.997208
359.393095	0.996622
359.782043	0.996892
360.170927	0.998652
360.559748	0.998246
360.948505	0.996589
361.337199	0.996776
361.725830	0.998645
362.114398	0.997130
362.502903	0.998178
362.891344	0.998571
363.279722	0.996542
363.668037	0.997035
364.056289	0.996925
364.444478	0.998507
364.832603	0.997862
365.220665	0.997285
365.608665	0.997906
365.996601	0.997140
366.384474	0.996912
366.772284	0.997668
367.160031	0.997440
367.547715	0.996840
367.935336	0.997627
368.322893	0.997051
368.710388	0.996194
369.097820	0.996832
369.485189	0.997576
369.872495	0.996383
370.259738	0.995791
370.646918	0.997963
371.034035	0.998109
371.421090	0.997018
371.808081	0.996723
372.195010	0.998403
372.581875	0.997822
372.968678	0.997508
373.355418	0.997748
373.742096	0.996849
374.128710	0.998466
374.515262	0.995857
374.901751	0.997224
375.288177	0.997355
375.674540	0.998156
376.060841	0.997654
376.447079	0.998685
376.833254	0.997737
377.219367	0.997184
377.605417	0.997717
377.991404	0.997099
378.377329	0.996343
378.763191	0.997462
379.148991	0.997566
379.534727	0.998099
379.920402	0.997758
380.306013	0.997146
380.691563	0.998509
381.077049	0.997007
381.462474	0.998301
381.847835	0.998175
382.233134	0.997769
382.618371	0.998241
383.003545	0.997912
383.388657	0.998117
383.773706	0.999087
384.158693	0.998267
384.543618	0.998053
384.928480	0.998394
385.313280	0.997941
385.698017	0.998682
386.082692	0.997788
386.467305	0.997463
386.851856	0.997867
387.236344	0.998021
387.620770	0.997605
388.005133	0.998517
388.389435	0.999192
388.773674	0.997848
389.157851	0.998548
389.541965	0.998468
389.926018	0.997578
390.310008	0.998874
390.693936	0.998015
391.077802	0.999272
391.461606	0.997811
391.845348	0.998526
392.229027	0.999998
392.612645	0.998149
392.996200	0.999138
393.379694	0.998931
393.763125	0.999164
394.146494	0.998257
394.529801	0.998511
394.913047	0.998817
395.296230	0.998734
395.679351	0.998880
396.062410	0.998394
396.445408	0.997840
396.828343	0.997254
397.211217	0.998395
397.594028	0.998905
397.976778	0.998423
398.359466	0.998470
398.742092	0.997845
399.124656	0.997562
399.507158	0.999098
399.889598	0.999027
400.271977	0.998594
400.654294	0.999159
401.036549	0.999433
401.418742	0.998753
401.800874	0.998073
402.182944	0.999027
402.564952	0.997489
402.946898	0.999531
403.328783	0.998517
403.710606	0.998555
404.092367	0.998050
404.474067	0.999117
404.855705	0.997870
405.237282	0.998660
405.618797	0.998747
406.000250	0.998545
406.381642	0.999238
406.762972	0.999154
407.144240	0.999417
407.525447	0.999274
407.906593	0.999282
408.287677	0.998752
408.668700	0.998776
409.049661	0.998342
409.430560	0.998961
409.811399	0.998103
410.192176	0.998364
410.572891	0.998842
410.953545	0.998984
411.334138	0.997044
411.714669	0.998797
412.095139	0.998119
412.475547	0.999887
412.855894	0.999071
413.236180	0.999761
413.616405	0.998645
413.996568	0.999638
414.376670	0.999060
414.756711	0.998645
415.136691	0.998149
415.516609	0.998940
415.896466	0.998891
416.276262	0.997510
416.655997	0.999163
417.035670	0.998539
417.415283	0.998376
417.794834	0.999330
418.174324	0.998883
418.553753	0.999933
418.933121	0.998659
419.312428	0.998829
419.691674	0.998994
420.070859	0.999268
420.449983	0.998751
420.829045	0.998774
421.208047	0.999761
421.586988	0.999552
421.965867	0.999036
422.344686	0.999723
422.723444	0.998489
423.102141	0.999128
423.480777	0.999350
423.859352	0.998143
424.237866	0.998785
424.616319	0.998916
424.994712	0.999569
425.373044	0.999868
425.751314	0.999468
426.129524	0.999774
426.507673	1.000035
426.885762	1.000148
427.263789	0.999794
427.641756	0.999430
428.019662	1.000026
428.397508	0.998751
428.775292	0.998951
429.153016	0.998406
429.530679	0.999394
429.908282	0.999515
430.285824	0.998931
430.663305	0.999372
431.040726	0.998422
431.418086	0.999500
431.795385	0.999642
432.172624	0.999046
432.549802	0.999281
432.926920	0.999277
433.303977	0.998640
433.680974	0.999961
434.057910	0.999667
434.434786	1.000360
434.811601	0.998841
435.188355	0.998709
435.565050	0.998651
435.941683	0.999202
436.318257	0.999114
436.694770	0.998824
437.071222	1.000314
437.447614	0.999339
437.823946	0.999323
438.200218	0.999228
438.576429	0.999084
438.952580	1.000023
439.328670	0.998485
439.704700	0.999125
440.080670	0.999388
440.456580	0.998929
440.832429	0.998805
441.208218	1.000142
441.583947	0.999060
441.959616	0.999634
442.335224	0.999760
442.710773	1.000328
443.086261	0.999424
443.461689	0.999305
443.837057	0.998854
444.212365	0.998584
444.587612	0.999065
444.962800	0.999236
445.337927	0.999427
445.712995	0.999809
446.088002	0.999925
446.462949	0.999493
446.837837	0.999726
447.212664	1.000002
447.587431	0.999488
447.962139	0.998474
448.336786	0.999496
448.711374	0.999372
449.085901	0.998897
449.460369	0.999124
449.834776	0.998740
450.209124	0.999795
450.583412	0.999146
450.957640	0.999408
451.331808	0.998741
451.705917	0.999339
452.079965	0.999302
452.453954	0.998825
452.827883	0.999114
453.201752	0.999584
453.575562	1.000504
453.949311	1.000407
454.323001	0.999269
454.696632	0.999245
455.070202	1.000235
455.443713	0.999170
455.817164	0.999921
456.190556	0.999662
456.563888	0.999411
456.937160	0.999195
457.310373	0.998561
457.683526	0.999439
458.056619	0.998684
458.429653	0.999712
458.802628	0.998694
459.175542	0.998691
459.548398	0.999717
459.921194	0.999400
460.293930	0.999383
460.666607	0.999201
461.039224	0.998482
461.411782	0.999190
461.784280	0.998610
462.156719	0.999493
462.529099	0.999456
462.901419	0.999261
463.273680	0.998840
463.645882	0.999366
464.018024	0.999677
464.390106	0.999610
464.762130	0.999908
465.134094	1.000177
465.505999	1.000038
465.877845	0.999659
466.249631	0.999917
466.621358	0.999861
466.993026	1.000049
467.364634	0.999466
467.736184	0.999829
468.107674	0.999697
468.479105	0.999305
468.850477	1.000242
469.221790	0.999960
469.593043	0.999973
469.964238	1.000061
470.335373	0.998694
470.706449	0.999974
471.077467	1.000302
471.448425	0.999811
471.819324	1.000551
472.190164	0.999239
472.560945	0.999918
472.931667	0.999325
473.302330	0.999399
473.672934	1.000266
474.043479	1.000136
474.413965	0.999274
474.784393	0.999925
475.154761	0.999431
475.525070	0.998751
475.895321	0.999936
476.265513	0.999041
476.635645	0.999291
477.005719	1.000066
477.375734	0.999642
477.745691	0.999704
478.115588	0.999780
478.485427	0.999783
478.855207	0.999683
479.224928	0.999338
479.594591	0.999380
479.964194	0.999389
480.333739	0.999433
480.703226	0.999657
481.072653	1.000213
481.442022	1.000139
481.811333	0.999193
482.180584	1.000247
482.549777	0.999208
482.918912	1.000041
483.287988	0.999780
483.657005	0.999934
484.025964	1.000663
484.394864	1.000303
484.763706	1.000489
485.132489	0.999907
485.501213	0.999422
485.869879	0.999392
486.238487	0.999762
486.607036	1.000015
486.975527	0.998795
487.343959	0.999018
487.712333	0.999907
488.080648	0.999323
488.448905	0.999455
488.817104	1.000508
489.185244	0.999882
489.553326	0.999962
489.921350	0.999357
490.289315	0.999586
490.657222	0.999463
491.025070	0.999955
491.392861	0.999879
491.760593	1.000170
492.128267	0.999509
492.495883	0.999722
492.863440	0.999759
493.230939	1.000295
493.598380	0.999731
493.965763	0.999292
494.333088	0.999739
494.700354	0.999139
495.067563	0.999548
495.434713	0.999588
495.801805	0.999952
496.168839	0.999492
496.535815	0.999778
496.902733	0.999515
497.269593	0.999625
497.636395	0.999345
498.003139	0.999584
498.369825	1.000034
498.736453	0.998914
499.103023	0.998508
499.469535	0.998797
499.835989	0.999763
500.202385	1.000047
500.568723	0.999556
500.935003	1.000305
501.301226	0.999693
501.667390	0.999467
502.033497	0.999344
502.399546	1.000170
502.765537	0.999550
503.131470	0.998565
503.497345	0.999312
503.863163	1.000066
504.228923	0.999457
504.594625	0.999227
504.960269	1.000187
505.325856	0.999442
505.691385	0.998963
506.056856	0.998838
506.422270	0.999036
506.787625	0.999468
507.152924	0.999662
507.518164	0.999373
507.883347	0.999032
508.248472	0.999209
508.613540	0.999516
508.978550	0.999203
509.343503	0.998807
509.708398	0.999082
510.073236	0.998966
510.438016	0.999112
510.802738	0.999381
511.167403	0.998935
511.532010	0.999470
511.896561	0.998793
512.261053	0.999725
512.625488	0.998330
512.989866	0.999094
513.354186	0.998653
513.718449	0.998564
514.082655	0.999173
514.446803	0.999250
514.810894	0.999463
515.174927	0.998773
515.538904	0.998951
515.902822	0.998586
516.266684	0.999217
516.630488	0.999474
516.994235	0.998436
517.357925	0.998418
517.721558	0.999026
518.085133	0.997660
518.448651	0.999357
518.812112	0.998792
519.175516	0.997975
519.538863	0.999125
519.902152	0.998078
520.265385	0.998123
520.628560	0.998610
520.991678	0.998301
521.354739	0.998776
521.717743	0.998703
522.080690	0.998792
522.443580	0.998181
522.806413	0.997976
523.169189	0.998260
523.531908	0.998001
523.894569	0.998108
524.257174	0.998800
524.619722	0.998435
524.982213	0.997938
525.344647	0.998420
525.707025	0.997863
526.069345	0.997602
526.431608	0.997701
526.793815	0.998712
527.155964	0.998237
527.518057	0.997966
527.880093	0.997655
528.242072	0.997627
528.603995	0.997083
528.965860	0.998561
529.327669	0.996889
529.689421	0.997142
530.051117	0.998214
530.412755	0.997263
530.774337	0.998340
531.135862	0.997453
531.497331	0.997116
531.858743	0.997241
532.220098	0.997323
532.581396	0.997687
532.942638	0.997740
533.303824	0.997532
533.664953	0.997204
534.026025	0.996579
534.387040	0.996510
534.747999	0.996902
535.108902	0.996920
535.469748	0.995916
535.830537	0.996304
536.191270	0.996293
536.551947	0.996027
536.912567	0.996002
537.273131	0.996783
537.633638	0.996142
537.994089	0.995621
538.354483	0.995952
538.714821	0.995692
539.075103	0.995086
539.435328	0.994892
539.795497	0.994964
540.155609	0.993995
540.515665	0.994697
540.875665	0.994503
541.235609	0.994202
541.595496	0.993619
541.955328	0.993524
542.315102	0.994456
542.674821	0.993499
543.034483	0.992309
543.394090	0.992265
543.753640	0.993104
544.113134	0.992289
544.472571	0.992721
544.831953	0.992337
545.191278	0.991352
545.550548	0.992037
545.909761	0.990395
546.268918	0.990870
546.628019	0.990503
546.987064	0.989740
547.346053	0.990421
547.704986	0.989522
548.063863	0.988786
548.422684	0.988764
548.781449	0.989151
549.140158	0.987441
549.498811	0.987886
549.857408	0.987239
550.215949	0.986556
550.574434	0.985569
550.932864	0.985155
551.291237	0.985133
551.649555	0.983756
552.007817	0.983473
552.366022	0.982960
552.724173	0.983075
553.082267	0.982654
553.440305	0.981146
553.798288	0.980647
554.156215	0.980063
554.514086	0.979166
554.871902	0.978070
555.229661	0.977097
555.587365	0.976413
555.945014	0.976791
556.302606	0.974556
556.660143	0.975037
557.017625	0.972891
557.375050	0.972593
557.732421	0.971709
558.089735	0.970728
558.446994	0.970391
558.804197	0.969061
559.161345	0.968735
559.518437	0.968014
559.875474	0.965495
560.232455	0.964024
560.589381	0.964214
560.946251	0.961256
561.303065	0.961173
561.659825	0.960098
562.016528	0.958633
562.373177	0.957928
562.729770	0.955892
563.086307	0.956063
563.442789	0.954490
563.799216	0.952139
564.155587	0.950274
564.511904	0.949034
564.868164	0.947374
565.224370	0.946571
565.580520	0.944991
565.936615	0.943477
566.292654	0.941830
566.648638	0.940250
567.004567	0.938214
567.360441	0.937763
567.716260	0.935045
568.072023	0.934474
568.427732	0.931365
568.783385	0.930958
569.138982	0.927652
569.494525	0.925658
569.850013	0.924739
570.205445	0.921634
570.560823	0.920764
570.916145	0.917880
571.271412	0.915985
571.626625	0.914110
571.981782	0.911461
572.336884	0.910145
572.691931	0.908616
573.046923	0.905052
573.401860	0.903570
573.756743	0.901209
574.111570	0.898985
574.466342	0.897596
574.821059	0.894592
575.175722	0.892086
575.530330	0.889841
575.884882	0.887701
576.239380	0.885549
576.593823	0.884056
576.948211	0.880124
577.302544	0.879437
577.656823	0.876248
578.011047	0.873755
578.365216	0.870365
578.719330	0.868772
579.073389	0.866141
579.427394	0.864228
579.781344	0.860906
580.135239	0.858233
580.489080	0.855562
580.842866	0.852952
581.196597	0.849402
581.550273	0.846936
581.903895	0.843904
582.257463	0.841051
582.610975	0.838000
582.964434	0.835032
583.317837	0.832930
583.671186	0.830071
584.024481	0.826514
584.377721	0.824022
584.730906	0.821352
585.084037	0.817972
585.437113	0.816083
585.790135	0.812649
586.143103	0.809857
586.496016	0.808106
586.848874	0.803853
587.201679	0.800828
587.554428	0.798874
587.907124	0.795009
588.259765	0.792947
588.612352	0.789095
588.964884	0.788244
589.317362	0.784008
589.669786	0.780747
590.022155	0.778181
590.374470	0.773964
590.726731	0.772295
591.078937	0.769410
591.431090	0.764603
591.783188	0.764747
592.135232	0.761568
592.487222	0.758967
592.839157	0.754718
593.191038	0.752313
593.542866	0.750060
593.894639	0.748529
594.246358	0.743856
594.598022	0.741124
594.949633	0.739440
595.301190	0.735103
595.652692	0.732800
596.004141	0.726970
596.355535	0.728112
596.706876	0.724102
597.058162	0.721475
597.409395	0.717502
597.760573	0.713387
598.111698	0.711704
598.462768	0.708486
598.813785	0.707004
599.164748	0.703304
599.515657	0.701045
599.866511	0.698030
600.217312	0.694043
600.568060	0.693185
600.918753	0.688484
601.269392	0.685568
601.619978	0.683774
601.970510	0.679097
602.320988	0.676693
602.671412	0.671659
603.021783	0.670645
603.372100	0.668506
603.722363	0.664247
604.072572	0.661981
604.422728	0.658481
604.772830	0.656629
605.122878	0.652646
605.472872	0.651205
605.822813	0.646178
606.172701	0.645251
606.522534	0.641037
606.872314	0.637810
607.222041	0.634853
607.571714	0.630705
607.921333	0.628602
608.270899	0.624438
608.620411	0.620585
608.969870	0.619526
609.319276	0.616234
609.668627	0.613234
610.017926	0.609138
610.367171	0.605309
610.716362	0.603024
611.065500	0.599883
611.414585	0.595697
611.763616	0.593919
612.112594	0.590746
612.461518	0.587469
612.810389	0.583895
613.159207	0.582855
613.507971	0.581067
613.856682	0.575812
614.205340	0.574789
614.553945	0.569447
614.902496	0.569181
615.250994	0.565560
615.599439	0.563663
615.947830	0.560503
616.296169	0.558246
616.644454	0.555200
616.992686	0.552607
617.340864	0.548105
617.688990	0.548263
618.037063	0.544390
618.385082	0.542653
618.733048	0.537511
619.080961	0.537176
619.428821	0.534189
619.776628	0.530697
620.124382	0.529955
620.472083	0.526464
620.819731	0.524662
621.167326	0.524065
621.514868	0.521144
621.862357	0.521801
622.209793	0.519610
622.557176	0.517811
622.904506	0.515709
623.251783	0.514974
623.599007	0.514654
623.946179	0.511665
624.293297	0.510463
624.640363	0.511103
624.987376	0.509143
625.334336	0.509274
625.681243	0.507941
626.028097	0.506332
626.374899	0.505422
626.721647	0.502395
627.068343	0.504103
627.414987	0.502787
627.761577	0.501358
628.108115	0.498398
628.454600	0.500555
628.801032	0.496123
629.147412	0.497125
629.493739	0.494551
629.840014	0.494684
630.186236	0.491399
630.532405	0.493525
630.878521	0.490142
631.224585	0.490214
631.570597	0.491580
631.916556	0.487787
632.262462	0.486781
632.608316	0.486822
632.954117	0.485482
633.299866	0.485102
633.645562	0.483153
633.991206	0.484845
634.336797	0.485631
634.682336	0.485900
635.027823	0.485191
635.373257	0.484426
635.718639	0.484544
636.063968	0.482443
636.409245	0.485367
636.754470	0.484115
637.099642	0.484952
637.444762	0.485762
637.789829	0.483299
638.134845	0.485096
638.479808	0.484438
638.824719	0.482995
639.169577	0.484713
639.514383	0.482223
639.859137	0.484689
640.203839	0.483447
640.548489	0.482086
640.893086	0.482416
641.237632	0.482356
641.582125	0.479804
641.926566	0.479687
642.270955	0.478583
642.615292	0.477850
642.959576	0.475566
643.303809	0.474988
643.647990	0.473454
643.992118	0.472940
644.336195	0.475244
644.680219	0.472194
645.024192	0.472584
645.368112	0.465554
645.711981	0.463360
646.055797	0.459152
646.399562	0.460402
646.743274	0.452236
647.086935	0.449551
647.430544	0.449425
647.774101	0.446970
648.117606	0.446181
648.461059	0.445198
648.804460	0.445712
649.147810	0.450311
649.491108	0.450114
649.834354	0.450638
650.177548	0.454475
650.520690	0.458467
650.863781	0.458474
651.206820	0.457021
651.549807	0.460748
651.892742	0.463090
652.235626	0.461917
652.578458	0.461671
652.921238	0.467316
653.263967	0.464233
653.606644	0.467295
653.949269	0.466237
654.291843	0.469585
654.634365	0.465190
654.976836	0.467435
655.319255	0.467492
655.661622	0.467768
656.003938	0.467499
656.346203	0.469854
656.688416	0.466899
657.030577	0.470072
657.372687	0.470734
657.714746	0.470952
658.056753	0.467585
658.398708	0.470560
658.740612	0.471686
659.082465	0.467406
659.424266	0.467114
659.766016	0.466377
660.107715	0.467915
660.449362	0.466919
660.790958	0.467085
661.132503	0.466575
661.473996	0.463932
661.815438	0.464222
662.156829	0.463912
662.498168	0.464474
662.839456	0.465320
663.180693	0.462710
663.521879	0.462291
663.863013	0.462779
664.204097	0.460773
664.545129	0.457400
664.886110	0.457053
665.227040	0.454068
665.567918	0.456866
665.908746	0.454292
666.249522	0.453462
666.590248	0.453922
666.930922	0.452255
667.271545	0.450939
667.612118	0.450484
667.952639	0.451958
668.293109	0.449867
668.633528	0.452469
668.973896	0.452354
669.314213	0.452241
669.654480	0.453124
669.994695	0.453521
670.334859	0.453676
670.674973	0.453686
671.015035	0.453396
671.355047	0.453546
671.695008	0.454215
672.034918	0.456145
672.374777	0.454592
672.714585	0.455634
673.054342	0.455402
673.394049	0.455219
673.733705	0.452699
674.073310	0.453399
674.412864	0.456298
674.752368	0.456583
675.091820	0.456667
675.431223	0.460315
675.770574	0.460254
676.109875	0.462777
676.449125	0.462697
676.788324	0.464581
677.127473	0.469929
677.466571	0.469351
677.805619	0.470402
678.144616	0.471831
678.483562	0.473029
678.822458	0.475331
679.161303	0.476185
679.500098	0.476650
679.838842	0.477968
680.177535	0.476994
680.516179	0.475812
680.854771	0.474729
681.193314	0.467962
681.531805	0.459619
681.870247	0.448066
682.208638	0.440282
682.546978	0.439219
682.885268	0.440596
683.223508	0.446548
683.561697	0.450598
683.899836	0.453197
684.237925	0.456424
684.575963	0.458449
684.913951	0.461792
685.251889	0.457479
685.589776	0.459221
685.927614	0.461696
686.265401	0.456090
686.603137	0.457108
686.940824	0.450874
687.278460	0.449789
687.616046	0.448474
687.953582	0.443406
688.291068	0.445143
688.628504	0.441197
688.965889	0.443039
689.303224	0.446704
689.640510	0.450565
689.977745	0.456265
690.314930	0.463616
690.652065	0.468160
690.989150	0.475559
691.326185	0.481322
691.663170	0.486452
692.000105	0.493086
692.336990	0.499901
692.673825	0.501935
693.010610	0.509247
693.347345	0.515063
693.684030	0.515404
694.020665	0.520391
694.357251	0.528958
694.693786	0.528391
695.030272	0.532942
695.366707	0.535624
695.703093	0.539383
696.039429	0.536965
696.375716	0.538668
696.711952	0.541652
697.048139	0.543084
697.384276	0.545232
697.720363	0.543495
698.056400	0.542447
698.392388	0.547922
698.728326	0.550660
699.064214	0.553877
699.400053	0.554338
699.735842	0.557941
700.071581	0.560716
700.407270	0.563344
700.742910	0.565455
701.078501	0.572159
701.414042	0.571992
701.749533	0.575437
702.084974	0.583821
702.420366	0.576938
702.755709	0.584158
703.091002	0.591617
703.426246	0.585671
703.761440	0.591211
704.096584	0.595813
704.431679	0.592533
704.766725	0.594674
705.101721	0.595749
705.436668	0.592523
705.771565	0.598811
706.106413	0.596884
706.441212	0.591389
706.775961	0.590314
707.110661	0.593184
707.445311	0.589466
707.779913	0.586833
708.114465	0.584916
708.448967	0.582141
708.783421	0.573734
709.117825	0.569130
709.452180	0.568122
709.786485	0.561777
710.120742	0.552704
710.454949	0.554279
710.789107	0.546848
711.123216	0.537090
711.457275	0.539037
711.791286	0.530585
712.125247	0.529290
712.459159	0.540063
712.793023	0.532578
713.126837	0.536704
713.460602	0.537544
713.794318	0.546645
714.127985	0.544829
714.461602	0.555431
714.795171	0.558037
715.128691	0.566302
715.462162	0.573032
715.795584	0.578552
716.128957	0.581897
716.462281	0.588031
716.795556	0.591657
717.128782	0.596641
717.461960	0.606076
717.795088	0.604679
718.128167	0.609939
718.461198	0.619112
718.794180	0.619516
719.127113	0.622910
719.459997	0.626182
719.792833	0.632885
720.125619	0.633767
720.458357	0.639527
720.791046	0.639407
721.123686	0.642624
721.456278	0.649248
721.788821	0.646049
722.121315	0.650695
722.453761	0.654553
722.786158	0.652823
723.118506	0.649127
723.450805	0.657158
723.783056	0.653187
724.115259	0.650116
724.447412	0.649702
724.779518	0.651140
725.111574	0.650313
725.443582	0.645615
725.775542	0.648534
726.107453	0.640371
726.439315	0.639917
726.771129	0.638486
727.102895	0.631945
727.434612	0.624182
727.766281	0.622966
728.097901	0.621899
728.429473	0.621694
728.760996	0.620943
729.092471	0.619699
729.423897	0.624188
729.755276	0.623431
730.086606	0.623231
730.417887	0.617744
730.749120	0.609106
731.080305	0.599800
731.411442	0.595867
731.742530	0.600486
732.073570	0.600031
732.404562	0.592676
732.735506	0.593491
733.066401	0.598186
733.397249	0.607767
733.728048	0.618540
734.058798	0.630734
734.389501	0.641335
734.720156	0.650877
735.050762	0.658574
735.381320	0.660177
735.711831	0.669353
736.042293	0.674280
736.372707	0.669299
736.703073	0.674824
737.033391	0.676461
737.363661	0.673555
737.693883	0.668622
738.024056	0.668406
738.354182	0.668206
738.684260	0.656755
739.014290	0.653181
739.344272	0.654036
739.674207	0.648139
740.004093	0.648215
740.333931	0.648249
740.663722	0.648524
740.993464	0.648710
741.323159	0.652538
741.652806	0.657677
741.982405	0.661531
742.311956	0.666610
742.641460	0.668603
742.970915	0.672193
743.300323	0.680188
743.629683	0.686869
743.958996	0.688463
744.288260	0.693042
744.617477	0.697976
744.946647	0.699775
745.275768	0.705213
745.604842	0.705147
745.933869	0.714771
746.262847	0.714953
746.591778	0.709111
746.920662	0.715341
747.249498	0.721672
747.578286	0.712642
747.907027	0.708710
748.235720	0.710410
748.564365	0.704546
748.892963	0.704378
749.221514	0.707477
749.550017	0.712851
749.878473	0.711559
750.206881	0.718626
750.535242	0.719720
750.863555	0.719819
751.191821	0.720585
751.520039	0.724332
751.848210	0.728662
752.176334	0.721362
752.504411	0.721164
752.832440	0.729046
753.160421	0.732386
753.488356	0.730741
753.816243	0.728096
754.144082	0.736274
754.471875	0.740265
754.799620	0.735809
755.127318	0.736717
755.454969	0.736745
755.782572	0.735723
756.110129	0.740422
756.437638	0.743526
756.765100	0.739847
757.092515	0.738534
757.419882	0.736968
757.747203	0.741661
758.074477	0.741619
758.401703	0.738419
758.728882	0.734158
759.056014	0.732675
759.383099	0.732298
759.710138	0.733012
760.037129	0.730042
760.364073	0.724342
760.690970	0.725762
761.017820	0.731329
761.344623	0.727228
761.671379	0.718570
761.998088	0.706519
762.324751	0.684073
762.651366	0.643560
762.977935	0.577453
763.304456	0.525069
763.630931	0.516310
763.957359	0.554489
764.283740	0.598658
764.610074	0.625436
764.936362	0.655428
765.262602	0.683161
765.588796	0.704319
765.914943	0.721274
766.241044	0.739387
766.567097	0.745412
766.893104	0.756051
767.219064	0.761242
767.544978	0.768649
767.870845	0.781506
768.196665	0.785663
768.522438	0.783299
768.848165	0.784564
769.173846	0.793715
769.499479	0.798051
769.825066	0.801088
770.150607	0.806375
770.476101	0.800792
770.801548	0.802837
771.126949	0.814494
771.452303	0.816846
771.777611	0.817916
772.102872	0.816395
772.428087	0.821563
772.753256	0.824022
773.078378	0.826752
773.403453	0.835010
773.728482	0.839763
774.053465	0.833553
774.378401	0.835862
774.703291	0.845176
775.028135	0.844542
775.352932	0.845834
775.677683	0.848188
776.002388	0.849569
776.327046	0.848803
776.651658	0.852211
776.976224	0.855703
777.300743	0.856313
777.625216	0.857629
777.949643	0.859131
778.274024	0.860166
778.598359	0.861458
778.922647	0.859408
779.246889	0.860247
779.571086	0.865430
779.895236	0.867540
780.219339	0.864746
780.543397	0.860819
780.867409	0.859473
781.191374	0.862601
781.515294	0.862448
781.839167	0.861394
782.162995	0.866158
782.486776	0.862921
782.810511	0.864040
783.134201	0.866872
783.457844	0.863915
783.781441	0.867544
784.104993	0.872738
784.428498	0.873018
784.751958	0.869727
785.075372	0.871372
785.398739	0.875482
785.722061	0.872166
786.045337	0.866755
786.368568	0.872126
786.691752	0.873566
787.014891	0.860792
787.337983	0.851145
787.661030	0.844538
787.984031	0.826874
788.306987	0.814340
788.629897	0.816047
788.952760	0.820586
789.275579	0.824497
789.598351	0.839615
789.921078	0.852396
790.243759	0.854397
790.566395	0.859499
790.888984	0.866447
791.211529	0.871127
791.534027	0.873897
791.856480	0.875774
792.178888	0.882068
792.501249	0.884491
792.823566	0.885277
793.145836	0.885577
793.468062	0.887119
793.790241	0.887047
794.112375	0.885689
794.434464	0.881147
794.756507	0.880990
795.078505	0.879945
795.400457	0.874935
795.722364	0.862870
796.044226	0.856325
796.366042	0.856711
796.687812	0.858744
797.009538	0.854796
797.331218	0.858895
797.652852	0.863084
797.974442	0.867449
798.295986	0.866840
798.617484	0.870114
798.938938	0.874100
799.260346	0.878967
799.581709	0.880614
799.903026	0.883779
800.224299	0.884055
800.545526	0.887785
800.866708	0.892371
801.187845	0.895582
801.508936	0.895359
801.829983	0.893047
802.150984	0.895718
802.471940	0.900915
802.792851	0.900356
803.113717	0.899700
803.434538	0.897888
803.755314	0.900607
804.076045	0.903028
804.396731	0.903706
804.717372	0.902324
805.037967	0.903983
805.358518	0.902220
805.679024	0.900022
805.999485	0.899783
806.319901	0.899505
806.640272	0.901252
806.960598	0.899008
807.280879	0.897423
807.601115	0.895728
807.921306	0.898967
808.241453	0.898364
808.561554	0.897138
808.881611	0.897064
809.201623	0.898718
809.521590	0.898975
809.841513	0.899765
810.161390	0.899405
810.481223	0.899990
810.801011	0.903699
811.120755	0.905628
811.440453	0.905406
811.760107	0.902865
812.079716	0.902910
812.399281	0.906537
812.718801	0.908676
813.038276	0.910419
813.357707	0.909455
813.677093	0.906171
813.996434	0.910404
814.315731	0.912249
814.634983	0.911754
814.954191	0.911815
815.273354	0.908861
815.592473	0.904484
815.911547	0.904760
816.230577	0.901955
816.549562	0.899175
816.868502	0.899883
817.187399	0.895903
817.506250	0.891491
817.825058	0.892963
818.143821	0.889270
818.462539	0.884905
818.781213	0.878168
819.099843	0.865558
819.418429	0.849894
819.736970	0.833403
820.055466	0.814992
820.373919	0.789624
820.692327	0.757152
821.010691	0.723755
821.329011	0.649039
821.647286	0.535579
821.965517	0.423032
822.283704	0.381228
822.601847	0.383212
822.919945	0.418535
823.237999	0.451417
823.556010	0.496696
823.873976	0.551914
824.191897	0.601773
824.509775	0.642410
824.827609	0.687878
825.145398	0.710069
825.463144	0.711973
825.780845	0.695484
826.098502	0.676478
826.416116	0.631891
826.733685	0.589534
827.051210	0.580890
827.368692	0.595820
827.686129	0.631765
828.003522	0.683111
828.320872	0.730156
828.638177	0.773578
828.955439	0.805588
829.272656	0.826739
829.589830	0.843168
829.906960	0.858947
830.224046	0.870957
830.541088	0.880770
830.858086	0.884196
831.175041	0.891505
831.491952	0.890531
831.808819	0.887844
832.125642	0.880843
832.442421	0.866164
832.759157	0.844804
833.075849	0.800014
833.392497	0.737642
833.709101	0.697086
834.025662	0.706564
834.342179	0.739009
834.658653	0.776399
834.975083	0.811575
835.291469	0.836882
835.607811	0.858991
835.924110	0.875292
836.240366	0.891255
836.556578	0.905924
836.872746	0.912534
837.188871	0.916881
837.504952	0.923574
837.820990	0.926347
838.136984	0.929375
838.452935	0.932697
838.768842	0.934444
839.084706	0.927433
839.400526	0.902891
839.716303	0.863279
840.032037	0.841265
840.347727	0.846365
840.663373	0.862968
840.978977	0.884068
841.294537	0.905873
841.610054	0.920944
841.925527	0.930060
842.240957	0.935612
842.556344	0.942191
842.871687	0.948364
843.186987	0.953104
843.502244	0.953079
843.817458	0.953939
844.132629	0.957998
844.447756	0.963086
844.762840	0.962582
845.077881	0.961108
845.392879	0.962534
845.707833	0.964448
846.022745	0.967915
846.337613	0.966582
846.652438	0.968091
846.967221	0.965998
847.281960	0.967693
847.596656	0.969043
847.911309	0.967488
848.225919	0.970553
848.540485	0.970325
848.855009	0.971299
849.169490	0.971316
849.483928	0.970916
849.798323	0.971119
850.112675	0.972555
850.426984	0.971991
850.741251	0.971743
851.055474	0.973311
851.369654	0.969749
851.683792	0.971066
851.997887	0.972375
852.311938	0.971084
852.625947	0.971732
852.939914	0.970616
853.253837	0.970687
853.567718	0.972905
853.881555	0.972561
854.195350	0.970547
854.509103	0.971103
854.822812	0.971778
855.136479	0.972394
855.450103	0.971230
855.763685	0.969780
856.077224	0.970849
856.390720	0.972523
856.704173	0.972960
857.017584	0.970557
857.330953	0.967979
857.644278	0.969959
857.957561	0.969798
858.270802	0.969783
858.584000	0.970864
858.897155	0.968706
859.210268	0.969374
859.523339	0.970608
859.836367	0.972357
860.149352	0.972771
860.462295	0.970408
860.775195	0.972307
861.088054	0.971893
861.400869	0.971439
861.713642	0.971731
862.026373	0.973159
862.339062	0.973348
862.651708	0.971017
862.964312	0.969685
863.276873	0.970526
863.589392	0.971189
863.901869	0.968804
864.214303	0.967609
864.526696	0.965944
864.839045	0.966035
865.151353	0.963962
865.463619	0.964925
865.775842	0.965437
866.088023	0.965511
866.400162	0.964917
866.712258	0.966126
867.024313	0.965649
867.336325	0.965519
867.648296	0.965636
867.960224	0.964298
868.272110	0.964111
868.583954	0.965528
868.895755	0.966492
869.207515	0.964527
869.519233	0.962293
869.830909	0.963690
870.142542	0.963233
870.454134	0.963632
870.765684	0.963112
871.077191	0.960361
871.388657	0.962380
871.700081	0.959915
872.011463	0.961161
872.322803	0.961177
872.634101	0.959950
872.945357	0.957167
873.256571	0.956181
873.567744	0.955834
873.878874	0.956238
874.189963	0.955582
874.501010	0.953109
874.812015	0.952350
875.122979	0.954435
875.433900	0.956349
875.744780	0.956301
876.055618	0.954604
876.366415	0.953689
876.677169	0.952631
876.987882	0.954714
877.298554	0.954262
877.609183	0.949940
877.919771	0.948421
878.230317	0.945971
878.540822	0.945306
878.851285	0.939443
879.161707	0.931729
879.472087	0.920708
879.782425	0.904258
880.092722	0.871454
880.402977	0.821965
880.713191	0.763834
881.023363	0.707227
881.333494	0.674645
881.643583	0.646872
881.953631	0.646019
882.263637	0.674612
882.573602	0.713390
882.883526	0.738389
883.193408	0.760689
883.503248	0.781335
883.813048	0.808339
884.122806	0.837041
884.432522	0.858540
884.742197	0.878274
885.051831	0.888191
885.361424	0.897111
885.670975	0.909166
885.980485	0.918818
886.289954	0.923148
886.599382	0.929128
886.908768	0.933470
887.218113	0.939064
887.527417	0.943228
887.836680	0.945108
888.145901	0.947956
888.455082	0.950152
888.764221	0.953831
889.073319	0.956031
889.382376	0.955950
889.691392	0.956865
890.000366	0.955595
890.309300	0.957006
890.618193	0.956921
890.927044	0.954588
891.235855	0.955448
891.544625	0.955579
891.853353	0.954960
892.162041	0.952385
892.470687	0.945875
892.779293	0.942560
893.087858	0.938456
893.396381	0.930969
893.704864	0.918651
894.013306	0.896236
894.321707	0.871531
894.630068	0.857041
894.938387	0.852818
895.246665	0.853863
895.554903	0.866189
895.863100	0.877657
896.171256	0.894416
896.479371	0.912886
896.787446	0.924520
897.095480	0.930992
897.403473	0.933384
897.711425	0.936965
898.019336	0.945104
898.327207	0.947836
898.635038	0.949514
898.942827	0.948803
899.250576	0.950480
899.558284	0.956389
899.865952	0.957828
900.173579	0.958350
900.481165	0.959714
900.788711	0.962979
901.096216	0.964563
901.403681	0.964540
901.711105	0.965136
902.018489	0.967484
902.325832	0.965117
902.633135	0.963977
902.940397	0.959029
903.247619	0.948292
903.554800	0.923350
903.861941	0.885634
904.169041	0.853387
904.476101	0.837461
904.783121	0.838138
905.090100	0.853483
905.397039	0.873637
905.703938	0.895241
906.010796	0.912253
906.317614	0.929442
906.624391	0.939692
906.931129	0.947966
907.237826	0.956060
907.544483	0.962145
907.851099	0.965486
908.157675	0.971118
908.464211	0.972225
908.770707	0.976104
909.077163	0.977030
909.383578	0.977797
909.689954	0.977599
909.996289	0.978055
910.302584	0.978865
910.608839	0.981525
910.915054	0.981429
911.221229	0.980376
911.527363	0.979532
911.833458	0.980736
912.139513	0.979263
912.445527	0.978088
912.751502	0.976427
913.057436	0.976009
913.363331	0.973058
913.669186	0.969259
913.975000	0.964199
914.280775	0.959831
914.586510	0.952829
914.892205	0.940833
915.197859	0.920810
915.503475	0.895068
915.809050	0.876885
916.114585	0.872463
916.420081	0.870192
916.725536	0.868082
917.030952	0.873280
917.336328	0.885747
917.641665	0.901085
917.946961	0.914740
918.252218	0.926158
918.557435	0.933650
918.862612	0.942150
919.167750	0.946696
919.472848	0.952363
919.777906	0.956383
920.082925	0.961799
920.387904	0.965486
920.692843	0.967140
920.997743	0.967552
921.302603	0.970469
921.607423	0.972629
921.912204	0.974632
922.216946	0.974522
922.521647	0.976868
922.826310	0.978127
923.130932	0.979256
923.435516	0.980997
923.740059	0.982251
924.044564	0.980408
924.349028	0.982687
924.653454	0.985693
924.957840	0.987678
925.262186	0.987035
925.566493	0.986016
925.870761	0.986499
926.174989	0.987778
926.479178	0.990092
926.783328	0.990428
927.087438	0.989922
927.391509	0.989701
927.695541	0.991666
927.999533	0.991313
928.303486	0.990757
928.607400	0.992906
928.911275	0.992443
929.215110	0.991133
929.518906	0.991646
929.822663	0.990768
930.126381	0.993464
930.430060	0.991769
930.733699	0.991689
931.037299	0.990708
931.340861	0.992297
931.644383	0.991229
931.947866	0.989954
932.251309	0.992484
932.554714	0.992592
932.858080	0.992133
933.161407	0.991560
933.464694	0.992106
933.767943	0.990361
934.071153	0.992244
934.374323	0.993524
934.677455	0.992115
934.980548	0.993341
935.283602	0.991973
935.586617	0.992955
935.889593	0.991414
936.192530	0.992019
936.495428	0.992183
936.798287	0.992344
937.101108	0.991904
937.403890	0.990975
937.706632	0.990780
938.009336	0.988740
938.312002	0.987144
938.614628	0.986598
938.917216	0.985769
939.219765	0.984553
939.522275	0.984861
939.824747	0.985074
940.127179	0.985467
940.429573	0.985757
940.731929	0.986316
941.034246	0.987140
941.336524	0.986970
941.638763	0.989489
941.940964	0.988700
942.243126	0.988238
942.545250	0.989103
942.847335	0.990045
943.149381	0.990144
943.451389	0.991009
943.753359	0.990044
944.055290	0.992627
944.357182	0.990896
944.659036	0.990159
944.960851	0.990977
945.262628	0.991674
945.564367	0.991822
945.866067	0.992609
946.167729	0.991091
946.469352	0.992314
946.770937	0.991004
947.072484	0.992268
947.373992	0.991948
947.675462	0.991761
947.976893	0.991226
948.278286	0.991538
948.579641	0.993129
948.880958	0.991870
949.182236	0.992651
949.483476	0.992160
949.784678	0.991481
950.085841	0.993738
950.386967	0.992233
950.688054	0.992357
950.989103	0.992902
951.290114	0.990536
951.591087	0.991515
951.892021	0.992252
952.192917	0.991253
952.493776	0.989958
952.794596	0.989218
953.095378	0.990399
953.396122	0.989969
953.696828	0.989729
953.997496	0.991697
954.298126	0.992609
954.598718	0.991925
954.899272	0.993133
955.199788	0.991380
955.500266	0.994231
955.800706	0.994523
956.101108	0.994382
956.401472	0.994751
956.701798	0.995351
957.002087	0.994421
957.302337	0.994956
957.602550	0.995757
957.902724	0.995585
958.202861	0.995670
958.502960	0.996605
958.803022	0.994780
959.103045	0.997791
959.403031	0.996079
959.702979	0.995909
960.002889	0.996580
960.302762	0.994923
960.602596	0.996939
960.902393	0.995275
961.202153	0.998380
961.501875	0.997834
961.801559	0.996489
962.101205	0.996933
962.400814	0.997464
962.700385	0.997538
962.999918	0.997271
963.299414	0.997518
963.598873	0.995658
963.898293	0.996405
964.197677	0.996741
964.497022	0.997450
964.796331	0.997853
965.095601	0.997758
965.394835	0.997077
965.694030	0.998067
965.993189	0.997597
966.292309	0.995811
966.591393	0.998527
966.890439	0.998445
967.189447	0.997505
967.488419	0.997783
967.787353	0.996773
968.086249	0.998341
968.385108	0.996884
968.683930	0.997384
968.982714	0.998284
969.281462	0.999422
969.580172	0.996678
969.878844	0.997775
970.177480	0.998040
970.476078	0.997506
970.774639	0.997672
971.073162	0.997627
971.371649	0.997086
971.670098	0.996659
971.968510	0.998482
972.266885	0.996605
972.565223	0.997226
972.863524	0.995962
973.161788	0.997843
973.460014	0.999102
973.758204	0.996507
974.056356	0.997327
974.354471	0.995417
974.652550	0.997934
974.950591	0.997132
975.248595	0.997559
975.546563	0.998942
975.844493	0.997919
976.142386	0.997705
976.440243	0.997917
976.738062	0.997967
977.035845	0.998473
977.333590	0.997660
977.631299	0.998219
977.928971	0.997059
978.226606	0.997707
978.524204	0.996499
978.821765	0.998395
979.119290	0.998139
979.416777	0.997643
979.714228	0.998079
980.011642	0.996664
980.309020	0.997583
980.606360	0.998587
980.903664	0.999260
981.200931	0.996938
981.498162	0.995780
981.795356	0.995815
982.092513	0.994245
982.389633	0.996020
982.686717	0.993134
982.983764	0.991982
983.280775	0.991816
983.577749	0.991260
983.874686	0.992383
984.171587	0.992860
984.468451	0.995621
984.765279	0.996292
985.062070	0.995310
985.358824	0.996457
985.655543	0.995217
985.952224	0.996949
986.248869	0.996577
986.545478	0.998069
986.842050	0.998796
987.138586	0.996443
987.435086	0.997798
987.731549	0.998682
988.027975	0.998133
988.324366	0.998495
988.620719	0.997982
988.917037	0.997168
989.213318	0.998558
989.509563	0.999686
989.805772	0.998520
990.101944	0.999789
990.398080	0.997511
990.694180	0.998094
990.990244	0.997532
991.286271	0.999996
991.582262	0.998182
991.878217	0.998759
992.174136	0.998712
992.470019	0.999493
992.765865	0.998469
993.061676	0.999034
993.357450	0.999350
993.653188	0.996315
993.948890	0.998437
994.244556	0.998936
994.540186	0.998279
994.835780	0.997265
995.131337	0.997509
995.426859	0.997400
995.722345	0.999016
996.017795	0.997394
996.313208	0.995715
996.608586	0.996189
996.903928	0.997113
997.199234	0.996516
997.494504	0.997828
997.789738	0.997106
998.084936	0.996509
998.380099	0.999448
998.675225	0.997840
998.970316	0.998750
999.265371	0.997554
999.560390	0.997964
999.855373	0.998868
1000.150320	0.998071
1000.445232	0.998131
1000.740108	0.998803
1001.034948	0.997768
1001.329752	0.999023
1001.624521	0.999327
1001.919254	0.998876
1002.213951	0.999871
1002.508613	0.998827
1002.803239	0.999671
1003.097829	0.999936
1003.392384	0.999056
1003.686903	0.998724
1003.981386	0.999434
1004.275834	0.999249
1004.570246	0.998032
1004.864623	0.998570
1005.158964	0.999499
1005.453270	0.998955
1005.747540	0.998684
1006.041775	0.998456
1006.335974	1.000448
1006.630138	1.000089
1006.924266	0.998676
1007.218359	1.000178
1007.512416	0.999844
1007.806438	1.000071
1008.100425	0.999244
1008.394376	0.999382
1008.688292	0.998863
1008.982172	1.001116
1009.276017	0.999881
1009.569827	0.998346
1009.863602	0.998652
1010.157341	0.999624
1010.451045	1.000391
1010.744714	0.999452
1011.038347	1.000001
1011.331945	0.999077
1011.625508	0.997958
1011.919036	0.998269
1012.212528	0.999860
1012.505986	0.997562
1012.799408	0.999286
1013.092795	0.999317
1013.386147	0.999827
1013.679464	0.998401
1013.972745	0.998140
1014.265992	0.997112
1014.559204	0.999847
1014.852380	0.999777
1015.145521	0.999988
1015.438628	0.999402
1015.731699	0.998873
1016.024736	0.998588
1016.317737	0.998715
1016.610703	0.998830
1016.903635	1.000299
1017.196531	0.998278
1017.489393	0.999780
1017.782219	0.999145
1018.075011	0.998822
1018.367768	0.999725
1018.660490	0.999832
1018.953177	0.999832
1019.245829	0.999832
