Dividing Wavelength (nm)	Counts (n)	Blue Motor Position (mm): 0.000000	Red Motor Position (mm): 34.100000	
326.493990	1.000675
326.888308	1.000675
327.282561	1.000675
327.676750	0.999770
328.070874	0.998235
328.464933	1.000361
328.858929	0.999540
329.252859	0.999852
329.646726	0.999168
330.040528	1.000054
330.434265	0.998694
330.827938	1.001253
331.221547	1.000226
331.615091	0.999105
332.008571	1.000380
332.401986	0.999084
332.795338	1.000060
333.188625	0.999299
333.581847	0.999937
333.975006	0.999802
334.368100	0.999387
334.761129	0.999120
335.154095	0.999428
335.546996	0.997096
335.939833	0.995936
336.332606	0.996170
336.725315	0.995704
337.117960	0.998365
337.510540	0.995539
337.903056	0.997412
338.295508	0.994691
338.687896	0.996349
339.080220	0.996038
339.472480	0.996085
339.864676	0.995603
340.256807	0.996905
340.648875	0.997360
341.040879	0.997868
341.432818	0.996259
341.824694	0.997273
342.216506	0.997161
342.608253	0.996943
342.999937	0.995905
343.391557	0.995970
343.783113	0.996009
344.174605	0.997320
344.566033	0.996603
344.957397	0.994733
345.348697	0.995913
345.739934	0.996509
346.131106	0.996476
346.522215	0.995116
346.913260	0.995722
347.304241	0.995833
347.695159	0.995986
348.086012	0.995790
348.476802	0.996108
348.867528	0.996561
349.258191	0.995764
349.648789	0.996893
350.039324	0.996141
350.429796	0.997333
350.820203	0.997079
351.210548	0.996308
351.600828	0.996536
351.991045	0.995913
352.381198	0.993892
352.771288	0.997703
353.161314	0.995497
353.551276	0.997475
353.941175	0.995945
354.331010	0.996349
354.720782	0.996121
355.110490	0.995636
355.500135	0.997265
355.889717	0.995739
356.279235	0.995449
356.668689	0.995850
357.058080	0.995976
357.447408	0.998068
357.836672	0.996140
358.225873	0.997179
358.615010	0.996408
359.004084	0.996807
359.393095	0.996425
359.782043	0.996389
360.170927	0.998070
360.559748	0.997084
360.948505	0.996232
361.337199	0.996119
361.725830	0.995865
362.114398	0.996532
362.502903	0.996760
362.891344	0.997385
363.279722	0.996447
363.668037	0.996244
364.056289	0.996261
364.444478	0.997738
364.832603	0.996869
365.220665	0.996730
365.608665	0.997881
365.996601	0.995790
366.384474	0.996643
366.772284	0.996092
367.160031	0.994915
367.547715	0.996680
367.935336	0.997026
368.322893	0.995824
368.710388	0.995123
369.097820	0.995851
369.485189	0.996276
369.872495	0.995790
370.259738	0.995554
370.646918	0.997328
371.034035	0.995855
371.421090	0.997336
371.808081	0.997461
372.195010	0.996815
372.581875	0.997153
372.968678	0.996896
373.355418	0.996681
373.742096	0.995828
374.128710	0.997649
374.515262	0.996657
374.901751	0.996477
375.288177	0.997039
375.674540	0.996358
376.060841	0.996309
376.447079	0.997230
376.833254	0.997114
377.219367	0.997617
377.605417	0.996520
377.991404	0.997578
378.377329	0.996877
378.763191	0.996059
379.148991	0.996808
379.534727	0.997921
379.920402	0.996844
380.306013	0.997084
380.691563	0.998156
381.077049	0.997088
381.462474	0.998110
381.847835	0.997787
382.233134	0.997079
382.618371	0.997790
383.003545	0.996741
383.388657	0.997173
383.773706	0.998306
384.158693	0.997966
384.543618	0.998381
384.928480	0.998909
385.313280	0.997963
385.698017	0.997883
386.082692	0.998713
386.467305	0.997971
386.851856	0.998241
387.236344	0.998205
387.620770	0.996635
388.005133	0.998124
388.389435	0.999522
388.773674	0.997868
389.157851	0.998570
389.541965	0.998618
389.926018	0.997820
390.310008	0.998198
390.693936	0.997905
391.077802	0.999511
391.461606	0.998586
391.845348	0.998043
392.229027	0.999378
392.612645	0.999880
392.996200	0.999262
393.379694	0.998063
393.763125	0.998852
394.146494	0.998875
394.529801	0.998998
394.913047	0.999093
395.296230	0.998682
395.679351	0.998540
396.062410	0.998233
396.445408	0.998795
396.828343	0.998641
397.211217	0.997702
397.594028	0.998828
397.976778	0.997651
398.359466	0.998610
398.742092	0.998071
399.124656	0.997420
399.507158	0.998744
399.889598	0.998223
400.271977	0.999079
400.654294	0.998647
401.036549	0.998887
401.418742	0.999198
401.800874	0.997646
402.182944	0.998396
402.564952	0.998219
402.946898	0.999689
403.328783	0.998360
403.710606	0.999583
404.092367	0.998221
404.474067	0.998328
404.855705	0.998679
405.237282	0.999547
405.618797	0.999019
406.000250	0.998206
406.381642	0.999128
406.762972	0.998490
407.144240	0.999728
407.525447	0.998913
407.906593	0.998683
408.287677	0.999251
408.668700	0.999105
409.049661	0.998586
409.430560	0.999385
409.811399	0.998142
410.192176	0.997809
410.572891	0.998579
410.953545	0.998809
411.334138	0.997900
411.714669	0.998682
412.095139	0.998623
412.475547	1.000058
412.855894	0.998723
413.236180	0.998602
413.616405	0.999101
413.996568	0.999587
414.376670	0.998872
414.756711	0.998354
415.136691	0.998220
415.516609	0.999324
415.896466	0.998484
416.276262	0.998591
416.655997	0.998769
417.035670	0.998292
417.415283	0.998699
417.794834	0.998762
418.174324	0.998416
418.553753	0.998585
418.933121	0.997611
419.312428	0.999304
419.691674	0.998888
420.070859	0.998926
420.449983	0.998958
420.829045	0.998597
421.208047	0.999722
421.586988	1.000617
421.965867	0.999012
422.344686	0.999500
422.723444	0.999044
423.102141	0.998801
423.480777	0.999942
423.859352	0.997896
424.237866	0.998853
424.616319	0.998671
424.994712	0.999516
425.373044	0.999602
425.751314	0.999534
426.129524	0.998099
426.507673	0.998894
426.885762	0.999504
427.263789	0.998981
427.641756	0.999587
428.019662	0.999363
428.397508	0.998923
428.775292	0.998113
429.153016	0.999418
429.530679	0.999060
429.908282	0.999429
430.285824	0.998627
430.663305	0.998815
431.040726	0.999174
431.418086	1.000501
431.795385	0.999489
432.172624	0.999197
432.549802	0.999497
432.926920	0.998924
433.303977	0.998804
433.680974	0.999543
434.057910	0.999242
434.434786	0.999065
434.811601	0.999012
435.188355	0.999743
435.565050	0.998726
435.941683	0.998908
436.318257	0.999495
436.694770	0.998809
437.071222	0.999339
437.447614	0.999659
437.823946	0.999128
438.200218	1.000021
438.576429	0.999021
438.952580	0.999704
439.328670	0.998761
439.704700	0.999970
440.080670	0.999607
440.456580	0.999217
440.832429	0.998378
441.208218	0.998503
441.583947	0.999106
441.959616	0.999292
442.335224	0.998726
442.710773	1.000184
443.086261	0.999253
443.461689	0.999496
443.837057	0.998180
444.212365	0.999527
444.587612	0.998635
444.962800	0.998913
445.337927	0.999646
445.712995	0.999156
446.088002	1.000205
446.462949	0.999144
446.837837	0.999786
447.212664	0.999916
447.587431	0.999337
447.962139	0.998882
448.336786	0.999039
448.711374	0.999686
449.085901	0.999179
449.460369	0.999495
449.834776	0.998859
450.209124	0.999675
450.583412	0.999330
450.957640	0.999326
451.331808	0.998556
451.705917	0.998970
452.079965	0.998849
452.453954	0.998937
452.827883	0.999024
453.201752	0.999748
453.575562	0.999636
453.949311	0.999551
454.323001	0.999437
454.696632	0.998376
455.070202	0.999035
455.443713	0.998392
455.817164	0.999060
456.190556	0.999213
456.563888	0.999955
456.937160	0.999883
457.310373	0.999123
457.683526	0.999006
458.056619	0.999011
458.429653	0.999866
458.802628	0.998397
459.175542	0.998898
459.548398	0.999240
459.921194	0.999204
460.293930	0.999565
460.666607	0.998498
461.039224	0.997548
461.411782	0.998558
461.784280	0.998282
462.156719	1.000632
462.529099	0.998708
462.901419	0.998574
463.273680	0.998729
463.645882	0.998837
464.018024	0.999002
464.390106	0.998775
464.762130	0.999112
465.134094	0.999158
465.505999	0.999999
465.877845	0.998952
466.249631	0.999288
466.621358	0.999650
466.993026	0.999661
467.364634	0.999103
467.736184	0.999676
468.107674	0.998857
468.479105	0.999175
468.850477	0.999549
469.221790	0.999333
469.593043	1.000091
469.964238	0.999910
470.335373	0.999109
470.706449	0.999578
471.077467	0.999583
471.448425	0.999483
471.819324	0.999569
472.190164	0.998660
472.560945	0.999086
472.931667	0.999477
473.302330	0.999011
473.672934	0.998858
474.043479	0.998513
474.413965	0.999000
474.784393	0.999537
475.154761	0.999533
475.525070	0.998255
475.895321	0.999462
476.265513	0.999266
476.635645	0.999333
477.005719	0.999580
477.375734	0.999198
477.745691	0.998784
478.115588	0.999094
478.485427	0.999514
478.855207	0.998634
479.224928	0.998837
479.594591	0.998828
479.964194	0.999383
480.333739	0.998770
480.703226	0.999227
481.072653	0.999614
481.442022	0.999587
481.811333	0.997928
482.180584	0.998989
482.549777	0.998547
482.918912	0.999095
483.287988	0.999380
483.657005	0.998819
484.025964	0.999854
484.394864	0.999479
484.763706	0.999149
485.132489	0.998629
485.501213	0.998492
485.869879	0.998802
486.238487	0.999271
486.607036	0.998889
486.975527	0.998560
487.343959	0.998827
487.712333	0.998121
488.080648	0.998680
488.448905	0.998356
488.817104	0.999404
489.185244	0.998899
489.553326	0.998767
489.921350	0.998163
490.289315	0.998647
490.657222	0.998359
491.025070	0.997600
491.392861	0.998774
491.760593	0.998712
492.128267	0.997716
492.495883	0.998008
492.863440	0.997812
493.230939	0.997195
493.598380	0.996909
493.965763	0.996943
494.333088	0.997295
494.700354	0.996440
495.067563	0.996600
495.434713	0.996108
495.801805	0.996926
496.168839	0.995740
496.535815	0.995183
496.902733	0.995320
497.269593	0.994997
497.636395	0.995333
498.003139	0.994413
498.369825	0.994679
498.736453	0.993173
499.103023	0.992450
499.469535	0.992255
499.835989	0.992323
500.202385	0.991401
500.568723	0.991188
500.935003	0.990727
501.301226	0.989622
501.667390	0.989447
502.033497	0.988047
502.399546	0.988498
502.765537	0.986831
503.131470	0.985831
503.497345	0.985406
503.863163	0.985580
504.228923	0.983800
504.594625	0.982848
504.960269	0.982195
505.325856	0.981066
505.691385	0.979722
506.056856	0.978832
506.422270	0.977858
506.787625	0.977580
507.152924	0.975120
507.518164	0.974226
507.883347	0.972650
508.248472	0.971643
508.613540	0.970607
508.978550	0.968711
509.343503	0.967080
509.708398	0.965409
510.073236	0.964333
510.438016	0.962380
510.802738	0.959955
511.167403	0.959167
511.532010	0.956817
511.896561	0.955002
512.261053	0.953387
512.625488	0.950499
512.989866	0.948912
513.354186	0.946451
513.718449	0.943954
514.082655	0.941390
514.446803	0.939291
514.810894	0.936625
515.174927	0.934058
515.538904	0.931475
515.902822	0.928789
516.266684	0.925968
516.630488	0.923141
516.994235	0.920490
517.357925	0.916753
517.721558	0.914378
518.085133	0.910445
518.448651	0.909086
518.812112	0.905122
519.175516	0.901061
519.538863	0.897907
519.902152	0.894966
520.265385	0.890664
520.628560	0.888158
520.991678	0.883841
521.354739	0.881641
521.717743	0.877828
522.080690	0.874744
522.443580	0.868821
522.806413	0.865473
523.169189	0.860918
523.531908	0.857329
523.894569	0.854264
524.257174	0.849943
524.619722	0.844639
524.982213	0.842065
525.344647	0.836523
525.707025	0.832646
526.069345	0.827320
526.431608	0.823159
526.793815	0.818644
527.155964	0.814533
527.518057	0.810189
527.880093	0.805117
528.242072	0.800868
528.603995	0.795565
528.965860	0.792725
529.327669	0.786630
529.689421	0.782137
530.051117	0.778705
530.412755	0.770905
530.774337	0.768571
531.135862	0.761692
531.497331	0.757542
531.858743	0.752865
532.220098	0.747243
532.581396	0.742783
532.942638	0.738482
533.303824	0.733773
533.664953	0.727866
534.026025	0.723347
534.387040	0.717148
534.747999	0.711982
535.108902	0.706188
535.469748	0.702999
535.830537	0.696891
536.191270	0.692157
536.551947	0.685884
536.912567	0.680733
537.273131	0.677357
537.633638	0.671367
537.994089	0.666084
538.354483	0.661973
538.714821	0.655913
539.075103	0.650416
539.435328	0.645197
539.795497	0.642803
540.155609	0.634507
540.515665	0.628949
540.875665	0.627119
541.235609	0.620750
541.595496	0.615720
541.955328	0.607394
542.315102	0.604807
542.674821	0.600666
543.034483	0.594958
543.394090	0.589783
543.753640	0.586221
544.113134	0.577581
544.472571	0.575020
544.831953	0.567562
545.191278	0.564360
545.550548	0.560241
545.909761	0.552894
546.268918	0.547777
546.628019	0.542158
546.987064	0.538699
547.346053	0.536169
547.704986	0.528662
548.063863	0.524448
548.422684	0.521039
548.781449	0.516315
549.140158	0.509947
549.498811	0.507346
549.857408	0.506008
550.215949	0.496732
550.574434	0.494520
550.932864	0.487672
551.291237	0.483630
551.649555	0.478497
552.007817	0.474800
552.366022	0.471438
552.724173	0.467058
553.082267	0.463567
553.440305	0.455848
553.798288	0.456422
554.156215	0.448652
554.514086	0.445445
554.871902	0.444109
555.229661	0.439641
555.587365	0.436091
555.945014	0.435237
556.302606	0.427546
556.660143	0.427163
557.017625	0.419418
557.375050	0.417657
557.732421	0.411447
558.089735	0.409428
558.446994	0.406184
558.804197	0.402088
559.161345	0.398224
559.518437	0.398162
559.875474	0.391862
560.232455	0.388409
560.589381	0.386655
560.946251	0.381761
561.303065	0.377789
561.659825	0.375305
562.016528	0.373452
562.373177	0.373292
562.729770	0.367507
563.086307	0.366338
563.442789	0.362231
563.799216	0.360746
564.155587	0.357211
564.511904	0.354773
564.868164	0.352600
565.224370	0.350198
565.580520	0.348331
565.936615	0.346553
566.292654	0.346077
566.648638	0.341448
567.004567	0.339470
567.360441	0.338052
567.716260	0.337245
568.072023	0.333061
568.427732	0.331540
568.783385	0.331967
569.138982	0.327629
569.494525	0.325445
569.850013	0.326304
570.205445	0.322409
570.560823	0.323564
570.916145	0.322780
571.271412	0.319424
571.626625	0.318886
571.981782	0.317470
572.336884	0.316708
572.691931	0.314808
573.046923	0.313941
573.401860	0.313871
573.756743	0.313543
574.111570	0.311056
574.466342	0.310454
574.821059	0.307803
575.175722	0.308807
575.530330	0.306912
575.884882	0.306031
576.239380	0.306703
576.593823	0.305887
576.948211	0.304151
577.302544	0.306063
577.656823	0.304364
578.011047	0.303486
578.365216	0.302750
578.719330	0.303605
579.073389	0.302582
579.427394	0.303111
579.781344	0.302665
580.135239	0.302930
580.489080	0.302126
580.842866	0.303819
581.196597	0.302909
581.550273	0.301093
581.903895	0.301101
582.257463	0.298616
582.610975	0.301396
582.964434	0.299581
583.317837	0.301386
583.671186	0.301051
584.024481	0.300597
584.377721	0.302201
584.730906	0.302445
585.084037	0.300827
585.437113	0.302203
585.790135	0.300628
586.143103	0.303265
586.496016	0.304018
586.848874	0.301161
587.201679	0.301006
587.554428	0.303899
587.907124	0.302510
588.259765	0.302811
588.612352	0.302821
588.964884	0.306235
589.317362	0.305632
589.669786	0.305208
590.022155	0.303197
590.374470	0.302258
590.726731	0.304131
591.078937	0.308021
591.431090	0.304074
591.783188	0.308015
592.135232	0.308065
592.487222	0.307765
592.839157	0.305691
593.191038	0.308160
593.542866	0.309974
593.894639	0.313078
594.246358	0.310522
594.598022	0.309833
594.949633	0.313392
595.301190	0.314014
595.652692	0.312707
596.004141	0.308725
596.355535	0.316750
596.706876	0.317004
597.058162	0.319340
597.409395	0.316364
597.760573	0.313902
598.111698	0.316862
598.462768	0.317220
598.813785	0.318565
599.164748	0.319853
599.515657	0.319549
599.866511	0.322919
600.217312	0.318345
600.568060	0.323415
600.918753	0.319827
601.269392	0.320628
601.619978	0.323732
601.970510	0.321510
602.320988	0.321649
602.671412	0.319177
603.021783	0.321574
603.372100	0.322867
603.722363	0.322385
604.072572	0.323390
604.422728	0.322952
604.772830	0.324940
605.122878	0.324409
605.472872	0.324713
605.822813	0.322959
606.172701	0.325615
606.522534	0.323317
606.872314	0.323180
607.222041	0.323699
607.571714	0.321851
607.921333	0.323194
608.270899	0.322849
608.620411	0.319662
608.969870	0.323137
609.319276	0.323370
609.668627	0.323504
610.017926	0.321785
610.367171	0.320265
610.716362	0.321026
611.065500	0.321507
611.414585	0.319714
611.763616	0.320430
612.112594	0.320928
612.461518	0.320351
612.810389	0.318077
613.159207	0.320346
613.507971	0.321762
613.856682	0.317637
614.205340	0.318827
614.553945	0.315802
614.902496	0.320147
615.250994	0.317966
615.599439	0.318434
615.947830	0.317553
616.296169	0.319179
616.644454	0.318194
616.992686	0.318368
617.340864	0.316241
617.688990	0.319514
618.037063	0.316380
618.385082	0.318072
618.733048	0.315152
619.080961	0.317227
619.428821	0.316602
619.776628	0.316437
620.124382	0.318678
620.472083	0.318723
620.819731	0.317903
621.167326	0.321692
621.514868	0.321652
621.862357	0.326003
622.209793	0.325168
622.557176	0.327695
622.904506	0.328738
623.251783	0.330495
623.599007	0.333056
623.946179	0.332888
624.293297	0.334674
624.640363	0.338252
624.987376	0.339021
625.334336	0.341614
625.681243	0.343613
626.028097	0.344534
626.374899	0.345203
626.721647	0.345262
627.068343	0.348578
627.414987	0.349882
627.761577	0.351966
628.108115	0.349990
628.454600	0.355196
628.801032	0.352267
629.147412	0.354702
629.493739	0.354907
629.840014	0.358533
630.186236	0.355642
630.532405	0.360857
630.878521	0.358496
631.224585	0.361073
631.570597	0.364394
631.916556	0.363002
632.262462	0.363290
632.608316	0.365012
632.954117	0.365929
633.299866	0.366834
633.645562	0.367191
633.991206	0.371595
634.336797	0.374045
634.682336	0.376517
635.027823	0.378368
635.373257	0.378274
635.718639	0.381934
636.063968	0.381203
636.409245	0.387035
636.754470	0.387475
637.099642	0.389987
637.444762	0.393128
637.789829	0.392298
638.134845	0.395673
638.479808	0.396581
638.824719	0.396306
639.169577	0.400701
639.514383	0.399529
639.859137	0.404128
640.203839	0.403480
640.548489	0.404760
640.893086	0.405526
641.237632	0.407065
641.582125	0.405698
641.926566	0.406632
642.270955	0.406946
642.615292	0.407728
642.959576	0.406263
643.303809	0.407049
643.647990	0.406897
643.992118	0.407366
644.336195	0.410982
644.680219	0.408814
645.024192	0.410190
645.368112	0.403076
645.711981	0.402902
646.055797	0.397849
646.399562	0.400305
646.743274	0.392318
647.086935	0.390105
647.430544	0.389914
647.774101	0.388639
648.117606	0.388277
648.461059	0.388826
648.804460	0.391143
649.147810	0.396354
649.491108	0.398313
649.834354	0.399488
650.177548	0.405083
650.520690	0.410453
650.863781	0.411975
651.206820	0.410367
651.549807	0.415482
651.892742	0.419872
652.235626	0.418894
652.578458	0.419633
652.921238	0.425857
653.263967	0.423331
653.606644	0.427791
653.949269	0.427126
654.291843	0.431337
654.634365	0.427675
654.976836	0.431082
655.319255	0.431469
655.661622	0.432842
656.003938	0.433667
656.346203	0.436006
656.688416	0.433872
657.030577	0.437396
657.372687	0.439202
657.714746	0.440311
658.056753	0.436890
658.398708	0.440894
658.740612	0.441891
659.082465	0.438343
659.424266	0.438240
659.766016	0.438273
660.107715	0.440899
660.449362	0.439521
660.790958	0.440084
661.132503	0.440666
661.473996	0.438382
661.815438	0.439978
662.156829	0.439285
662.498168	0.440258
662.839456	0.441623
663.180693	0.439122
663.521879	0.439655
663.863013	0.440182
664.204097	0.438875
664.545129	0.435386
664.886110	0.436594
665.227040	0.433273
665.567918	0.435690
665.908746	0.434584
666.249522	0.433607
666.590248	0.434599
666.930922	0.433031
667.271545	0.431939
667.612118	0.431563
667.952639	0.434005
668.293109	0.432178
668.633528	0.435204
668.973896	0.434955
669.314213	0.435470
669.654480	0.437163
669.994695	0.436989
670.334859	0.438032
670.674973	0.438312
671.015035	0.438882
671.355047	0.438097
671.695008	0.439379
672.034918	0.441238
672.374777	0.440913
672.714585	0.441940
673.054342	0.441834
673.394049	0.441956
673.733705	0.439496
674.073310	0.440035
674.412864	0.443586
674.752368	0.444022
675.091820	0.444811
675.431223	0.449105
675.770574	0.448802
676.109875	0.451714
676.449125	0.451424
676.788324	0.453837
677.127473	0.459401
677.466571	0.458651
677.805619	0.460848
678.144616	0.461751
678.483562	0.463016
678.822458	0.465897
679.161303	0.467318
679.500098	0.466952
679.838842	0.469142
680.177535	0.468703
680.516179	0.466917
680.854771	0.466495
681.193314	0.459700
681.531805	0.451160
681.870247	0.439387
682.208638	0.432555
682.546978	0.431052
682.885268	0.432900
683.223508	0.438738
683.561697	0.442598
683.899836	0.445388
684.237925	0.449085
684.575963	0.451286
684.913951	0.454227
685.251889	0.450192
685.589776	0.452520
685.927614	0.454865
686.265401	0.448900
686.603137	0.449974
686.940824	0.444803
687.278460	0.442787
687.616046	0.442276
687.953582	0.436780
688.291068	0.438328
688.628504	0.433714
688.965889	0.436810
689.303224	0.440374
689.640510	0.444237
689.977745	0.450422
690.314930	0.456998
690.652065	0.462243
690.989150	0.469694
691.326185	0.476296
691.663170	0.481173
692.000105	0.488065
692.336990	0.494936
692.673825	0.497291
693.010610	0.504530
693.347345	0.509793
693.684030	0.511051
694.020665	0.515513
694.357251	0.524922
694.693786	0.523781
695.030272	0.528686
695.366707	0.532037
695.703093	0.535508
696.039429	0.532930
696.375716	0.534743
696.711952	0.537291
697.048139	0.539010
697.384276	0.541559
697.720363	0.540122
698.056400	0.539195
698.392388	0.544186
698.728326	0.547478
699.064214	0.550189
699.400053	0.550574
699.735842	0.554506
700.071581	0.557409
700.407270	0.560637
700.742910	0.562062
701.078501	0.568652
701.414042	0.570059
701.749533	0.572473
702.084974	0.581039
702.420366	0.573598
702.755709	0.581346
703.091002	0.588703
703.426246	0.581946
703.761440	0.588720
704.096584	0.593544
704.431679	0.590296
704.766725	0.592523
705.101721	0.593273
705.436668	0.590146
705.771565	0.597291
706.106413	0.593781
706.441212	0.588702
706.775961	0.587840
707.110661	0.590867
707.445311	0.586387
707.779913	0.584601
708.114465	0.582410
708.448967	0.579257
708.783421	0.571867
709.117825	0.565799
709.452180	0.566085
709.786485	0.560254
710.120742	0.549442
710.454949	0.552003
710.789107	0.544696
711.123216	0.535215
711.457275	0.536600
711.791286	0.527707
712.125247	0.526800
712.459159	0.537615
712.793023	0.530732
713.126837	0.534330
713.460602	0.534394
713.794318	0.544149
714.127985	0.542797
714.461602	0.552318
714.795171	0.555658
715.128691	0.563448
715.462162	0.571113
715.795584	0.576539
716.128957	0.579584
716.462281	0.585442
716.795556	0.589326
717.128782	0.594238
717.461960	0.603870
717.795088	0.602760
718.128167	0.608466
718.461198	0.617319
718.794180	0.618471
719.127113	0.620605
719.459997	0.624460
719.792833	0.630100
720.125619	0.632267
720.458357	0.637993
720.791046	0.637409
721.123686	0.641117
721.456278	0.647297
721.788821	0.645142
722.121315	0.648795
722.453761	0.652977
722.786158	0.650822
723.118506	0.647414
723.450805	0.654770
723.783056	0.650989
724.115259	0.648177
724.447412	0.648065
724.779518	0.649721
725.111574	0.648077
725.443582	0.644148
725.775542	0.645576
726.107453	0.638665
726.439315	0.638333
726.771129	0.637415
727.102895	0.629984
727.434612	0.623485
727.766281	0.620800
728.097901	0.620202
728.429473	0.619878
728.760996	0.619189
729.092471	0.619271
729.423897	0.622256
729.755276	0.621789
730.086606	0.621802
730.417887	0.616826
730.749120	0.606383
731.080305	0.597797
731.411442	0.594616
731.742530	0.598737
732.073570	0.598580
732.404562	0.590816
732.735506	0.591775
733.066401	0.596681
733.397249	0.606173
733.728048	0.617230
734.058798	0.629598
734.389501	0.639888
734.720156	0.649830
735.050762	0.657553
735.381320	0.658662
735.711831	0.668140
736.042293	0.672744
736.372707	0.668359
736.703073	0.672915
737.033391	0.675815
737.363661	0.672369
737.693883	0.668095
738.024056	0.666540
738.354182	0.667092
738.684260	0.655282
739.014290	0.652639
739.344272	0.652927
739.674207	0.646417
740.004093	0.646184
740.333931	0.646651
740.663722	0.646467
740.993464	0.646630
741.323159	0.650777
741.652806	0.655658
741.982405	0.660341
742.311956	0.665877
742.641460	0.667786
742.970915	0.671032
743.300323	0.678631
743.629683	0.685452
743.958996	0.686725
744.288260	0.690630
744.617477	0.697015
744.946647	0.698424
745.275768	0.703530
745.604842	0.703928
745.933869	0.713996
746.262847	0.714592
746.591778	0.707780
746.920662	0.714022
747.249498	0.719943
747.578286	0.711055
747.907027	0.707635
748.235720	0.708719
748.564365	0.703513
748.892963	0.703247
749.221514	0.705795
749.550017	0.711685
749.878473	0.710942
750.206881	0.717629
750.535242	0.718167
750.863555	0.718915
751.191821	0.719201
751.520039	0.722928
751.848210	0.727458
752.176334	0.720068
752.504411	0.719524
752.832440	0.726948
753.160421	0.730884
753.488356	0.729391
753.816243	0.727234
754.144082	0.735000
754.471875	0.739177
754.799620	0.735110
755.127318	0.735861
755.454969	0.735894
755.782572	0.734115
756.110129	0.739523
756.437638	0.742311
756.765100	0.738913
757.092515	0.737249
757.419882	0.736067
757.747203	0.740813
758.074477	0.740246
758.401703	0.737497
758.728882	0.732185
759.056014	0.731027
759.383099	0.729934
759.710138	0.731484
760.037129	0.728667
760.364073	0.722222
760.690970	0.723932
761.017820	0.730283
761.344623	0.725887
761.671379	0.717783
761.998088	0.705469
762.324751	0.683579
762.651366	0.641635
762.977935	0.575673
763.304456	0.523685
763.630931	0.513921
763.957359	0.553027
764.283740	0.597677
764.610074	0.624014
764.936362	0.655053
765.262602	0.680572
765.588796	0.703249
765.914943	0.720833
766.241044	0.738209
766.567097	0.744254
766.893104	0.754562
767.219064	0.760853
767.544978	0.766981
767.870845	0.780608
768.196665	0.784149
768.522438	0.783659
768.848165	0.782882
769.173846	0.792489
769.499479	0.796631
769.825066	0.800079
770.150607	0.805135
770.476101	0.800213
770.801548	0.801572
771.126949	0.812749
771.452303	0.816107
771.777611	0.817064
772.102872	0.814580
772.428087	0.819563
772.753256	0.823010
773.078378	0.825847
773.403453	0.833758
773.728482	0.838176
774.053465	0.832458
774.378401	0.835210
774.703291	0.843549
775.028135	0.843708
775.352932	0.845272
775.677683	0.848225
776.002388	0.848590
776.327046	0.847586
776.651658	0.851774
776.976224	0.855150
777.300743	0.855270
777.625216	0.856783
777.949643	0.858653
778.274024	0.859251
778.598359	0.861458
778.922647	0.857961
779.246889	0.859301
779.571086	0.864036
779.895236	0.866597
780.219339	0.862790
780.543397	0.860327
780.867409	0.858067
781.191374	0.861157
781.515294	0.862090
781.839167	0.861740
782.162995	0.863940
782.486776	0.862155
782.810511	0.861849
783.134201	0.865711
783.457844	0.864301
783.781441	0.865822
784.104993	0.871637
784.428498	0.872325
784.751958	0.867389
785.075372	0.870731
785.398739	0.874315
785.722061	0.871424
786.045337	0.866739
786.368568	0.870891
786.691752	0.872706
787.014891	0.859403
787.337983	0.850446
787.661030	0.844117
787.984031	0.825870
788.306987	0.813541
788.629897	0.815776
788.952760	0.819664
789.275579	0.823193
789.598351	0.839255
789.921078	0.851764
790.243759	0.852895
790.566395	0.858954
790.888984	0.865155
791.211529	0.871223
791.534027	0.874047
791.856480	0.876498
792.178888	0.880041
792.501249	0.882969
792.823566	0.885244
793.145836	0.884101
793.468062	0.886701
793.790241	0.887213
794.112375	0.884722
794.434464	0.880158
794.756507	0.879308
795.078505	0.879574
795.400457	0.874126
795.722364	0.862382
796.044226	0.855023
796.366042	0.854161
796.687812	0.857566
797.009538	0.854161
797.331218	0.855750
797.652852	0.861813
797.974442	0.866993
798.295986	0.866194
798.617484	0.868745
798.938938	0.873252
799.260346	0.876683
799.581709	0.880115
799.903026	0.882354
800.224299	0.881790
800.545526	0.886137
800.866708	0.890475
801.187845	0.894610
801.508936	0.893509
801.829983	0.892047
802.150984	0.895034
802.471940	0.899247
802.792851	0.898436
803.113717	0.899548
803.434538	0.898029
803.755314	0.899737
804.076045	0.901377
804.396731	0.901814
804.717372	0.900777
805.037967	0.903431
805.358518	0.901410
805.679024	0.897593
805.999485	0.899031
806.319901	0.897823
806.640272	0.900259
806.960598	0.897859
807.280879	0.895996
807.601115	0.894427
807.921306	0.897601
808.241453	0.896819
808.561554	0.895581
808.881611	0.896797
809.201623	0.898012
809.521590	0.898315
809.841513	0.899163
810.161390	0.899187
810.481223	0.899480
810.801011	0.903296
811.120755	0.904762
811.440453	0.903894
811.760107	0.902445
812.079716	0.901731
812.399281	0.905194
812.718801	0.907728
813.038276	0.908361
813.357707	0.907886
813.677093	0.905774
813.996434	0.908962
814.315731	0.909783
814.634983	0.910441
814.954191	0.910087
815.273354	0.906365
815.592473	0.903355
815.911547	0.903763
816.230577	0.900758
816.549562	0.897883
816.868502	0.899291
817.187399	0.895272
817.506250	0.889686
817.825058	0.892542
818.143821	0.889263
818.462539	0.883457
818.781213	0.875161
819.099843	0.864040
819.418429	0.849949
819.736970	0.832856
820.055466	0.812838
820.373919	0.788192
820.692327	0.755451
821.010691	0.721448
821.329011	0.646237
821.647286	0.533693
821.965517	0.420995
822.283704	0.378748
822.601847	0.380502
822.919945	0.416276
823.237999	0.448724
823.556010	0.494751
823.873976	0.549419
824.191897	0.599383
824.509775	0.640669
824.827609	0.684822
825.145398	0.707848
825.463144	0.710563
825.780845	0.693900
826.098502	0.674840
826.416116	0.630349
826.733685	0.586423
827.051210	0.578853
827.368692	0.593422
827.686129	0.629955
828.003522	0.682336
828.320872	0.728968
828.638177	0.771430
828.955439	0.803793
829.272656	0.824784
829.589830	0.842630
829.906960	0.856991
830.224046	0.869211
830.541088	0.879985
830.858086	0.884024
831.175041	0.890736
831.491952	0.889592
831.808819	0.886202
832.125642	0.878493
832.442421	0.865677
832.759157	0.844587
833.075849	0.798941
833.392497	0.736040
833.709101	0.695696
834.025662	0.705636
834.342179	0.736424
834.658653	0.775430
834.975083	0.810109
835.291469	0.836547
835.607811	0.858108
835.924110	0.873364
836.240366	0.890055
836.556578	0.903121
836.872746	0.910789
837.188871	0.917380
837.504952	0.922615
837.820990	0.924751
838.136984	0.928634
838.452935	0.931573
838.768842	0.933464
839.084706	0.926202
839.400526	0.901358
839.716303	0.861779
840.032037	0.839883
840.347727	0.843988
840.663373	0.862657
840.978977	0.882362
841.294537	0.904300
841.610054	0.920567
841.925527	0.928424
842.240957	0.934984
842.556344	0.942021
842.871687	0.948084
843.186987	0.950793
843.502244	0.952084
843.817458	0.953492
844.132629	0.955699
844.447756	0.961168
844.762840	0.961206
845.077881	0.960490
845.392879	0.960229
845.707833	0.963685
846.022745	0.965709
846.337613	0.966199
846.652438	0.966848
846.967221	0.965102
847.281960	0.966091
847.596656	0.968628
847.911309	0.966734
848.225919	0.968381
848.540485	0.968904
848.855009	0.969799
849.169490	0.968873
849.483928	0.970473
849.798323	0.969994
850.112675	0.970556
850.426984	0.971200
850.741251	0.970752
851.055474	0.971871
851.369654	0.969895
851.683792	0.970792
851.997887	0.971490
852.311938	0.971747
852.625947	0.970602
852.939914	0.968923
853.253837	0.970730
853.567718	0.971934
853.881555	0.971536
854.195350	0.969346
854.509103	0.970539
854.822812	0.971049
855.136479	0.970574
855.450103	0.971186
855.763685	0.968325
856.077224	0.970165
856.390720	0.971484
856.704173	0.971093
857.017584	0.969877
857.330953	0.968627
857.644278	0.969233
857.957561	0.971181
858.270802	0.969637
858.584000	0.969197
858.897155	0.967018
859.210268	0.968390
859.523339	0.968772
859.836367	0.971599
860.149352	0.972823
860.462295	0.969443
860.775195	0.971518
861.088054	0.970241
861.400869	0.970445
861.713642	0.971177
862.026373	0.972171
862.339062	0.972271
862.651708	0.969358
862.964312	0.969358
863.276873	0.970146
863.589392	0.968600
863.901869	0.968063
864.214303	0.965971
864.526696	0.965643
864.839045	0.964860
865.151353	0.962608
865.463619	0.963686
865.775842	0.962868
866.088023	0.964233
866.400162	0.963276
866.712258	0.964052
867.024313	0.964894
867.336325	0.965133
867.648296	0.963434
867.960224	0.963666
868.272110	0.963238
868.583954	0.965824
868.895755	0.964442
869.207515	0.963306
869.519233	0.961193
869.830909	0.963338
870.142542	0.964041
870.454134	0.962906
870.765684	0.962238
871.077191	0.958432
871.388657	0.960622
871.700081	0.959185
872.011463	0.959624
872.322803	0.959864
872.634101	0.958999
872.945357	0.956716
873.256571	0.954491
873.567744	0.954879
873.878874	0.955796
874.189963	0.954473
874.501010	0.953062
874.812015	0.952043
875.122979	0.953476
875.433900	0.955270
875.744780	0.955576
876.055618	0.953498
876.366415	0.952133
876.677169	0.951530
876.987882	0.954016
877.298554	0.953450
877.609183	0.949363
877.919771	0.948098
878.230317	0.944177
878.540822	0.942411
878.851285	0.937444
879.161707	0.930473
879.472087	0.919068
879.782425	0.902713
880.092722	0.870576
880.402977	0.819717
880.713191	0.761886
881.023363	0.704994
881.333494	0.671854
881.643583	0.643114
881.953631	0.642881
882.263637	0.672153
882.573602	0.710576
882.883526	0.735722
883.193408	0.758509
883.503248	0.779226
883.813048	0.805860
884.122806	0.835471
884.432522	0.856764
884.742197	0.876998
885.051831	0.886472
885.361424	0.896388
885.670975	0.907127
885.980485	0.918127
886.289954	0.922537
886.599382	0.928770
886.908768	0.931059
887.218113	0.937707
887.527417	0.941572
887.836680	0.945520
888.145901	0.945954
888.455082	0.948419
888.764221	0.952654
889.073319	0.954497
889.382376	0.955629
889.691392	0.955831
890.000366	0.954615
890.309300	0.956162
890.618193	0.955373
890.927044	0.953680
891.235855	0.954877
891.544625	0.955346
891.853353	0.953948
892.162041	0.951602
892.470687	0.945773
892.779293	0.941218
893.087858	0.937007
893.396381	0.929756
893.704864	0.916792
894.013306	0.894474
894.321707	0.868285
894.630068	0.855162
894.938387	0.850544
895.246665	0.852358
895.554903	0.863742
895.863100	0.875698
896.171256	0.891838
896.479371	0.911619
896.787446	0.923910
897.095480	0.928105
897.403473	0.931251
897.711425	0.935556
898.019336	0.944030
898.327207	0.945636
898.635038	0.947933
898.942827	0.947274
899.250576	0.951154
899.558284	0.954863
899.865952	0.956507
900.173579	0.958012
900.481165	0.957451
900.788711	0.962689
901.096216	0.963421
901.403681	0.963659
901.711105	0.963840
902.018489	0.965151
902.325832	0.963632
902.633135	0.964625
902.940397	0.958174
903.247619	0.946072
903.554800	0.922212
903.861941	0.884508
904.169041	0.851108
904.476101	0.835518
904.783121	0.835998
905.090100	0.850391
905.397039	0.871530
905.703938	0.891364
906.010796	0.911246
906.317614	0.927804
906.624391	0.938438
906.931129	0.946505
907.237826	0.954097
907.544483	0.961816
907.851099	0.965064
908.157675	0.970049
908.464211	0.972012
908.770707	0.973962
909.077163	0.976789
909.383578	0.976593
909.689954	0.976194
909.996289	0.976961
910.302584	0.977979
910.608839	0.980904
910.915054	0.980183
911.221229	0.978634
911.527363	0.978821
911.833458	0.977516
912.139513	0.978693
912.445527	0.976397
912.751502	0.974897
913.057436	0.974603
913.363331	0.971973
913.669186	0.967904
913.975000	0.963646
914.280775	0.958325
914.586510	0.952284
914.892205	0.938896
915.197859	0.918799
915.503475	0.892782
915.809050	0.875480
916.114585	0.870257
916.420081	0.868151
916.725536	0.865168
917.030952	0.871935
917.336328	0.883641
917.641665	0.898764
917.946961	0.913195
918.252218	0.924407
918.557435	0.931879
918.862612	0.940350
919.167750	0.945384
919.472848	0.950740
919.777906	0.955130
920.082925	0.960276
920.387904	0.964290
920.692843	0.965493
920.997743	0.966212
921.302603	0.970099
921.607423	0.971824
921.912204	0.973954
922.216946	0.973977
922.521647	0.973988
922.826310	0.976319
923.130932	0.978552
923.435516	0.979195
923.740059	0.981877
924.044564	0.979790
924.349028	0.982370
924.653454	0.984319
924.957840	0.986551
925.262186	0.985133
925.566493	0.984914
925.870761	0.983801
926.174989	0.987836
926.479178	0.989316
926.783328	0.989579
927.087438	0.989850
927.391509	0.988024
927.695541	0.990089
927.999533	0.989689
928.303486	0.990749
928.607400	0.992488
928.911275	0.989782
929.215110	0.990790
929.518906	0.990714
929.822663	0.989718
930.126381	0.990944
930.430060	0.991318
930.733699	0.991487
931.037299	0.990340
931.340861	0.991369
931.644383	0.991022
931.947866	0.989669
932.251309	0.993026
932.554714	0.991100
932.858080	0.990941
933.161407	0.990711
933.464694	0.993025
933.767943	0.992064
934.071153	0.991488
934.374323	0.993030
934.677455	0.992463
934.980548	0.992115
935.283602	0.991190
935.586617	0.991594
935.889593	0.990709
936.192530	0.991128
936.495428	0.990236
936.798287	0.991736
937.101108	0.990793
937.403890	0.989612
937.706632	0.989550
938.009336	0.987478
938.312002	0.988142
938.614628	0.985831
938.917216	0.984483
939.219765	0.982786
939.522275	0.984329
939.824747	0.984418
940.127179	0.984440
940.429573	0.986391
940.731929	0.985607
941.034246	0.985084
941.336524	0.986688
941.638763	0.987189
941.940964	0.987306
942.243126	0.987005
942.545250	0.988233
942.847335	0.989438
943.149381	0.989103
943.451389	0.988538
943.753359	0.990264
944.055290	0.991673
944.357182	0.990846
944.659036	0.989094
944.960851	0.989827
945.262628	0.990849
945.564367	0.991559
945.866067	0.990565
946.167729	0.990532
946.469352	0.990939
946.770937	0.991179
947.072484	0.991898
947.373992	0.990718
947.675462	0.990955
947.976893	0.990515
948.278286	0.991627
948.579641	0.992358
948.880958	0.990437
949.182236	0.992483
949.483476	0.990963
949.784678	0.991589
950.085841	0.993295
950.386967	0.991977
950.688054	0.991377
950.989103	0.991433
951.290114	0.989970
951.591087	0.990676
951.892021	0.991647
952.192917	0.990357
952.493776	0.988898
952.794596	0.988733
953.095378	0.988516
953.396122	0.988626
953.696828	0.988283
953.997496	0.991398
954.298126	0.991845
954.598718	0.990948
954.899272	0.991873
955.199788	0.990989
955.500266	0.992572
955.800706	0.993675
956.101108	0.994017
956.401472	0.994858
956.701798	0.994391
957.002087	0.994506
957.302337	0.993929
957.602550	0.995432
957.902724	0.994973
958.202861	0.996285
958.502960	0.995880
958.803022	0.995176
959.103045	0.996909
959.403031	0.996953
959.702979	0.995057
960.002889	0.996121
960.302762	0.994942
960.602596	0.995580
960.902393	0.995332
961.202153	0.996841
961.501875	0.997508
961.801559	0.995968
962.101205	0.994788
962.400814	0.996484
962.700385	0.995928
962.999918	0.996755
963.299414	0.996522
963.598873	0.996541
963.898293	0.996877
964.197677	0.995724
964.497022	0.995979
964.796331	0.997854
965.095601	0.996292
965.394835	0.996557
965.694030	0.996492
965.993189	0.996373
966.292309	0.996588
966.591393	0.996479
966.890439	0.996570
967.189447	0.997652
967.488419	0.998189
967.787353	0.996023
968.086249	0.996368
968.385108	0.998022
968.683930	0.996963
968.982714	0.997100
969.281462	0.997845
969.580172	0.996509
969.878844	0.996942
970.177480	0.997492
970.476078	0.997422
970.774639	0.997353
971.073162	0.998448
971.371649	0.996992
971.670098	0.996440
971.968510	0.998108
972.266885	0.996069
972.565223	0.996455
972.863524	0.996131
973.161788	0.996589
973.460014	0.997791
973.758204	0.995577
974.056356	0.996775
974.354471	0.994591
974.652550	0.996846
974.950591	0.996463
975.248595	0.996982
975.546563	0.996284
975.844493	0.997541
976.142386	0.997005
976.440243	0.997657
976.738062	0.997173
977.035845	0.998673
977.333590	0.997089
977.631299	0.998229
977.928971	0.998495
978.226606	0.996643
978.524204	0.995542
978.821765	0.998046
979.119290	0.996234
979.416777	0.997711
979.714228	0.997949
980.011642	0.995919
980.309020	0.996993
980.606360	0.996999
980.903664	0.997100
981.200931	0.995961
981.498162	0.995568
981.795356	0.995018
982.092513	0.994579
982.389633	0.995349
982.686717	0.992082
982.983764	0.992824
983.280775	0.990940
983.577749	0.990048
983.874686	0.992489
984.171587	0.993111
984.468451	0.995776
984.765279	0.996612
985.062070	0.996132
985.358824	0.995649
985.655543	0.995943
985.952224	0.996135
986.248869	0.996619
986.545478	0.996653
986.842050	0.999338
987.138586	0.994785
987.435086	0.997060
987.731549	0.998307
988.027975	0.998206
988.324366	0.998711
988.620719	0.997745
988.917037	0.996587
989.213318	0.998317
989.509563	0.999206
989.805772	0.998818
990.101944	0.998259
990.398080	0.998927
990.694180	0.996528
990.990244	0.996335
991.286271	0.997724
991.582262	0.997420
991.878217	0.998080
992.174136	0.998869
992.470019	0.998957
992.765865	0.996836
993.061676	0.998381
993.357450	0.997010
993.653188	0.995525
993.948890	0.997184
994.244556	0.997853
994.540186	0.997001
994.835780	0.996656
995.131337	0.997781
995.426859	0.997409
995.722345	0.997958
996.017795	0.997029
996.313208	0.996545
996.608586	0.995829
996.903928	0.997191
997.199234	0.995011
997.494504	0.997402
997.789738	0.995251
998.084936	0.995998
998.380099	0.997607
998.675225	0.998468
998.970316	0.997760
999.265371	0.997971
999.560390	0.996982
999.855373	0.998321
1000.150320	0.997874
1000.445232	0.997540
1000.740108	0.998192
1001.034948	0.998140
1001.329752	0.998603
1001.624521	0.998496
1001.919254	0.999129
1002.213951	0.999212
1002.508613	0.999421
1002.803239	0.998879
1003.097829	0.998943
1003.392384	0.998359
1003.686903	0.998551
1003.981386	0.999258
1004.275834	0.999128
1004.570246	0.998508
1004.864623	0.999109
1005.158964	0.999891
1005.453270	0.997610
1005.747540	0.997753
1006.041775	0.998481
1006.335974	0.998749
1006.630138	0.999241
1006.924266	0.999814
1007.218359	0.999532
1007.512416	0.999108
1007.806438	0.999516
1008.100425	0.998734
1008.394376	0.999271
1008.688292	0.998688
1008.982172	1.000430
1009.276017	0.999143
1009.569827	0.998713
1009.863602	0.998152
1010.157341	0.999525
1010.451045	0.999115
1010.744714	0.999000
1011.038347	0.997839
1011.331945	0.998920
1011.625508	0.997233
1011.919036	0.998491
1012.212528	0.997021
1012.505986	0.997549
1012.799408	0.999666
1013.092795	0.999414
1013.386147	0.999020
1013.679464	0.998648
1013.972745	0.997918
1014.265992	0.997812
1014.559204	0.998050
1014.852380	0.998423
1015.145521	0.997373
1015.438628	0.999271
1015.731699	0.999721
1016.024736	0.998491
1016.317737	0.999392
1016.610703	0.998171
1016.903635	1.000015
1017.196531	0.998531
1017.489393	0.999557
1017.782219	0.999002
1018.075011	0.998906
1018.367768	0.998139
1018.660490	0.999268
1018.953177	0.999268
1019.245829	0.999268
