Dividing Wavelength (nm)	Counts (n)	Blue Motor Position (mm): 0.000000	Red Motor Position (mm): 40.100000	
326.493990	1.001114
326.888308	1.001114
327.282561	1.001114
327.676750	0.999051
328.070874	0.998870
328.464933	0.999776
328.858929	0.999502
329.252859	0.998607
329.646726	0.998022
330.040528	1.000354
330.434265	0.999385
330.827938	1.000346
331.221547	1.000762
331.615091	0.999547
332.008571	0.999820
332.401986	0.999239
332.795338	1.000149
333.188625	0.998064
333.581847	1.000242
333.975006	0.998769
334.368100	1.000028
334.761129	0.998934
335.154095	1.001417
335.546996	0.998922
335.939833	0.996622
336.332606	0.996737
336.725315	0.997278
337.117960	0.997905
337.510540	0.997273
337.903056	0.997636
338.295508	0.996686
338.687896	0.997321
339.080220	0.996835
339.472480	0.996373
339.864676	0.997745
340.256807	0.997301
340.648875	0.998394
341.040879	0.996643
341.432818	0.997287
341.824694	0.998054
342.216506	0.998278
342.608253	0.997838
342.999937	0.998084
343.391557	0.996669
343.783113	0.997323
344.174605	0.996870
344.566033	0.998238
344.957397	0.996403
345.348697	0.996901
345.739934	0.997065
346.131106	0.997780
346.522215	0.997848
346.913260	0.997905
347.304241	0.997947
347.695159	0.997179
348.086012	0.996258
348.476802	0.997471
348.867528	0.996853
349.258191	0.995960
349.648789	0.997232
350.039324	0.996853
350.429796	0.998179
350.820203	0.998008
351.210548	0.997624
351.600828	0.997800
351.991045	0.996359
352.381198	0.996487
352.771288	0.997569
353.161314	0.997022
353.551276	0.998444
353.941175	0.997730
354.331010	0.996849
354.720782	0.998873
355.110490	0.996670
355.500135	0.997147
355.889717	0.996777
356.279235	0.997026
356.668689	0.997074
357.058080	0.997390
357.447408	0.997772
357.836672	0.997567
358.225873	0.997648
358.615010	0.997834
359.004084	0.997417
359.393095	0.997775
359.782043	0.997426
360.170927	0.998562
360.559748	0.997694
360.948505	0.996666
361.337199	0.996783
361.725830	0.997648
362.114398	0.996612
362.502903	0.998285
362.891344	0.996840
363.279722	0.997465
363.668037	0.997639
364.056289	0.997451
364.444478	0.998002
364.832603	0.998402
365.220665	0.997818
365.608665	0.998085
365.996601	0.997988
366.384474	0.997270
366.772284	0.998217
367.160031	0.996197
367.547715	0.996550
367.935336	0.997632
368.322893	0.997206
368.710388	0.996980
369.097820	0.997367
369.485189	0.996812
369.872495	0.997608
370.259738	0.996267
370.646918	0.998504
371.034035	0.998480
371.421090	0.997191
371.808081	0.997034
372.195010	0.997632
372.581875	0.997824
372.968678	0.997722
373.355418	0.997979
373.742096	0.996695
374.128710	0.998227
374.515262	0.997874
374.901751	0.998450
375.288177	0.998419
375.674540	0.998345
376.060841	0.997348
376.447079	0.997568
376.833254	0.997756
377.219367	0.997590
377.605417	0.998497
377.991404	0.997558
378.377329	0.997053
378.763191	0.997899
379.148991	0.997860
379.534727	0.999139
379.920402	0.998789
380.306013	0.997749
380.691563	0.998711
381.077049	0.998082
381.462474	0.998195
381.847835	0.998035
382.233134	0.997553
382.618371	0.998327
383.003545	0.997326
383.388657	0.997200
383.773706	0.997425
384.158693	0.998342
384.543618	0.997662
384.928480	0.999389
385.313280	0.997860
385.698017	0.998561
386.082692	0.998490
386.467305	0.998856
386.851856	0.998676
387.236344	0.997529
387.620770	0.997283
388.005133	0.998112
388.389435	0.999388
388.773674	0.998719
389.157851	0.998746
389.541965	0.998078
389.926018	0.997613
390.310008	1.000649
390.693936	0.998360
391.077802	0.999240
391.461606	0.998225
391.845348	0.998913
392.229027	0.999301
392.612645	0.999320
392.996200	1.000315
393.379694	0.999193
393.763125	0.999166
394.146494	0.998915
394.529801	0.998780
394.913047	0.999607
395.296230	0.999004
395.679351	0.998377
396.062410	0.999584
396.445408	0.999117
396.828343	0.998670
397.211217	0.998585
397.594028	0.998805
397.976778	0.998499
398.359466	0.999138
398.742092	0.999040
399.124656	0.998201
399.507158	0.999115
399.889598	0.998707
400.271977	0.999448
400.654294	0.999589
401.036549	1.000365
401.418742	0.999342
401.800874	0.999218
402.182944	1.000003
402.564952	0.997962
402.946898	1.000003
403.328783	0.999817
403.710606	0.999239
404.092367	0.999363
404.474067	0.999425
404.855705	0.999437
405.237282	0.999260
405.618797	0.999628
406.000250	0.998259
406.381642	0.998863
406.762972	0.999326
407.144240	1.000819
407.525447	0.999371
407.906593	0.999803
408.287677	0.998889
408.668700	0.999340
409.049661	0.998176
409.430560	1.000214
409.811399	0.998822
410.192176	0.999141
410.572891	0.998967
410.953545	0.998395
411.334138	0.998581
411.714669	0.999655
412.095139	0.998554
412.475547	1.000251
412.855894	0.999449
413.236180	0.999190
413.616405	0.999546
413.996568	1.000586
414.376670	0.998563
414.756711	0.999376
415.136691	0.999847
415.516609	0.999003
415.896466	0.999079
416.276262	0.998996
416.655997	0.999935
417.035670	0.999069
417.415283	0.998176
417.794834	0.999156
418.174324	0.999342
418.553753	0.999101
418.933121	0.999142
419.312428	0.998625
419.691674	0.999299
420.070859	0.999202
420.449983	0.999685
420.829045	0.999388
421.208047	1.000207
421.586988	1.000483
421.965867	0.998955
422.344686	1.000162
422.723444	0.999240
423.102141	0.999270
423.480777	0.999720
423.859352	0.998654
424.237866	0.999283
424.616319	0.998757
424.994712	0.999178
425.373044	1.000204
425.751314	1.000446
426.129524	0.999286
426.507673	0.999162
426.885762	1.000884
427.263789	0.999366
427.641756	1.000505
428.019662	1.000015
428.397508	0.998536
428.775292	0.998404
429.153016	0.999641
429.530679	1.000029
429.908282	0.999567
430.285824	0.999564
430.663305	0.999162
431.040726	0.999617
431.418086	1.000563
431.795385	1.000281
432.172624	1.000053
432.549802	0.999081
432.926920	0.999453
433.303977	0.998810
433.680974	1.000177
434.057910	0.999470
434.434786	0.999891
434.811601	0.999070
435.188355	0.999829
435.565050	0.998503
435.941683	0.999386
436.318257	1.000275
436.694770	0.998737
437.071222	0.999930
437.447614	0.999659
437.823946	0.999208
438.200218	0.999880
438.576429	0.999712
438.952580	1.000104
439.328670	0.998991
439.704700	0.999958
440.080670	0.999476
440.456580	0.999275
440.832429	0.998438
441.208218	0.999783
441.583947	1.000124
441.959616	1.000354
442.335224	0.998790
442.710773	0.999913
443.086261	0.999691
443.461689	0.999390
443.837057	0.998996
444.212365	0.999645
444.587612	0.999104
444.962800	0.999733
445.337927	0.999797
445.712995	0.999573
446.088002	1.000791
446.462949	0.999076
446.837837	0.999521
447.212664	0.999672
447.587431	0.999474
447.962139	0.999881
448.336786	0.999478
448.711374	0.999465
449.085901	0.999034
449.460369	1.000155
449.834776	0.999645
450.209124	1.000051
450.583412	0.999995
450.957640	0.999891
451.331808	0.999413
451.705917	0.999248
452.079965	0.999307
452.453954	0.999600
452.827883	0.999489
453.201752	1.000654
453.575562	1.000697
453.949311	0.999926
454.323001	0.999842
454.696632	0.999473
455.070202	0.999886
455.443713	0.999145
455.817164	1.000384
456.190556	0.999614
456.563888	0.999296
456.937160	0.999854
457.310373	0.999483
457.683526	0.999718
458.056619	0.999894
458.429653	1.000716
458.802628	0.999550
459.175542	0.999685
459.548398	0.999405
459.921194	0.999416
460.293930	0.999682
460.666607	0.999177
461.039224	0.998411
461.411782	0.999514
461.784280	0.998725
462.156719	1.000668
462.529099	1.000086
462.901419	0.999818
463.273680	0.999472
463.645882	0.999198
464.018024	0.999545
464.390106	0.999422
464.762130	0.999963
465.134094	0.999561
465.505999	1.000289
465.877845	0.999974
466.249631	1.000194
466.621358	0.999671
466.993026	0.999908
467.364634	0.999868
467.736184	1.000922
468.107674	1.000038
468.479105	0.999379
468.850477	1.000230
469.221790	0.999699
469.593043	0.999584
469.964238	1.000676
470.335373	0.999275
470.706449	1.000137
471.077467	1.000209
471.448425	1.000167
471.819324	1.001350
472.190164	0.999601
472.560945	1.000027
472.931667	0.999218
473.302330	0.999261
473.672934	1.000596
474.043479	0.999930
474.413965	0.999876
474.784393	0.999976
475.154761	1.000123
475.525070	0.998960
475.895321	1.000668
476.265513	0.999604
476.635645	0.999485
477.005719	0.999375
477.375734	0.999191
477.745691	1.000353
478.115588	0.999878
478.485427	1.000231
478.855207	1.000087
479.224928	0.999930
479.594591	0.999932
479.964194	1.000105
480.333739	1.000301
480.703226	1.000038
481.072653	1.000516
481.442022	1.000068
481.811333	0.999734
482.180584	1.000587
482.549777	0.999413
482.918912	1.000200
483.287988	0.999803
483.657005	0.999443
484.025964	1.000569
484.394864	1.000043
484.763706	1.000490
485.132489	1.000757
485.501213	1.000225
485.869879	1.000246
486.238487	1.000535
486.607036	1.000108
486.975527	0.999444
487.343959	0.999941
487.712333	0.999492
488.080648	1.000123
488.448905	1.000061
488.817104	1.000194
489.185244	1.000023
489.553326	0.999992
489.921350	0.999435
490.289315	1.000192
490.657222	1.000231
491.025070	1.000130
491.392861	1.000422
491.760593	0.999801
492.128267	0.999875
492.495883	1.000044
492.863440	1.000081
493.230939	1.000432
493.598380	1.000427
493.965763	1.000199
494.333088	0.999913
494.700354	0.999713
495.067563	0.999842
495.434713	0.999542
495.801805	1.000391
496.168839	0.999678
496.535815	0.999274
496.902733	0.999424
497.269593	0.999177
497.636395	0.999915
498.003139	1.000131
498.369825	1.000261
498.736453	0.999052
499.103023	0.999031
499.469535	0.998942
499.835989	0.999361
500.202385	0.999740
500.568723	1.000339
500.935003	0.999685
501.301226	0.999793
501.667390	0.999559
502.033497	1.000314
502.399546	1.000210
502.765537	0.999163
503.131470	0.999769
503.497345	0.999726
503.863163	1.001103
504.228923	0.999660
504.594625	1.000270
504.960269	1.000170
505.325856	0.999562
505.691385	0.999620
506.056856	0.999661
506.422270	1.000092
506.787625	1.000135
507.152924	0.999939
507.518164	0.999654
507.883347	1.000099
508.248472	0.998948
508.613540	0.999786
508.978550	1.000426
509.343503	0.999438
509.708398	0.999470
510.073236	0.999931
510.438016	0.999754
510.802738	1.000087
511.167403	0.999980
511.532010	0.999714
511.896561	0.999500
512.261053	1.000725
512.625488	0.999247
512.989866	0.999948
513.354186	0.999554
513.718449	0.999310
514.082655	0.999926
514.446803	0.999315
514.810894	0.999659
515.174927	0.999266
515.538904	0.999416
515.902822	0.999464
516.266684	0.999894
516.630488	1.000054
516.994235	0.999059
517.357925	0.999402
517.721558	0.999451
518.085133	0.999579
518.448651	1.000457
518.812112	0.999507
519.175516	0.999507
519.538863	0.999341
519.902152	0.999296
520.265385	0.999243
520.628560	0.999520
520.991678	0.999241
521.354739	0.999613
521.717743	0.999065
522.080690	0.999479
522.443580	0.999126
522.806413	0.999306
523.169189	0.998992
523.531908	0.998954
523.894569	0.999188
524.257174	0.999527
524.619722	0.999165
524.982213	0.998733
525.344647	0.999684
525.707025	0.998351
526.069345	0.998355
526.431608	0.998610
526.793815	0.999206
527.155964	0.998515
527.518057	0.999215
527.880093	0.999162
528.242072	0.999035
528.603995	0.998349
528.965860	0.999410
529.327669	0.998543
529.689421	0.998269
530.051117	0.999050
530.412755	0.998575
530.774337	0.999041
531.135862	0.999008
531.497331	0.998780
531.858743	0.998898
532.220098	0.998962
532.581396	0.999135
532.942638	0.999481
533.303824	0.998591
533.664953	0.998179
534.026025	0.998719
534.387040	0.997830
534.747999	0.998723
535.108902	0.998820
535.469748	0.998126
535.830537	0.998435
536.191270	0.998795
536.551947	0.997885
536.912567	0.998258
537.273131	0.998743
537.633638	0.997542
537.994089	0.997869
538.354483	0.997997
538.714821	0.998324
539.075103	0.997655
539.435328	0.998185
539.795497	0.998182
540.155609	0.997413
540.515665	0.997825
540.875665	0.997954
541.235609	0.998432
541.595496	0.997674
541.955328	0.997029
542.315102	0.997572
542.674821	0.998379
543.034483	0.997314
543.394090	0.997544
543.753640	0.998669
544.113134	0.998255
544.472571	0.998205
544.831953	0.998530
545.191278	0.997310
545.550548	0.998180
545.909761	0.997398
546.268918	0.998253
546.628019	0.997989
546.987064	0.997437
547.346053	0.997944
547.704986	0.998197
548.063863	0.997860
548.422684	0.997636
548.781449	0.998388
549.140158	0.997075
549.498811	0.997788
549.857408	0.997436
550.215949	0.997622
550.574434	0.997291
550.932864	0.997821
551.291237	0.998025
551.649555	0.997284
552.007817	0.996954
552.366022	0.997273
552.724173	0.997314
553.082267	0.997650
553.440305	0.996850
553.798288	0.997791
554.156215	0.997172
554.514086	0.997137
554.871902	0.997347
555.229661	0.996875
555.587365	0.997359
555.945014	0.997318
556.302606	0.996648
556.660143	0.997516
557.017625	0.996745
557.375050	0.996375
557.732421	0.996761
558.089735	0.997155
558.446994	0.996482
558.804197	0.996573
559.161345	0.996853
559.518437	0.997919
559.875474	0.995469
560.232455	0.996372
560.589381	0.996062
560.946251	0.995913
561.303065	0.996264
561.659825	0.996345
562.016528	0.995646
562.373177	0.995350
562.729770	0.995503
563.086307	0.995455
563.442789	0.995695
563.799216	0.994754
564.155587	0.994527
564.511904	0.994475
564.868164	0.994464
565.224370	0.994408
565.580520	0.994504
565.936615	0.993995
566.292654	0.994373
566.648638	0.994384
567.004567	0.993006
567.360441	0.994235
567.716260	0.993881
568.072023	0.993781
568.427732	0.993021
568.783385	0.994124
569.138982	0.993120
569.494525	0.992193
569.850013	0.992262
570.205445	0.992385
570.560823	0.992298
570.916145	0.992182
571.271412	0.991381
571.626625	0.991285
571.981782	0.990591
572.336884	0.991449
572.691931	0.990805
573.046923	0.989687
573.401860	0.990212
573.756743	0.989680
574.111570	0.989655
574.466342	0.989312
574.821059	0.989260
575.175722	0.988501
575.530330	0.988425
575.884882	0.988338
576.239380	0.987719
576.593823	0.986904
576.948211	0.986726
577.302544	0.986755
577.656823	0.985448
578.011047	0.986172
578.365216	0.985228
578.719330	0.984436
579.073389	0.984326
579.427394	0.984232
579.781344	0.983382
580.135239	0.982890
580.489080	0.982088
580.842866	0.981677
581.196597	0.980841
581.550273	0.979137
581.903895	0.979660
582.257463	0.978801
582.610975	0.977988
582.964434	0.977054
583.317837	0.977334
583.671186	0.976440
584.024481	0.975592
584.377721	0.975025
584.730906	0.974687
585.084037	0.973129
585.437113	0.973259
585.790135	0.972697
586.143103	0.971111
586.496016	0.971161
586.848874	0.969901
587.201679	0.968793
587.554428	0.967178
587.907124	0.966129
588.259765	0.966045
588.612352	0.965194
588.964884	0.964912
589.317362	0.963218
589.669786	0.961997
590.022155	0.961347
590.374470	0.959185
590.726731	0.958974
591.078937	0.957459
591.431090	0.955961
591.783188	0.955815
592.135232	0.954198
592.487222	0.954226
592.839157	0.952194
593.191038	0.951830
593.542866	0.950605
593.894639	0.950085
594.246358	0.948174
594.598022	0.946400
594.949633	0.945657
595.301190	0.944267
595.652692	0.943536
596.004141	0.941285
596.355535	0.940526
596.706876	0.938998
597.058162	0.937803
597.409395	0.936234
597.760573	0.934833
598.111698	0.933547
598.462768	0.931463
598.813785	0.931011
599.164748	0.928987
599.515657	0.927706
599.866511	0.925441
600.217312	0.924256
600.568060	0.922566
600.918753	0.921164
601.269392	0.919083
601.619978	0.917534
601.970510	0.915907
602.320988	0.915274
602.671412	0.911967
603.021783	0.911546
603.372100	0.910046
603.722363	0.906951
604.072572	0.906068
604.422728	0.903523
604.772830	0.901418
605.122878	0.900049
605.472872	0.899583
605.822813	0.895563
606.172701	0.894511
606.522534	0.892614
606.872314	0.890454
607.222041	0.888246
607.571714	0.886149
607.921333	0.884042
608.270899	0.881883
608.620411	0.879598
608.969870	0.877917
609.319276	0.875869
609.668627	0.873967
610.017926	0.870932
610.367171	0.867778
610.716362	0.866860
611.065500	0.863584
611.414585	0.861250
611.763616	0.859827
612.112594	0.856997
612.461518	0.854202
612.810389	0.852035
613.159207	0.849760
613.507971	0.848444
613.856682	0.845205
614.205340	0.842878
614.553945	0.839063
614.902496	0.837985
615.250994	0.834723
615.599439	0.833208
615.947830	0.829325
616.296169	0.827555
616.644454	0.824907
616.992686	0.821982
617.340864	0.818155
617.688990	0.817478
618.037063	0.814358
618.385082	0.812140
618.733048	0.807377
619.080961	0.805773
619.428821	0.804220
619.776628	0.800401
620.124382	0.798847
620.472083	0.795822
620.819731	0.794028
621.167326	0.792041
621.514868	0.789852
621.862357	0.788878
622.209793	0.787163
622.557176	0.784505
622.904506	0.783498
623.251783	0.781440
623.599007	0.780100
623.946179	0.778001
624.293297	0.775392
624.640363	0.774923
624.987376	0.772730
625.334336	0.772409
625.681243	0.768809
626.028097	0.767780
626.374899	0.765966
626.721647	0.762935
627.068343	0.762087
627.414987	0.759288
627.761577	0.757414
628.108115	0.754858
628.454600	0.754599
628.801032	0.749814
629.147412	0.749044
629.493739	0.746298
629.840014	0.745013
630.186236	0.741928
630.532405	0.741154
630.878521	0.737901
631.224585	0.736179
631.570597	0.736156
631.916556	0.731679
632.262462	0.730355
632.608316	0.728423
632.954117	0.726988
633.299866	0.724999
633.645562	0.721566
633.991206	0.722362
634.336797	0.721691
634.682336	0.719300
635.027823	0.717467
635.373257	0.716075
635.718639	0.714998
636.063968	0.712043
636.409245	0.712641
636.754470	0.710355
637.099642	0.709732
637.444762	0.708116
637.789829	0.705534
638.134845	0.704939
638.479808	0.702777
638.824719	0.701139
639.169577	0.700854
639.514383	0.697908
639.859137	0.697263
640.203839	0.696159
640.548489	0.692592
640.893086	0.692375
641.237632	0.690741
641.582125	0.687335
641.926566	0.685825
642.270955	0.683835
642.615292	0.682301
642.959576	0.678796
643.303809	0.677715
643.647990	0.674864
643.992118	0.672978
644.336195	0.673873
644.680219	0.669679
645.024192	0.669014
645.368112	0.662512
645.711981	0.660455
646.055797	0.656495
646.399562	0.655702
646.743274	0.647887
647.086935	0.645451
647.430544	0.643392
647.774101	0.640573
648.117606	0.638824
648.461059	0.636537
648.804460	0.635975
649.147810	0.637572
649.491108	0.635796
649.834354	0.634185
650.177548	0.635738
650.520690	0.636344
650.863781	0.635534
651.206820	0.632974
651.549807	0.633579
651.892742	0.633882
652.235626	0.631584
652.578458	0.630570
652.921238	0.632225
653.263967	0.629516
653.606644	0.630687
653.949269	0.627487
654.291843	0.629184
654.634365	0.625076
654.976836	0.624472
655.319255	0.623594
655.661622	0.623316
656.003938	0.620579
656.346203	0.622000
656.688416	0.617493
657.030577	0.618397
657.372687	0.618140
657.714746	0.616787
658.056753	0.613560
658.398708	0.614374
658.740612	0.613150
659.082465	0.609457
659.424266	0.608167
659.766016	0.605233
660.107715	0.605323
660.449362	0.603409
660.790958	0.602044
661.132503	0.600472
661.473996	0.597131
661.815438	0.596545
662.156829	0.595315
662.498168	0.593722
662.839456	0.593596
663.180693	0.590565
663.521879	0.588599
663.863013	0.588390
664.204097	0.584984
664.545129	0.581637
664.886110	0.580218
665.227040	0.575854
665.567918	0.577686
665.908746	0.574314
666.249522	0.572937
666.590248	0.572686
666.930922	0.570489
667.271545	0.567509
667.612118	0.566146
667.952639	0.566370
668.293109	0.562760
668.633528	0.563739
668.973896	0.562592
669.314213	0.560791
669.654480	0.560742
669.994695	0.559642
670.334859	0.558480
670.674973	0.557389
671.015035	0.557257
671.355047	0.554608
671.695008	0.555212
672.034918	0.555392
672.374777	0.553799
672.714585	0.553030
673.054342	0.552602
673.394049	0.551673
673.733705	0.547956
674.073310	0.547996
674.412864	0.550078
674.752368	0.548772
675.091820	0.547225
675.431223	0.550044
675.770574	0.547696
676.109875	0.550019
676.449125	0.547129
676.788324	0.548869
677.127473	0.552501
677.466571	0.551050
677.805619	0.550666
678.144616	0.550301
678.483562	0.550322
678.822458	0.551497
679.161303	0.551825
679.500098	0.550152
679.838842	0.552027
680.177535	0.550630
680.516179	0.548071
680.854771	0.546189
681.193314	0.540044
681.531805	0.532657
681.870247	0.521772
682.208638	0.515816
682.546978	0.513938
682.885268	0.513650
683.223508	0.517731
683.561697	0.519479
683.899836	0.521037
684.237925	0.523334
684.575963	0.524661
684.913951	0.527240
685.251889	0.521741
685.589776	0.524202
685.927614	0.525936
686.265401	0.520125
686.603137	0.521243
686.940824	0.515133
687.278460	0.513774
687.616046	0.513133
687.953582	0.507850
688.291068	0.509078
688.628504	0.504684
688.965889	0.506332
689.303224	0.508544
689.640510	0.510743
689.977745	0.514629
690.314930	0.520710
690.652065	0.522826
690.989150	0.529048
691.326185	0.533443
691.663170	0.536287
692.000105	0.541575
692.336990	0.547066
692.673825	0.547897
693.010610	0.553594
693.347345	0.557757
693.684030	0.558418
694.020665	0.561778
694.357251	0.569558
694.693786	0.568469
695.030272	0.571592
695.366707	0.573725
695.703093	0.576899
696.039429	0.573747
696.375716	0.574399
696.711952	0.576990
697.048139	0.578272
697.384276	0.580166
697.720363	0.578222
698.056400	0.577359
698.392388	0.581329
698.728326	0.583722
699.064214	0.586266
699.400053	0.585696
699.735842	0.589022
700.071581	0.590681
700.407270	0.592620
700.742910	0.594662
701.078501	0.600444
701.414042	0.599354
701.749533	0.602073
702.084974	0.610639
702.420366	0.601691
702.755709	0.609130
703.091002	0.615703
703.426246	0.609391
703.761440	0.614099
704.096584	0.618767
704.431679	0.614972
704.766725	0.616974
705.101721	0.618542
705.436668	0.613850
705.771565	0.620498
706.106413	0.617291
706.441212	0.612277
706.775961	0.610156
707.110661	0.613462
707.445311	0.609115
707.779913	0.606272
708.114465	0.604542
708.448967	0.601884
708.783421	0.593900
709.117825	0.588445
709.452180	0.588623
709.786485	0.582848
710.120742	0.572451
710.454949	0.575460
710.789107	0.568003
711.123216	0.559631
711.457275	0.561330
711.791286	0.553376
712.125247	0.551535
712.459159	0.562403
712.793023	0.555118
713.126837	0.557784
713.460602	0.558042
713.794318	0.566335
714.127985	0.564840
714.461602	0.573544
714.795171	0.576216
715.128691	0.583206
715.462162	0.589164
715.795584	0.594430
716.128957	0.596767
716.462281	0.602861
716.795556	0.606037
717.128782	0.610312
717.461960	0.619753
717.795088	0.617788
718.128167	0.623637
718.461198	0.631792
718.794180	0.632304
719.127113	0.634642
719.459997	0.637602
719.792833	0.643725
720.125619	0.644430
720.458357	0.650614
720.791046	0.649776
721.123686	0.651765
721.456278	0.659302
721.788821	0.656721
722.121315	0.660963
722.453761	0.664745
722.786158	0.662671
723.118506	0.658732
723.450805	0.666509
723.783056	0.662703
724.115259	0.658854
724.447412	0.659217
724.779518	0.660623
725.111574	0.659397
725.443582	0.653636
725.775542	0.656399
726.107453	0.649517
726.439315	0.648324
726.771129	0.647127
727.102895	0.640877
727.434612	0.634613
727.766281	0.631657
728.097901	0.631257
728.429473	0.631350
728.760996	0.629402
729.092471	0.629250
729.423897	0.632643
729.755276	0.632571
730.086606	0.632126
730.417887	0.626108
730.749120	0.617069
731.080305	0.608567
731.411442	0.604004
731.742530	0.608698
732.073570	0.607266
732.404562	0.600338
732.735506	0.601794
733.066401	0.606790
733.397249	0.615283
733.728048	0.625606
734.058798	0.637650
734.389501	0.647713
734.720156	0.657360
735.050762	0.665711
735.381320	0.664963
735.711831	0.675058
736.042293	0.680501
736.372707	0.674807
736.703073	0.679321
737.033391	0.681836
737.363661	0.678587
737.693883	0.673814
738.024056	0.672640
738.354182	0.673322
738.684260	0.662131
739.014290	0.659075
739.344272	0.659628
739.674207	0.653788
740.004093	0.652879
740.333931	0.653764
740.663722	0.653715
740.993464	0.653622
741.323159	0.657854
741.652806	0.662422
741.982405	0.666434
742.311956	0.671468
742.641460	0.673236
742.970915	0.676336
743.300323	0.682984
743.629683	0.691009
743.958996	0.692604
744.288260	0.696371
744.617477	0.701880
744.946647	0.703221
745.275768	0.708744
745.604842	0.708414
745.933869	0.718183
746.262847	0.718606
746.591778	0.712161
746.920662	0.718587
747.249498	0.725191
747.578286	0.715379
747.907027	0.712346
748.235720	0.713806
748.564365	0.707905
748.892963	0.707453
749.221514	0.710379
749.550017	0.716328
749.878473	0.715526
750.206881	0.721089
750.535242	0.723215
750.863555	0.722384
751.191821	0.722970
751.520039	0.726556
751.848210	0.731511
752.176334	0.724159
752.504411	0.723363
752.832440	0.730176
753.160421	0.735912
753.488356	0.732955
753.816243	0.730739
754.144082	0.739178
754.471875	0.742811
754.799620	0.737812
755.127318	0.739155
755.454969	0.739336
755.782572	0.737977
756.110129	0.742738
756.437638	0.746268
756.765100	0.742352
757.092515	0.740230
757.419882	0.739328
757.747203	0.744692
758.074477	0.744687
758.401703	0.740613
758.728882	0.736571
759.056014	0.735315
759.383099	0.734413
759.710138	0.736005
760.037129	0.731730
760.364073	0.726578
760.690970	0.728667
761.017820	0.734326
761.344623	0.729048
761.671379	0.720274
761.998088	0.709624
762.324751	0.687028
762.651366	0.646409
762.977935	0.580226
763.304456	0.529171
763.630931	0.519711
763.957359	0.558643
764.283740	0.602277
764.610074	0.628389
764.936362	0.658029
765.262602	0.685489
765.588796	0.706381
765.914943	0.724558
766.241044	0.741265
766.567097	0.748169
766.893104	0.756918
767.219064	0.763417
767.544978	0.769602
767.870845	0.782770
768.196665	0.786876
768.522438	0.784309
768.848165	0.786107
769.173846	0.795003
769.499479	0.799334
769.825066	0.802323
770.150607	0.807733
770.476101	0.802383
770.801548	0.803772
771.126949	0.814519
771.452303	0.818669
771.777611	0.818274
772.102872	0.817489
772.428087	0.822463
772.753256	0.825482
773.078378	0.828015
773.403453	0.836280
773.728482	0.840558
774.053465	0.834018
774.378401	0.837441
774.703291	0.845555
775.028135	0.845782
775.352932	0.848245
775.677683	0.850499
776.002388	0.851260
776.327046	0.849265
776.651658	0.852943
776.976224	0.856040
777.300743	0.857298
777.625216	0.858673
777.949643	0.861349
778.274024	0.861756
778.598359	0.862830
778.922647	0.860864
779.246889	0.861722
779.571086	0.866450
779.895236	0.868392
780.219339	0.863977
780.543397	0.861750
780.867409	0.860675
781.191374	0.862477
781.515294	0.863975
781.839167	0.862746
782.162995	0.867038
782.486776	0.863130
782.810511	0.864449
783.134201	0.867965
783.457844	0.865174
783.781441	0.867823
784.104993	0.874615
784.428498	0.873824
784.751958	0.869946
785.075372	0.872590
785.398739	0.876679
785.722061	0.873053
786.045337	0.867609
786.368568	0.873886
786.691752	0.875958
787.014891	0.859599
787.337983	0.852834
787.661030	0.845711
787.984031	0.828104
788.306987	0.815028
788.629897	0.818244
788.952760	0.821359
789.275579	0.825631
789.598351	0.840473
789.921078	0.853748
790.243759	0.854729
790.566395	0.860603
790.888984	0.867740
791.211529	0.872698
791.534027	0.875304
791.856480	0.877408
792.178888	0.882597
792.501249	0.885485
792.823566	0.887256
793.145836	0.885286
793.468062	0.887692
793.790241	0.888787
794.112375	0.886052
794.434464	0.882054
794.756507	0.880887
795.078505	0.881295
795.400457	0.875318
795.722364	0.863695
796.044226	0.857433
796.366042	0.856181
796.687812	0.860019
797.009538	0.855180
797.331218	0.858794
797.652852	0.862369
797.974442	0.868745
798.295986	0.868194
798.617484	0.870543
798.938938	0.874529
799.260346	0.878964
799.581709	0.881827
799.903026	0.883882
800.224299	0.883904
800.545526	0.888025
800.866708	0.892747
801.187845	0.896189
801.508936	0.895842
801.829983	0.893651
802.150984	0.896347
802.471940	0.901375
802.792851	0.900240
803.113717	0.901786
803.434538	0.898952
803.755314	0.901785
804.076045	0.903619
804.396731	0.902661
804.717372	0.903066
805.037967	0.904819
805.358518	0.902780
805.679024	0.900673
805.999485	0.900102
806.319901	0.900501
806.640272	0.901865
806.960598	0.900558
807.280879	0.897282
807.601115	0.894908
807.921306	0.899467
808.241453	0.899672
808.561554	0.898024
808.881611	0.898279
809.201623	0.899503
809.521590	0.899585
809.841513	0.900315
810.161390	0.899460
810.481223	0.902132
810.801011	0.904819
811.120755	0.905354
811.440453	0.905056
811.760107	0.903500
812.079716	0.903839
812.399281	0.907658
812.718801	0.909582
813.038276	0.910824
813.357707	0.909677
813.677093	0.906544
813.996434	0.910746
814.315731	0.910882
814.634983	0.912973
814.954191	0.911867
815.273354	0.908552
815.592473	0.903773
815.911547	0.905363
816.230577	0.902281
816.549562	0.899383
816.868502	0.900860
817.187399	0.897588
817.506250	0.891413
817.825058	0.894617
818.143821	0.890274
818.462539	0.885556
818.781213	0.877427
819.099843	0.867195
819.418429	0.850647
819.736970	0.834928
820.055466	0.816031
820.373919	0.790880
820.692327	0.758588
821.010691	0.725140
821.329011	0.649627
821.647286	0.537830
821.965517	0.425782
822.283704	0.383913
822.601847	0.386058
822.919945	0.420998
823.237999	0.453401
823.556010	0.498609
823.873976	0.553263
824.191897	0.602826
824.509775	0.644539
824.827609	0.688685
825.145398	0.711024
825.463144	0.712939
825.780845	0.696494
826.098502	0.678004
826.416116	0.633986
826.733685	0.590864
827.051210	0.582803
827.368692	0.596163
827.686129	0.633541
828.003522	0.685317
828.320872	0.730935
828.638177	0.773642
828.955439	0.805882
829.272656	0.827272
829.589830	0.844613
829.906960	0.860413
830.224046	0.871597
830.541088	0.881454
830.858086	0.885457
831.175041	0.892923
831.491952	0.891469
831.808819	0.886732
832.125642	0.881632
832.442421	0.866608
832.759157	0.845926
833.075849	0.800545
833.392497	0.738853
833.709101	0.698469
834.025662	0.708487
834.342179	0.738845
834.658653	0.777511
834.975083	0.811979
835.291469	0.838994
835.607811	0.859583
835.924110	0.876044
836.240366	0.892421
836.556578	0.905772
836.872746	0.913076
837.188871	0.919185
837.504952	0.924558
837.820990	0.926759
838.136984	0.930085
838.452935	0.933818
838.768842	0.935501
839.084706	0.928853
839.400526	0.902883
839.716303	0.864851
840.032037	0.842348
840.347727	0.845618
840.663373	0.863940
840.978977	0.883853
841.294537	0.906872
841.610054	0.922158
841.925527	0.929773
842.240957	0.936963
842.556344	0.943939
842.871687	0.949335
843.186987	0.952440
843.502244	0.952843
843.817458	0.955549
844.132629	0.958700
844.447756	0.963218
844.762840	0.963065
845.077881	0.962712
845.392879	0.962647
845.707833	0.965685
846.022745	0.966650
846.337613	0.967401
846.652438	0.969201
846.967221	0.968168
847.281960	0.968058
847.596656	0.970140
847.911309	0.968369
848.225919	0.970842
848.540485	0.969443
848.855009	0.971882
849.169490	0.970572
849.483928	0.971315
849.798323	0.971900
850.112675	0.972797
850.426984	0.971300
850.741251	0.972715
851.055474	0.971861
851.369654	0.970352
851.683792	0.970736
851.997887	0.972608
852.311938	0.974340
852.625947	0.972400
852.939914	0.970799
853.253837	0.972146
853.567718	0.973050
853.881555	0.972981
854.195350	0.970772
854.509103	0.971797
854.822812	0.972530
855.136479	0.972975
855.450103	0.971055
855.763685	0.972010
856.077224	0.970410
856.390720	0.972446
856.704173	0.973918
857.017584	0.971511
857.330953	0.969851
857.644278	0.970577
857.957561	0.971377
858.270802	0.970838
858.584000	0.969829
858.897155	0.969076
859.210268	0.969783
859.523339	0.970223
859.836367	0.972998
860.149352	0.972925
860.462295	0.971154
860.775195	0.972403
861.088054	0.971985
861.400869	0.971390
861.713642	0.973754
862.026373	0.972360
862.339062	0.974311
862.651708	0.971014
862.964312	0.970682
863.276873	0.971754
863.589392	0.970379
863.901869	0.968124
864.214303	0.967007
864.526696	0.966258
864.839045	0.966829
865.151353	0.964615
865.463619	0.965366
865.775842	0.965919
866.088023	0.965141
866.400162	0.964733
866.712258	0.965349
867.024313	0.965252
867.336325	0.965653
867.648296	0.965744
867.960224	0.964783
868.272110	0.964801
868.583954	0.967501
868.895755	0.966923
869.207515	0.965228
869.519233	0.962863
869.830909	0.964446
870.142542	0.964688
870.454134	0.964942
870.765684	0.965529
871.077191	0.960854
871.388657	0.961803
871.700081	0.961154
872.011463	0.961436
872.322803	0.962382
872.634101	0.959617
872.945357	0.958512
873.256571	0.956438
873.567744	0.957249
873.878874	0.956569
874.189963	0.956644
874.501010	0.955462
874.812015	0.953834
875.122979	0.954260
875.433900	0.956667
875.744780	0.957776
876.055618	0.953923
876.366415	0.952364
876.677169	0.953608
876.987882	0.955042
877.298554	0.955300
877.609183	0.950704
877.919771	0.949048
878.230317	0.946687
878.540822	0.944283
878.851285	0.939664
879.161707	0.932399
879.472087	0.920784
879.782425	0.904811
880.092722	0.872302
880.402977	0.822612
880.713191	0.765076
881.023363	0.708052
881.333494	0.676273
881.643583	0.648569
881.953631	0.647813
882.263637	0.676522
882.573602	0.715681
882.883526	0.739548
883.193408	0.761821
883.503248	0.783163
883.813048	0.809171
884.122806	0.837649
884.432522	0.859909
884.742197	0.878617
885.051831	0.888696
885.361424	0.899342
885.670975	0.910230
885.980485	0.919478
886.289954	0.925931
886.599382	0.929030
886.908768	0.932874
887.218113	0.939300
887.527417	0.943586
887.836680	0.945947
888.145901	0.948621
888.455082	0.950874
888.764221	0.953877
889.073319	0.956389
889.382376	0.955748
889.691392	0.957391
890.000366	0.956836
890.309300	0.959089
890.618193	0.957456
890.927044	0.955823
891.235855	0.955016
891.544625	0.955431
891.853353	0.957409
892.162041	0.953763
892.470687	0.946675
892.779293	0.943331
893.087858	0.939986
893.396381	0.932101
893.704864	0.919651
894.013306	0.896780
894.321707	0.870987
894.630068	0.858477
894.938387	0.854567
895.246665	0.854928
895.554903	0.866137
895.863100	0.878807
896.171256	0.894663
896.479371	0.914651
896.787446	0.926978
897.095480	0.931183
897.403473	0.933836
897.711425	0.937439
898.019336	0.945318
898.327207	0.948049
898.635038	0.949939
898.942827	0.949102
899.250576	0.953260
899.558284	0.956581
899.865952	0.958445
900.173579	0.959194
900.481165	0.959716
900.788711	0.963758
901.096216	0.966274
901.403681	0.965691
901.711105	0.966809
902.018489	0.968382
902.325832	0.966587
902.633135	0.965628
902.940397	0.959390
903.247619	0.948906
903.554800	0.924690
903.861941	0.887385
904.169041	0.854413
904.476101	0.838354
904.783121	0.838790
905.090100	0.854325
905.397039	0.874281
905.703938	0.894804
906.010796	0.913782
906.317614	0.930132
906.624391	0.940041
906.931129	0.948169
907.237826	0.957685
907.544483	0.963241
907.851099	0.966332
908.157675	0.972493
908.464211	0.972534
908.770707	0.976580
909.077163	0.977457
909.383578	0.976714
909.689954	0.977350
909.996289	0.979221
910.302584	0.980604
910.608839	0.982965
910.915054	0.981272
911.221229	0.981563
911.527363	0.980274
911.833458	0.980078
912.139513	0.980487
912.445527	0.978665
912.751502	0.977452
913.057436	0.975263
913.363331	0.974274
913.669186	0.970579
913.975000	0.965169
914.280775	0.959603
914.586510	0.953842
914.892205	0.941597
915.197859	0.921725
915.503475	0.896193
915.809050	0.878344
916.114585	0.873448
916.420081	0.871862
916.725536	0.867352
917.030952	0.874951
917.336328	0.887338
917.641665	0.900235
917.946961	0.915861
918.252218	0.927006
918.557435	0.934809
918.862612	0.943065
919.167750	0.948707
919.472848	0.951433
919.777906	0.957640
920.082925	0.963299
920.387904	0.965736
920.692843	0.968570
920.997743	0.966951
921.302603	0.971017
921.607423	0.972204
921.912204	0.976551
922.216946	0.975954
922.521647	0.976775
922.826310	0.978340
923.130932	0.980994
923.435516	0.981118
923.740059	0.982947
924.044564	0.980810
924.349028	0.983883
924.653454	0.984296
924.957840	0.987102
925.262186	0.987615
925.566493	0.986048
925.870761	0.987692
926.174989	0.988706
926.479178	0.990203
926.783328	0.990187
927.087438	0.990090
927.391509	0.990823
927.695541	0.992015
927.999533	0.991652
928.303486	0.992126
928.607400	0.993798
928.911275	0.991117
929.215110	0.991745
929.518906	0.993294
929.822663	0.992085
930.126381	0.993242
930.430060	0.993000
930.733699	0.992011
931.037299	0.991726
931.340861	0.992959
931.644383	0.991879
931.947866	0.991247
932.251309	0.992040
932.554714	0.992786
932.858080	0.992253
933.161407	0.992589
933.464694	0.993646
933.767943	0.991567
934.071153	0.994078
934.374323	0.993437
934.677455	0.993126
934.980548	0.994909
935.283602	0.991613
935.586617	0.993829
935.889593	0.992945
936.192530	0.993200
936.495428	0.993206
936.798287	0.993136
937.101108	0.993150
937.403890	0.992229
937.706632	0.990442
938.009336	0.990658
938.312002	0.988679
938.614628	0.987539
938.917216	0.988069
939.219765	0.984452
939.522275	0.986881
939.824747	0.985373
940.127179	0.986284
940.429573	0.987282
940.731929	0.986463
941.034246	0.987234
941.336524	0.987414
941.638763	0.988674
941.940964	0.988899
942.243126	0.988679
942.545250	0.989819
942.847335	0.989957
943.149381	0.990179
943.451389	0.990862
943.753359	0.989582
944.055290	0.993787
944.357182	0.992940
944.659036	0.990582
944.960851	0.991612
945.262628	0.992379
945.564367	0.992009
945.866067	0.992196
946.167729	0.992296
946.469352	0.992244
946.770937	0.990507
947.072484	0.993069
947.373992	0.992809
947.675462	0.992767
947.976893	0.992505
948.278286	0.992034
948.579641	0.993426
948.880958	0.993117
949.182236	0.992674
949.483476	0.993394
949.784678	0.992525
950.085841	0.992875
950.386967	0.993543
950.688054	0.992986
950.989103	0.993223
951.290114	0.991707
951.591087	0.991929
951.892021	0.991928
952.192917	0.991318
952.493776	0.990346
952.794596	0.991125
953.095378	0.989190
953.396122	0.990592
953.696828	0.989402
953.997496	0.991593
954.298126	0.991595
954.598718	0.993166
954.899272	0.993395
955.199788	0.992825
955.500266	0.994129
955.800706	0.995163
956.101108	0.994861
956.401472	0.995787
956.701798	0.995556
957.002087	0.994843
957.302337	0.995488
957.602550	0.996962
957.902724	0.996802
958.202861	0.996191
958.502960	0.996781
958.803022	0.995964
959.103045	0.998091
959.403031	0.997702
959.702979	0.996943
960.002889	0.997782
960.302762	0.995937
960.602596	0.998032
960.902393	0.995764
961.202153	0.997956
961.501875	0.997384
961.801559	0.998104
962.101205	0.997400
962.400814	0.997904
962.700385	0.997154
962.999918	0.995920
963.299414	0.996951
963.598873	0.996198
963.898293	0.997939
964.197677	0.996122
964.497022	0.996823
964.796331	0.997643
965.095601	0.997820
965.394835	0.997742
965.694030	0.997907
965.993189	0.997666
966.292309	0.998146
966.591393	0.998378
966.890439	0.998441
967.189447	0.999062
967.488419	0.997701
967.787353	0.997471
968.086249	0.998140
968.385108	0.998341
968.683930	0.998635
968.982714	0.999048
969.281462	0.997877
969.580172	0.997644
969.878844	0.998060
970.177480	0.998810
970.476078	0.997801
970.774639	0.998371
971.073162	0.998569
971.371649	0.997605
971.670098	0.996639
971.968510	0.998082
972.266885	0.996905
972.565223	0.998027
972.863524	0.997409
973.161788	0.996758
973.460014	0.999752
973.758204	0.996778
974.056356	0.997691
974.354471	0.995872
974.652550	0.996551
974.950591	0.997983
975.248595	0.997456
975.546563	0.997028
975.844493	0.999308
976.142386	0.998360
976.440243	0.998899
976.738062	0.998223
977.035845	0.999343
977.333590	0.998450
977.631299	0.999203
977.928971	0.996808
978.226606	0.997116
978.524204	0.995920
978.821765	0.999467
979.119290	0.997128
979.416777	0.997132
979.714228	0.998180
980.011642	0.998329
980.309020	0.998286
980.606360	0.997253
980.903664	0.999708
981.200931	0.996227
981.498162	0.996810
981.795356	0.996916
982.092513	0.994316
982.389633	0.995582
982.686717	0.992505
982.983764	0.993933
983.280775	0.991780
983.577749	0.992277
983.874686	0.993695
984.171587	0.993987
984.468451	0.995964
984.765279	0.995815
985.062070	0.995134
985.358824	0.996027
985.655543	0.995076
985.952224	0.996445
986.248869	0.997810
986.545478	0.996897
986.842050	0.998560
987.138586	0.996202
987.435086	0.998499
987.731549	0.998510
988.027975	0.999372
988.324366	0.998273
988.620719	0.998262
988.917037	0.996652
989.213318	0.999200
989.509563	0.998583
989.805772	0.998882
990.101944	0.997557
990.398080	0.997219
990.694180	0.998817
990.990244	0.997862
991.286271	0.998612
991.582262	0.998446
991.878217	0.999487
992.174136	0.999498
992.470019	0.999363
992.765865	0.998655
993.061676	0.999186
993.357450	0.998462
993.653188	0.997425
993.948890	0.998161
994.244556	0.997891
994.540186	0.998113
994.835780	0.998306
995.131337	0.998529
995.426859	0.997895
995.722345	0.998420
996.017795	0.997398
996.313208	0.997531
996.608586	0.997141
996.903928	0.997398
997.199234	0.996694
997.494504	0.997740
997.789738	0.996687
998.084936	0.996309
998.380099	0.997555
998.675225	0.998501
998.970316	0.998371
999.265371	0.998883
999.560390	0.998796
999.855373	0.999944
1000.150320	0.998359
1000.445232	0.999334
1000.740108	0.999284
1001.034948	0.998976
1001.329752	0.999440
1001.624521	0.999173
1001.919254	0.998400
1002.213951	0.998863
1002.508613	0.998936
1002.803239	0.999084
1003.097829	0.999086
1003.392384	1.000602
1003.686903	0.998779
1003.981386	0.999292
1004.275834	0.999474
1004.570246	0.998648
1004.864623	0.999891
1005.158964	1.000538
1005.453270	0.999475
1005.747540	0.997665
1006.041775	0.999539
1006.335974	0.999037
1006.630138	0.999061
1006.924266	1.000239
1007.218359	1.001870
1007.512416	0.999286
1007.806438	1.000436
1008.100425	0.999546
1008.394376	0.999366
1008.688292	0.999712
1008.982172	1.001229
1009.276017	1.000447
1009.569827	0.999400
1009.863602	0.999168
1010.157341	0.999717
1010.451045	0.998676
1010.744714	0.999769
1011.038347	0.999886
1011.331945	1.000004
1011.625508	0.997901
1011.919036	0.998901
1012.212528	0.999271
1012.505986	0.999042
1012.799408	0.998656
1013.092795	1.000170
1013.386147	0.998916
1013.679464	0.999790
1013.972745	0.997824
1014.265992	0.997910
1014.559204	0.999918
1014.852380	0.999162
1015.145521	0.999653
1015.438628	0.999823
1015.731699	0.999209
1016.024736	0.998952
1016.317737	1.000299
1016.610703	0.998942
1016.903635	0.999678
1017.196531	0.999634
1017.489393	0.999597
1017.782219	0.999766
1018.075011	0.999004
1018.367768	1.000059
1018.660490	0.999897
1018.953177	0.999897
1019.245829	0.999897
