Dividing Wavelength (nm)	Counts (n)	Blue Motor Position (mm): 0.000000	Red Motor Position (mm): 23.000000	
326.493990	1.000873
326.888308	1.000873
327.282561	1.000873
327.676750	1.001066
328.070874	0.998878
328.464933	0.999610
328.858929	0.999277
329.252859	0.999639
329.646726	0.998685
330.040528	0.998941
330.434265	0.999829
330.827938	1.000257
331.221547	1.000363
331.615091	0.998627
332.008571	1.001041
332.401986	0.998901
332.795338	0.999518
333.188625	0.998636
333.581847	1.001060
333.975006	0.999270
334.368100	0.999707
334.761129	1.000059
335.154095	1.000385
335.546996	0.997830
335.939833	0.993014
336.332606	0.993338
336.725315	0.993837
337.117960	0.995384
337.510540	0.994096
337.903056	0.993795
338.295508	0.993596
338.687896	0.996296
339.080220	0.994782
339.472480	0.995058
339.864676	0.993496
340.256807	0.993790
340.648875	0.995151
341.040879	0.995221
341.432818	0.994335
341.824694	0.993754
342.216506	0.995788
342.608253	0.993598
342.999937	0.993912
343.391557	0.994514
343.783113	0.994966
344.174605	0.993858
344.566033	0.995148
344.957397	0.993463
345.348697	0.993212
345.739934	0.993935
346.131106	0.994134
346.522215	0.993688
346.913260	0.993782
347.304241	0.993698
347.695159	0.993831
348.086012	0.992493
348.476802	0.994266
348.867528	0.994767
349.258191	0.993274
349.648789	0.994542
350.039324	0.994703
350.429796	0.994366
350.820203	0.995442
351.210548	0.994353
351.600828	0.993679
351.991045	0.994228
352.381198	0.993649
352.771288	0.994364
353.161314	0.993612
353.551276	0.994073
353.941175	0.993674
354.331010	0.992952
354.720782	0.994092
355.110490	0.993853
355.500135	0.994808
355.889717	0.993946
356.279235	0.993713
356.668689	0.994189
357.058080	0.993383
357.447408	0.996328
357.836672	0.995197
358.225873	0.994050
358.615010	0.994118
359.004084	0.995097
359.393095	0.994692
359.782043	0.994384
360.170927	0.996470
360.559748	0.994496
360.948505	0.993674
361.337199	0.993344
361.725830	0.994277
362.114398	0.994361
362.502903	0.995444
362.891344	0.994909
363.279722	0.993776
363.668037	0.995183
364.056289	0.993821
364.444478	0.995153
364.832603	0.994236
365.220665	0.992737
365.608665	0.994590
365.996601	0.993650
366.384474	0.995157
366.772284	0.994464
367.160031	0.992800
367.547715	0.992721
367.935336	0.994560
368.322893	0.994150
368.710388	0.993293
369.097820	0.995076
369.485189	0.993202
369.872495	0.994226
370.259738	0.992984
370.646918	0.995021
371.034035	0.994217
371.421090	0.994537
371.808081	0.994058
372.195010	0.994812
372.581875	0.995211
372.968678	0.994257
373.355418	0.993673
373.742096	0.993494
374.128710	0.995272
374.515262	0.994584
374.901751	0.995588
375.288177	0.995076
375.674540	0.996251
376.060841	0.994329
376.447079	0.994515
376.833254	0.995058
377.219367	0.995082
377.605417	0.994783
377.991404	0.995389
378.377329	0.993791
378.763191	0.994682
379.148991	0.995760
379.534727	0.995263
379.920402	0.995210
380.306013	0.995200
380.691563	0.995707
381.077049	0.994786
381.462474	0.995309
381.847835	0.994887
382.233134	0.995310
382.618371	0.995927
383.003545	0.995478
383.388657	0.994474
383.773706	0.995569
384.158693	0.994651
384.543618	0.995955
384.928480	0.995762
385.313280	0.996176
385.698017	0.996706
386.082692	0.995603
386.467305	0.996204
386.851856	0.996029
387.236344	0.996199
387.620770	0.994930
388.005133	0.996779
388.389435	0.996677
388.773674	0.996284
389.157851	0.996396
389.541965	0.995799
389.926018	0.996064
390.310008	0.997212
390.693936	0.995357
391.077802	0.995772
391.461606	0.995977
391.845348	0.996633
392.229027	0.997327
392.612645	0.996373
392.996200	0.997128
393.379694	0.995833
393.763125	0.997094
394.146494	0.996262
394.529801	0.995368
394.913047	0.996290
395.296230	0.996840
395.679351	0.996426
396.062410	0.996151
396.445408	0.996272
396.828343	0.996604
397.211217	0.996601
397.594028	0.997134
397.976778	0.995985
398.359466	0.995920
398.742092	0.997119
399.124656	0.996109
399.507158	0.995965
399.889598	0.996314
400.271977	0.997288
400.654294	0.996550
401.036549	0.996429
401.418742	0.996879
401.800874	0.996023
402.182944	0.996105
402.564952	0.995973
402.946898	0.996595
403.328783	0.996350
403.710606	0.996035
404.092367	0.996543
404.474067	0.996630
404.855705	0.996022
405.237282	0.995879
405.618797	0.995479
406.000250	0.996034
406.381642	0.996713
406.762972	0.996291
407.144240	0.996883
407.525447	0.996619
407.906593	0.997072
408.287677	0.997090
408.668700	0.996997
409.049661	0.995653
409.430560	0.996880
409.811399	0.995781
410.192176	0.996294
410.572891	0.995780
410.953545	0.995720
411.334138	0.994697
411.714669	0.996602
412.095139	0.995550
412.475547	0.997043
412.855894	0.995802
413.236180	0.996878
413.616405	0.997020
413.996568	0.996629
414.376670	0.995625
414.756711	0.996666
415.136691	0.995745
415.516609	0.995808
415.896466	0.995861
416.276262	0.996010
416.655997	0.996112
417.035670	0.995735
417.415283	0.996559
417.794834	0.995601
418.174324	0.996280
418.553753	0.996143
418.933121	0.995013
419.312428	0.994949
419.691674	0.995203
420.070859	0.995817
420.449983	0.995532
420.829045	0.995166
421.208047	0.995360
421.586988	0.995860
421.965867	0.994337
422.344686	0.995554
422.723444	0.993573
423.102141	0.993608
423.480777	0.993743
423.859352	0.992907
424.237866	0.991358
424.616319	0.989989
424.994712	0.989165
425.373044	0.988866
425.751314	0.988395
426.129524	0.985503
426.507673	0.985404
426.885762	0.984390
427.263789	0.982303
427.641756	0.980613
428.019662	0.979121
428.397508	0.975497
428.775292	0.973717
429.153016	0.971917
429.530679	0.970319
429.908282	0.967566
430.285824	0.963871
430.663305	0.960671
431.040726	0.958718
431.418086	0.956357
431.795385	0.952856
432.172624	0.949372
432.549802	0.945948
432.926920	0.942175
433.303977	0.936880
433.680974	0.933277
434.057910	0.928562
434.434786	0.924504
434.811601	0.920285
435.188355	0.913017
435.565050	0.909040
435.941683	0.903857
436.318257	0.896498
436.694770	0.890133
437.071222	0.884939
437.447614	0.879783
437.823946	0.875325
438.200218	0.866881
438.576429	0.862096
438.952580	0.853790
439.328670	0.845893
439.704700	0.841106
440.080670	0.834627
440.456580	0.820770
440.832429	0.815166
441.208218	0.812186
441.583947	0.800772
441.959616	0.793240
442.335224	0.787233
442.710773	0.776344
443.086261	0.765841
443.461689	0.764674
443.837057	0.751263
444.212365	0.738907
444.587612	0.734077
444.962800	0.721173
445.337927	0.713016
445.712995	0.717589
446.088002	0.690128
446.462949	0.687288
446.837837	0.680976
447.212664	0.668340
447.587431	0.653009
447.962139	0.627674
448.336786	0.595827
448.711374	0.594241
449.085901	0.612387
449.460369	0.605374
449.834776	0.598931
450.209124	0.577843
450.583412	0.564096
450.957640	0.553308
451.331808	0.551778
451.705917	0.559819
452.079965	0.556047
452.453954	0.539853
452.827883	0.538097
453.201752	0.527349
453.575562	0.529580
453.949311	0.513341
454.323001	0.512682
454.696632	0.502574
455.070202	0.490901
455.443713	0.478975
455.817164	0.468911
456.190556	0.459360
456.563888	0.451013
456.937160	0.444144
457.310373	0.453175
457.683526	0.446468
458.056619	0.446392
458.429653	0.442143
458.802628	0.441380
459.175542	0.432012
459.548398	0.412204
459.921194	0.402444
460.293930	0.399356
460.666607	0.375376
461.039224	0.361894
461.411782	0.354537
461.784280	0.350027
462.156719	0.349907
462.529099	0.350356
462.901419	0.361941
463.273680	0.363653
463.645882	0.360425
464.018024	0.363631
464.390106	0.354394
464.762130	0.338113
465.134094	0.320737
465.505999	0.290304
465.877845	0.260496
466.249631	0.245987
466.621358	0.250464
466.993026	0.261638
467.364634	0.266224
467.736184	0.273551
468.107674	0.281237
468.479105	0.279057
468.850477	0.285184
469.221790	0.290719
469.593043	0.300051
469.964238	0.304113
470.335373	0.302963
470.706449	0.300527
471.077467	0.301034
471.448425	0.262815
471.819324	0.238432
472.190164	0.237469
472.560945	0.265646
472.931667	0.287275
473.302330	0.290824
473.672934	0.302410
474.043479	0.290504
474.413965	0.292059
474.784393	0.295576
475.154761	0.290310
475.525070	0.287167
475.895321	0.292973
476.265513	0.287214
476.635645	0.282082
477.005719	0.282216
477.375734	0.278871
477.745691	0.271767
478.115588	0.267901
478.485427	0.261982
478.855207	0.248568
479.224928	0.231234
479.594591	0.219284
479.964194	0.222781
480.333739	0.223853
480.703226	0.225188
481.072653	0.223343
481.442022	0.219292
481.811333	0.215627
482.180584	0.219132
482.549777	0.224203
482.918912	0.227506
483.287988	0.227473
483.657005	0.226802
484.025964	0.233042
484.394864	0.230285
484.763706	0.231001
485.132489	0.235915
485.501213	0.236778
485.869879	0.235007
486.238487	0.238478
486.607036	0.236033
486.975527	0.240594
487.343959	0.236494
487.712333	0.235331
488.080648	0.236880
488.448905	0.236123
488.817104	0.237241
489.185244	0.232051
489.553326	0.228839
489.921350	0.218672
490.289315	0.201192
490.657222	0.196308
491.025070	0.197410
491.392861	0.199332
491.760593	0.205100
492.128267	0.210614
492.495883	0.216281
492.863440	0.222233
493.230939	0.228771
493.598380	0.229772
493.965763	0.232141
494.333088	0.234318
494.700354	0.235933
495.067563	0.234618
495.434713	0.238183
495.801805	0.236135
496.168839	0.237344
496.535815	0.238518
496.902733	0.238562
497.269593	0.240428
497.636395	0.237834
498.003139	0.238193
498.369825	0.241446
498.736453	0.237684
499.103023	0.239355
499.469535	0.238412
499.835989	0.238711
500.202385	0.239407
500.568723	0.243008
500.935003	0.237854
501.301226	0.242253
501.667390	0.236728
502.033497	0.234499
502.399546	0.237544
502.765537	0.239407
503.131470	0.237888
503.497345	0.234169
503.863163	0.242414
504.228923	0.235710
504.594625	0.234408
504.960269	0.239917
505.325856	0.235125
505.691385	0.239319
506.056856	0.236027
506.422270	0.235564
506.787625	0.238031
507.152924	0.235310
507.518164	0.235634
507.883347	0.237565
508.248472	0.239420
508.613540	0.234289
508.978550	0.236856
509.343503	0.237296
509.708398	0.234835
510.073236	0.232563
510.438016	0.232600
510.802738	0.233401
511.167403	0.232442
511.532010	0.234397
511.896561	0.229784
512.261053	0.228857
512.625488	0.230733
512.989866	0.231103
513.354186	0.231277
513.718449	0.233153
514.082655	0.229597
514.446803	0.231980
514.810894	0.229466
515.174927	0.232035
515.538904	0.231520
515.902822	0.228373
516.266684	0.230616
516.630488	0.232098
516.994235	0.230570
517.357925	0.229601
517.721558	0.228071
518.085133	0.227305
518.448651	0.227400
518.812112	0.229617
519.175516	0.229480
519.538863	0.226925
519.902152	0.228418
520.265385	0.225438
520.628560	0.227065
520.991678	0.227712
521.354739	0.226549
521.717743	0.227879
522.080690	0.228116
522.443580	0.225604
522.806413	0.226476
523.169189	0.225872
523.531908	0.224735
523.894569	0.228295
524.257174	0.228276
524.619722	0.226010
524.982213	0.227127
525.344647	0.225986
525.707025	0.226734
526.069345	0.224679
526.431608	0.226638
526.793815	0.224709
527.155964	0.228510
527.518057	0.227699
527.880093	0.228724
528.242072	0.227151
528.603995	0.229004
528.965860	0.230736
529.327669	0.229702
529.689421	0.230951
530.051117	0.231378
530.412755	0.228967
530.774337	0.231380
531.135862	0.231860
531.497331	0.231146
531.858743	0.234007
532.220098	0.230908
532.581396	0.233383
532.942638	0.233812
533.303824	0.234686
533.664953	0.234514
534.026025	0.236195
534.387040	0.234123
534.747999	0.234022
535.108902	0.233085
535.469748	0.237858
535.830537	0.235921
536.191270	0.236336
536.551947	0.235953
536.912567	0.235774
537.273131	0.237720
537.633638	0.237788
537.994089	0.237986
538.354483	0.238972
538.714821	0.236192
539.075103	0.236159
539.435328	0.236770
539.795497	0.240581
540.155609	0.237202
540.515665	0.235079
540.875665	0.240849
541.235609	0.239377
541.595496	0.239456
541.955328	0.235914
542.315102	0.238721
542.674821	0.239820
543.034483	0.239803
543.394090	0.239584
543.753640	0.241103
544.113134	0.236281
544.472571	0.239531
544.831953	0.236372
545.191278	0.240778
545.550548	0.240229
545.909761	0.236943
546.268918	0.237693
546.628019	0.236023
546.987064	0.238664
547.346053	0.240540
547.704986	0.238164
548.063863	0.238770
548.422684	0.238930
548.781449	0.240620
549.140158	0.238288
549.498811	0.241054
549.857408	0.244219
550.215949	0.238856
550.574434	0.241923
550.932864	0.239996
551.291237	0.238765
551.649555	0.240239
552.007817	0.239794
552.366022	0.240680
552.724173	0.241020
553.082267	0.241095
553.440305	0.238150
553.798288	0.242401
554.156215	0.239264
554.514086	0.239912
554.871902	0.243098
555.229661	0.242186
555.587365	0.242710
555.945014	0.245353
556.302606	0.242136
556.660143	0.244668
557.017625	0.240985
557.375050	0.243473
557.732421	0.240457
558.089735	0.242514
558.446994	0.242571
558.804197	0.241754
559.161345	0.241775
559.518437	0.245207
559.875474	0.242905
560.232455	0.242362
560.589381	0.243738
560.946251	0.243517
561.303065	0.241407
561.659825	0.242817
562.016528	0.244196
562.373177	0.247110
562.729770	0.244260
563.086307	0.246545
563.442789	0.244187
563.799216	0.246890
564.155587	0.245955
564.511904	0.246873
564.868164	0.247205
565.224370	0.246964
565.580520	0.248638
565.936615	0.248414
566.292654	0.251395
566.648638	0.248141
567.004567	0.249180
567.360441	0.249759
567.716260	0.251878
568.072023	0.249966
568.427732	0.250323
568.783385	0.252770
569.138982	0.251047
569.494525	0.250701
569.850013	0.253446
570.205445	0.252045
570.560823	0.254579
570.916145	0.256463
571.271412	0.254677
571.626625	0.256128
571.981782	0.256484
572.336884	0.257490
572.691931	0.257229
573.046923	0.258500
573.401860	0.259542
573.756743	0.261572
574.111570	0.260103
574.466342	0.260845
574.821059	0.259778
575.175722	0.262738
575.530330	0.262632
575.884882	0.262742
576.239380	0.264655
576.593823	0.265236
576.948211	0.264664
577.302544	0.267940
577.656823	0.267595
578.011047	0.267652
578.365216	0.268372
578.719330	0.270071
579.073389	0.269906
579.427394	0.271472
579.781344	0.272312
580.135239	0.273496
580.489080	0.273234
580.842866	0.276291
581.196597	0.276132
581.550273	0.274419
581.903895	0.275649
582.257463	0.273949
582.610975	0.277420
582.964434	0.276563
583.317837	0.279444
583.671186	0.279599
584.024481	0.279498
584.377721	0.282108
584.730906	0.282916
585.084037	0.281881
585.437113	0.283710
585.790135	0.283066
586.143103	0.286152
586.496016	0.287141
586.848874	0.284881
587.201679	0.285435
587.554428	0.288571
587.907124	0.287759
588.259765	0.288353
588.612352	0.288412
588.964884	0.292329
589.317362	0.292111
589.669786	0.291697
590.022155	0.290688
590.374470	0.290049
590.726731	0.292065
591.078937	0.296703
591.431090	0.292983
591.783188	0.297210
592.135232	0.297795
592.487222	0.297261
592.839157	0.295652
593.191038	0.297987
593.542866	0.299848
593.894639	0.303337
594.246358	0.301134
594.598022	0.301046
594.949633	0.304913
595.301190	0.305054
595.652692	0.305000
596.004141	0.300892
596.355535	0.308574
596.706876	0.308834
597.058162	0.311698
597.409395	0.308894
597.760573	0.306438
598.111698	0.309763
598.462768	0.309952
598.813785	0.311519
599.164748	0.312932
599.515657	0.313002
599.866511	0.316391
600.217312	0.311864
600.568060	0.317218
600.918753	0.313274
601.269392	0.314426
601.619978	0.317526
601.970510	0.315173
602.320988	0.315551
602.671412	0.313370
603.021783	0.315778
603.372100	0.317089
603.722363	0.316490
604.072572	0.317772
604.422728	0.317292
604.772830	0.319336
605.122878	0.318706
605.472872	0.319240
605.822813	0.317884
606.172701	0.320442
606.522534	0.317384
606.872314	0.317753
607.222041	0.318771
607.571714	0.317078
607.921333	0.318211
608.270899	0.318306
608.620411	0.314886
608.969870	0.318687
609.319276	0.318881
609.668627	0.318929
610.017926	0.317385
610.367171	0.315418
610.716362	0.316657
611.065500	0.316879
611.414585	0.315361
611.763616	0.316405
612.112594	0.316575
612.461518	0.315707
612.810389	0.313703
613.159207	0.315820
613.507971	0.317690
613.856682	0.313428
614.205340	0.314976
614.553945	0.311731
614.902496	0.315736
615.250994	0.313863
615.599439	0.314672
615.947830	0.314019
616.296169	0.314631
616.644454	0.314376
616.992686	0.314608
617.340864	0.312169
617.688990	0.315830
618.037063	0.312618
618.385082	0.314306
618.733048	0.311405
619.080961	0.313460
619.428821	0.312918
619.776628	0.312513
620.124382	0.314638
620.472083	0.314888
620.819731	0.314487
621.167326	0.318029
621.514868	0.317681
621.862357	0.322216
622.209793	0.321510
622.557176	0.323669
622.904506	0.325025
623.251783	0.327365
623.599007	0.329750
623.946179	0.329214
624.293297	0.330916
624.640363	0.334504
624.987376	0.335135
625.334336	0.338290
625.681243	0.340050
626.028097	0.340492
626.374899	0.341609
626.721647	0.342029
627.068343	0.345891
627.414987	0.346313
627.761577	0.348408
628.108115	0.346920
628.454600	0.351754
628.801032	0.349253
629.147412	0.351089
629.493739	0.351364
629.840014	0.354926
630.186236	0.352413
630.532405	0.357645
630.878521	0.355101
631.224585	0.357530
631.570597	0.361291
631.916556	0.359309
632.262462	0.359710
632.608316	0.361764
632.954117	0.362252
633.299866	0.363196
633.645562	0.363729
633.991206	0.368356
634.336797	0.371222
634.682336	0.373158
635.027823	0.374757
635.373257	0.375360
635.718639	0.378807
636.063968	0.378338
636.409245	0.384019
636.754470	0.384321
637.099642	0.386262
637.444762	0.390148
637.789829	0.389244
638.134845	0.392950
638.479808	0.393398
638.824719	0.393463
639.169577	0.397653
639.514383	0.396478
639.859137	0.400184
640.203839	0.400451
640.548489	0.401147
640.893086	0.402031
641.237632	0.403954
641.582125	0.402558
641.926566	0.403883
642.270955	0.403949
642.615292	0.404327
642.959576	0.403215
643.303809	0.404232
643.647990	0.403909
643.992118	0.404150
644.336195	0.407754
644.680219	0.406028
645.024192	0.406754
645.368112	0.400397
645.711981	0.399189
646.055797	0.394649
646.399562	0.396992
646.743274	0.389050
647.086935	0.386732
647.430544	0.386764
647.774101	0.385475
648.117606	0.385513
648.461059	0.385340
648.804460	0.387972
649.147810	0.393145
649.491108	0.394944
649.834354	0.396524
650.177548	0.402262
650.520690	0.407055
650.863781	0.408310
651.206820	0.407653
651.549807	0.412400
651.892742	0.415987
652.235626	0.415610
652.578458	0.416805
652.921238	0.422741
653.263967	0.421045
653.606644	0.424820
653.949269	0.424498
654.291843	0.428209
654.634365	0.425016
654.976836	0.428283
655.319255	0.428397
655.661622	0.430207
656.003938	0.430189
656.346203	0.433013
656.688416	0.431025
657.030577	0.433630
657.372687	0.435782
657.714746	0.436994
658.056753	0.434289
658.398708	0.438116
658.740612	0.438996
659.082465	0.434365
659.424266	0.435586
659.766016	0.435141
660.107715	0.438009
660.449362	0.436359
660.790958	0.437064
661.132503	0.437364
661.473996	0.435230
661.815438	0.436016
662.156829	0.436531
662.498168	0.436647
662.839456	0.438637
663.180693	0.435989
663.521879	0.436713
663.863013	0.436936
664.204097	0.435875
664.545129	0.432745
664.886110	0.433115
665.227040	0.430473
665.567918	0.433342
665.908746	0.430541
666.249522	0.431018
666.590248	0.431473
666.930922	0.429963
667.271545	0.428485
667.612118	0.428691
667.952639	0.430705
668.293109	0.428779
668.633528	0.431818
668.973896	0.431870
669.314213	0.432218
669.654480	0.433666
669.994695	0.433842
670.334859	0.435497
670.674973	0.434995
671.015035	0.435443
671.355047	0.435302
671.695008	0.436432
672.034918	0.437990
672.374777	0.437352
672.714585	0.438742
673.054342	0.438852
673.394049	0.438664
673.733705	0.436390
674.073310	0.437538
674.412864	0.440470
674.752368	0.441027
675.091820	0.441037
675.431223	0.445432
675.770574	0.445165
676.109875	0.448693
676.449125	0.448304
676.788324	0.450590
677.127473	0.456255
677.466571	0.456098
677.805619	0.457642
678.144616	0.458610
678.483562	0.460103
678.822458	0.462863
679.161303	0.463959
679.500098	0.464106
679.838842	0.466071
680.177535	0.465489
680.516179	0.464419
680.854771	0.462786
681.193314	0.456761
681.531805	0.447751
681.870247	0.436129
682.208638	0.428949
682.546978	0.428079
682.885268	0.429650
683.223508	0.436100
683.561697	0.439625
683.899836	0.442439
684.237925	0.445354
684.575963	0.448436
684.913951	0.451057
685.251889	0.446525
685.589776	0.449399
685.927614	0.451399
686.265401	0.445777
686.603137	0.446734
686.940824	0.440858
687.278460	0.439832
687.616046	0.438800
687.953582	0.433494
688.291068	0.435336
688.628504	0.430801
688.965889	0.433188
689.303224	0.437201
689.640510	0.441132
689.977745	0.446665
690.314930	0.454339
690.652065	0.458861
690.989150	0.466898
691.326185	0.472652
691.663170	0.478047
692.000105	0.484939
692.336990	0.491856
692.673825	0.493935
693.010610	0.501368
693.347345	0.506315
693.684030	0.508782
694.020665	0.512629
694.357251	0.521477
694.693786	0.521177
695.030272	0.524868
695.366707	0.528662
695.703093	0.532363
696.039429	0.529647
696.375716	0.531279
696.711952	0.534505
697.048139	0.537107
697.384276	0.538659
697.720363	0.536481
698.056400	0.535660
698.392388	0.541582
698.728326	0.544482
699.064214	0.547396
699.400053	0.548041
699.735842	0.551515
700.071581	0.554983
700.407270	0.557019
700.742910	0.559400
701.078501	0.566172
701.414042	0.566565
701.749533	0.569850
702.084974	0.578189
702.420366	0.570853
702.755709	0.578467
703.091002	0.586231
703.426246	0.579969
703.761440	0.585766
704.096584	0.590324
704.431679	0.587248
704.766725	0.589112
705.101721	0.590881
705.436668	0.587251
705.771565	0.594283
706.106413	0.590890
706.441212	0.585731
706.775961	0.584368
707.110661	0.587763
707.445311	0.584191
707.779913	0.581040
708.114465	0.579351
708.448967	0.576833
708.783421	0.568559
709.117825	0.562698
709.452180	0.562950
709.786485	0.556568
710.120742	0.546706
710.454949	0.548785
710.789107	0.540966
711.123216	0.532575
711.457275	0.533810
711.791286	0.524315
712.125247	0.523237
712.459159	0.533930
712.793023	0.526866
713.126837	0.531074
713.460602	0.531148
713.794318	0.540690
714.127985	0.539695
714.461602	0.549464
714.795171	0.552119
715.128691	0.560836
715.462162	0.567915
715.795584	0.573914
716.128957	0.576422
716.462281	0.582988
716.795556	0.586762
717.128782	0.591383
717.461960	0.601038
717.795088	0.599242
718.128167	0.605748
718.461198	0.614964
718.794180	0.615958
719.127113	0.617199
719.459997	0.621776
719.792833	0.627773
720.125619	0.629014
720.458357	0.635101
720.791046	0.634270
721.123686	0.638624
721.456278	0.644817
721.788821	0.642516
722.121315	0.646195
722.453761	0.650741
722.786158	0.648071
723.118506	0.644515
723.450805	0.651542
723.783056	0.648195
724.115259	0.645700
724.447412	0.645424
724.779518	0.647214
725.111574	0.646628
725.443582	0.641318
725.775542	0.643130
726.107453	0.635013
726.439315	0.635553
726.771129	0.634170
727.102895	0.628066
727.434612	0.620393
727.766281	0.618141
728.097901	0.617324
728.429473	0.617006
728.760996	0.615745
729.092471	0.615766
729.423897	0.619174
729.755276	0.619078
730.086606	0.618157
730.417887	0.614197
730.749120	0.603982
731.080305	0.594672
731.411442	0.591036
731.742530	0.595926
732.073570	0.594874
732.404562	0.586599
732.735506	0.588717
733.066401	0.592942
733.397249	0.602917
733.728048	0.613397
734.058798	0.626244
734.389501	0.637861
734.720156	0.646905
735.050762	0.655363
735.381320	0.655603
735.711831	0.665642
736.042293	0.669561
736.372707	0.665007
736.703073	0.670071
737.033391	0.672611
737.363661	0.669482
737.693883	0.665005
738.024056	0.663421
738.354182	0.664126
738.684260	0.653202
739.014290	0.649717
739.344272	0.650398
739.674207	0.643539
740.004093	0.642840
740.333931	0.643145
740.663722	0.644767
740.993464	0.644436
741.323159	0.648352
741.652806	0.652674
741.982405	0.656904
742.311956	0.662248
742.641460	0.663735
742.970915	0.668187
743.300323	0.675613
743.629683	0.681842
743.958996	0.683718
744.288260	0.687658
744.617477	0.693948
744.946647	0.695274
745.275768	0.700715
745.604842	0.701413
745.933869	0.710366
746.262847	0.711482
746.591778	0.705532
746.920662	0.711312
747.249498	0.717413
747.578286	0.708500
747.907027	0.704913
748.235720	0.706172
748.564365	0.700662
748.892963	0.700696
749.221514	0.702499
749.550017	0.708650
749.878473	0.708293
750.206881	0.714586
750.535242	0.715927
750.863555	0.715364
751.191821	0.716778
751.520039	0.720518
751.848210	0.724825
752.176334	0.716411
752.504411	0.716209
752.832440	0.724427
753.160421	0.728506
753.488356	0.726039
753.816243	0.724212
754.144082	0.732437
754.471875	0.735922
754.799620	0.731599
755.127318	0.732073
755.454969	0.732730
755.782572	0.731611
756.110129	0.737613
756.437638	0.739219
756.765100	0.736529
757.092515	0.733896
757.419882	0.733326
757.747203	0.738112
758.074477	0.737721
758.401703	0.735042
758.728882	0.730483
759.056014	0.728469
759.383099	0.727980
759.710138	0.728879
760.037129	0.725225
760.364073	0.719322
760.690970	0.721211
761.017820	0.727572
761.344623	0.723364
761.671379	0.714649
761.998088	0.702658
762.324751	0.680193
762.651366	0.638891
762.977935	0.571492
763.304456	0.520150
763.630931	0.510081
763.957359	0.549600
764.283740	0.592938
764.610074	0.620802
764.936362	0.651821
765.262602	0.678015
765.588796	0.699381
765.914943	0.717153
766.241044	0.734778
766.567097	0.741995
766.893104	0.751870
767.219064	0.757962
767.544978	0.764242
767.870845	0.778060
768.196665	0.781351
768.522438	0.778768
768.848165	0.780899
769.173846	0.789790
769.499479	0.794461
769.825066	0.798412
770.150607	0.803272
770.476101	0.797481
770.801548	0.799403
771.126949	0.810255
771.452303	0.814119
771.777611	0.812609
772.102872	0.812775
772.428087	0.817454
772.753256	0.821657
773.078378	0.823053
773.403453	0.831493
773.728482	0.836126
774.053465	0.830132
774.378401	0.833631
774.703291	0.840985
775.028135	0.841695
775.352932	0.843354
775.677683	0.846373
776.002388	0.846717
776.327046	0.846406
776.651658	0.849264
776.976224	0.852462
777.300743	0.852400
777.625216	0.856577
777.949643	0.856845
778.274024	0.857159
778.598359	0.858452
778.922647	0.857082
779.246889	0.857777
779.571086	0.861715
779.895236	0.864340
780.219339	0.861232
780.543397	0.857942
780.867409	0.856007
781.191374	0.858238
781.515294	0.859678
781.839167	0.859351
782.162995	0.862647
782.486776	0.859410
782.810511	0.861155
783.134201	0.864130
783.457844	0.861799
783.781441	0.865362
784.104993	0.869681
784.428498	0.870190
784.751958	0.866615
785.075372	0.868420
785.398739	0.872054
785.722061	0.868701
786.045337	0.865521
786.368568	0.869182
786.691752	0.871722
787.014891	0.856291
787.337983	0.848603
787.661030	0.841601
787.984031	0.823625
788.306987	0.810715
788.629897	0.813492
788.952760	0.817725
789.275579	0.820821
789.598351	0.836463
789.921078	0.849814
790.243759	0.851903
790.566395	0.856523
790.888984	0.863606
791.211529	0.868404
791.534027	0.871737
791.856480	0.873256
792.178888	0.878483
792.501249	0.880611
792.823566	0.882648
793.145836	0.882470
793.468062	0.885528
793.790241	0.884737
794.112375	0.883033
794.434464	0.878052
794.756507	0.877684
795.078505	0.877373
795.400457	0.871333
795.722364	0.860185
796.044226	0.853742
796.366042	0.852537
796.687812	0.856350
797.009538	0.850965
797.331218	0.854707
797.652852	0.859363
797.974442	0.864813
798.295986	0.864119
798.617484	0.867162
798.938938	0.871041
799.260346	0.875364
799.581709	0.878120
799.903026	0.879563
800.224299	0.880747
800.545526	0.883834
800.866708	0.889008
801.187845	0.892140
801.508936	0.891458
801.829983	0.889449
802.150984	0.892954
802.471940	0.898054
802.792851	0.896509
803.113717	0.898352
803.434538	0.895285
803.755314	0.897821
804.076045	0.899624
804.396731	0.899728
804.717372	0.900139
805.037967	0.901489
805.358518	0.899128
805.679024	0.896924
805.999485	0.896458
806.319901	0.896094
806.640272	0.898710
806.960598	0.896056
807.280879	0.893287
807.601115	0.892472
807.921306	0.895771
808.241453	0.896555
808.561554	0.893196
808.881611	0.893639
809.201623	0.896491
809.521590	0.896532
809.841513	0.897666
810.161390	0.895927
810.481223	0.897427
810.801011	0.900494
811.120755	0.902357
811.440453	0.902379
811.760107	0.900782
812.079716	0.900506
812.399281	0.902922
812.718801	0.905986
813.038276	0.906930
813.357707	0.906642
813.677093	0.902904
813.996434	0.907216
814.315731	0.907342
814.634983	0.910034
814.954191	0.907009
815.273354	0.904218
815.592473	0.901770
815.911547	0.901892
816.230577	0.899217
816.549562	0.896329
816.868502	0.896794
817.187399	0.893852
817.506250	0.887225
817.825058	0.890070
818.143821	0.886903
818.462539	0.881325
818.781213	0.872650
819.099843	0.861947
819.418429	0.846316
819.736970	0.829774
820.055466	0.811069
820.373919	0.784874
820.692327	0.751708
821.010691	0.717817
821.329011	0.640290
821.647286	0.525512
821.965517	0.411908
822.283704	0.369938
822.601847	0.371379
822.919945	0.406548
823.237999	0.439768
823.556010	0.486389
823.873976	0.541947
824.191897	0.592163
824.509775	0.635407
824.827609	0.679387
825.145398	0.702860
825.463144	0.705672
825.780845	0.688446
826.098502	0.670021
826.416116	0.623878
826.733685	0.580708
827.051210	0.572197
827.368692	0.586220
827.686129	0.623795
828.003522	0.676616
828.320872	0.722618
828.638177	0.767196
828.955439	0.799670
829.272656	0.821178
829.589830	0.839316
829.906960	0.854305
830.224046	0.867260
830.541088	0.876615
830.858086	0.881792
831.175041	0.887011
831.491952	0.886956
831.808819	0.883583
832.125642	0.875740
832.442421	0.861737
832.759157	0.841515
833.075849	0.794738
833.392497	0.731471
833.709101	0.690755
834.025662	0.699919
834.342179	0.731333
834.658653	0.770943
834.975083	0.806249
835.291469	0.832642
835.607811	0.855174
835.924110	0.869980
836.240366	0.887092
836.556578	0.900966
836.872746	0.909442
837.188871	0.914729
837.504952	0.919603
837.820990	0.923431
838.136984	0.927000
838.452935	0.930226
838.768842	0.931222
839.084706	0.924193
839.400526	0.899574
839.716303	0.859797
840.032037	0.836897
840.347727	0.840413
840.663373	0.859117
840.978977	0.880105
841.294537	0.902692
841.610054	0.918851
841.925527	0.925381
842.240957	0.933045
842.556344	0.938964
842.871687	0.945832
843.186987	0.949540
843.502244	0.950024
843.817458	0.952006
844.132629	0.956165
844.447756	0.960700
844.762840	0.960433
845.077881	0.959023
845.392879	0.960310
845.707833	0.962533
846.022745	0.964651
846.337613	0.964419
846.652438	0.965590
846.967221	0.964902
847.281960	0.965279
847.596656	0.967458
847.911309	0.965298
848.225919	0.968207
848.540485	0.968264
848.855009	0.967985
849.169490	0.967930
849.483928	0.969465
849.798323	0.968716
850.112675	0.970798
850.426984	0.968884
850.741251	0.969710
851.055474	0.969061
851.369654	0.966907
851.683792	0.969846
851.997887	0.969811
852.311938	0.969500
852.625947	0.969914
852.939914	0.968027
853.253837	0.969604
853.567718	0.970332
853.881555	0.970175
854.195350	0.968379
854.509103	0.968910
854.822812	0.970577
855.136479	0.970229
855.450103	0.969417
855.763685	0.968954
856.077224	0.968512
856.390720	0.970122
856.704173	0.971304
857.017584	0.968292
857.330953	0.967051
857.644278	0.968685
857.957561	0.968702
858.270802	0.967785
858.584000	0.968363
858.897155	0.966243
859.210268	0.966957
859.523339	0.967980
859.836367	0.969888
860.149352	0.971257
860.462295	0.968899
860.775195	0.968932
861.088054	0.968448
861.400869	0.969682
861.713642	0.970369
862.026373	0.970776
862.339062	0.969698
862.651708	0.968452
862.964312	0.969134
863.276873	0.969309
863.589392	0.967381
863.901869	0.966127
864.214303	0.964548
864.526696	0.963048
864.839045	0.962700
865.151353	0.961468
865.463619	0.962582
865.775842	0.962144
866.088023	0.963148
866.400162	0.962633
866.712258	0.962596
867.024313	0.963452
867.336325	0.963389
867.648296	0.963723
867.960224	0.963027
868.272110	0.961430
868.583954	0.964840
868.895755	0.964575
869.207515	0.961125
869.519233	0.960160
869.830909	0.961639
870.142542	0.962694
870.454134	0.961388
870.765684	0.960942
871.077191	0.957231
871.388657	0.959210
871.700081	0.959098
872.011463	0.958530
872.322803	0.958306
872.634101	0.956642
872.945357	0.953953
873.256571	0.953294
873.567744	0.953032
873.878874	0.953966
874.189963	0.952127
874.501010	0.951147
874.812015	0.949265
875.122979	0.951760
875.433900	0.953839
875.744780	0.953543
876.055618	0.952331
876.366415	0.950128
876.677169	0.950147
876.987882	0.951728
877.298554	0.950903
877.609183	0.947806
877.919771	0.945965
878.230317	0.942478
878.540822	0.941429
878.851285	0.936520
879.161707	0.927893
879.472087	0.914918
879.782425	0.899158
880.092722	0.865020
880.402977	0.813181
880.713191	0.753527
881.023363	0.695647
881.333494	0.661660
881.643583	0.633008
881.953631	0.633228
882.263637	0.662380
882.573602	0.701450
882.883526	0.726370
883.193408	0.750684
883.503248	0.772226
883.813048	0.799903
884.122806	0.828246
884.432522	0.852180
884.742197	0.871330
885.051831	0.881976
885.361424	0.892423
885.670975	0.904011
885.980485	0.913422
886.289954	0.919328
886.599382	0.924780
886.908768	0.928570
887.218113	0.934827
887.527417	0.939244
887.836680	0.942782
888.145901	0.943556
888.455082	0.946030
888.764221	0.950477
889.073319	0.953162
889.382376	0.953097
889.691392	0.953928
890.000366	0.952245
890.309300	0.953929
890.618193	0.953177
890.927044	0.951297
891.235855	0.951725
891.544625	0.951425
891.853353	0.952670
892.162041	0.949035
892.470687	0.942545
892.779293	0.937661
893.087858	0.935019
893.396381	0.926928
893.704864	0.914077
894.013306	0.890829
894.321707	0.863449
894.630068	0.849202
894.938387	0.844345
895.246665	0.845350
895.554903	0.857505
895.863100	0.871844
896.171256	0.888145
896.479371	0.906890
896.787446	0.919692
897.095480	0.925205
897.403473	0.928451
897.711425	0.932757
898.019336	0.940200
898.327207	0.942481
898.635038	0.945709
898.942827	0.945958
899.250576	0.948515
899.558284	0.951690
899.865952	0.954437
900.173579	0.955309
900.481165	0.956659
900.788711	0.960989
901.096216	0.961962
901.403681	0.961857
901.711105	0.963141
902.018489	0.962958
902.325832	0.962605
902.633135	0.962037
902.940397	0.956225
903.247619	0.943378
903.554800	0.917665
903.861941	0.880064
904.169041	0.844291
904.476101	0.827714
904.783121	0.828775
905.090100	0.844516
905.397039	0.865300
905.703938	0.886671
906.010796	0.906397
906.317614	0.923331
906.624391	0.935539
906.931129	0.944465
907.237826	0.950647
907.544483	0.958905
907.851099	0.961954
908.157675	0.966518
908.464211	0.969096
908.770707	0.973707
909.077163	0.974420
909.383578	0.974968
909.689954	0.974662
909.996289	0.975909
910.302584	0.978333
910.608839	0.981143
910.915054	0.978936
911.221229	0.977889
911.527363	0.976416
911.833458	0.977467
912.139513	0.977027
912.445527	0.976011
912.751502	0.974760
913.057436	0.971663
913.363331	0.969130
913.669186	0.965877
913.975000	0.960806
914.280775	0.955334
914.586510	0.949311
914.892205	0.936474
915.197859	0.914377
915.503475	0.888119
915.809050	0.868751
916.114585	0.862473
916.420081	0.861378
916.725536	0.858743
917.030952	0.864805
917.336328	0.878191
917.641665	0.891971
917.946961	0.907853
918.252218	0.919321
918.557435	0.928323
918.862612	0.936238
919.167750	0.942415
919.472848	0.946822
919.777906	0.953002
920.082925	0.957866
920.387904	0.962022
920.692843	0.963995
920.997743	0.963742
921.302603	0.967080
921.607423	0.968838
921.912204	0.972146
922.216946	0.971225
922.521647	0.972937
922.826310	0.975235
923.130932	0.976801
923.435516	0.978080
923.740059	0.979377
924.044564	0.979287
924.349028	0.981026
924.653454	0.982821
924.957840	0.985383
925.262186	0.983718
925.566493	0.983609
925.870761	0.984420
926.174989	0.985734
926.479178	0.987731
926.783328	0.987386
927.087438	0.988277
927.391509	0.988724
927.695541	0.990013
927.999533	0.989617
928.303486	0.989147
928.607400	0.992402
928.911275	0.989305
929.215110	0.989105
929.518906	0.991315
929.822663	0.989492
930.126381	0.989820
930.430060	0.989911
930.733699	0.990975
931.037299	0.989647
931.340861	0.991660
931.644383	0.990058
931.947866	0.988703
932.251309	0.990602
932.554714	0.988391
932.858080	0.990868
933.161407	0.989772
933.464694	0.991798
933.767943	0.989281
934.071153	0.991523
934.374323	0.990891
934.677455	0.991390
934.980548	0.991726
935.283602	0.990869
935.586617	0.991115
935.889593	0.990532
936.192530	0.991020
936.495428	0.990407
936.798287	0.990254
937.101108	0.989446
937.403890	0.988920
937.706632	0.988184
938.009336	0.986420
938.312002	0.985324
938.614628	0.983949
938.917216	0.983318
939.219765	0.982043
939.522275	0.982230
939.824747	0.982450
940.127179	0.982141
940.429573	0.984200
940.731929	0.984320
941.034246	0.985169
941.336524	0.985857
941.638763	0.986753
941.940964	0.985946
942.243126	0.986667
942.545250	0.986293
942.847335	0.988291
943.149381	0.988333
943.451389	0.987673
943.753359	0.988481
944.055290	0.989693
944.357182	0.990303
944.659036	0.988310
944.960851	0.989588
945.262628	0.988912
945.564367	0.990703
945.866067	0.990019
946.167729	0.990620
946.469352	0.989797
946.770937	0.988552
947.072484	0.990991
947.373992	0.988816
947.675462	0.989716
947.976893	0.990161
948.278286	0.989674
948.579641	0.992043
948.880958	0.990773
949.182236	0.991079
949.483476	0.991021
949.784678	0.990438
950.085841	0.991203
950.386967	0.991088
950.688054	0.990130
950.989103	0.990894
951.290114	0.988890
951.591087	0.989391
951.892021	0.989853
952.192917	0.988357
952.493776	0.987293
952.794596	0.988591
953.095378	0.987944
953.396122	0.988012
953.696828	0.988110
953.997496	0.989826
954.298126	0.991216
954.598718	0.989796
954.899272	0.990952
955.199788	0.990454
955.500266	0.991673
955.800706	0.993394
956.101108	0.992297
956.401472	0.993649
956.701798	0.993798
957.002087	0.993924
957.302337	0.993940
957.602550	0.995601
957.902724	0.995183
958.202861	0.995023
958.502960	0.995109
958.803022	0.993643
959.103045	0.995937
959.403031	0.995488
959.702979	0.994727
960.002889	0.994763
960.302762	0.994986
960.602596	0.995431
960.902393	0.995148
961.202153	0.997255
961.501875	0.995844
961.801559	0.995095
962.101205	0.995952
962.400814	0.995480
962.700385	0.995809
962.999918	0.997405
963.299414	0.995855
963.598873	0.995952
963.898293	0.995388
964.197677	0.995976
964.497022	0.994850
964.796331	0.997129
965.095601	0.996634
965.394835	0.996388
965.694030	0.996338
965.993189	0.997324
966.292309	0.996689
966.591393	0.997451
966.890439	0.996972
967.189447	0.995583
967.488419	0.997814
967.787353	0.995567
968.086249	0.994895
968.385108	0.996689
968.683930	0.998204
968.982714	0.997251
969.281462	0.997027
969.580172	0.995901
969.878844	0.997917
970.177480	0.997231
970.476078	0.997338
970.774639	0.996282
971.073162	0.997613
971.371649	0.996773
971.670098	0.996749
971.968510	0.996099
972.266885	0.995598
972.565223	0.995820
972.863524	0.995891
973.161788	0.996077
973.460014	0.996226
973.758204	0.995411
974.056356	0.995829
974.354471	0.993787
974.652550	0.996621
974.950591	0.995721
975.248595	0.995542
975.546563	0.996050
975.844493	0.996925
976.142386	0.995878
976.440243	0.997081
976.738062	0.997511
977.035845	0.997665
977.333590	0.996004
977.631299	0.997564
977.928971	0.996811
978.226606	0.995942
978.524204	0.995972
978.821765	0.998328
979.119290	0.996270
979.416777	0.996984
979.714228	0.997129
980.011642	0.995514
980.309020	0.997323
980.606360	0.997420
980.903664	0.997769
981.200931	0.996175
981.498162	0.994443
981.795356	0.995066
982.092513	0.993336
982.389633	0.994651
982.686717	0.991322
982.983764	0.991951
983.280775	0.991041
983.577749	0.991095
983.874686	0.991746
984.171587	0.991707
984.468451	0.994387
984.765279	0.994374
985.062070	0.994292
985.358824	0.994319
985.655543	0.995289
985.952224	0.995859
986.248869	0.996375
986.545478	0.996786
986.842050	0.999230
987.138586	0.995358
987.435086	0.996843
987.731549	0.997261
988.027975	0.996632
988.324366	0.998080
988.620719	0.997597
988.917037	0.996594
989.213318	0.998317
989.509563	0.997709
989.805772	0.997952
990.101944	0.999163
990.398080	0.997016
990.694180	0.997134
990.990244	0.996814
991.286271	0.997017
991.582262	0.996565
991.878217	0.999378
992.174136	0.999334
992.470019	0.999217
992.765865	0.997633
993.061676	0.997788
993.357450	0.997789
993.653188	0.996213
993.948890	0.996866
994.244556	0.998285
994.540186	0.996775
994.835780	0.995781
995.131337	0.996621
995.426859	0.995931
995.722345	0.998275
996.017795	0.996973
996.313208	0.995249
996.608586	0.994887
996.903928	0.996845
997.199234	0.995745
997.494504	0.996725
997.789738	0.995822
998.084936	0.995817
998.380099	0.996807
998.675225	0.996979
998.970316	0.998152
999.265371	0.999025
999.560390	0.997635
999.855373	0.999031
1000.150320	0.998091
1000.445232	0.997667
1000.740108	0.999427
1001.034948	0.997103
1001.329752	0.998711
1001.624521	0.998019
1001.919254	0.997366
1002.213951	0.997665
1002.508613	0.997859
1002.803239	1.000090
1003.097829	0.998809
1003.392384	0.998682
1003.686903	0.998147
1003.981386	0.998374
1004.275834	0.997964
1004.570246	0.998900
1004.864623	0.999588
1005.158964	0.999089
1005.453270	0.998087
1005.747540	0.997866
1006.041775	0.997528
1006.335974	0.999550
1006.630138	0.999848
1006.924266	0.999864
1007.218359	0.999964
1007.512416	0.998126
1007.806438	0.998616
1008.100425	0.999544
1008.394376	0.999148
1008.688292	0.998602
1008.982172	1.000213
1009.276017	0.999368
1009.569827	0.997794
1009.863602	0.998023
1010.157341	0.999214
1010.451045	0.998972
1010.744714	0.997908
1011.038347	0.999665
1011.331945	0.999128
1011.625508	0.997347
1011.919036	0.998008
1012.212528	0.998195
1012.505986	0.997412
1012.799408	0.998829
1013.092795	1.000042
1013.386147	0.998440
1013.679464	0.998960
1013.972745	0.997828
1014.265992	0.996239
1014.559204	0.998973
1014.852380	0.998501
1015.145521	0.999267
1015.438628	0.998917
1015.731699	0.998243
1016.024736	0.998572
1016.317737	0.998652
1016.610703	0.999769
1016.903635	1.001041
1017.196531	0.998059
1017.489393	0.999507
1017.782219	0.998077
1018.075011	0.999030
1018.367768	0.998397
1018.660490	0.998729
1018.953177	0.998729
1019.245829	0.998729
