Dividing Wavelength (nm)	Counts (n)	Blue Motor Position (mm): 0.000000	Red Motor Position (mm): 14.200000	
326.493990	1.000053
326.888308	1.000053
327.282561	1.000053
327.676750	1.000523
328.070874	1.000078
328.464933	1.000176
328.858929	0.999686
329.252859	1.000589
329.646726	0.999094
330.040528	1.000798
330.434265	0.999401
330.827938	1.000524
331.221547	1.000358
331.615091	1.000031
332.008571	1.000442
332.401986	1.000024
332.795338	1.001206
333.188625	0.998142
333.581847	1.000618
333.975006	0.999770
334.368100	0.999645
334.761129	0.999829
335.154095	1.000324
335.546996	0.998476
335.939833	0.993170
336.332606	0.992987
336.725315	0.994666
337.117960	0.995469
337.510540	0.993997
337.903056	0.994622
338.295508	0.992299
338.687896	0.993410
339.080220	0.993855
339.472480	0.993941
339.864676	0.993899
340.256807	0.994437
340.648875	0.994876
341.040879	0.995034
341.432818	0.993324
341.824694	0.994141
342.216506	0.995404
342.608253	0.994176
342.999937	0.993688
343.391557	0.994073
343.783113	0.994123
344.174605	0.994314
344.566033	0.995010
344.957397	0.993218
345.348697	0.993903
345.739934	0.994731
346.131106	0.993827
346.522215	0.993489
346.913260	0.993338
347.304241	0.993221
347.695159	0.993867
348.086012	0.991921
348.476802	0.994206
348.867528	0.993744
349.258191	0.992456
349.648789	0.994798
350.039324	0.993404
350.429796	0.994383
350.820203	0.994284
351.210548	0.993868
351.600828	0.993591
351.991045	0.994109
352.381198	0.992752
352.771288	0.993032
353.161314	0.993918
353.551276	0.994373
353.941175	0.993716
354.331010	0.993904
354.720782	0.994435
355.110490	0.993399
355.500135	0.995104
355.889717	0.994462
356.279235	0.993728
356.668689	0.993919
357.058080	0.993821
357.447408	0.994324
357.836672	0.995336
358.225873	0.994107
358.615010	0.994259
359.004084	0.995182
359.393095	0.994786
359.782043	0.993578
360.170927	0.993858
360.559748	0.994740
360.948505	0.992465
361.337199	0.994307
361.725830	0.993238
362.114398	0.993311
362.502903	0.994129
362.891344	0.994668
363.279722	0.994061
363.668037	0.993594
364.056289	0.993907
364.444478	0.993934
364.832603	0.993226
365.220665	0.993110
365.608665	0.993256
365.996601	0.992903
366.384474	0.993890
366.772284	0.994446
367.160031	0.992539
367.547715	0.992682
367.935336	0.993828
368.322893	0.993293
368.710388	0.991784
369.097820	0.993110
369.485189	0.993196
369.872495	0.993282
370.259738	0.991368
370.646918	0.993209
371.034035	0.993679
371.421090	0.993362
371.808081	0.992470
372.195010	0.993091
372.581875	0.993625
372.968678	0.993242
373.355418	0.994391
373.742096	0.993426
374.128710	0.994106
374.515262	0.994046
374.901751	0.993336
375.288177	0.993917
375.674540	0.993953
376.060841	0.992648
376.447079	0.993591
376.833254	0.992924
377.219367	0.993802
377.605417	0.993611
377.991404	0.993117
378.377329	0.993185
378.763191	0.992679
379.148991	0.993818
379.534727	0.993704
379.920402	0.993971
380.306013	0.994059
380.691563	0.994340
381.077049	0.993433
381.462474	0.993911
381.847835	0.993539
382.233134	0.992939
382.618371	0.993588
383.003545	0.992870
383.388657	0.993414
383.773706	0.994199
384.158693	0.994738
384.543618	0.993094
384.928480	0.995061
385.313280	0.993867
385.698017	0.994302
386.082692	0.993272
386.467305	0.993638
386.851856	0.993321
387.236344	0.992960
387.620770	0.991789
388.005133	0.994051
388.389435	0.993982
388.773674	0.993606
389.157851	0.993476
389.541965	0.992907
389.926018	0.992542
390.310008	0.993717
390.693936	0.991645
391.077802	0.991313
391.461606	0.990273
391.845348	0.988931
392.229027	0.988453
392.612645	0.985758
392.996200	0.984216
393.379694	0.981472
393.763125	0.979385
394.146494	0.976856
394.529801	0.971579
394.913047	0.968672
395.296230	0.964806
395.679351	0.959872
396.062410	0.954357
396.445408	0.950881
396.828343	0.945520
397.211217	0.940265
397.594028	0.936828
397.976778	0.928500
398.359466	0.923333
398.742092	0.914715
399.124656	0.910137
399.507158	0.902609
399.889598	0.895232
400.271977	0.885443
400.654294	0.879082
401.036549	0.871217
401.418742	0.864914
401.800874	0.850629
402.182944	0.842073
402.564952	0.830077
402.946898	0.824142
403.328783	0.814302
403.710606	0.810182
404.092367	0.790208
404.474067	0.784357
404.855705	0.774656
405.237282	0.771385
405.618797	0.755212
406.000250	0.743625
406.381642	0.730513
406.762972	0.723386
407.144240	0.714963
407.525447	0.707139
407.906593	0.694768
408.287677	0.682295
408.668700	0.681053
409.049661	0.668231
409.430560	0.657708
409.811399	0.655946
410.192176	0.634750
410.572891	0.633005
410.953545	0.617315
411.334138	0.621191
411.714669	0.609880
412.095139	0.613604
412.475547	0.595360
412.855894	0.590386
413.236180	0.585013
413.616405	0.584642
413.996568	0.571827
414.376670	0.572316
414.756711	0.572798
415.136691	0.566129
415.516609	0.554998
415.896466	0.548197
416.276262	0.541049
416.655997	0.540422
417.035670	0.519447
417.415283	0.509553
417.794834	0.511260
418.174324	0.514402
418.553753	0.520928
418.933121	0.502212
419.312428	0.494158
419.691674	0.497660
420.070859	0.485454
420.449983	0.492294
420.829045	0.480649
421.208047	0.488336
421.586988	0.481670
421.965867	0.479391
422.344686	0.467775
422.723444	0.479449
423.102141	0.495512
423.480777	0.468240
423.859352	0.488359
424.237866	0.464891
424.616319	0.465906
424.994712	0.457056
425.373044	0.466788
425.751314	0.454478
426.129524	0.470541
426.507673	0.454994
426.885762	0.448175
427.263789	0.452978
427.641756	0.462996
428.019662	0.453290
428.397508	0.452186
428.775292	0.455685
429.153016	0.448083
429.530679	0.454896
429.908282	0.447940
430.285824	0.457283
430.663305	0.435792
431.040726	0.456702
431.418086	0.457052
431.795385	0.448492
432.172624	0.447283
432.549802	0.448023
432.926920	0.447154
433.303977	0.445827
433.680974	0.443563
434.057910	0.441808
434.434786	0.441559
434.811601	0.443705
435.188355	0.425588
435.565050	0.435525
435.941683	0.436888
436.318257	0.420763
436.694770	0.421632
437.071222	0.420221
437.447614	0.423967
437.823946	0.430656
438.200218	0.420276
438.576429	0.430534
438.952580	0.423204
439.328670	0.419410
439.704700	0.426012
440.080670	0.427527
440.456580	0.408881
440.832429	0.416272
441.208218	0.426975
441.583947	0.416778
441.959616	0.416466
442.335224	0.421305
442.710773	0.411816
443.086261	0.410176
443.461689	0.424288
443.837057	0.414085
444.212365	0.403680
444.587612	0.411008
444.962800	0.400831
445.337927	0.402050
445.712995	0.428339
446.088002	0.390772
446.462949	0.401129
446.837837	0.405180
447.212664	0.394975
447.587431	0.386044
447.962139	0.356674
448.336786	0.316274
448.711374	0.326902
449.085901	0.370227
449.460369	0.374674
449.834776	0.378001
450.209124	0.357483
450.583412	0.349813
450.957640	0.343125
451.331808	0.354622
451.705917	0.378119
452.079965	0.382259
452.453954	0.370678
452.827883	0.377335
453.201752	0.372269
453.575562	0.383845
453.949311	0.372371
454.323001	0.378448
454.696632	0.374468
455.070202	0.366671
455.443713	0.358893
455.817164	0.353916
456.190556	0.349268
456.563888	0.346191
456.937160	0.344034
457.310373	0.361169
457.683526	0.359542
458.056619	0.365146
458.429653	0.366448
458.802628	0.369126
459.175542	0.363973
459.548398	0.346499
459.921194	0.339104
460.293930	0.339090
460.666607	0.316501
461.039224	0.304711
461.411782	0.300898
461.784280	0.299781
462.156719	0.304254
462.529099	0.308853
462.901419	0.324661
463.273680	0.328951
463.645882	0.328390
464.018024	0.334358
464.390106	0.327173
464.762130	0.312129
465.134094	0.295071
465.505999	0.264226
465.877845	0.234876
466.249631	0.221933
466.621358	0.229205
466.993026	0.242995
467.364634	0.249124
467.736184	0.257872
468.107674	0.266901
468.479105	0.265880
468.850477	0.272319
469.221790	0.279507
469.593043	0.289751
469.964238	0.294434
470.335373	0.293616
470.706449	0.291742
471.077467	0.292510
471.448425	0.255181
471.819324	0.230731
472.190164	0.229508
472.560945	0.258702
472.931667	0.280846
473.302330	0.285083
473.672934	0.296735
474.043479	0.284658
474.413965	0.286614
474.784393	0.290381
475.154761	0.285426
475.525070	0.282484
475.895321	0.288212
476.265513	0.282317
476.635645	0.277899
477.005719	0.277554
477.375734	0.274164
477.745691	0.267688
478.115588	0.263990
478.485427	0.257425
478.855207	0.244449
479.224928	0.226925
479.594591	0.215171
479.964194	0.218739
480.333739	0.219469
480.703226	0.221139
481.072653	0.219472
481.442022	0.215431
481.811333	0.211774
482.180584	0.215128
482.549777	0.220351
482.918912	0.223985
483.287988	0.223471
483.657005	0.223031
484.025964	0.229709
484.394864	0.226980
484.763706	0.227685
485.132489	0.232364
485.501213	0.232915
485.869879	0.231426
486.238487	0.235092
486.607036	0.232477
486.975527	0.237303
487.343959	0.233045
487.712333	0.232175
488.080648	0.233574
488.448905	0.232956
488.817104	0.234095
489.185244	0.228725
489.553326	0.225480
489.921350	0.215390
490.289315	0.198177
490.657222	0.193106
491.025070	0.194200
491.392861	0.196078
491.760593	0.201793
492.128267	0.207535
492.495883	0.213046
492.863440	0.219117
493.230939	0.225686
493.598380	0.226996
493.965763	0.229132
494.333088	0.231355
494.700354	0.232973
495.067563	0.231800
495.434713	0.235062
495.801805	0.233120
496.168839	0.234520
496.535815	0.235847
496.902733	0.235907
497.269593	0.237552
497.636395	0.235192
498.003139	0.235381
498.369825	0.238431
498.736453	0.234830
499.103023	0.236362
499.469535	0.235733
499.835989	0.236326
500.202385	0.237107
500.568723	0.240254
500.935003	0.235365
501.301226	0.239483
501.667390	0.234052
502.033497	0.232056
502.399546	0.235263
502.765537	0.236651
503.131470	0.235293
503.497345	0.231511
503.863163	0.240599
504.228923	0.233131
504.594625	0.231751
504.960269	0.237436
505.325856	0.232811
505.691385	0.236802
506.056856	0.233785
506.422270	0.233325
506.787625	0.235488
507.152924	0.233074
507.518164	0.233405
507.883347	0.235208
508.248472	0.236842
508.613540	0.231865
508.978550	0.234379
509.343503	0.234843
509.708398	0.232386
510.073236	0.229997
510.438016	0.230112
510.802738	0.231002
511.167403	0.229948
511.532010	0.232124
511.896561	0.227476
512.261053	0.226209
512.625488	0.228182
512.989866	0.228677
513.354186	0.228760
513.718449	0.230667
514.082655	0.227174
514.446803	0.229192
514.810894	0.226993
515.174927	0.229468
515.538904	0.228969
515.902822	0.225850
516.266684	0.228540
516.630488	0.229504
516.994235	0.228305
517.357925	0.226953
517.721558	0.225522
518.085133	0.224981
518.448651	0.224804
518.812112	0.227180
519.175516	0.226813
519.538863	0.224496
519.902152	0.226035
520.265385	0.222880
520.628560	0.224952
520.991678	0.225310
521.354739	0.223902
521.717743	0.225441
522.080690	0.225626
522.443580	0.222831
522.806413	0.224095
523.169189	0.223264
523.531908	0.222054
523.894569	0.225701
524.257174	0.225927
524.619722	0.223165
524.982213	0.224626
525.344647	0.223300
525.707025	0.224074
526.069345	0.222396
526.431608	0.223881
526.793815	0.222123
527.155964	0.226056
527.518057	0.225130
527.880093	0.226162
528.242072	0.224442
528.603995	0.226622
528.965860	0.228199
529.327669	0.227225
529.689421	0.227945
530.051117	0.228658
530.412755	0.226530
530.774337	0.228746
531.135862	0.229487
531.497331	0.228718
531.858743	0.231123
532.220098	0.228131
532.581396	0.230718
532.942638	0.231053
533.303824	0.232083
533.664953	0.231843
534.026025	0.233381
534.387040	0.231500
534.747999	0.231574
535.108902	0.230520
535.469748	0.235466
535.830537	0.233220
536.191270	0.233667
536.551947	0.233165
536.912567	0.233208
537.273131	0.234955
537.633638	0.235162
537.994089	0.235122
538.354483	0.236568
538.714821	0.233527
539.075103	0.233266
539.435328	0.234034
539.795497	0.237620
540.155609	0.234528
540.515665	0.232494
540.875665	0.238379
541.235609	0.236732
541.595496	0.236799
541.955328	0.233387
542.315102	0.236056
542.674821	0.237216
543.034483	0.236876
543.394090	0.236919
543.753640	0.238540
544.113134	0.233685
544.472571	0.236815
544.831953	0.233814
545.191278	0.237999
545.550548	0.237264
545.909761	0.234132
546.268918	0.234689
546.628019	0.233357
546.987064	0.235811
547.346053	0.237871
547.704986	0.235540
548.063863	0.235790
548.422684	0.235829
548.781449	0.238021
549.140158	0.235452
549.498811	0.238310
549.857408	0.241630
550.215949	0.236392
550.574434	0.239311
550.932864	0.237401
551.291237	0.236028
551.649555	0.237381
552.007817	0.236987
552.366022	0.237992
552.724173	0.238161
553.082267	0.238555
553.440305	0.235327
553.798288	0.239720
554.156215	0.236398
554.514086	0.236854
554.871902	0.240267
555.229661	0.239259
555.587365	0.240046
555.945014	0.242510
556.302606	0.239428
556.660143	0.242025
557.017625	0.238222
557.375050	0.240870
557.732421	0.237586
558.089735	0.239727
558.446994	0.239748
558.804197	0.239034
559.161345	0.239144
559.518437	0.242678
559.875474	0.240036
560.232455	0.239549
560.589381	0.240622
560.946251	0.240750
561.303065	0.238439
561.659825	0.240051
562.016528	0.241185
562.373177	0.244280
562.729770	0.241381
563.086307	0.243723
563.442789	0.241240
563.799216	0.244166
564.155587	0.242960
564.511904	0.244054
564.868164	0.244388
565.224370	0.243818
565.580520	0.245743
565.936615	0.245609
566.292654	0.248482
566.648638	0.245254
567.004567	0.246291
567.360441	0.247156
567.716260	0.249209
568.072023	0.246811
568.427732	0.247590
568.783385	0.250306
569.138982	0.248289
569.494525	0.247715
569.850013	0.250461
570.205445	0.249035
570.560823	0.251824
570.916145	0.253710
571.271412	0.251872
571.626625	0.253202
571.981782	0.253643
572.336884	0.254828
572.691931	0.254419
573.046923	0.255609
573.401860	0.256746
573.756743	0.258561
574.111570	0.257462
574.466342	0.257841
574.821059	0.257120
575.175722	0.259731
575.530330	0.259591
575.884882	0.259616
576.239380	0.261867
576.593823	0.262358
576.948211	0.261722
577.302544	0.265201
577.656823	0.264791
578.011047	0.264430
578.365216	0.265412
578.719330	0.267154
579.073389	0.267388
579.427394	0.268559
579.781344	0.269509
580.135239	0.271068
580.489080	0.270500
580.842866	0.273486
581.196597	0.273239
581.550273	0.271929
581.903895	0.273152
582.257463	0.270988
582.610975	0.274185
582.964434	0.274001
583.317837	0.276661
583.671186	0.276528
584.024481	0.276684
584.377721	0.279176
584.730906	0.279954
585.084037	0.279013
585.437113	0.280934
585.790135	0.280454
586.143103	0.283273
586.496016	0.284665
586.848874	0.281980
587.201679	0.282706
587.554428	0.285837
587.907124	0.284942
588.259765	0.285243
588.612352	0.286021
588.964884	0.289806
589.317362	0.289401
589.669786	0.289255
590.022155	0.287753
590.374470	0.287130
590.726731	0.288845
591.078937	0.294137
591.431090	0.290278
591.783188	0.294684
592.135232	0.294763
592.487222	0.295204
592.839157	0.292953
593.191038	0.295353
593.542866	0.297141
593.894639	0.300668
594.246358	0.298668
594.598022	0.298225
594.949633	0.301483
595.301190	0.302475
595.652692	0.301914
596.004141	0.297883
596.355535	0.305783
596.706876	0.306338
597.058162	0.308937
597.409395	0.305887
597.760573	0.303991
598.111698	0.307286
598.462768	0.307448
598.813785	0.309181
599.164748	0.309944
599.515657	0.310666
599.866511	0.313970
600.217312	0.309231
600.568060	0.314425
600.918753	0.310880
601.269392	0.311503
601.619978	0.314931
601.970510	0.312561
602.320988	0.312516
602.671412	0.310010
603.021783	0.313407
603.372100	0.314288
603.722363	0.313820
604.072572	0.314874
604.422728	0.314713
604.772830	0.316877
605.122878	0.316507
605.472872	0.316729
605.822813	0.315240
606.172701	0.318029
606.522534	0.315099
606.872314	0.314875
607.222041	0.315710
607.571714	0.314468
607.921333	0.315706
608.270899	0.315459
608.620411	0.312282
608.969870	0.315978
609.319276	0.316281
609.668627	0.316055
610.017926	0.314640
610.367171	0.312741
610.716362	0.314083
611.065500	0.314333
611.414585	0.312840
611.763616	0.313430
612.112594	0.314033
612.461518	0.313142
612.810389	0.311141
613.159207	0.313372
613.507971	0.315292
613.856682	0.310718
614.205340	0.312381
614.553945	0.309341
614.902496	0.313352
615.250994	0.311199
615.599439	0.311794
615.947830	0.311613
616.296169	0.312746
616.644454	0.311454
616.992686	0.312156
617.340864	0.309511
617.688990	0.313255
618.037063	0.309880
618.385082	0.312281
618.733048	0.308470
619.080961	0.310883
619.428821	0.310188
619.776628	0.309734
620.124382	0.312062
620.472083	0.312610
620.819731	0.311556
621.167326	0.315479
621.514868	0.315143
621.862357	0.319337
622.209793	0.319067
622.557176	0.321265
622.904506	0.322660
623.251783	0.324713
623.599007	0.326918
623.946179	0.326560
624.293297	0.328545
624.640363	0.332307
624.987376	0.333179
625.334336	0.335511
625.681243	0.337703
626.028097	0.338625
626.374899	0.339592
626.721647	0.339327
627.068343	0.342600
627.414987	0.343880
627.761577	0.346314
628.108115	0.344321
628.454600	0.349257
628.801032	0.346884
629.147412	0.348877
629.493739	0.349067
629.840014	0.352788
630.186236	0.349539
630.532405	0.355296
630.878521	0.352717
631.224585	0.354778
631.570597	0.358484
631.916556	0.357342
632.262462	0.357184
632.608316	0.359579
632.954117	0.360106
633.299866	0.361063
633.645562	0.361619
633.991206	0.365655
634.336797	0.368623
634.682336	0.371100
635.027823	0.372071
635.373257	0.373121
635.718639	0.376702
636.063968	0.375700
636.409245	0.381854
636.754470	0.382161
637.099642	0.384346
637.444762	0.387973
637.789829	0.386561
638.134845	0.390347
638.479808	0.391337
638.824719	0.390859
639.169577	0.394672
639.514383	0.393659
639.859137	0.398335
640.203839	0.398109
640.548489	0.398914
640.893086	0.400306
641.237632	0.401767
641.582125	0.400038
641.926566	0.401301
642.270955	0.401545
642.615292	0.402470
642.959576	0.401501
643.303809	0.401715
643.647990	0.401495
643.992118	0.401596
644.336195	0.405237
644.680219	0.403809
645.024192	0.404217
645.368112	0.397945
645.711981	0.397259
646.055797	0.392159
646.399562	0.394931
646.743274	0.387216
647.086935	0.384527
647.430544	0.384318
647.774101	0.383277
648.117606	0.382976
648.461059	0.383442
648.804460	0.385995
649.147810	0.391024
649.491108	0.392749
649.834354	0.394507
650.177548	0.399703
650.520690	0.405001
650.863781	0.406204
651.206820	0.405623
651.549807	0.410509
651.892742	0.414089
652.235626	0.413398
652.578458	0.414965
652.921238	0.420586
653.263967	0.418968
653.606644	0.423079
653.949269	0.422285
654.291843	0.426715
654.634365	0.422528
654.976836	0.426045
655.319255	0.426827
655.661622	0.428019
656.003938	0.427513
656.346203	0.430739
656.688416	0.428827
657.030577	0.432504
657.372687	0.434135
657.714746	0.434527
658.056753	0.431824
658.398708	0.435983
658.740612	0.436789
659.082465	0.432888
659.424266	0.433648
659.766016	0.432735
660.107715	0.435629
660.449362	0.434077
660.790958	0.435603
661.132503	0.435644
661.473996	0.433593
661.815438	0.433961
662.156829	0.433942
662.498168	0.435419
662.839456	0.436614
663.180693	0.434347
663.521879	0.434400
663.863013	0.434998
664.204097	0.433671
664.545129	0.430609
664.886110	0.430599
665.227040	0.428275
665.567918	0.431181
665.908746	0.428815
666.249522	0.428441
666.590248	0.430054
666.930922	0.427880
667.271545	0.426629
667.612118	0.427102
667.952639	0.428343
668.293109	0.426980
668.633528	0.429732
668.973896	0.429573
669.314213	0.430122
669.654480	0.431952
669.994695	0.432145
670.334859	0.432819
670.674973	0.433243
671.015035	0.433267
671.355047	0.432705
671.695008	0.434388
672.034918	0.436260
672.374777	0.435588
672.714585	0.436759
673.054342	0.436311
673.394049	0.436612
673.733705	0.434501
674.073310	0.435764
674.412864	0.438261
674.752368	0.439545
675.091820	0.439091
675.431223	0.443758
675.770574	0.443693
676.109875	0.446705
676.449125	0.446470
676.788324	0.448315
677.127473	0.454300
677.466571	0.453972
677.805619	0.455581
678.144616	0.457012
678.483562	0.458635
678.822458	0.461425
679.161303	0.462233
679.500098	0.462351
679.838842	0.463732
680.177535	0.463832
680.516179	0.462155
680.854771	0.461034
681.193314	0.454915
681.531805	0.446175
681.870247	0.434537
682.208638	0.427097
682.546978	0.425721
682.885268	0.427757
683.223508	0.433827
683.561697	0.437646
683.899836	0.439980
684.237925	0.443803
684.575963	0.446142
684.913951	0.449384
685.251889	0.445182
685.589776	0.447125
685.927614	0.449446
686.265401	0.443949
686.603137	0.445209
686.940824	0.439220
687.278460	0.437714
687.616046	0.436530
687.953582	0.431759
688.291068	0.432994
688.628504	0.428745
688.965889	0.430950
689.303224	0.435278
689.640510	0.438973
689.977745	0.444678
690.314930	0.452841
690.652065	0.457174
690.989150	0.464822
691.326185	0.470967
691.663170	0.475397
692.000105	0.482953
692.336990	0.489674
692.673825	0.492646
693.010610	0.499492
693.347345	0.504462
693.684030	0.506285
694.020665	0.511308
694.357251	0.520435
694.693786	0.518849
695.030272	0.523755
695.366707	0.527330
695.703093	0.530202
696.039429	0.528283
696.375716	0.529771
696.711952	0.532681
697.048139	0.534685
697.384276	0.536351
697.720363	0.534885
698.056400	0.534222
698.392388	0.540193
698.728326	0.542828
699.064214	0.545625
699.400053	0.545936
699.735842	0.549560
700.071581	0.552393
700.407270	0.555337
700.742910	0.558331
701.078501	0.564675
701.414042	0.564969
701.749533	0.568352
702.084974	0.576807
702.420366	0.569760
702.755709	0.577238
703.091002	0.584780
703.426246	0.577968
703.761440	0.583584
704.096584	0.588932
704.431679	0.585607
704.766725	0.587936
705.101721	0.588916
705.436668	0.585181
705.771565	0.592469
706.106413	0.589052
706.441212	0.584657
706.775961	0.583023
707.110661	0.586158
707.445311	0.582505
707.779913	0.578984
708.114465	0.577972
708.448967	0.574628
708.783421	0.566694
709.117825	0.561569
709.452180	0.561693
709.786485	0.555179
710.120742	0.545383
710.454949	0.547340
710.789107	0.539104
711.123216	0.530074
711.457275	0.532765
711.791286	0.522743
712.125247	0.521561
712.459159	0.532324
712.793023	0.524870
713.126837	0.529323
713.460602	0.529626
713.794318	0.538729
714.127985	0.537972
714.461602	0.547698
714.795171	0.551285
715.128691	0.559241
715.462162	0.566886
715.795584	0.571858
716.128957	0.574828
716.462281	0.580968
716.795556	0.584744
717.128782	0.589986
717.461960	0.599773
717.795088	0.597910
718.128167	0.604580
718.461198	0.612336
718.794180	0.613954
719.127113	0.616261
719.459997	0.619923
719.792833	0.626235
720.125619	0.627308
720.458357	0.633067
720.791046	0.633248
721.123686	0.636732
721.456278	0.644022
721.788821	0.640252
722.121315	0.644372
722.453761	0.649016
722.786158	0.646391
723.118506	0.642885
723.450805	0.651444
723.783056	0.647376
724.115259	0.644447
724.447412	0.643799
724.779518	0.645039
725.111574	0.644110
725.443582	0.639528
725.775542	0.642136
726.107453	0.633949
726.439315	0.634479
726.771129	0.632253
727.102895	0.625781
727.434612	0.618363
727.766281	0.616233
728.097901	0.616295
728.429473	0.615646
728.760996	0.614415
729.092471	0.614068
729.423897	0.617673
729.755276	0.617123
730.086606	0.617174
730.417887	0.612031
730.749120	0.602066
731.080305	0.593184
731.411442	0.589451
731.742530	0.593573
732.073570	0.593633
732.404562	0.585556
732.735506	0.587472
733.066401	0.592305
733.397249	0.601104
733.728048	0.612315
734.058798	0.624038
734.389501	0.635944
734.720156	0.645261
735.050762	0.653077
735.381320	0.654186
735.711831	0.663202
736.042293	0.668542
736.372707	0.663402
736.703073	0.668371
737.033391	0.671473
737.363661	0.667927
737.693883	0.663166
738.024056	0.661847
738.354182	0.662997
738.684260	0.652059
739.014290	0.648052
739.344272	0.648495
739.674207	0.642118
740.004093	0.641592
740.333931	0.641963
740.663722	0.641574
740.993464	0.642971
741.323159	0.646013
741.652806	0.651258
741.982405	0.656241
742.311956	0.659956
742.641460	0.663892
742.970915	0.666149
743.300323	0.674925
743.629683	0.680684
743.958996	0.682212
744.288260	0.687530
744.617477	0.692816
744.946647	0.694282
745.275768	0.699487
745.604842	0.700065
745.933869	0.709485
746.262847	0.710785
746.591778	0.703480
746.920662	0.709676
747.249498	0.716386
747.578286	0.707153
747.907027	0.703788
748.235720	0.704527
748.564365	0.698689
748.892963	0.699458
749.221514	0.701789
749.550017	0.707703
749.878473	0.706737
750.206881	0.713601
750.535242	0.714563
750.863555	0.714964
751.191821	0.715465
751.520039	0.718999
751.848210	0.723348
752.176334	0.716739
752.504411	0.715506
752.832440	0.723243
753.160421	0.727034
753.488356	0.725486
753.816243	0.722672
754.144082	0.731574
754.471875	0.734726
754.799620	0.730168
755.127318	0.731708
755.454969	0.731320
755.782572	0.731075
756.110129	0.735875
756.437638	0.738669
756.765100	0.734879
757.092515	0.732906
757.419882	0.731913
757.747203	0.736863
758.074477	0.736295
758.401703	0.734126
758.728882	0.728190
759.056014	0.727893
759.383099	0.725887
759.710138	0.727830
760.037129	0.724686
760.364073	0.718558
760.690970	0.720831
761.017820	0.726794
761.344623	0.722101
761.671379	0.713090
761.998088	0.701716
762.324751	0.678217
762.651366	0.636529
762.977935	0.569288
763.304456	0.517162
763.630931	0.507984
763.957359	0.546747
764.283740	0.591899
764.610074	0.618624
764.936362	0.649855
765.262602	0.675804
765.588796	0.697397
765.914943	0.716204
766.241044	0.733276
766.567097	0.740174
766.893104	0.750753
767.219064	0.756609
767.544978	0.762910
767.870845	0.777293
768.196665	0.780571
768.522438	0.778258
768.848165	0.779662
769.173846	0.789173
769.499479	0.792883
769.825066	0.797436
770.150607	0.801769
770.476101	0.796373
770.801548	0.798000
771.126949	0.809758
771.452303	0.813484
771.777611	0.812134
772.102872	0.811955
772.428087	0.816405
772.753256	0.819826
773.078378	0.821934
773.403453	0.831883
773.728482	0.835340
774.053465	0.829930
774.378401	0.832894
774.703291	0.841243
775.028135	0.839760
775.352932	0.842399
775.677683	0.844266
776.002388	0.845440
776.327046	0.845033
776.651658	0.848346
776.976224	0.850652
777.300743	0.852390
777.625216	0.854359
777.949643	0.855462
778.274024	0.857312
778.598359	0.858084
778.922647	0.856929
779.246889	0.857643
779.571086	0.861022
779.895236	0.862776
780.219339	0.860957
780.543397	0.857225
780.867409	0.855678
781.191374	0.858301
781.515294	0.859841
781.839167	0.858409
782.162995	0.862169
782.486776	0.858357
782.810511	0.860180
783.134201	0.863913
783.457844	0.860681
783.781441	0.863841
784.104993	0.869483
784.428498	0.869993
784.751958	0.865279
785.075372	0.867704
785.398739	0.872330
785.722061	0.867745
786.045337	0.862688
786.368568	0.868802
786.691752	0.870327
787.014891	0.856675
787.337983	0.847264
787.661030	0.840485
787.984031	0.823008
788.306987	0.809556
788.629897	0.811271
788.952760	0.815037
789.275579	0.820221
789.598351	0.835508
789.921078	0.849066
790.243759	0.850632
790.566395	0.855798
790.888984	0.862677
791.211529	0.868258
791.534027	0.870664
791.856480	0.873583
792.178888	0.878695
792.501249	0.880497
792.823566	0.882059
793.145836	0.882734
793.468062	0.883887
793.790241	0.884432
794.112375	0.881928
794.434464	0.877161
794.756507	0.876217
795.078505	0.876096
795.400457	0.871805
795.722364	0.859257
796.044226	0.852459
796.366042	0.851283
796.687812	0.854919
797.009538	0.850587
797.331218	0.853792
797.652852	0.858978
797.974442	0.862909
798.295986	0.862855
798.617484	0.866039
798.938938	0.869776
799.260346	0.874585
799.581709	0.877048
799.903026	0.879132
800.224299	0.879925
800.545526	0.883903
800.866708	0.887470
801.187845	0.891820
801.508936	0.891467
801.829983	0.889796
802.150984	0.892084
802.471940	0.896109
802.792851	0.895656
803.113717	0.897881
803.434538	0.896100
803.755314	0.897145
804.076045	0.899880
804.396731	0.899294
804.717372	0.899371
805.037967	0.900986
805.358518	0.898057
805.679024	0.895915
805.999485	0.895503
806.319901	0.896315
806.640272	0.897815
806.960598	0.895195
807.280879	0.893874
807.601115	0.892470
807.921306	0.895106
808.241453	0.896465
808.561554	0.892378
808.881611	0.892826
809.201623	0.894875
809.521590	0.896037
809.841513	0.896797
810.161390	0.895956
810.481223	0.896980
810.801011	0.901009
811.120755	0.902753
811.440453	0.901662
811.760107	0.900201
812.079716	0.899476
812.399281	0.903461
812.718801	0.905108
813.038276	0.906095
813.357707	0.906103
813.677093	0.902850
813.996434	0.906435
814.315731	0.908223
814.634983	0.908974
814.954191	0.907095
815.273354	0.904601
815.592473	0.900839
815.911547	0.900746
816.230577	0.897936
816.549562	0.894925
816.868502	0.896455
817.187399	0.892366
817.506250	0.886931
817.825058	0.889268
818.143821	0.886509
818.462539	0.880671
818.781213	0.872862
819.099843	0.861153
819.418429	0.844683
819.736970	0.828609
820.055466	0.808435
820.373919	0.782766
820.692327	0.750329
821.010691	0.715238
821.329011	0.636995
821.647286	0.520872
821.965517	0.406582
822.283704	0.363608
822.601847	0.365227
822.919945	0.400233
823.237999	0.434524
823.556010	0.482069
823.873976	0.537499
824.191897	0.588454
824.509775	0.631198
824.827609	0.677394
825.145398	0.699665
825.463144	0.702561
825.780845	0.684769
826.098502	0.666544
826.416116	0.620195
826.733685	0.576051
827.051210	0.567181
827.368692	0.582500
827.686129	0.619992
828.003522	0.672898
828.320872	0.722003
828.638177	0.765244
828.955439	0.799054
829.272656	0.820719
829.589830	0.837924
829.906960	0.853522
830.224046	0.865632
830.541088	0.876537
830.858086	0.880203
831.175041	0.887322
831.491952	0.885906
831.808819	0.882676
832.125642	0.875708
832.442421	0.861067
832.759157	0.838789
833.075849	0.792365
833.392497	0.727758
833.709101	0.687704
834.025662	0.696857
834.342179	0.728778
834.658653	0.767650
834.975083	0.803776
835.291469	0.830912
835.607811	0.853425
835.924110	0.869801
836.240366	0.885930
836.556578	0.900393
836.872746	0.908415
837.188871	0.914226
837.504952	0.919687
837.820990	0.922588
838.136984	0.926890
838.452935	0.929121
838.768842	0.931378
839.084706	0.925276
839.400526	0.898414
839.716303	0.857353
840.032037	0.835370
840.347727	0.838017
840.663373	0.857536
840.978977	0.879066
841.294537	0.902143
841.610054	0.919538
841.925527	0.927516
842.240957	0.933603
842.556344	0.939386
842.871687	0.944595
843.186987	0.949589
843.502244	0.950368
843.817458	0.952674
844.132629	0.954603
844.447756	0.959971
844.762840	0.960056
845.077881	0.959731
845.392879	0.958344
845.707833	0.962712
846.022745	0.965442
846.337613	0.965359
846.652438	0.965418
846.967221	0.965460
847.281960	0.964319
847.596656	0.967560
847.911309	0.965658
848.225919	0.967991
848.540485	0.967857
848.855009	0.968601
849.169490	0.969457
849.483928	0.969180
849.798323	0.969505
850.112675	0.969307
850.426984	0.968511
850.741251	0.969923
851.055474	0.969734
851.369654	0.967324
851.683792	0.969235
851.997887	0.969941
852.311938	0.970680
852.625947	0.970436
852.939914	0.968770
853.253837	0.967948
853.567718	0.969876
853.881555	0.970829
854.195350	0.968446
854.509103	0.969453
854.822812	0.969788
855.136479	0.970171
855.450103	0.970576
855.763685	0.968323
856.077224	0.967995
856.390720	0.970935
856.704173	0.970117
857.017584	0.967862
857.330953	0.966862
857.644278	0.967812
857.957561	0.966673
858.270802	0.968497
858.584000	0.967681
858.897155	0.966793
859.210268	0.967719
859.523339	0.968036
859.836367	0.968456
860.149352	0.970459
860.462295	0.969208
860.775195	0.969938
861.088054	0.969693
861.400869	0.969495
861.713642	0.970246
862.026373	0.970466
862.339062	0.970436
862.651708	0.967778
862.964312	0.966375
863.276873	0.969570
863.589392	0.968186
863.901869	0.965727
864.214303	0.963621
864.526696	0.963263
864.839045	0.963513
865.151353	0.961389
865.463619	0.961611
865.775842	0.963030
866.088023	0.961574
866.400162	0.961973
866.712258	0.962545
867.024313	0.962608
867.336325	0.963494
867.648296	0.962482
867.960224	0.961700
868.272110	0.960846
868.583954	0.963814
868.895755	0.963341
869.207515	0.960999
869.519233	0.959450
869.830909	0.960265
870.142542	0.962169
870.454134	0.961187
870.765684	0.960993
871.077191	0.957572
871.388657	0.957289
871.700081	0.957051
872.011463	0.957810
872.322803	0.957235
872.634101	0.955501
872.945357	0.953377
873.256571	0.953279
873.567744	0.953276
873.878874	0.954280
874.189963	0.951929
874.501010	0.950921
874.812015	0.949668
875.122979	0.950095
875.433900	0.952745
875.744780	0.953512
876.055618	0.949964
876.366415	0.949160
876.677169	0.949211
876.987882	0.950949
877.298554	0.950027
877.609183	0.947837
877.919771	0.944927
878.230317	0.941729
878.540822	0.940594
878.851285	0.934669
879.161707	0.926012
879.472087	0.913698
879.782425	0.897337
880.092722	0.863324
880.402977	0.810846
880.713191	0.748776
881.023363	0.689084
881.333494	0.654972
881.643583	0.627307
881.953631	0.627451
882.263637	0.656276
882.573602	0.694734
882.883526	0.721145
883.193408	0.745175
883.503248	0.767993
883.813048	0.795559
884.122806	0.825524
884.432522	0.849359
884.742197	0.868622
885.051831	0.879655
885.361424	0.890968
885.670975	0.901764
885.980485	0.912124
886.289954	0.918299
886.599382	0.923735
886.908768	0.928479
887.218113	0.933054
887.527417	0.938399
887.836680	0.940869
888.145901	0.943189
888.455082	0.945481
888.764221	0.949149
889.073319	0.951799
889.382376	0.953310
889.691392	0.951996
890.000366	0.952272
890.309300	0.953512
890.618193	0.953218
890.927044	0.949959
891.235855	0.951159
891.544625	0.951838
891.853353	0.951195
892.162041	0.948710
892.470687	0.942224
892.779293	0.937488
893.087858	0.932948
893.396381	0.925397
893.704864	0.911703
894.013306	0.888160
894.321707	0.861076
894.630068	0.845522
894.938387	0.840997
895.246665	0.843111
895.554903	0.854911
895.863100	0.868097
896.171256	0.885360
896.479371	0.905371
896.787446	0.917786
897.095480	0.923751
897.403473	0.927489
897.711425	0.931936
898.019336	0.938803
898.327207	0.943109
898.635038	0.944565
898.942827	0.944599
899.250576	0.947705
899.558284	0.952085
899.865952	0.953334
900.173579	0.954475
900.481165	0.955744
900.788711	0.959216
901.096216	0.961476
901.403681	0.961391
901.711105	0.961859
902.018489	0.964282
902.325832	0.962568
902.633135	0.961574
902.940397	0.955335
903.247619	0.943857
903.554800	0.917114
903.861941	0.877375
904.169041	0.840591
904.476101	0.823643
904.783121	0.823644
905.090100	0.840877
905.397039	0.861786
905.703938	0.884817
906.010796	0.904780
906.317614	0.921086
906.624391	0.933559
906.931129	0.942806
907.237826	0.949892
907.544483	0.958573
907.851099	0.962181
908.157675	0.967559
908.464211	0.969701
908.770707	0.972640
909.077163	0.974061
909.383578	0.974529
909.689954	0.975480
909.996289	0.975095
910.302584	0.977004
910.608839	0.979730
910.915054	0.978269
911.221229	0.977907
911.527363	0.977697
911.833458	0.976633
912.139513	0.976980
912.445527	0.975382
912.751502	0.974065
913.057436	0.972247
913.363331	0.968967
913.669186	0.966156
913.975000	0.961012
914.280775	0.954194
914.586510	0.946864
914.892205	0.934671
915.197859	0.913640
915.503475	0.885566
915.809050	0.865465
916.114585	0.859251
916.420081	0.856367
916.725536	0.852978
917.030952	0.862162
917.336328	0.875852
917.641665	0.889338
917.946961	0.906203
918.252218	0.917024
918.557435	0.927188
918.862612	0.934599
919.167750	0.941074
919.472848	0.945820
919.777906	0.952055
920.082925	0.956820
920.387904	0.961891
920.692843	0.962494
920.997743	0.963805
921.302603	0.967677
921.607423	0.968152
921.912204	0.971435
922.216946	0.970559
922.521647	0.974514
922.826310	0.973717
923.130932	0.976181
923.435516	0.977905
923.740059	0.978666
924.044564	0.978493
924.349028	0.980219
924.653454	0.983439
924.957840	0.985476
925.262186	0.983668
925.566493	0.983160
925.870761	0.983909
926.174989	0.986078
926.479178	0.987962
926.783328	0.988016
927.087438	0.987474
927.391509	0.987113
927.695541	0.990001
927.999533	0.988571
928.303486	0.990041
928.607400	0.990067
928.911275	0.989108
929.215110	0.989842
929.518906	0.990367
929.822663	0.990603
930.126381	0.990981
930.430060	0.990853
930.733699	0.990994
931.037299	0.988882
931.340861	0.989684
931.644383	0.989380
931.947866	0.989118
932.251309	0.990114
932.554714	0.991116
932.858080	0.989889
933.161407	0.990161
933.464694	0.990711
933.767943	0.990087
934.071153	0.990772
934.374323	0.991777
934.677455	0.991345
934.980548	0.991771
935.283602	0.990487
935.586617	0.991632
935.889593	0.989492
936.192530	0.990773
936.495428	0.990245
936.798287	0.990521
937.101108	0.990236
937.403890	0.989776
937.706632	0.987811
938.009336	0.987406
938.312002	0.984732
938.614628	0.983796
938.917216	0.982889
939.219765	0.980916
939.522275	0.983336
939.824747	0.982792
940.127179	0.982727
940.429573	0.985441
940.731929	0.983671
941.034246	0.983912
941.336524	0.986124
941.638763	0.985614
941.940964	0.986618
942.243126	0.986622
942.545250	0.987362
942.847335	0.988576
943.149381	0.987925
943.451389	0.989037
943.753359	0.987206
944.055290	0.989819
944.357182	0.988922
944.659036	0.987706
944.960851	0.989111
945.262628	0.988914
945.564367	0.991656
945.866067	0.989387
946.167729	0.991231
946.469352	0.990185
946.770937	0.988354
947.072484	0.990852
947.373992	0.990875
947.675462	0.990100
947.976893	0.990275
948.278286	0.989836
948.579641	0.992486
948.880958	0.991367
949.182236	0.990990
949.483476	0.991511
949.784678	0.990464
950.085841	0.991594
950.386967	0.991367
950.688054	0.990308
950.989103	0.990753
951.290114	0.989422
951.591087	0.988918
951.892021	0.990016
952.192917	0.988884
952.493776	0.987996
952.794596	0.987798
953.095378	0.987492
953.396122	0.987942
953.696828	0.987130
953.997496	0.989615
954.298126	0.991313
954.598718	0.990521
954.899272	0.990864
955.199788	0.991312
955.500266	0.991657
955.800706	0.992926
956.101108	0.993519
956.401472	0.992117
956.701798	0.993959
957.002087	0.993250
957.302337	0.993367
957.602550	0.995967
957.902724	0.995207
958.202861	0.995887
958.502960	0.995716
958.803022	0.993355
959.103045	0.996334
959.403031	0.996109
959.702979	0.995793
960.002889	0.995820
960.302762	0.994474
960.602596	0.996264
960.902393	0.995120
961.202153	0.996371
961.501875	0.996731
961.801559	0.994441
962.101205	0.996269
962.400814	0.997621
962.700385	0.996621
962.999918	0.997631
963.299414	0.997017
963.598873	0.996361
963.898293	0.995715
964.197677	0.995786
964.497022	0.996898
964.796331	0.997988
965.095601	0.997068
965.394835	0.996768
965.694030	0.996558
965.993189	0.996477
966.292309	0.996750
966.591393	0.997235
966.890439	0.997270
967.189447	0.996790
967.488419	0.996400
967.787353	0.995338
968.086249	0.996571
968.385108	0.997365
968.683930	0.997464
968.982714	0.997492
969.281462	0.996865
969.580172	0.996583
969.878844	0.996609
970.177480	0.997397
970.476078	0.995924
970.774639	0.997110
971.073162	0.997175
971.371649	0.996129
971.670098	0.996079
971.968510	0.998114
972.266885	0.995538
972.565223	0.996132
972.863524	0.995892
973.161788	0.996140
973.460014	0.997235
973.758204	0.995923
974.056356	0.996581
974.354471	0.993876
974.652550	0.996324
974.950591	0.995703
975.248595	0.995916
975.546563	0.996107
975.844493	0.997224
976.142386	0.997936
976.440243	0.998109
976.738062	0.997379
977.035845	0.998790
977.333590	0.996829
977.631299	0.998251
977.928971	0.996863
978.226606	0.996417
978.524204	0.996762
978.821765	0.998235
979.119290	0.996756
979.416777	0.997254
979.714228	0.997651
980.011642	0.995848
980.309020	0.997734
980.606360	0.998002
980.903664	0.997837
981.200931	0.996205
981.498162	0.995496
981.795356	0.994707
982.092513	0.994451
982.389633	0.993694
982.686717	0.990223
982.983764	0.991869
983.280775	0.990456
983.577749	0.990193
983.874686	0.991800
984.171587	0.990778
984.468451	0.993528
984.765279	0.994477
985.062070	0.994077
985.358824	0.995424
985.655543	0.994732
985.952224	0.996916
986.248869	0.996065
986.545478	0.996857
986.842050	0.997650
987.138586	0.995893
987.435086	0.998131
987.731549	0.998538
988.027975	0.996987
988.324366	0.997578
988.620719	0.997713
988.917037	0.996494
989.213318	0.998224
989.509563	0.999542
989.805772	0.999029
990.101944	0.998045
990.398080	0.997846
990.694180	0.997831
990.990244	0.998291
991.286271	0.997693
991.582262	0.998841
991.878217	0.996845
992.174136	0.998124
992.470019	0.998913
992.765865	0.997965
993.061676	0.998738
993.357450	0.997305
993.653188	0.998015
993.948890	0.998276
994.244556	0.998476
994.540186	0.997443
994.835780	0.995666
995.131337	0.997422
995.426859	0.995849
995.722345	0.997112
996.017795	0.995862
996.313208	0.995279
996.608586	0.996521
996.903928	0.996020
997.199234	0.996165
997.494504	0.997136
997.789738	0.996010
998.084936	0.995641
998.380099	0.997135
998.675225	0.997846
998.970316	0.997006
999.265371	0.998191
999.560390	0.998184
999.855373	0.998403
1000.150320	0.997497
1000.445232	0.998243
1000.740108	0.998380
1001.034948	0.998119
1001.329752	0.999360
1001.624521	0.998496
1001.919254	0.998677
1002.213951	0.998977
1002.508613	0.999020
1002.803239	0.999016
1003.097829	0.998651
1003.392384	0.999213
1003.686903	0.998270
1003.981386	0.998072
1004.275834	0.998896
1004.570246	0.999545
1004.864623	0.998827
1005.158964	0.999442
1005.453270	0.998341
1005.747540	0.997778
1006.041775	0.999344
1006.335974	0.999029
1006.630138	1.000338
1006.924266	1.000363
1007.218359	1.000210
1007.512416	0.999012
1007.806438	0.998341
1008.100425	1.000107
1008.394376	0.999532
1008.688292	0.998513
1008.982172	1.001051
1009.276017	0.999108
1009.569827	0.998139
1009.863602	0.998707
1010.157341	0.998709
1010.451045	0.997710
1010.744714	0.999121
1011.038347	0.998066
1011.331945	0.999072
1011.625508	0.998225
1011.919036	0.999918
1012.212528	0.998917
1012.505986	0.997179
1012.799408	0.999120
1013.092795	1.000420
1013.386147	0.999204
1013.679464	0.998734
1013.972745	0.998014
1014.265992	0.998616
1014.559204	0.998913
1014.852380	0.998594
1015.145521	0.998292
1015.438628	0.998823
1015.731699	0.998812
1016.024736	0.999835
1016.317737	0.999925
1016.610703	0.998751
1016.903635	1.000567
1017.196531	0.998375
1017.489393	0.999627
1017.782219	0.999001
1018.075011	0.999132
1018.367768	0.999324
1018.660490	0.999048
1018.953177	0.999048
1019.245829	0.999048
