Dividing Wavelength (nm)	Counts (n)	Blue Motor Position (mm): 0.000000	Red Motor Position (mm): 1.900000	
326.493990	1.001425
326.888308	1.001425
327.282561	1.001425
327.676750	1.000397
328.070874	1.000124
328.464933	1.000315
328.858929	0.999568
329.252859	0.999299
329.646726	0.999100
330.040528	0.999829
330.434265	0.999566
330.827938	1.000325
331.221547	1.000856
331.615091	1.000695
332.008571	1.000930
332.401986	0.999887
332.795338	1.000537
333.188625	0.998699
333.581847	1.000675
333.975006	0.998974
334.368100	0.999523
334.761129	0.999382
335.154095	1.001223
335.546996	0.997593
335.939833	0.993002
336.332606	0.993330
336.725315	0.993010
337.117960	0.995115
337.510540	0.993762
337.903056	0.994310
338.295508	0.992703
338.687896	0.994779
339.080220	0.992855
339.472480	0.993384
339.864676	0.992839
340.256807	0.993589
340.648875	0.995004
341.040879	0.993945
341.432818	0.993473
341.824694	0.993053
342.216506	0.992884
342.608253	0.994060
342.999937	0.993140
343.391557	0.993826
343.783113	0.993743
344.174605	0.993193
344.566033	0.994798
344.957397	0.992726
345.348697	0.992932
345.739934	0.994199
346.131106	0.993176
346.522215	0.993349
346.913260	0.993290
347.304241	0.993762
347.695159	0.992961
348.086012	0.992299
348.476802	0.992058
348.867528	0.994323
349.258191	0.991642
349.648789	0.994079
350.039324	0.992709
350.429796	0.994404
350.820203	0.993624
351.210548	0.992701
351.600828	0.992877
351.991045	0.993273
352.381198	0.992151
352.771288	0.992007
353.161314	0.992601
353.551276	0.993389
353.941175	0.992806
354.331010	0.993274
354.720782	0.993207
355.110490	0.992474
355.500135	0.992964
355.889717	0.992029
356.279235	0.992395
356.668689	0.991335
357.058080	0.993294
357.447408	0.993684
357.836672	0.992881
358.225873	0.990886
358.615010	0.992305
359.004084	0.992820
359.393095	0.993377
359.782043	0.992766
360.170927	0.992972
360.559748	0.992691
360.948505	0.992088
361.337199	0.991279
361.725830	0.991706
362.114398	0.992375
362.502903	0.991948
362.891344	0.994079
363.279722	0.990562
363.668037	0.991767
364.056289	0.992820
364.444478	0.991863
364.832603	0.992227
365.220665	0.991362
365.608665	0.992602
365.996601	0.990463
366.384474	0.990894
366.772284	0.991198
367.160031	0.989140
367.547715	0.989125
367.935336	0.988522
368.322893	0.987941
368.710388	0.985615
369.097820	0.985205
369.485189	0.982927
369.872495	0.981016
370.259738	0.977019
370.646918	0.976944
371.034035	0.973467
371.421090	0.970075
371.808081	0.964419
372.195010	0.963272
372.581875	0.957728
372.968678	0.953256
373.355418	0.949196
373.742096	0.942552
374.128710	0.938917
374.515262	0.932533
374.901751	0.927008
375.288177	0.923954
375.674540	0.915193
376.060841	0.909187
376.447079	0.904393
376.833254	0.895897
377.219367	0.890505
377.605417	0.880176
377.991404	0.876896
378.377329	0.869541
378.763191	0.864543
379.148991	0.856000
379.534727	0.847943
379.920402	0.839796
380.306013	0.836595
380.691563	0.823521
381.077049	0.816993
381.462474	0.812879
381.847835	0.801911
382.233134	0.796583
382.618371	0.796972
383.003545	0.779848
383.388657	0.778005
383.773706	0.771270
384.158693	0.766763
384.543618	0.760829
384.928480	0.753658
385.313280	0.742266
385.698017	0.743246
386.082692	0.732780
386.467305	0.730526
386.851856	0.723665
387.236344	0.718381
387.620770	0.712578
388.005133	0.707158
388.389435	0.702653
388.773674	0.699467
389.157851	0.691383
389.541965	0.689141
389.926018	0.695520
390.310008	0.682906
390.693936	0.678714
391.077802	0.671506
391.461606	0.673261
391.845348	0.662256
392.229027	0.662928
392.612645	0.660232
392.996200	0.647606
393.379694	0.641006
393.763125	0.630713
394.146494	0.636110
394.529801	0.625592
394.913047	0.618835
395.296230	0.623658
395.679351	0.615347
396.062410	0.611320
396.445408	0.615178
396.828343	0.609578
397.211217	0.604835
397.594028	0.618194
397.976778	0.607264
398.359466	0.604311
398.742092	0.599044
399.124656	0.611561
399.507158	0.600464
399.889598	0.596491
400.271977	0.587764
400.654294	0.592957
401.036549	0.591080
401.418742	0.595232
401.800874	0.580074
402.182944	0.579024
402.564952	0.569602
402.946898	0.572633
403.328783	0.571650
403.710606	0.583577
404.092367	0.558069
404.474067	0.563509
404.855705	0.562363
405.237282	0.571447
405.618797	0.557840
406.000250	0.553190
406.381642	0.544006
406.762972	0.548591
407.144240	0.547406
407.525447	0.547850
407.906593	0.540332
408.287677	0.535201
408.668700	0.543808
409.049661	0.537395
409.430560	0.533409
409.811399	0.541382
410.192176	0.522907
410.572891	0.530268
410.953545	0.518288
411.334138	0.531653
411.714669	0.524840
412.095139	0.535862
412.475547	0.521222
412.855894	0.522782
413.236180	0.521928
413.616405	0.527112
413.996568	0.517810
414.376670	0.524017
414.756711	0.528632
415.136691	0.524863
415.516609	0.516820
415.896466	0.512809
416.276262	0.508982
416.655997	0.510894
417.035670	0.492691
417.415283	0.483992
417.794834	0.489393
418.174324	0.493907
418.553753	0.503594
418.933121	0.485839
419.312428	0.478916
419.691674	0.484916
420.070859	0.473544
420.449983	0.481646
420.829045	0.471709
421.208047	0.480390
421.586988	0.474001
421.965867	0.472598
422.344686	0.461074
422.723444	0.473862
423.102141	0.490322
423.480777	0.463733
423.859352	0.483964
424.237866	0.461059
424.616319	0.462127
424.994712	0.452812
425.373044	0.463122
425.751314	0.451316
426.129524	0.467661
426.507673	0.451397
426.885762	0.445100
427.263789	0.450477
427.641756	0.460180
428.019662	0.450252
428.397508	0.449076
428.775292	0.453811
429.153016	0.445552
429.530679	0.452213
429.908282	0.445391
430.285824	0.455645
430.663305	0.433795
431.040726	0.454896
431.418086	0.455173
431.795385	0.446919
432.172624	0.444596
432.549802	0.446185
432.926920	0.445105
433.303977	0.444238
433.680974	0.440955
434.057910	0.439852
434.434786	0.439682
434.811601	0.441893
435.188355	0.423896
435.565050	0.433876
435.941683	0.434929
436.318257	0.419603
436.694770	0.420141
437.071222	0.418011
437.447614	0.422871
437.823946	0.429030
438.200218	0.418206
438.576429	0.428294
438.952580	0.421240
439.328670	0.418418
439.704700	0.424825
440.080670	0.425798
440.456580	0.406711
440.832429	0.414592
441.208218	0.425561
441.583947	0.414665
441.959616	0.414937
442.335224	0.419789
442.710773	0.410276
443.086261	0.408447
443.461689	0.422423
443.837057	0.412234
444.212365	0.402041
444.587612	0.408919
444.962800	0.399013
445.337927	0.400342
445.712995	0.426551
446.088002	0.389416
446.462949	0.399609
446.837837	0.403589
447.212664	0.392917
447.587431	0.384398
447.962139	0.355188
448.336786	0.314596
448.711374	0.324574
449.085901	0.368471
449.460369	0.372766
449.834776	0.376546
450.209124	0.355976
450.583412	0.348376
450.957640	0.341330
451.331808	0.352863
451.705917	0.375999
452.079965	0.380608
452.453954	0.368866
452.827883	0.375579
453.201752	0.370471
453.575562	0.382170
453.949311	0.370537
454.323001	0.376862
454.696632	0.372322
455.070202	0.365149
455.443713	0.356790
455.817164	0.352190
456.190556	0.348046
456.563888	0.344180
456.937160	0.342063
457.310373	0.359341
457.683526	0.357658
458.056619	0.363624
458.429653	0.364762
458.802628	0.367690
459.175542	0.361905
459.548398	0.344624
459.921194	0.337493
460.293930	0.337227
460.666607	0.314133
461.039224	0.302661
461.411782	0.298553
461.784280	0.297663
462.156719	0.302059
462.529099	0.306442
462.901419	0.322520
463.273680	0.327094
463.645882	0.326275
464.018024	0.332103
464.390106	0.325367
464.762130	0.309759
465.134094	0.292902
465.505999	0.261737
465.877845	0.232442
466.249631	0.219752
466.621358	0.226889
466.993026	0.240897
467.364634	0.247088
467.736184	0.255529
468.107674	0.264350
468.479105	0.263640
468.850477	0.270509
469.221790	0.277071
469.593043	0.287036
469.964238	0.291987
470.335373	0.291240
470.706449	0.289680
471.077467	0.290174
471.448425	0.252665
471.819324	0.228203
472.190164	0.227361
472.560945	0.256070
472.931667	0.278391
473.302330	0.282703
473.672934	0.294460
474.043479	0.282442
474.413965	0.284621
474.784393	0.288193
475.154761	0.282708
475.525070	0.279936
475.895321	0.285789
476.265513	0.279796
476.635645	0.275215
477.005719	0.275497
477.375734	0.271893
477.745691	0.264961
478.115588	0.261549
478.485427	0.255134
478.855207	0.242001
479.224928	0.224571
479.594591	0.212769
479.964194	0.215936
480.333739	0.217267
480.703226	0.218782
481.072653	0.217333
481.442022	0.213086
481.811333	0.209430
482.180584	0.213007
482.549777	0.218077
482.918912	0.221324
483.287988	0.221266
483.657005	0.220877
484.025964	0.227124
484.394864	0.224565
484.763706	0.225455
485.132489	0.230169
485.501213	0.230999
485.869879	0.229438
486.238487	0.232559
486.607036	0.230419
486.975527	0.234779
487.343959	0.230937
487.712333	0.229968
488.080648	0.231321
488.448905	0.230604
488.817104	0.231877
489.185244	0.226520
489.553326	0.223256
489.921350	0.213339
490.289315	0.195800
490.657222	0.190842
491.025070	0.191996
491.392861	0.194015
491.760593	0.199756
492.128267	0.205237
492.495883	0.210816
492.863440	0.217026
493.230939	0.223501
493.598380	0.224974
493.965763	0.227042
494.333088	0.229269
494.700354	0.230586
495.067563	0.229564
495.434713	0.232829
495.801805	0.230835
496.168839	0.232343
496.535815	0.233449
496.902733	0.233645
497.269593	0.235377
497.636395	0.233141
498.003139	0.233366
498.369825	0.236237
498.736453	0.232948
499.103023	0.234363
499.469535	0.233709
499.835989	0.233737
500.202385	0.234746
500.568723	0.238341
500.935003	0.233247
501.301226	0.237700
501.667390	0.231819
502.033497	0.229894
502.399546	0.233041
502.765537	0.234890
503.131470	0.233258
503.497345	0.229430
503.863163	0.238255
504.228923	0.231072
504.594625	0.229668
504.960269	0.235225
505.325856	0.230801
505.691385	0.234816
506.056856	0.231551
506.422270	0.230927
506.787625	0.233343
507.152924	0.230906
507.518164	0.231420
507.883347	0.233102
508.248472	0.234704
508.613540	0.229889
508.978550	0.232768
509.343503	0.232599
509.708398	0.230399
510.073236	0.227989
510.438016	0.228103
510.802738	0.228719
511.167403	0.227696
511.532010	0.230200
511.896561	0.225242
512.261053	0.224162
512.625488	0.226421
512.989866	0.226425
513.354186	0.226802
513.718449	0.228551
514.082655	0.225047
514.446803	0.227289
514.810894	0.224957
515.174927	0.227539
515.538904	0.226894
515.902822	0.223869
516.266684	0.226181
516.630488	0.227370
516.994235	0.226065
517.357925	0.224828
517.721558	0.223192
518.085133	0.222620
518.448651	0.223022
518.812112	0.225028
519.175516	0.224722
519.538863	0.222510
519.902152	0.224108
520.265385	0.220900
520.628560	0.222738
520.991678	0.223252
521.354739	0.222072
521.717743	0.222972
522.080690	0.223729
522.443580	0.220849
522.806413	0.221884
523.169189	0.221268
523.531908	0.219749
523.894569	0.223910
524.257174	0.223605
524.619722	0.221342
524.982213	0.222387
525.344647	0.221472
525.707025	0.222171
526.069345	0.219917
526.431608	0.221970
526.793815	0.219939
527.155964	0.223932
527.518057	0.222795
527.880093	0.224094
528.242072	0.222608
528.603995	0.224708
528.965860	0.226117
529.327669	0.225030
529.689421	0.226071
530.051117	0.226675
530.412755	0.224407
530.774337	0.226742
531.135862	0.227379
531.497331	0.226505
531.858743	0.229334
532.220098	0.226322
532.581396	0.228755
532.942638	0.229061
533.303824	0.230075
533.664953	0.229948
534.026025	0.231487
534.387040	0.229569
534.747999	0.229458
535.108902	0.228175
535.469748	0.233317
535.830537	0.231056
536.191270	0.231714
536.551947	0.231157
536.912567	0.231123
537.273131	0.232987
537.633638	0.233161
537.994089	0.233533
538.354483	0.234613
538.714821	0.231442
539.075103	0.231404
539.435328	0.231924
539.795497	0.235637
540.155609	0.232176
540.515665	0.230752
540.875665	0.236138
541.235609	0.234714
541.595496	0.234852
541.955328	0.231259
542.315102	0.233895
542.674821	0.235053
543.034483	0.234961
543.394090	0.234617
543.753640	0.236769
544.113134	0.231609
544.472571	0.234894
544.831953	0.232062
545.191278	0.236088
545.550548	0.235224
545.909761	0.232056
546.268918	0.232887
546.628019	0.231192
546.987064	0.233903
547.346053	0.235526
547.704986	0.233849
548.063863	0.233717
548.422684	0.234079
548.781449	0.235993
549.140158	0.233522
549.498811	0.236387
549.857408	0.239283
550.215949	0.234402
550.574434	0.237056
550.932864	0.235355
551.291237	0.233938
551.649555	0.235502
552.007817	0.234799
552.366022	0.235634
552.724173	0.236167
553.082267	0.236440
553.440305	0.233451
553.798288	0.237787
554.156215	0.234412
554.514086	0.235073
554.871902	0.238211
555.229661	0.237279
555.587365	0.237806
555.945014	0.240248
556.302606	0.237349
556.660143	0.240002
557.017625	0.236404
557.375050	0.238505
557.732421	0.235688
558.089735	0.237677
558.446994	0.237809
558.804197	0.237199
559.161345	0.236716
559.518437	0.240466
559.875474	0.238079
560.232455	0.237257
560.589381	0.238727
560.946251	0.238894
561.303065	0.236168
561.659825	0.238081
562.016528	0.239158
562.373177	0.242259
562.729770	0.239386
563.086307	0.241474
563.442789	0.239288
563.799216	0.241712
564.155587	0.240700
564.511904	0.242147
564.868164	0.242259
565.224370	0.241707
565.580520	0.243430
565.936615	0.243327
566.292654	0.246566
566.648638	0.243471
567.004567	0.244377
567.360441	0.244837
567.716260	0.247200
568.072023	0.244582
568.427732	0.245399
568.783385	0.248022
569.138982	0.246291
569.494525	0.245818
569.850013	0.248733
570.205445	0.247006
570.560823	0.249455
570.916145	0.251416
571.271412	0.249991
571.626625	0.251382
571.981782	0.251787
572.336884	0.252764
572.691931	0.252170
573.046923	0.253807
573.401860	0.254661
573.756743	0.256461
574.111570	0.255236
574.466342	0.255853
574.821059	0.255055
575.175722	0.257823
575.530330	0.257802
575.884882	0.257739
576.239380	0.260102
576.593823	0.260289
576.948211	0.259748
577.302544	0.262801
577.656823	0.262588
578.011047	0.262761
578.365216	0.263196
578.719330	0.265327
579.073389	0.265117
579.427394	0.266511
579.781344	0.267524
580.135239	0.268804
580.489080	0.268442
580.842866	0.271577
581.196597	0.271489
581.550273	0.269836
581.903895	0.270846
582.257463	0.268984
582.610975	0.272509
582.964434	0.271844
583.317837	0.274161
583.671186	0.274608
584.024481	0.274867
584.377721	0.277195
584.730906	0.277956
585.084037	0.277243
585.437113	0.278937
585.790135	0.278227
586.143103	0.281128
586.496016	0.282216
586.848874	0.279909
587.201679	0.280658
587.554428	0.283915
587.907124	0.282426
588.259765	0.283198
588.612352	0.283891
588.964884	0.287662
589.317362	0.287181
589.669786	0.287195
590.022155	0.285783
590.374470	0.284989
590.726731	0.287443
591.078937	0.291957
591.431090	0.288087
591.783188	0.292390
592.135232	0.292805
592.487222	0.292698
592.839157	0.290923
593.191038	0.293352
593.542866	0.295342
593.894639	0.298618
594.246358	0.296773
594.598022	0.296618
594.949633	0.299672
595.301190	0.300475
595.652692	0.299703
596.004141	0.295908
596.355535	0.304114
596.706876	0.304269
597.058162	0.307039
597.409395	0.303929
597.760573	0.301924
598.111698	0.305117
598.462768	0.305540
598.813785	0.307115
599.164748	0.308418
599.515657	0.308305
599.866511	0.311937
600.217312	0.307009
600.568060	0.312330
600.918753	0.308743
601.269392	0.309902
601.619978	0.313259
601.970510	0.310566
602.320988	0.310859
602.671412	0.308794
603.021783	0.311235
603.372100	0.312475
603.722363	0.312259
604.072572	0.312852
604.422728	0.312525
604.772830	0.315057
605.122878	0.314187
605.472872	0.314735
605.822813	0.313227
606.172701	0.316180
606.522534	0.313366
606.872314	0.313002
607.222041	0.314275
607.571714	0.312338
607.921333	0.313974
608.270899	0.313582
608.620411	0.310376
608.969870	0.314291
609.319276	0.314717
609.668627	0.314384
610.017926	0.312641
610.367171	0.311157
610.716362	0.312194
611.065500	0.312381
611.414585	0.310959
611.763616	0.311444
612.112594	0.312009
612.461518	0.311408
612.810389	0.309061
613.159207	0.311472
613.507971	0.313051
613.856682	0.309155
614.205340	0.310538
614.553945	0.307128
614.902496	0.311597
615.250994	0.309043
615.599439	0.309946
615.947830	0.309452
616.296169	0.310392
616.644454	0.309758
616.992686	0.310179
617.340864	0.307774
617.688990	0.311373
618.037063	0.307801
618.385082	0.309811
618.733048	0.306814
619.080961	0.308897
619.428821	0.308261
619.776628	0.307932
620.124382	0.310437
620.472083	0.310197
620.819731	0.309587
621.167326	0.313799
621.514868	0.313235
621.862357	0.317541
622.209793	0.317023
622.557176	0.319468
622.904506	0.320719
623.251783	0.322621
623.599007	0.325295
623.946179	0.324593
624.293297	0.326969
624.640363	0.330553
624.987376	0.330778
625.334336	0.333531
625.681243	0.335758
626.028097	0.336531
626.374899	0.337748
626.721647	0.337641
627.068343	0.340976
627.414987	0.341738
627.761577	0.344196
628.108115	0.342386
628.454600	0.347929
628.801032	0.344913
629.147412	0.346832
629.493739	0.347485
629.840014	0.350457
630.186236	0.347983
630.532405	0.353688
630.878521	0.350931
631.224585	0.353304
631.570597	0.356824
631.916556	0.355041
632.262462	0.355564
632.608316	0.357524
632.954117	0.358382
633.299866	0.359094
633.645562	0.359268
633.991206	0.363885
634.336797	0.366561
634.682336	0.369015
635.027823	0.370715
635.373257	0.371227
635.718639	0.374987
636.063968	0.373761
636.409245	0.380177
636.754470	0.380382
637.099642	0.382726
637.444762	0.386131
637.789829	0.385132
638.134845	0.388471
638.479808	0.389977
638.824719	0.389419
639.169577	0.393785
639.514383	0.392086
639.859137	0.397253
640.203839	0.396284
640.548489	0.397136
640.893086	0.398200
641.237632	0.399707
641.582125	0.398421
641.926566	0.399806
642.270955	0.400372
642.615292	0.400545
642.959576	0.399138
643.303809	0.400193
643.647990	0.399887
643.992118	0.400519
644.336195	0.403991
644.680219	0.402245
645.024192	0.402807
645.368112	0.396480
645.711981	0.395176
646.055797	0.390648
646.399562	0.392847
646.743274	0.385283
647.086935	0.382655
647.430544	0.382569
647.774101	0.381933
648.117606	0.381188
648.461059	0.381675
648.804460	0.383954
649.147810	0.389077
649.491108	0.391468
649.834354	0.392387
650.177548	0.398173
650.520690	0.403258
650.863781	0.404698
651.206820	0.403734
651.549807	0.409023
651.892742	0.412659
652.235626	0.412250
652.578458	0.412961
652.921238	0.419189
653.263967	0.416534
653.606644	0.421059
653.949269	0.420535
654.291843	0.424648
654.634365	0.421075
654.976836	0.424625
655.319255	0.424852
655.661622	0.426641
656.003938	0.426205
656.346203	0.429495
656.688416	0.426813
657.030577	0.430423
657.372687	0.432803
657.714746	0.433212
658.056753	0.430302
658.398708	0.433965
658.740612	0.434966
659.082465	0.431967
659.424266	0.431925
659.766016	0.431019
660.107715	0.434340
660.449362	0.432612
660.790958	0.433543
661.132503	0.433664
661.473996	0.431543
661.815438	0.432309
662.156829	0.432962
662.498168	0.433942
662.839456	0.435132
663.180693	0.432864
663.521879	0.433007
663.863013	0.433912
664.204097	0.432249
664.545129	0.429082
664.886110	0.429332
665.227040	0.426406
665.567918	0.429118
665.908746	0.426811
666.249522	0.426568
666.590248	0.427923
666.930922	0.425978
667.271545	0.425460
667.612118	0.425023
667.952639	0.426660
668.293109	0.425143
668.633528	0.428080
668.973896	0.428090
669.314213	0.428705
669.654480	0.430063
669.994695	0.430650
670.334859	0.431248
670.674973	0.431663
671.015035	0.431556
671.355047	0.431880
671.695008	0.432636
672.034918	0.433955
672.374777	0.433760
672.714585	0.434938
673.054342	0.434948
673.394049	0.434868
673.733705	0.432637
674.073310	0.433946
674.412864	0.437100
674.752368	0.437560
675.091820	0.437250
675.431223	0.442320
675.770574	0.441824
676.109875	0.444682
676.449125	0.445193
676.788324	0.447436
677.127473	0.453005
677.466571	0.452829
677.805619	0.454514
678.144616	0.455208
678.483562	0.457162
678.822458	0.459194
679.161303	0.460551
679.500098	0.461170
679.838842	0.462637
680.177535	0.462262
680.516179	0.460857
680.854771	0.458897
681.193314	0.453150
681.531805	0.444635
681.870247	0.432894
682.208638	0.424869
682.546978	0.424464
682.885268	0.426246
683.223508	0.432372
683.561697	0.435835
683.899836	0.438489
684.237925	0.441934
684.575963	0.444795
684.913951	0.447408
685.251889	0.443480
685.589776	0.445107
685.927614	0.447617
686.265401	0.441920
686.603137	0.443627
686.940824	0.437639
687.278460	0.436212
687.616046	0.435403
687.953582	0.429467
688.291068	0.431140
688.628504	0.427071
688.965889	0.429039
689.303224	0.433732
689.640510	0.437346
689.977745	0.442622
690.314930	0.450918
690.652065	0.455763
690.989150	0.462718
691.326185	0.469331
691.663170	0.474804
692.000105	0.481140
692.336990	0.488807
692.673825	0.491165
693.010610	0.497914
693.347345	0.503266
693.684030	0.504735
694.020665	0.509943
694.357251	0.518503
694.693786	0.517581
695.030272	0.522712
695.366707	0.525408
695.703093	0.529428
696.039429	0.526916
696.375716	0.528321
696.711952	0.531941
697.048139	0.533686
697.384276	0.535487
697.720363	0.533841
698.056400	0.532651
698.392388	0.538088
698.728326	0.541698
699.064214	0.544268
699.400053	0.544764
699.735842	0.548830
700.071581	0.550922
700.407270	0.553622
700.742910	0.556270
701.078501	0.563734
701.414042	0.563532
701.749533	0.566314
702.084974	0.575516
702.420366	0.567374
702.755709	0.575668
703.091002	0.583001
703.426246	0.577094
703.761440	0.581678
704.096584	0.587675
704.431679	0.584279
704.766725	0.585667
705.101721	0.587649
705.436668	0.584134
705.771565	0.591102
706.106413	0.587105
706.441212	0.583078
706.775961	0.582369
707.110661	0.585168
707.445311	0.580842
707.779913	0.578587
708.114465	0.576690
708.448967	0.574057
708.783421	0.565569
709.117825	0.559662
709.452180	0.560085
709.786485	0.553692
710.120742	0.543881
710.454949	0.545169
710.789107	0.538190
711.123216	0.528949
711.457275	0.530139
711.791286	0.521172
712.125247	0.520163
712.459159	0.530875
712.793023	0.524139
713.126837	0.527810
713.460602	0.528211
713.794318	0.537351
714.127985	0.536741
714.461602	0.546083
714.795171	0.550006
715.128691	0.557296
715.462162	0.564922
715.795584	0.570751
716.128957	0.573701
716.462281	0.580205
716.795556	0.584030
717.128782	0.588858
717.461960	0.598164
717.795088	0.596878
718.128167	0.603005
718.461198	0.611601
718.794180	0.612505
719.127113	0.615888
719.459997	0.619173
719.792833	0.624995
720.125619	0.626149
720.458357	0.632318
720.791046	0.631880
721.123686	0.634667
721.456278	0.642525
721.788821	0.639616
722.121315	0.643256
722.453761	0.647814
722.786158	0.645870
723.118506	0.642367
723.450805	0.649866
723.783056	0.646808
724.115259	0.643435
724.447412	0.642523
724.779518	0.644088
725.111574	0.643100
725.443582	0.638554
725.775542	0.640474
726.107453	0.632446
726.439315	0.632892
726.771129	0.631645
727.102895	0.623264
727.434612	0.617373
727.766281	0.615236
728.097901	0.614218
728.429473	0.614382
728.760996	0.612886
729.092471	0.613157
729.423897	0.616525
729.755276	0.615371
730.086606	0.615672
730.417887	0.610117
730.749120	0.600897
731.080305	0.592189
731.411442	0.588333
731.742530	0.593035
732.073570	0.591929
732.404562	0.583700
732.735506	0.585392
733.066401	0.590399
733.397249	0.599338
733.728048	0.610891
734.058798	0.623372
734.389501	0.634748
734.720156	0.644198
735.050762	0.652197
735.381320	0.652839
735.711831	0.662329
736.042293	0.667455
736.372707	0.663523
736.703073	0.667304
737.033391	0.670207
737.363661	0.666948
737.693883	0.661894
738.024056	0.660241
738.354182	0.660840
738.684260	0.650117
739.014290	0.646546
739.344272	0.647543
739.674207	0.641173
740.004093	0.639902
740.333931	0.640382
740.663722	0.640596
740.993464	0.641447
741.323159	0.645072
741.652806	0.649790
741.982405	0.654259
742.311956	0.659030
742.641460	0.661191
742.970915	0.665285
743.300323	0.672877
743.629683	0.679617
743.958996	0.680939
744.288260	0.685439
744.617477	0.691267
744.946647	0.693756
745.275768	0.698001
745.604842	0.698285
745.933869	0.709148
746.262847	0.708968
746.591778	0.702828
746.920662	0.708752
747.249498	0.715243
747.578286	0.706494
747.907027	0.702096
748.235720	0.703703
748.564365	0.698069
748.892963	0.697759
749.221514	0.701547
749.550017	0.705745
749.878473	0.705522
750.206881	0.711869
750.535242	0.713237
750.863555	0.713172
751.191821	0.714436
751.520039	0.717260
751.848210	0.722547
752.176334	0.713953
752.504411	0.713645
752.832440	0.722537
753.160421	0.726294
753.488356	0.724193
753.816243	0.721646
754.144082	0.730453
754.471875	0.733289
754.799620	0.728470
755.127318	0.730613
755.454969	0.729886
755.782572	0.729784
756.110129	0.734774
756.437638	0.737339
756.765100	0.733563
757.092515	0.731947
757.419882	0.730037
757.747203	0.736352
758.074477	0.735855
758.401703	0.731679
758.728882	0.727628
759.056014	0.725906
759.383099	0.726276
759.710138	0.726432
760.037129	0.722801
760.364073	0.717053
760.690970	0.719841
761.017820	0.725034
761.344623	0.720869
761.671379	0.711295
761.998088	0.699811
762.324751	0.676949
762.651366	0.635504
762.977935	0.567792
763.304456	0.515290
763.630931	0.505646
763.957359	0.544401
764.283740	0.589879
764.610074	0.616880
764.936362	0.648269
765.262602	0.674712
765.588796	0.696606
765.914943	0.714746
766.241044	0.732298
766.567097	0.739593
766.893104	0.749076
767.219064	0.755924
767.544978	0.762833
767.870845	0.775391
768.196665	0.780325
768.522438	0.777028
768.848165	0.779220
769.173846	0.788736
769.499479	0.792531
769.825066	0.794693
770.150607	0.800753
770.476101	0.796208
770.801548	0.796728
771.126949	0.808401
771.452303	0.812568
771.777611	0.811342
772.102872	0.809906
772.428087	0.816497
772.753256	0.819315
773.078378	0.822049
773.403453	0.830657
773.728482	0.834005
774.053465	0.827948
774.378401	0.831991
774.703291	0.840085
775.028135	0.840641
775.352932	0.841794
775.677683	0.844804
776.002388	0.845209
776.327046	0.843587
776.651658	0.847711
776.976224	0.850781
777.300743	0.851680
777.625216	0.853256
777.949643	0.855702
778.274024	0.855923
778.598359	0.856827
778.922647	0.855235
779.246889	0.856339
779.571086	0.860213
779.895236	0.862166
780.219339	0.859448
780.543397	0.855445
780.867409	0.855318
781.191374	0.857662
781.515294	0.858774
781.839167	0.856894
782.162995	0.861087
782.486776	0.858431
782.810511	0.859365
783.134201	0.862072
783.457844	0.860293
783.781441	0.862439
784.104993	0.869140
784.428498	0.868387
784.751958	0.864990
785.075372	0.866520
785.398739	0.870676
785.722061	0.867339
786.045337	0.863076
786.368568	0.867578
786.691752	0.869585
787.014891	0.855681
787.337983	0.847172
787.661030	0.839229
787.984031	0.822048
788.306987	0.808989
788.629897	0.810291
788.952760	0.814481
789.275579	0.820014
789.598351	0.834370
789.921078	0.846876
790.243759	0.849685
790.566395	0.854893
790.888984	0.861418
791.211529	0.867982
791.534027	0.869866
791.856480	0.872521
792.178888	0.877570
792.501249	0.880536
792.823566	0.879726
793.145836	0.881636
793.468062	0.883655
793.790241	0.883722
794.112375	0.881247
794.434464	0.875876
794.756507	0.876171
795.078505	0.875350
795.400457	0.871725
795.722364	0.857691
796.044226	0.850794
796.366042	0.849668
796.687812	0.853321
797.009538	0.850365
797.331218	0.852347
797.652852	0.858249
797.974442	0.862719
798.295986	0.861861
798.617484	0.865593
798.938938	0.869547
799.260346	0.874164
799.581709	0.876297
799.903026	0.879513
800.224299	0.878975
800.545526	0.883695
800.866708	0.886835
801.187845	0.890460
801.508936	0.890074
801.829983	0.889454
802.150984	0.891832
802.471940	0.895901
802.792851	0.895433
803.113717	0.896299
803.434538	0.894520
803.755314	0.897411
804.076045	0.898934
804.396731	0.899101
804.717372	0.899114
805.037967	0.901197
805.358518	0.898210
805.679024	0.894992
805.999485	0.895471
806.319901	0.894758
806.640272	0.896040
806.960598	0.895082
807.280879	0.892463
807.601115	0.891644
807.921306	0.894491
808.241453	0.893885
808.561554	0.891872
808.881611	0.891449
809.201623	0.894830
809.521590	0.894579
809.841513	0.895360
810.161390	0.894747
810.481223	0.896283
810.801011	0.899960
811.120755	0.901720
811.440453	0.899840
811.760107	0.899361
812.079716	0.899348
812.399281	0.901980
812.718801	0.905831
813.038276	0.906091
813.357707	0.905976
813.677093	0.901698
813.996434	0.905909
814.315731	0.905924
814.634983	0.908541
814.954191	0.906515
815.273354	0.903509
815.592473	0.899716
815.911547	0.899462
816.230577	0.897334
816.549562	0.894618
816.868502	0.895460
817.187399	0.892265
817.506250	0.886063
817.825058	0.887902
818.143821	0.884868
818.462539	0.878616
818.781213	0.871138
819.099843	0.860405
819.418429	0.843636
819.736970	0.826695
820.055466	0.806489
820.373919	0.780697
820.692327	0.747476
821.010691	0.712581
821.329011	0.633065
821.647286	0.516362
821.965517	0.401621
822.283704	0.358389
822.601847	0.358708
822.919945	0.395014
823.237999	0.429465
823.556010	0.477388
823.873976	0.533285
824.191897	0.584520
824.509775	0.628274
824.827609	0.673591
825.145398	0.697270
825.463144	0.700016
825.780845	0.682656
826.098502	0.663856
826.416116	0.617123
826.733685	0.573196
827.051210	0.563749
827.368692	0.578734
827.686129	0.616852
828.003522	0.670925
828.320872	0.718222
828.638177	0.763382
828.955439	0.797010
829.272656	0.818040
829.589830	0.835532
829.906960	0.851350
830.224046	0.864514
830.541088	0.874928
830.858086	0.879044
831.175041	0.885267
831.491952	0.884426
831.808819	0.881575
832.125642	0.874556
832.442421	0.859425
832.759157	0.837156
833.075849	0.790026
833.392497	0.726149
833.709101	0.684959
834.025662	0.694822
834.342179	0.726042
834.658653	0.764679
834.975083	0.802834
835.291469	0.828789
835.607811	0.851937
835.924110	0.868253
836.240366	0.886157
836.556578	0.899654
836.872746	0.907250
837.188871	0.913199
837.504952	0.918151
837.820990	0.922909
838.136984	0.925305
838.452935	0.929415
838.768842	0.929543
839.084706	0.923191
839.400526	0.897533
839.716303	0.856016
840.032037	0.833219
840.347727	0.836251
840.663373	0.856218
840.978977	0.877267
841.294537	0.900774
841.610054	0.915927
841.925527	0.924508
842.240957	0.932139
842.556344	0.937666
842.871687	0.944615
843.186987	0.948980
843.502244	0.949000
843.817458	0.950274
844.132629	0.954137
844.447756	0.958880
844.762840	0.958763
845.077881	0.959311
845.392879	0.959294
845.707833	0.961763
846.022745	0.964492
846.337613	0.963919
846.652438	0.965550
846.967221	0.963767
847.281960	0.964208
847.596656	0.966814
847.911309	0.964361
848.225919	0.966817
848.540485	0.967236
848.855009	0.968960
849.169490	0.967882
849.483928	0.968410
849.798323	0.967957
850.112675	0.969774
850.426984	0.968569
850.741251	0.969090
851.055474	0.970223
851.369654	0.967926
851.683792	0.968199
851.997887	0.968861
852.311938	0.969723
852.625947	0.969355
852.939914	0.967901
853.253837	0.968845
853.567718	0.969749
853.881555	0.969990
854.195350	0.967647
854.509103	0.969013
854.822812	0.968858
855.136479	0.968576
855.450103	0.968382
855.763685	0.968034
856.077224	0.968610
856.390720	0.969372
856.704173	0.969678
857.017584	0.967814
857.330953	0.965926
857.644278	0.968081
857.957561	0.968133
858.270802	0.967772
858.584000	0.967117
858.897155	0.966725
859.210268	0.967297
859.523339	0.966344
859.836367	0.969530
860.149352	0.970295
860.462295	0.967942
860.775195	0.969746
861.088054	0.967328
861.400869	0.968157
861.713642	0.970241
862.026373	0.969344
862.339062	0.969984
862.651708	0.966553
862.964312	0.967645
863.276873	0.968953
863.589392	0.968204
863.901869	0.965978
864.214303	0.964654
864.526696	0.964417
864.839045	0.962845
865.151353	0.960989
865.463619	0.961747
865.775842	0.962648
866.088023	0.962187
866.400162	0.961522
866.712258	0.961731
867.024313	0.962495
867.336325	0.962599
867.648296	0.962325
867.960224	0.961721
868.272110	0.960620
868.583954	0.963965
868.895755	0.962260
869.207515	0.961073
869.519233	0.959213
869.830909	0.960806
870.142542	0.961562
870.454134	0.960844
870.765684	0.959372
871.077191	0.957561
871.388657	0.957250
871.700081	0.957788
872.011463	0.958253
872.322803	0.957565
872.634101	0.955841
872.945357	0.953665
873.256571	0.952640
873.567744	0.952287
873.878874	0.951490
874.189963	0.950959
874.501010	0.950762
874.812015	0.948772
875.122979	0.950855
875.433900	0.952503
875.744780	0.953166
876.055618	0.949100
876.366415	0.948773
876.677169	0.949231
876.987882	0.950787
877.298554	0.949620
877.609183	0.946161
877.919771	0.943861
878.230317	0.941730
878.540822	0.938867
878.851285	0.933542
879.161707	0.925491
879.472087	0.912465
879.782425	0.895978
880.092722	0.861376
880.402977	0.807403
880.713191	0.745220
881.023363	0.684143
881.333494	0.648956
881.643583	0.621177
881.953631	0.621523
882.263637	0.650039
882.573602	0.689151
882.883526	0.715642
883.193408	0.740016
883.503248	0.764773
883.813048	0.791796
884.122806	0.821773
884.432522	0.847144
884.742197	0.866122
885.051831	0.877540
885.361424	0.889302
885.670975	0.900632
885.980485	0.911732
886.289954	0.916500
886.599382	0.922104
886.908768	0.925931
887.218113	0.932462
887.527417	0.937053
887.836680	0.939467
888.145901	0.941972
888.455082	0.945125
888.764221	0.949185
889.073319	0.951377
889.382376	0.951208
889.691392	0.952192
890.000366	0.951565
890.309300	0.952649
890.618193	0.952019
890.927044	0.949761
891.235855	0.950268
891.544625	0.949798
891.853353	0.950972
892.162041	0.947755
892.470687	0.940796
892.779293	0.936556
893.087858	0.931200
893.396381	0.923381
893.704864	0.910092
894.013306	0.884950
894.321707	0.858641
894.630068	0.842889
894.938387	0.837714
895.246665	0.839045
895.554903	0.852453
895.863100	0.865526
896.171256	0.884212
896.479371	0.902375
896.787446	0.915705
897.095480	0.923272
897.403473	0.926654
897.711425	0.931259
898.019336	0.937916
898.327207	0.940893
898.635038	0.943140
898.942827	0.944096
899.250576	0.945632
899.558284	0.951178
899.865952	0.951599
900.173579	0.953670
900.481165	0.954782
900.788711	0.957911
901.096216	0.960605
901.403681	0.959823
901.711105	0.961951
902.018489	0.961627
902.325832	0.961146
902.633135	0.960140
902.940397	0.954471
903.247619	0.942328
903.554800	0.914374
903.861941	0.875664
904.169041	0.837105
904.476101	0.819030
904.783121	0.820551
905.090100	0.836909
905.397039	0.859622
905.703938	0.881799
906.010796	0.902565
906.317614	0.919980
906.624391	0.932453
906.931129	0.942930
907.237826	0.950444
907.544483	0.957685
907.851099	0.961593
908.157675	0.967464
908.464211	0.968508
908.770707	0.971055
909.077163	0.972956
909.383578	0.973915
909.689954	0.973259
909.996289	0.974421
910.302584	0.976678
910.608839	0.977984
910.915054	0.977061
911.221229	0.977190
911.527363	0.975883
911.833458	0.976446
912.139513	0.976225
912.445527	0.973969
912.751502	0.972776
913.057436	0.971313
913.363331	0.968196
913.669186	0.965284
913.975000	0.960020
914.280775	0.953360
914.586510	0.946353
914.892205	0.932576
915.197859	0.911135
915.503475	0.882010
915.809050	0.861982
916.114585	0.855311
916.420081	0.854028
916.725536	0.849198
917.030952	0.858476
917.336328	0.872418
917.641665	0.887458
917.946961	0.902860
918.252218	0.915161
918.557435	0.924544
918.862612	0.934190
919.167750	0.939931
919.472848	0.945328
919.777906	0.949847
920.082925	0.956554
920.387904	0.960942
920.692843	0.960961
920.997743	0.962533
921.302603	0.967020
921.607423	0.967684
921.912204	0.970790
922.216946	0.970556
922.521647	0.971931
922.826310	0.973888
923.130932	0.976074
923.435516	0.976093
923.740059	0.979108
924.044564	0.977694
924.349028	0.980485
924.653454	0.982542
924.957840	0.984113
925.262186	0.984677
925.566493	0.983034
925.870761	0.984722
926.174989	0.986483
926.479178	0.987009
926.783328	0.987436
927.087438	0.987436
927.391509	0.987521
927.695541	0.988864
927.999533	0.989606
928.303486	0.989738
928.607400	0.990827
928.911275	0.989293
929.215110	0.989697
929.518906	0.990553
929.822663	0.988667
930.126381	0.990992
930.430060	0.991185
930.733699	0.991146
931.037299	0.987917
931.340861	0.991268
931.644383	0.989830
931.947866	0.989153
932.251309	0.989817
932.554714	0.990754
932.858080	0.989683
933.161407	0.990214
933.464694	0.990494
933.767943	0.989842
934.071153	0.989571
934.374323	0.990639
934.677455	0.989968
934.980548	0.991365
935.283602	0.990940
935.586617	0.991750
935.889593	0.990077
936.192530	0.990223
936.495428	0.989897
936.798287	0.990123
937.101108	0.989926
937.403890	0.989755
937.706632	0.988347
938.009336	0.985777
938.312002	0.985025
938.614628	0.983336
938.917216	0.983045
939.219765	0.981060
939.522275	0.982469
939.824747	0.982327
940.127179	0.981955
940.429573	0.983951
940.731929	0.983159
941.034246	0.983596
941.336524	0.985101
941.638763	0.985729
941.940964	0.985733
942.243126	0.986621
942.545250	0.987105
942.847335	0.986919
943.149381	0.987324
943.451389	0.987374
943.753359	0.988797
944.055290	0.990498
944.357182	0.989412
944.659036	0.987762
944.960851	0.988909
945.262628	0.989959
945.564367	0.988652
945.866067	0.990061
946.167729	0.990743
946.469352	0.990341
946.770937	0.988066
947.072484	0.990182
947.373992	0.988772
947.675462	0.989293
947.976893	0.989709
948.278286	0.989245
948.579641	0.991745
948.880958	0.989807
949.182236	0.991463
949.483476	0.991031
949.784678	0.989923
950.085841	0.991052
950.386967	0.991155
950.688054	0.990991
950.989103	0.990102
951.290114	0.988722
951.591087	0.988934
951.892021	0.989744
952.192917	0.988384
952.493776	0.987886
952.794596	0.986547
953.095378	0.987627
953.396122	0.987100
953.696828	0.987953
953.997496	0.988588
954.298126	0.989689
954.598718	0.990089
954.899272	0.990516
955.199788	0.989904
955.500266	0.991663
955.800706	0.992146
956.101108	0.992553
956.401472	0.993179
956.701798	0.993813
957.002087	0.992163
957.302337	0.993183
957.602550	0.994611
957.902724	0.994761
958.202861	0.995196
958.502960	0.995381
958.803022	0.993899
959.103045	0.996356
959.403031	0.995389
959.702979	0.994651
960.002889	0.996189
960.302762	0.994534
960.602596	0.995459
960.902393	0.994966
961.202153	0.996320
961.501875	0.996885
961.801559	0.995698
962.101205	0.996199
962.400814	0.995857
962.700385	0.996877
962.999918	0.997010
963.299414	0.996337
963.598873	0.994443
963.898293	0.996825
964.197677	0.995019
964.497022	0.997003
964.796331	0.996865
965.095601	0.996022
965.394835	0.996736
965.694030	0.995648
965.993189	0.996945
966.292309	0.996237
966.591393	0.997947
966.890439	0.996272
967.189447	0.996900
967.488419	0.996330
967.787353	0.995443
968.086249	0.997291
968.385108	0.995499
968.683930	0.997468
968.982714	0.997517
969.281462	0.997321
969.580172	0.996089
969.878844	0.996023
970.177480	0.996003
970.476078	0.997032
970.774639	0.996707
971.073162	0.996745
971.371649	0.996429
971.670098	0.996461
971.968510	0.996382
972.266885	0.995040
972.565223	0.997007
972.863524	0.995794
973.161788	0.996289
973.460014	0.996779
973.758204	0.996226
974.056356	0.995976
974.354471	0.994704
974.652550	0.996406
974.950591	0.995125
975.248595	0.996145
975.546563	0.996933
975.844493	0.997498
976.142386	0.998130
976.440243	0.997363
976.738062	0.997254
977.035845	0.997829
977.333590	0.996252
977.631299	0.997572
977.928971	0.997175
978.226606	0.996873
978.524204	0.996374
978.821765	0.997558
979.119290	0.996491
979.416777	0.996371
979.714228	0.998462
980.011642	0.995544
980.309020	0.997347
980.606360	0.996489
980.903664	0.998574
981.200931	0.996002
981.498162	0.995804
981.795356	0.995441
982.092513	0.994054
982.389633	0.993300
982.686717	0.991275
982.983764	0.991777
983.280775	0.989777
983.577749	0.988638
983.874686	0.991071
984.171587	0.991660
984.468451	0.994590
984.765279	0.994505
985.062070	0.993777
985.358824	0.994896
985.655543	0.994722
985.952224	0.996327
986.248869	0.996800
986.545478	0.996502
986.842050	0.997529
987.138586	0.995740
987.435086	0.997840
987.731549	0.997186
988.027975	0.998011
988.324366	0.996894
988.620719	0.997635
988.917037	0.996053
989.213318	0.998489
989.509563	0.998508
989.805772	0.999558
990.101944	0.997976
990.398080	0.998402
990.694180	0.997805
990.990244	0.997326
991.286271	0.998120
991.582262	0.998163
991.878217	0.997352
992.174136	0.998650
992.470019	0.998315
992.765865	0.997808
993.061676	0.998576
993.357450	0.998722
993.653188	0.996012
993.948890	0.996764
994.244556	0.998832
994.540186	0.997924
994.835780	0.995990
995.131337	0.997894
995.426859	0.995866
995.722345	0.997599
996.017795	0.995589
996.313208	0.996560
996.608586	0.996215
996.903928	0.995385
997.199234	0.995271
997.494504	0.996179
997.789738	0.995980
998.084936	0.996157
998.380099	0.997617
998.675225	0.998427
998.970316	0.998015
999.265371	0.998658
999.560390	0.997125
999.855373	0.998343
1000.150320	0.999415
1000.445232	0.997937
1000.740108	0.998667
1001.034948	0.998727
1001.329752	0.999463
1001.624521	0.998073
1001.919254	0.997766
1002.213951	0.997648
1002.508613	0.998303
1002.803239	0.997876
1003.097829	0.998590
1003.392384	0.999548
1003.686903	0.998215
1003.981386	0.998232
1004.275834	0.999260
1004.570246	0.997533
1004.864623	0.998550
1005.158964	0.999764
1005.453270	0.998788
1005.747540	0.998422
1006.041775	0.999502
1006.335974	0.999754
1006.630138	0.999159
1006.924266	0.999959
1007.218359	1.000244
1007.512416	0.999161
1007.806438	1.000302
1008.100425	0.999159
1008.394376	0.997593
1008.688292	0.999035
1008.982172	1.000885
1009.276017	0.999206
1009.569827	0.998408
1009.863602	0.999529
1010.157341	1.000731
1010.451045	0.998394
1010.744714	0.999437
1011.038347	0.998910
1011.331945	1.000157
1011.625508	0.998140
1011.919036	0.998974
1012.212528	0.998209
1012.505986	0.997427
1012.799408	0.998626
1013.092795	1.000445
1013.386147	0.999588
1013.679464	1.000023
1013.972745	0.997783
1014.265992	0.997774
1014.559204	0.999313
1014.852380	0.999372
1015.145521	0.998837
1015.438628	0.999514
1015.731699	1.000348
1016.024736	0.999596
1016.317737	0.998966
1016.610703	0.999672
1016.903635	1.000206
1017.196531	0.998790
1017.489393	1.000427
1017.782219	0.999477
1018.075011	0.997635
1018.367768	0.999807
1018.660490	0.999015
1018.953177	0.999015
1019.245829	0.999015
