Dividing Wavelength (nm)	Counts (n)	Blue Motor Position (mm): 0.000000	Red Motor Position (mm): 8.600000	
326.493990	1.002278
326.888308	1.002278
327.282561	1.002278
327.676750	1.001954
328.070874	0.999187
328.464933	1.000874
328.858929	0.999611
329.252859	1.001141
329.646726	0.999728
330.040528	1.000180
330.434265	0.998982
330.827938	1.001437
331.221547	1.000426
331.615091	0.999510
332.008571	1.000755
332.401986	1.000358
332.795338	1.000825
333.188625	0.998166
333.581847	1.001199
333.975006	0.999761
334.368100	0.999902
334.761129	0.999669
335.154095	1.001073
335.546996	0.998452
335.939833	0.993581
336.332606	0.993849
336.725315	0.993959
337.117960	0.994977
337.510540	0.993578
337.903056	0.995006
338.295508	0.992214
338.687896	0.994165
339.080220	0.994572
339.472480	0.993733
339.864676	0.993349
340.256807	0.994612
340.648875	0.995074
341.040879	0.994112
341.432818	0.993374
341.824694	0.994319
342.216506	0.995445
342.608253	0.993419
342.999937	0.993051
343.391557	0.994058
343.783113	0.993136
344.174605	0.994018
344.566033	0.994912
344.957397	0.992022
345.348697	0.992468
345.739934	0.993682
346.131106	0.993316
346.522215	0.993183
346.913260	0.992724
347.304241	0.993298
347.695159	0.993713
348.086012	0.992159
348.476802	0.992875
348.867528	0.992896
349.258191	0.992682
349.648789	0.994212
350.039324	0.993758
350.429796	0.993897
350.820203	0.993207
351.210548	0.993628
351.600828	0.992359
351.991045	0.993671
352.381198	0.992421
352.771288	0.994145
353.161314	0.993475
353.551276	0.994955
353.941175	0.993898
354.331010	0.993687
354.720782	0.992922
355.110490	0.992976
355.500135	0.993510
355.889717	0.993044
356.279235	0.993559
356.668689	0.994069
357.058080	0.992436
357.447408	0.993464
357.836672	0.993477
358.225873	0.993479
358.615010	0.993342
359.004084	0.994996
359.393095	0.992939
359.782043	0.992437
360.170927	0.994075
360.559748	0.994597
360.948505	0.992602
361.337199	0.993797
361.725830	0.992224
362.114398	0.993166
362.502903	0.993331
362.891344	0.994352
363.279722	0.992547
363.668037	0.993372
364.056289	0.992531
364.444478	0.993519
364.832603	0.993647
365.220665	0.992954
365.608665	0.993685
365.996601	0.992269
366.384474	0.992058
366.772284	0.991617
367.160031	0.992097
367.547715	0.991579
367.935336	0.993526
368.322893	0.992429
368.710388	0.991216
369.097820	0.992332
369.485189	0.991302
369.872495	0.991055
370.259738	0.989457
370.646918	0.993192
371.034035	0.991139
371.421090	0.992035
371.808081	0.990449
372.195010	0.991036
372.581875	0.991921
372.968678	0.991632
373.355418	0.991613
373.742096	0.990577
374.128710	0.991805
374.515262	0.990822
374.901751	0.991908
375.288177	0.990950
375.674540	0.990561
376.060841	0.988775
376.447079	0.989113
376.833254	0.986606
377.219367	0.986180
377.605417	0.984639
377.991404	0.982530
378.377329	0.979133
378.763191	0.977506
379.148991	0.974293
379.534727	0.971411
379.920402	0.967469
380.306013	0.963795
380.691563	0.959366
381.077049	0.954341
381.462474	0.950369
381.847835	0.943843
382.233134	0.938158
382.618371	0.933775
383.003545	0.925667
383.388657	0.920101
383.773706	0.913190
384.158693	0.906678
384.543618	0.897454
384.928480	0.890698
385.313280	0.879969
385.698017	0.875086
386.082692	0.864382
386.467305	0.857196
386.851856	0.847626
387.236344	0.839893
387.620770	0.828477
388.005133	0.819485
388.389435	0.810626
388.773674	0.803151
389.157851	0.790835
389.541965	0.783165
389.926018	0.781318
390.310008	0.767719
390.693936	0.759045
391.077802	0.747910
391.461606	0.743638
391.845348	0.729423
392.229027	0.725230
392.612645	0.717455
392.996200	0.703015
393.379694	0.692110
393.763125	0.679472
394.146494	0.679507
394.529801	0.666393
394.913047	0.656106
395.296230	0.657270
395.679351	0.645812
396.062410	0.639572
396.445408	0.638604
396.828343	0.630704
397.211217	0.624333
397.594028	0.633986
397.976778	0.621781
398.359466	0.616471
398.742092	0.610058
399.124656	0.621142
399.507158	0.608588
399.889598	0.604619
400.271977	0.594849
400.654294	0.598385
401.036549	0.596148
401.418742	0.599740
401.800874	0.584715
402.182944	0.581371
402.564952	0.572581
402.946898	0.574468
403.328783	0.575734
403.710606	0.585562
404.092367	0.560722
404.474067	0.565411
404.855705	0.564328
405.237282	0.573216
405.618797	0.559697
406.000250	0.554564
406.381642	0.544941
406.762972	0.549963
407.144240	0.549000
407.525447	0.549085
407.906593	0.541770
408.287677	0.536856
408.668700	0.544381
409.049661	0.539039
409.430560	0.534420
409.811399	0.542898
410.192176	0.524099
410.572891	0.531135
410.953545	0.520165
411.334138	0.532271
411.714669	0.525478
412.095139	0.537580
412.475547	0.521510
412.855894	0.523566
413.236180	0.522241
413.616405	0.527795
413.996568	0.518642
414.376670	0.524728
414.756711	0.529636
415.136691	0.526682
415.516609	0.518064
415.896466	0.513787
416.276262	0.510017
416.655997	0.511644
417.035670	0.493340
417.415283	0.485351
417.794834	0.490200
418.174324	0.495167
418.553753	0.504777
418.933121	0.486556
419.312428	0.480443
419.691674	0.485737
420.070859	0.474880
420.449983	0.482429
420.829045	0.472193
421.208047	0.481348
421.586988	0.474203
421.965867	0.473252
422.344686	0.462321
422.723444	0.474564
423.102141	0.491002
423.480777	0.464528
423.859352	0.484921
424.237866	0.461417
424.616319	0.462508
424.994712	0.453833
425.373044	0.463473
425.751314	0.452238
426.129524	0.468688
426.507673	0.452242
426.885762	0.446651
427.263789	0.451229
427.641756	0.461366
428.019662	0.451669
428.397508	0.450324
428.775292	0.454697
429.153016	0.446756
429.530679	0.453074
429.908282	0.445992
430.285824	0.456264
430.663305	0.434048
431.040726	0.455768
431.418086	0.455884
431.795385	0.447698
432.172624	0.445626
432.549802	0.447008
432.926920	0.445638
433.303977	0.444883
433.680974	0.442201
434.057910	0.440385
434.434786	0.440491
434.811601	0.442431
435.188355	0.424953
435.565050	0.434466
435.941683	0.436162
436.318257	0.420419
436.694770	0.420654
437.071222	0.418777
437.447614	0.423706
437.823946	0.429750
438.200218	0.419139
438.576429	0.429150
438.952580	0.422089
439.328670	0.418535
439.704700	0.425066
440.080670	0.426644
440.456580	0.407559
440.832429	0.415593
441.208218	0.426073
441.583947	0.415706
441.959616	0.415440
442.335224	0.420904
442.710773	0.411113
443.086261	0.409270
443.461689	0.422791
443.837057	0.413117
444.212365	0.402530
444.587612	0.410103
444.962800	0.399862
445.337927	0.401374
445.712995	0.427715
446.088002	0.390070
446.462949	0.400390
446.837837	0.404759
447.212664	0.393762
447.587431	0.385680
447.962139	0.356163
448.336786	0.315278
448.711374	0.325462
449.085901	0.368975
449.460369	0.373607
449.834776	0.377466
450.209124	0.356025
450.583412	0.349254
450.957640	0.342388
451.331808	0.353692
451.705917	0.377154
452.079965	0.381591
452.453954	0.369549
452.827883	0.376367
453.201752	0.371862
453.575562	0.382648
453.949311	0.371152
454.323001	0.377126
454.696632	0.373593
455.070202	0.365754
455.443713	0.357642
455.817164	0.352790
456.190556	0.348456
456.563888	0.345168
456.937160	0.342630
457.310373	0.360021
457.683526	0.358739
458.056619	0.364173
458.429653	0.365323
458.802628	0.368144
459.175542	0.362753
459.548398	0.345233
459.921194	0.337869
460.293930	0.337875
460.666607	0.315178
461.039224	0.303582
461.411782	0.299395
461.784280	0.298779
462.156719	0.302985
462.529099	0.307419
462.901419	0.323161
463.273680	0.327911
463.645882	0.326911
464.018024	0.332773
464.390106	0.325938
464.762130	0.310896
465.134094	0.293188
465.505999	0.263013
465.877845	0.233409
466.249631	0.220504
466.621358	0.227720
466.993026	0.241627
467.364634	0.247513
467.736184	0.256631
468.107674	0.265375
468.479105	0.264241
468.850477	0.271181
469.221790	0.277850
469.593043	0.287967
469.964238	0.293193
470.335373	0.292166
470.706449	0.290250
471.077467	0.291270
471.448425	0.253454
471.819324	0.228719
472.190164	0.228111
472.560945	0.257175
472.931667	0.279187
473.302330	0.283358
473.672934	0.295151
474.043479	0.283213
474.413965	0.284914
474.784393	0.288646
475.154761	0.283809
475.525070	0.280505
475.895321	0.286485
476.265513	0.280646
476.635645	0.276236
477.005719	0.276135
477.375734	0.272510
477.745691	0.265655
478.115588	0.262107
478.485427	0.255806
478.855207	0.242990
479.224928	0.225298
479.594591	0.213634
479.964194	0.216707
480.333739	0.218118
480.703226	0.219575
481.072653	0.217922
481.442022	0.213771
481.811333	0.209903
482.180584	0.213479
482.549777	0.218856
482.918912	0.222323
483.287988	0.222054
483.657005	0.221592
484.025964	0.228209
484.394864	0.225372
484.763706	0.225889
485.132489	0.230887
485.501213	0.232094
485.869879	0.230056
486.238487	0.233367
486.607036	0.231286
486.975527	0.235636
487.343959	0.231684
487.712333	0.230927
488.080648	0.232041
488.448905	0.231331
488.817104	0.232560
489.185244	0.227090
489.553326	0.223886
489.921350	0.213862
490.289315	0.196695
490.657222	0.191592
491.025070	0.192904
491.392861	0.194704
491.760593	0.200501
492.128267	0.206050
492.495883	0.211541
492.863440	0.217902
493.230939	0.223989
493.598380	0.225394
493.965763	0.227371
494.333088	0.230046
494.700354	0.231540
495.067563	0.230355
495.434713	0.233608
495.801805	0.231817
496.168839	0.233083
496.535815	0.234309
496.902733	0.234399
497.269593	0.236032
497.636395	0.233671
498.003139	0.233817
498.369825	0.237137
498.736453	0.233373
499.103023	0.234904
499.469535	0.234520
499.835989	0.234806
500.202385	0.235639
500.568723	0.239073
500.935003	0.234008
501.301226	0.238093
501.667390	0.232548
502.033497	0.230629
502.399546	0.233707
502.765537	0.235245
503.131470	0.234087
503.497345	0.230115
503.863163	0.239163
504.228923	0.232006
504.594625	0.230671
504.960269	0.236098
505.325856	0.231018
505.691385	0.235596
506.056856	0.232302
506.422270	0.231706
506.787625	0.234118
507.152924	0.231732
507.518164	0.232337
507.883347	0.233897
508.248472	0.235569
508.613540	0.230595
508.978550	0.233008
509.343503	0.233358
509.708398	0.231194
510.073236	0.228848
510.438016	0.228643
510.802738	0.229701
511.167403	0.228856
511.532010	0.230874
511.896561	0.226138
512.261053	0.225013
512.625488	0.226835
512.989866	0.227209
513.354186	0.227885
513.718449	0.229221
514.082655	0.225973
514.446803	0.228109
514.810894	0.225768
515.174927	0.228378
515.538904	0.227966
515.902822	0.224646
516.266684	0.226971
516.630488	0.228250
516.994235	0.226741
517.357925	0.225758
517.721558	0.223936
518.085133	0.223695
518.448651	0.223616
518.812112	0.225845
519.175516	0.225569
519.538863	0.223261
519.902152	0.224737
520.265385	0.221373
520.628560	0.223576
520.991678	0.223886
521.354739	0.222725
521.717743	0.223743
522.080690	0.224335
522.443580	0.221860
522.806413	0.222586
523.169189	0.221837
523.531908	0.220961
523.894569	0.224482
524.257174	0.224579
524.619722	0.222033
524.982213	0.223297
525.344647	0.222292
525.707025	0.222914
526.069345	0.221081
526.431608	0.222573
526.793815	0.220462
527.155964	0.224991
527.518057	0.223727
527.880093	0.224850
528.242072	0.223361
528.603995	0.225409
528.965860	0.226957
529.327669	0.225689
529.689421	0.226693
530.051117	0.227638
530.412755	0.225316
530.774337	0.227589
531.135862	0.227892
531.497331	0.227200
531.858743	0.230223
532.220098	0.226743
532.581396	0.229389
532.942638	0.230186
533.303824	0.231033
533.664953	0.230706
534.026025	0.232296
534.387040	0.230136
534.747999	0.230055
535.108902	0.229161
535.469748	0.234460
535.830537	0.231835
536.191270	0.232289
536.551947	0.231830
536.912567	0.232156
537.273131	0.233749
537.633638	0.233755
537.994089	0.234302
538.354483	0.235371
538.714821	0.232378
539.075103	0.232033
539.435328	0.232831
539.795497	0.236459
540.155609	0.233124
540.515665	0.231207
540.875665	0.236720
541.235609	0.235260
541.595496	0.235426
541.955328	0.231989
542.315102	0.235073
542.674821	0.235781
543.034483	0.235685
543.394090	0.235538
543.753640	0.237373
544.113134	0.232663
544.472571	0.235726
544.831953	0.232431
545.191278	0.236584
545.550548	0.236192
545.909761	0.232899
546.268918	0.233640
546.628019	0.231842
546.987064	0.234577
547.346053	0.236593
547.704986	0.234278
548.063863	0.234494
548.422684	0.234908
548.781449	0.236625
549.140158	0.234292
549.498811	0.237258
549.857408	0.240167
550.215949	0.235219
550.574434	0.238008
550.932864	0.235800
551.291237	0.234785
551.649555	0.236212
552.007817	0.235864
552.366022	0.236540
552.724173	0.237078
553.082267	0.237066
553.440305	0.234163
553.798288	0.238520
554.156215	0.235012
554.514086	0.235857
554.871902	0.239004
555.229661	0.238284
555.587365	0.238774
555.945014	0.241426
556.302606	0.238196
556.660143	0.240973
557.017625	0.237227
557.375050	0.239421
557.732421	0.236446
558.089735	0.238478
558.446994	0.238275
558.804197	0.237745
559.161345	0.237620
559.518437	0.241233
559.875474	0.238800
560.232455	0.238267
560.589381	0.239604
560.946251	0.239733
561.303065	0.237026
561.659825	0.238541
562.016528	0.240173
562.373177	0.242899
562.729770	0.240224
563.086307	0.242448
563.442789	0.240175
563.799216	0.242984
564.155587	0.241580
564.511904	0.242625
564.868164	0.242932
565.224370	0.242757
565.580520	0.244435
565.936615	0.244562
566.292654	0.247216
566.648638	0.244577
567.004567	0.245126
567.360441	0.245757
567.716260	0.247897
568.072023	0.245635
568.427732	0.246439
568.783385	0.249101
569.138982	0.246870
569.494525	0.246614
569.850013	0.249434
570.205445	0.247897
570.560823	0.250348
570.916145	0.252306
571.271412	0.250845
571.626625	0.252013
571.981782	0.252549
572.336884	0.253441
572.691931	0.252978
573.046923	0.254093
573.401860	0.255625
573.756743	0.257519
574.111570	0.256109
574.466342	0.256525
574.821059	0.255877
575.175722	0.258781
575.530330	0.258592
575.884882	0.258713
576.239380	0.261020
576.593823	0.261239
576.948211	0.260739
577.302544	0.263951
577.656823	0.263346
578.011047	0.263893
578.365216	0.264394
578.719330	0.266447
579.073389	0.266267
579.427394	0.267318
579.781344	0.268252
580.135239	0.269718
580.489080	0.269628
580.842866	0.272214
581.196597	0.271808
581.550273	0.270811
581.903895	0.271685
582.257463	0.269874
582.610975	0.273264
582.964434	0.272666
583.317837	0.275174
583.671186	0.275617
584.024481	0.275543
584.377721	0.278024
584.730906	0.278698
585.084037	0.278005
585.437113	0.279890
585.790135	0.278882
586.143103	0.282062
586.496016	0.283543
586.848874	0.280924
587.201679	0.281358
587.554428	0.284620
587.907124	0.283429
588.259765	0.284012
588.612352	0.284726
588.964884	0.288376
589.317362	0.287953
589.669786	0.288000
590.022155	0.286464
590.374470	0.285860
590.726731	0.287978
591.078937	0.292777
591.431090	0.289310
591.783188	0.293325
592.135232	0.293519
592.487222	0.293737
592.839157	0.291879
593.191038	0.294079
593.542866	0.295980
593.894639	0.299538
594.246358	0.297632
594.598022	0.296760
594.949633	0.301107
595.301190	0.301480
595.652692	0.300508
596.004141	0.296970
596.355535	0.304851
596.706876	0.305054
597.058162	0.307614
597.409395	0.305129
597.760573	0.303144
598.111698	0.305809
598.462768	0.306683
598.813785	0.307317
599.164748	0.309227
599.515657	0.309185
599.866511	0.312953
600.217312	0.307761
600.568060	0.313574
600.918753	0.309896
601.269392	0.310711
601.619978	0.313976
601.970510	0.311454
602.320988	0.311688
602.671412	0.309216
603.021783	0.311912
603.372100	0.312879
603.722363	0.312833
604.072572	0.313783
604.422728	0.313511
604.772830	0.315763
605.122878	0.315238
605.472872	0.315818
605.822813	0.313912
606.172701	0.316899
606.522534	0.314359
606.872314	0.314157
607.222041	0.315613
607.571714	0.313391
607.921333	0.314619
608.270899	0.314391
608.620411	0.310935
608.969870	0.315061
609.319276	0.315195
609.668627	0.314466
610.017926	0.313329
610.367171	0.312045
610.716362	0.312912
611.065500	0.312886
611.414585	0.311952
611.763616	0.312106
612.112594	0.312862
612.461518	0.312536
612.810389	0.309882
613.159207	0.312461
613.507971	0.313868
613.856682	0.309681
614.205340	0.311331
614.553945	0.308354
614.902496	0.311972
615.250994	0.310175
615.599439	0.310891
615.947830	0.310303
616.296169	0.310955
616.644454	0.310646
616.992686	0.311021
617.340864	0.308662
617.688990	0.312111
618.037063	0.308729
618.385082	0.310241
618.733048	0.307689
619.080961	0.310292
619.428821	0.309496
619.776628	0.308790
620.124382	0.310864
620.472083	0.310917
620.819731	0.310558
621.167326	0.314509
621.514868	0.314015
621.862357	0.318691
622.209793	0.317668
622.557176	0.320098
622.904506	0.321077
623.251783	0.323553
623.599007	0.325739
623.946179	0.325646
624.293297	0.327448
624.640363	0.331023
624.987376	0.331702
625.334336	0.334272
625.681243	0.336640
626.028097	0.337215
626.374899	0.338408
626.721647	0.338617
627.068343	0.341895
627.414987	0.342931
627.761577	0.344881
628.108115	0.343320
628.454600	0.348543
628.801032	0.345685
629.147412	0.347607
629.493739	0.348262
629.840014	0.351581
630.186236	0.348638
630.532405	0.354404
630.878521	0.351503
631.224585	0.353810
631.570597	0.357591
631.916556	0.355931
632.262462	0.356166
632.608316	0.358243
632.954117	0.359236
633.299866	0.359863
633.645562	0.360367
633.991206	0.364607
634.336797	0.367436
634.682336	0.369566
635.027823	0.371502
635.373257	0.371928
635.718639	0.375859
636.063968	0.374658
636.409245	0.380820
636.754470	0.381224
637.099642	0.383625
637.444762	0.387125
637.789829	0.386006
638.134845	0.389859
638.479808	0.390146
638.824719	0.390376
639.169577	0.394240
639.514383	0.392670
639.859137	0.397212
640.203839	0.397115
640.548489	0.397673
640.893086	0.398867
641.237632	0.400675
641.582125	0.399433
641.926566	0.400982
642.270955	0.400951
642.615292	0.401300
642.959576	0.400175
643.303809	0.400838
643.647990	0.400595
643.992118	0.400901
644.336195	0.404806
644.680219	0.402386
645.024192	0.403313
645.368112	0.397387
645.711981	0.395980
646.055797	0.391207
646.399562	0.394330
646.743274	0.385849
647.086935	0.383044
647.430544	0.383533
647.774101	0.382327
648.117606	0.382190
648.461059	0.382761
648.804460	0.384920
649.147810	0.389980
649.491108	0.391944
649.834354	0.392885
650.177548	0.398703
650.520690	0.403877
650.863781	0.404868
651.206820	0.404120
651.549807	0.408680
651.892742	0.413615
652.235626	0.412610
652.578458	0.414361
652.921238	0.419699
653.263967	0.417686
653.606644	0.421805
653.949269	0.420829
654.291843	0.425261
654.634365	0.421733
654.976836	0.425280
655.319255	0.425375
655.661622	0.426729
656.003938	0.427602
656.346203	0.429645
656.688416	0.427621
657.030577	0.430979
657.372687	0.433021
657.714746	0.434293
658.056753	0.431415
658.398708	0.434638
658.740612	0.436117
659.082465	0.431429
659.424266	0.432917
659.766016	0.431968
660.107715	0.434481
660.449362	0.433632
660.790958	0.433962
661.132503	0.434564
661.473996	0.431903
661.815438	0.433215
662.156829	0.433702
662.498168	0.434215
662.839456	0.435476
663.180693	0.433611
663.521879	0.433405
663.863013	0.434272
664.204097	0.432758
664.545129	0.429816
664.886110	0.429998
665.227040	0.427616
665.567918	0.429897
665.908746	0.427442
666.249522	0.427486
666.590248	0.428499
666.930922	0.426579
667.271545	0.425414
667.612118	0.425657
667.952639	0.427162
668.293109	0.426192
668.633528	0.429430
668.973896	0.428124
669.314213	0.429283
669.654480	0.430634
669.994695	0.430736
670.334859	0.432157
670.674973	0.432128
671.015035	0.431810
671.355047	0.432537
671.695008	0.433161
672.034918	0.435211
672.374777	0.434158
672.714585	0.435956
673.054342	0.435641
673.394049	0.435709
673.733705	0.433143
674.073310	0.434605
674.412864	0.437325
674.752368	0.438387
675.091820	0.438377
675.431223	0.442770
675.770574	0.442979
676.109875	0.445888
676.449125	0.445481
676.788324	0.447554
677.127473	0.453371
677.466571	0.453043
677.805619	0.454650
678.144616	0.455601
678.483562	0.457013
678.822458	0.459474
679.161303	0.460725
679.500098	0.461804
679.838842	0.462842
680.177535	0.462989
680.516179	0.461150
680.854771	0.460203
681.193314	0.453891
681.531805	0.444991
681.870247	0.433220
682.208638	0.426131
682.546978	0.424908
682.885268	0.426703
683.223508	0.432569
683.561697	0.436365
683.899836	0.438996
684.237925	0.442633
684.575963	0.444756
684.913951	0.448202
685.251889	0.444122
685.589776	0.445915
685.927614	0.448197
686.265401	0.442666
686.603137	0.444215
686.940824	0.437697
687.278460	0.436737
687.616046	0.435666
687.953582	0.430369
688.291068	0.432021
688.628504	0.427695
688.965889	0.430133
689.303224	0.434025
689.640510	0.437652
689.977745	0.444092
690.314930	0.451706
690.652065	0.456289
690.989150	0.464242
691.326185	0.470362
691.663170	0.474279
692.000105	0.481701
692.336990	0.488639
692.673825	0.491437
693.010610	0.498555
693.347345	0.503299
693.684030	0.505464
694.020665	0.510534
694.357251	0.519259
694.693786	0.518477
695.030272	0.522935
695.366707	0.526467
695.703093	0.529212
696.039429	0.527348
696.375716	0.529724
696.711952	0.532397
697.048139	0.534286
697.384276	0.535907
697.720363	0.534201
698.056400	0.533540
698.392388	0.539147
698.728326	0.541449
699.064214	0.544537
699.400053	0.545780
699.735842	0.548592
700.071581	0.552486
700.407270	0.554788
700.742910	0.557129
701.078501	0.564531
701.414042	0.564376
701.749533	0.567650
702.084974	0.575974
702.420366	0.568352
702.755709	0.575893
703.091002	0.583839
703.426246	0.577599
703.761440	0.582485
704.096584	0.587742
704.431679	0.585404
704.766725	0.586490
705.101721	0.588151
705.436668	0.584324
705.771565	0.591816
706.106413	0.588184
706.441212	0.583896
706.775961	0.582723
707.110661	0.585397
707.445311	0.581056
707.779913	0.578242
708.114465	0.577183
708.448967	0.573773
708.783421	0.565430
709.117825	0.560771
709.452180	0.560203
709.786485	0.554440
710.120742	0.544413
710.454949	0.545956
710.789107	0.538875
711.123216	0.528705
711.457275	0.530638
711.791286	0.522058
712.125247	0.520792
712.459159	0.531454
712.793023	0.523318
713.126837	0.528655
713.460602	0.528925
713.794318	0.538702
714.127985	0.535949
714.461602	0.547137
714.795171	0.549562
715.128691	0.558134
715.462162	0.565389
715.795584	0.571617
716.128957	0.573755
716.462281	0.580697
716.795556	0.584957
717.128782	0.589414
717.461960	0.599210
717.795088	0.597090
718.128167	0.603672
718.461198	0.612199
718.794180	0.612775
719.127113	0.615700
719.459997	0.619185
719.792833	0.625459
720.125619	0.626809
720.458357	0.632654
720.791046	0.632452
721.123686	0.635294
721.456278	0.642719
721.788821	0.639393
722.121315	0.644289
722.453761	0.648262
722.786158	0.646685
723.118506	0.643171
723.450805	0.650242
723.783056	0.646828
724.115259	0.643289
724.447412	0.643153
724.779518	0.644387
725.111574	0.643523
725.443582	0.638832
725.775542	0.641609
726.107453	0.633255
726.439315	0.633540
726.771129	0.631044
727.102895	0.625434
727.434612	0.617908
727.766281	0.615084
728.097901	0.615792
728.429473	0.614683
728.760996	0.613563
729.092471	0.612860
729.423897	0.616646
729.755276	0.616571
730.086606	0.616251
730.417887	0.610453
730.749120	0.601439
731.080305	0.592930
731.411442	0.587969
731.742530	0.593460
732.073570	0.592670
732.404562	0.584353
732.735506	0.586119
733.066401	0.591040
733.397249	0.600071
733.728048	0.611101
734.058798	0.624441
734.389501	0.634363
734.720156	0.644763
735.050762	0.652450
735.381320	0.653707
735.711831	0.662466
736.042293	0.667572
736.372707	0.663199
736.703073	0.668224
737.033391	0.670603
737.363661	0.666612
737.693883	0.662158
738.024056	0.661878
738.354182	0.661648
738.684260	0.651107
739.014290	0.647155
739.344272	0.647292
739.674207	0.640955
740.004093	0.641662
740.333931	0.641644
740.663722	0.640800
740.993464	0.642071
741.323159	0.644666
741.652806	0.651001
741.982405	0.654926
742.311956	0.660612
742.641460	0.662366
742.970915	0.666034
743.300323	0.673858
743.629683	0.679605
743.958996	0.681462
744.288260	0.685973
744.617477	0.692505
744.946647	0.693540
745.275768	0.699487
745.604842	0.698758
745.933869	0.709053
746.262847	0.709706
746.591778	0.703459
746.920662	0.709379
747.249498	0.715615
747.578286	0.706642
747.907027	0.702261
748.235720	0.703269
748.564365	0.698142
748.892963	0.698678
749.221514	0.701098
749.550017	0.706603
749.878473	0.705706
750.206881	0.712196
750.535242	0.714008
750.863555	0.714076
751.191821	0.714677
751.520039	0.717187
751.848210	0.722927
752.176334	0.715385
752.504411	0.714037
752.832440	0.723195
753.160421	0.725994
753.488356	0.724634
753.816243	0.722644
754.144082	0.730928
754.471875	0.734820
754.799620	0.729548
755.127318	0.731232
755.454969	0.729927
755.782572	0.730494
756.110129	0.735224
756.437638	0.737007
756.765100	0.735003
757.092515	0.732271
757.419882	0.731416
757.747203	0.737085
758.074477	0.735245
758.401703	0.733087
758.728882	0.727489
759.056014	0.727066
759.383099	0.725376
759.710138	0.726578
760.037129	0.723639
760.364073	0.717540
760.690970	0.720353
761.017820	0.725325
761.344623	0.720880
761.671379	0.711797
761.998088	0.700921
762.324751	0.677392
762.651366	0.635559
762.977935	0.568143
763.304456	0.515733
763.630931	0.506232
763.957359	0.545312
764.283740	0.589991
764.610074	0.617436
764.936362	0.648823
765.262602	0.675283
765.588796	0.696964
765.914943	0.715085
766.241044	0.732395
766.567097	0.739608
766.893104	0.749775
767.219064	0.755524
767.544978	0.763229
767.870845	0.775910
768.196665	0.778894
768.522438	0.777271
768.848165	0.779374
769.173846	0.787950
769.499479	0.792824
769.825066	0.795693
770.150607	0.801178
770.476101	0.796002
770.801548	0.797379
771.126949	0.809030
771.452303	0.811842
771.777611	0.811833
772.102872	0.811255
772.428087	0.816223
772.753256	0.820568
773.078378	0.822208
773.403453	0.829962
773.728482	0.834987
774.053465	0.828971
774.378401	0.831570
774.703291	0.840971
775.028135	0.840077
775.352932	0.843097
775.677683	0.845068
776.002388	0.846051
776.327046	0.844436
776.651658	0.848661
776.976224	0.851671
777.300743	0.850576
777.625216	0.853966
777.949643	0.854761
778.274024	0.855828
778.598359	0.856916
778.922647	0.856039
779.246889	0.855664
779.571086	0.860394
779.895236	0.863838
780.219339	0.859559
780.543397	0.857600
780.867409	0.855963
781.191374	0.857798
781.515294	0.857949
781.839167	0.858117
782.162995	0.861907
782.486776	0.857881
782.810511	0.859806
783.134201	0.863429
783.457844	0.860616
783.781441	0.863140
784.104993	0.869505
784.428498	0.870177
784.751958	0.865231
785.075372	0.867377
785.398739	0.869827
785.722061	0.867789
786.045337	0.863609
786.368568	0.868144
786.691752	0.870681
787.014891	0.856256
787.337983	0.847304
787.661030	0.840413
787.984031	0.822648
788.306987	0.808930
788.629897	0.811385
788.952760	0.816245
789.275579	0.819921
789.598351	0.834203
789.921078	0.847737
790.243759	0.850171
790.566395	0.855663
790.888984	0.861608
791.211529	0.866789
791.534027	0.870278
791.856480	0.872603
792.178888	0.877747
792.501249	0.880272
792.823566	0.881902
793.145836	0.881355
793.468062	0.884038
793.790241	0.882260
794.112375	0.881662
794.434464	0.877007
794.756507	0.876691
795.078505	0.876700
795.400457	0.870531
795.722364	0.859128
796.044226	0.852322
796.366042	0.851052
796.687812	0.854634
797.009538	0.850788
797.331218	0.852754
797.652852	0.858474
797.974442	0.863363
798.295986	0.862666
798.617484	0.866017
798.938938	0.870404
799.260346	0.874816
799.581709	0.876438
799.903026	0.878632
800.224299	0.878594
800.545526	0.883378
800.866708	0.887537
801.187845	0.891516
801.508936	0.891288
801.829983	0.888912
802.150984	0.891609
802.471940	0.896801
802.792851	0.896543
803.113717	0.896394
803.434538	0.895270
803.755314	0.897911
804.076045	0.899015
804.396731	0.898825
804.717372	0.898939
805.037967	0.901053
805.358518	0.898250
805.679024	0.895621
805.999485	0.896337
806.319901	0.896535
806.640272	0.896791
806.960598	0.894811
807.280879	0.893467
807.601115	0.891473
807.921306	0.895391
808.241453	0.896071
808.561554	0.892307
808.881611	0.893738
809.201623	0.895341
809.521590	0.894988
809.841513	0.895697
810.161390	0.894675
810.481223	0.897033
810.801011	0.900615
811.120755	0.902222
811.440453	0.900598
811.760107	0.898955
812.079716	0.898569
812.399281	0.902950
812.718801	0.905494
813.038276	0.906775
813.357707	0.905897
813.677093	0.902792
813.996434	0.905597
814.315731	0.907696
814.634983	0.909017
814.954191	0.907208
815.273354	0.904002
815.592473	0.900346
815.911547	0.900283
816.230577	0.897087
816.549562	0.895304
816.868502	0.896900
817.187399	0.891985
817.506250	0.887259
817.825058	0.888416
818.143821	0.885142
818.462539	0.880167
818.781213	0.871447
819.099843	0.860492
819.418429	0.845187
819.736970	0.827392
820.055466	0.807818
820.373919	0.781496
820.692327	0.748290
821.010691	0.713336
821.329011	0.634426
821.647286	0.517676
821.965517	0.403619
822.283704	0.360481
822.601847	0.361207
822.919945	0.397127
823.237999	0.431124
823.556010	0.478669
823.873976	0.534945
824.191897	0.586209
824.509775	0.628623
824.827609	0.675821
825.145398	0.697063
825.463144	0.701421
825.780845	0.684103
826.098502	0.664617
826.416116	0.618948
826.733685	0.573762
827.051210	0.564614
827.368692	0.579799
827.686129	0.618241
828.003522	0.671759
828.320872	0.719959
828.638177	0.763625
828.955439	0.796365
829.272656	0.819131
829.589830	0.836437
829.906960	0.853171
830.224046	0.865223
830.541088	0.876517
830.858086	0.879828
831.175041	0.885604
831.491952	0.886022
831.808819	0.881368
832.125642	0.874497
832.442421	0.859917
832.759157	0.837645
833.075849	0.791145
833.392497	0.727094
833.709101	0.686658
834.025662	0.694558
834.342179	0.726994
834.658653	0.766215
834.975083	0.802565
835.291469	0.829593
835.607811	0.852221
835.924110	0.867621
836.240366	0.885307
836.556578	0.899435
836.872746	0.906941
837.188871	0.913208
837.504952	0.918928
837.820990	0.922751
838.136984	0.926307
838.452935	0.928436
838.768842	0.930432
839.084706	0.923317
839.400526	0.897997
839.716303	0.857210
840.032037	0.834854
840.347727	0.838220
840.663373	0.856245
840.978977	0.878046
841.294537	0.899708
841.610054	0.916170
841.925527	0.924676
842.240957	0.931860
842.556344	0.939885
842.871687	0.945846
843.186987	0.950171
843.502244	0.949375
843.817458	0.951112
844.132629	0.954938
844.447756	0.960434
844.762840	0.960716
845.077881	0.959934
845.392879	0.959372
845.707833	0.962620
846.022745	0.963776
846.337613	0.965158
846.652438	0.965726
846.967221	0.964955
847.281960	0.964476
847.596656	0.967613
847.911309	0.965255
848.225919	0.967570
848.540485	0.967379
848.855009	0.967931
849.169490	0.968053
849.483928	0.969484
849.798323	0.968426
850.112675	0.968646
850.426984	0.969225
850.741251	0.970624
851.055474	0.970373
851.369654	0.967120
851.683792	0.969286
851.997887	0.969986
852.311938	0.970374
852.625947	0.970676
852.939914	0.967868
853.253837	0.969271
853.567718	0.969443
853.881555	0.970014
854.195350	0.968267
854.509103	0.969738
854.822812	0.969769
855.136479	0.969368
855.450103	0.968711
855.763685	0.968353
856.077224	0.967858
856.390720	0.970155
856.704173	0.969292
857.017584	0.968785
857.330953	0.966295
857.644278	0.967770
857.957561	0.968534
858.270802	0.968078
858.584000	0.967123
858.897155	0.966638
859.210268	0.967323
859.523339	0.967457
859.836367	0.969475
860.149352	0.970236
860.462295	0.968161
860.775195	0.969030
861.088054	0.968036
861.400869	0.969660
861.713642	0.969846
862.026373	0.970393
862.339062	0.971362
862.651708	0.967084
862.964312	0.967163
863.276873	0.969736
863.589392	0.967660
863.901869	0.966229
864.214303	0.965348
864.526696	0.964296
864.839045	0.962496
865.151353	0.961850
865.463619	0.962131
865.775842	0.960677
866.088023	0.962742
866.400162	0.961580
866.712258	0.962750
867.024313	0.962664
867.336325	0.962866
867.648296	0.961943
867.960224	0.962373
868.272110	0.961243
868.583954	0.963339
868.895755	0.963434
869.207515	0.961454
869.519233	0.958770
869.830909	0.960856
870.142542	0.961962
870.454134	0.962044
870.765684	0.960101
871.077191	0.957685
871.388657	0.957900
871.700081	0.956786
872.011463	0.957458
872.322803	0.957452
872.634101	0.956012
872.945357	0.953215
873.256571	0.951692
873.567744	0.950897
873.878874	0.953231
874.189963	0.951570
874.501010	0.950627
874.812015	0.949543
875.122979	0.951146
875.433900	0.952128
875.744780	0.953323
876.055618	0.949955
876.366415	0.949515
876.677169	0.949136
876.987882	0.951337
877.298554	0.949617
877.609183	0.946131
877.919771	0.944225
878.230317	0.941630
878.540822	0.939973
878.851285	0.933238
879.161707	0.926073
879.472087	0.912816
879.782425	0.894739
880.092722	0.861182
880.402977	0.808443
880.713191	0.746364
881.023363	0.685532
881.333494	0.650585
881.643583	0.622861
881.953631	0.623438
882.263637	0.651503
882.573602	0.691012
882.883526	0.718153
883.193408	0.742267
883.503248	0.765515
883.813048	0.793824
884.122806	0.823940
884.432522	0.846937
884.742197	0.867645
885.051831	0.879136
885.361424	0.889530
885.670975	0.901198
885.980485	0.910924
886.289954	0.917559
886.599382	0.923549
886.908768	0.926224
887.218113	0.932097
887.527417	0.937718
887.836680	0.940949
888.145901	0.942328
888.455082	0.944931
888.764221	0.950591
889.073319	0.952065
889.382376	0.951731
889.691392	0.952048
890.000366	0.951523
890.309300	0.953382
890.618193	0.952379
890.927044	0.950497
891.235855	0.950841
891.544625	0.950823
891.853353	0.951250
892.162041	0.947557
892.470687	0.941740
892.779293	0.936308
893.087858	0.933291
893.396381	0.924127
893.704864	0.911155
894.013306	0.887047
894.321707	0.859168
894.630068	0.844481
894.938387	0.838889
895.246665	0.839906
895.554903	0.853460
895.863100	0.866850
896.171256	0.883653
896.479371	0.902822
896.787446	0.916477
897.095480	0.923639
897.403473	0.927161
897.711425	0.931065
898.019336	0.939091
898.327207	0.941728
898.635038	0.943722
898.942827	0.944948
899.250576	0.945982
899.558284	0.950016
899.865952	0.952570
900.173579	0.954573
900.481165	0.953771
900.788711	0.960284
901.096216	0.960855
901.403681	0.961287
901.711105	0.962091
902.018489	0.962195
902.325832	0.961259
902.633135	0.961161
902.940397	0.954390
903.247619	0.942054
903.554800	0.915812
903.861941	0.873811
904.169041	0.838730
904.476101	0.821068
904.783121	0.821582
905.090100	0.837732
905.397039	0.859409
905.703938	0.883447
906.010796	0.903351
906.317614	0.920087
906.624391	0.932423
906.931129	0.942099
907.237826	0.950259
907.544483	0.957734
907.851099	0.961985
908.157675	0.966425
908.464211	0.970487
908.770707	0.971427
909.077163	0.973567
909.383578	0.974009
909.689954	0.973077
909.996289	0.974581
910.302584	0.976465
910.608839	0.979185
910.915054	0.978558
911.221229	0.977491
911.527363	0.976082
911.833458	0.976165
912.139513	0.976688
912.445527	0.974312
912.751502	0.973371
913.057436	0.971532
913.363331	0.968839
913.669186	0.964603
913.975000	0.960482
914.280775	0.952772
914.586510	0.946687
914.892205	0.933193
915.197859	0.910729
915.503475	0.882938
915.809050	0.863055
916.114585	0.856105
916.420081	0.853980
916.725536	0.851215
917.030952	0.859781
917.336328	0.872904
917.641665	0.888297
917.946961	0.904081
918.252218	0.916364
918.557435	0.925453
918.862612	0.933820
919.167750	0.941099
919.472848	0.944642
919.777906	0.950393
920.082925	0.957703
920.387904	0.960748
920.692843	0.962049
920.997743	0.962284
921.302603	0.967080
921.607423	0.968655
921.912204	0.970695
922.216946	0.972138
922.521647	0.972690
922.826310	0.974480
923.130932	0.975989
923.435516	0.978191
923.740059	0.978531
924.044564	0.978708
924.349028	0.980926
924.653454	0.982179
924.957840	0.984351
925.262186	0.983313
925.566493	0.982892
925.870761	0.985004
926.174989	0.986181
926.479178	0.988707
926.783328	0.988202
927.087438	0.988269
927.391509	0.988041
927.695541	0.989568
927.999533	0.990264
928.303486	0.989318
928.607400	0.990649
928.911275	0.990062
929.215110	0.989551
929.518906	0.990887
929.822663	0.990020
930.126381	0.990712
930.430060	0.990020
930.733699	0.989788
931.037299	0.987710
931.340861	0.990666
931.644383	0.989430
931.947866	0.988294
932.251309	0.990471
932.554714	0.989740
932.858080	0.989439
933.161407	0.990271
933.464694	0.990647
933.767943	0.989535
934.071153	0.989085
934.374323	0.992668
934.677455	0.990411
934.980548	0.991170
935.283602	0.989977
935.586617	0.991146
935.889593	0.990125
936.192530	0.989777
936.495428	0.990408
936.798287	0.990932
937.101108	0.989903
937.403890	0.988625
937.706632	0.988387
938.009336	0.986058
938.312002	0.985437
938.614628	0.984428
938.917216	0.983776
939.219765	0.981278
939.522275	0.983020
939.824747	0.983082
940.127179	0.982479
940.429573	0.983410
940.731929	0.983373
941.034246	0.984137
941.336524	0.985326
941.638763	0.985647
941.940964	0.985814
942.243126	0.985371
942.545250	0.986933
942.847335	0.988192
943.149381	0.988400
943.451389	0.987459
943.753359	0.988370
944.055290	0.989822
944.357182	0.989381
944.659036	0.988031
944.960851	0.988445
945.262628	0.989830
945.564367	0.990537
945.866067	0.989081
946.167729	0.990699
946.469352	0.989270
946.770937	0.988274
947.072484	0.990762
947.373992	0.989703
947.675462	0.990787
947.976893	0.988730
948.278286	0.989374
948.579641	0.991640
948.880958	0.990917
949.182236	0.990965
949.483476	0.991010
949.784678	0.990698
950.085841	0.990492
950.386967	0.990674
950.688054	0.989795
950.989103	0.990865
951.290114	0.989154
951.591087	0.988611
951.892021	0.990485
952.192917	0.988281
952.493776	0.988498
952.794596	0.987935
953.095378	0.986949
953.396122	0.987368
953.696828	0.987252
953.997496	0.989200
954.298126	0.990168
954.598718	0.990141
954.899272	0.992494
955.199788	0.990628
955.500266	0.992333
955.800706	0.993310
956.101108	0.993319
956.401472	0.992649
956.701798	0.994041
957.002087	0.993148
957.302337	0.993346
957.602550	0.993868
957.902724	0.995144
958.202861	0.994835
958.502960	0.996097
958.803022	0.994017
959.103045	0.996655
959.403031	0.995593
959.702979	0.995274
960.002889	0.996383
960.302762	0.995907
960.602596	0.996383
960.902393	0.995983
961.202153	0.997434
961.501875	0.996138
961.801559	0.995246
962.101205	0.995658
962.400814	0.996466
962.700385	0.996292
962.999918	0.996702
963.299414	0.998346
963.598873	0.995932
963.898293	0.996649
964.197677	0.996000
964.497022	0.996394
964.796331	0.997646
965.095601	0.997313
965.394835	0.996339
965.694030	0.996512
965.993189	0.996664
966.292309	0.996010
966.591393	0.997456
966.890439	0.997693
967.189447	0.996227
967.488419	0.997354
967.787353	0.995024
968.086249	0.995880
968.385108	0.997474
968.683930	0.997659
968.982714	0.998073
969.281462	0.998672
969.580172	0.995951
969.878844	0.997910
970.177480	0.996684
970.476078	0.996941
970.774639	0.996159
971.073162	0.997482
971.371649	0.996230
971.670098	0.996674
971.968510	0.997984
972.266885	0.994706
972.565223	0.995524
972.863524	0.996190
973.161788	0.996283
973.460014	0.997936
973.758204	0.996008
974.056356	0.996697
974.354471	0.995280
974.652550	0.996749
974.950591	0.995953
975.248595	0.996669
975.546563	0.996148
975.844493	0.997404
976.142386	0.997278
976.440243	0.997971
976.738062	0.997131
977.035845	0.999143
977.333590	0.996949
977.631299	0.997634
977.928971	0.997727
978.226606	0.996867
978.524204	0.995572
978.821765	0.998665
979.119290	0.996304
979.416777	0.996579
979.714228	0.997438
980.011642	0.994971
980.309020	0.998449
980.606360	0.997418
980.903664	0.997634
981.200931	0.995551
981.498162	0.995372
981.795356	0.994430
982.092513	0.993419
982.389633	0.995243
982.686717	0.991200
982.983764	0.991308
983.280775	0.989850
983.577749	0.989970
983.874686	0.991691
984.171587	0.991105
984.468451	0.994644
984.765279	0.993997
985.062070	0.994222
985.358824	0.995106
985.655543	0.995023
985.952224	0.995906
986.248869	0.995999
986.545478	0.997147
986.842050	0.998658
987.138586	0.995713
987.435086	0.997176
987.731549	0.998671
988.027975	0.998621
988.324366	0.997898
988.620719	0.997505
988.917037	0.996265
989.213318	0.997870
989.509563	0.998522
989.805772	0.998799
990.101944	0.999800
990.398080	0.997657
990.694180	0.996914
990.990244	0.997603
991.286271	0.997933
991.582262	0.998454
991.878217	0.997160
992.174136	0.998838
992.470019	0.998568
992.765865	0.998219
993.061676	0.998308
993.357450	0.997634
993.653188	0.997228
993.948890	0.998863
994.244556	0.998083
994.540186	0.996891
994.835780	0.996668
995.131337	0.996867
995.426859	0.996766
995.722345	0.997253
996.017795	0.996166
996.313208	0.994855
996.608586	0.996103
996.903928	0.996958
997.199234	0.996384
997.494504	0.996319
997.789738	0.996434
998.084936	0.996213
998.380099	0.998713
998.675225	0.997962
998.970316	0.997206
999.265371	0.998163
999.560390	0.997414
999.855373	0.999580
1000.150320	0.998190
1000.445232	0.998317
1000.740108	0.997747
1001.034948	0.999380
1001.329752	0.999117
1001.624521	0.998486
1001.919254	0.998175
1002.213951	0.998383
1002.508613	0.998716
1002.803239	0.999142
1003.097829	0.999364
1003.392384	0.999366
1003.686903	0.997543
1003.981386	0.998605
1004.275834	0.999805
1004.570246	0.998400
1004.864623	0.999116
1005.158964	0.999776
1005.453270	0.998980
1005.747540	0.998527
1006.041775	0.999307
1006.335974	0.999270
1006.630138	0.999096
1006.924266	0.999636
1007.218359	1.000613
1007.512416	0.999720
1007.806438	1.000146
1008.100425	1.000433
1008.394376	0.998571
1008.688292	0.999209
1008.982172	0.999908
1009.276017	1.000667
1009.569827	0.998061
1009.863602	0.999127
1010.157341	0.999880
1010.451045	1.000033
1010.744714	0.999314
1011.038347	0.999309
1011.331945	0.998374
1011.625508	0.997885
1011.919036	0.999840
1012.212528	0.999375
1012.505986	0.998325
1012.799408	0.997564
1013.092795	0.998481
1013.386147	0.999545
1013.679464	0.999743
1013.972745	0.998032
1014.265992	0.997849
1014.559204	0.998194
1014.852380	1.000448
1015.145521	0.998945
1015.438628	1.000193
1015.731699	0.998689
1016.024736	0.998964
1016.317737	0.999480
1016.610703	0.999531
1016.903635	0.999834
1017.196531	0.998110
1017.489393	1.000474
1017.782219	0.999455
1018.075011	0.998924
1018.367768	0.999591
1018.660490	1.000207
1018.953177	1.000207
1019.245829	1.000207
