Dividing Wavelength (nm)	Counts (n)	Blue Motor Position (mm): 0.000000	Red Motor Position (mm): 33.300000	
326.493990	1.000076
326.888308	1.000076
327.282561	1.000076
327.676750	0.999401
328.070874	0.998380
328.464933	0.998741
328.858929	0.998150
329.252859	0.999033
329.646726	0.999098
330.040528	0.999305
330.434265	0.999683
330.827938	1.000847
331.221547	1.001076
331.615091	0.999412
332.008571	1.000169
332.401986	0.999142
332.795338	1.000344
333.188625	0.998994
333.581847	1.000318
333.975006	0.998916
334.368100	0.998241
334.761129	0.999717
335.154095	1.000795
335.546996	0.998303
335.939833	0.995069
336.332606	0.995068
336.725315	0.995222
337.117960	0.997337
337.510540	0.995586
337.903056	0.997037
338.295508	0.995283
338.687896	0.996496
339.080220	0.995325
339.472480	0.995646
339.864676	0.995115
340.256807	0.996515
340.648875	0.996785
341.040879	0.995906
341.432818	0.994932
341.824694	0.996552
342.216506	0.996079
342.608253	0.997062
342.999937	0.995456
343.391557	0.994971
343.783113	0.995242
344.174605	0.996405
344.566033	0.995841
344.957397	0.995937
345.348697	0.994787
345.739934	0.995905
346.131106	0.995286
346.522215	0.994923
346.913260	0.995572
347.304241	0.995725
347.695159	0.995410
348.086012	0.994119
348.476802	0.995961
348.867528	0.995965
349.258191	0.994862
349.648789	0.996085
350.039324	0.994502
350.429796	0.995205
350.820203	0.996487
351.210548	0.995359
351.600828	0.994875
351.991045	0.995412
352.381198	0.995891
352.771288	0.997032
353.161314	0.995195
353.551276	0.996804
353.941175	0.995756
354.331010	0.994923
354.720782	0.995721
355.110490	0.996287
355.500135	0.995778
355.889717	0.995791
356.279235	0.995450
356.668689	0.995507
357.058080	0.995902
357.447408	0.997320
357.836672	0.995957
358.225873	0.995943
358.615010	0.996019
359.004084	0.996588
359.393095	0.996560
359.782043	0.995696
360.170927	0.997230
360.559748	0.996792
360.948505	0.995263
361.337199	0.995981
361.725830	0.996677
362.114398	0.996508
362.502903	0.997606
362.891344	0.997288
363.279722	0.994887
363.668037	0.996348
364.056289	0.996103
364.444478	0.997134
364.832603	0.995683
365.220665	0.996071
365.608665	0.995424
365.996601	0.995833
366.384474	0.996528
366.772284	0.996311
367.160031	0.994808
367.547715	0.994401
367.935336	0.995316
368.322893	0.995420
368.710388	0.994585
369.097820	0.996384
369.485189	0.996497
369.872495	0.995901
370.259738	0.994270
370.646918	0.997706
371.034035	0.996931
371.421090	0.996329
371.808081	0.995213
372.195010	0.997533
372.581875	0.996440
372.968678	0.995896
373.355418	0.995751
373.742096	0.996892
374.128710	0.996910
374.515262	0.995852
374.901751	0.995901
375.288177	0.997080
375.674540	0.996854
376.060841	0.995444
376.447079	0.996521
376.833254	0.996621
377.219367	0.996247
377.605417	0.996245
377.991404	0.997020
378.377329	0.995219
378.763191	0.996602
379.148991	0.997508
379.534727	0.996887
379.920402	0.997166
380.306013	0.996333
380.691563	0.998621
381.077049	0.996569
381.462474	0.997620
381.847835	0.997516
382.233134	0.997591
382.618371	0.996830
383.003545	0.996831
383.388657	0.996391
383.773706	0.997989
384.158693	0.997441
384.543618	0.996716
384.928480	0.998010
385.313280	0.997551
385.698017	0.997758
386.082692	0.997356
386.467305	0.998087
386.851856	0.996334
387.236344	0.996376
387.620770	0.997125
388.005133	0.997683
388.389435	0.998361
388.773674	0.996988
389.157851	0.998721
389.541965	0.998139
389.926018	0.997344
390.310008	0.998880
390.693936	0.997879
391.077802	0.997426
391.461606	0.998415
391.845348	0.998942
392.229027	0.998276
392.612645	0.998275
392.996200	0.998405
393.379694	0.998233
393.763125	0.998783
394.146494	0.998460
394.529801	0.998411
394.913047	0.998268
395.296230	0.998150
395.679351	0.998539
396.062410	0.997723
396.445408	0.998644
396.828343	0.998053
397.211217	0.998020
397.594028	0.998335
397.976778	0.997814
398.359466	0.998107
398.742092	0.997628
399.124656	0.997723
399.507158	0.998264
399.889598	0.998654
400.271977	0.998369
400.654294	1.000134
401.036549	0.998791
401.418742	0.998570
401.800874	0.997808
402.182944	0.998862
402.564952	0.997469
402.946898	0.998732
403.328783	0.999048
403.710606	0.998163
404.092367	0.998894
404.474067	0.998261
404.855705	0.998002
405.237282	0.998405
405.618797	0.998722
406.000250	0.997467
406.381642	0.998244
406.762972	0.998255
407.144240	0.999603
407.525447	0.998501
407.906593	0.998606
408.287677	0.999371
408.668700	0.999820
409.049661	0.998393
409.430560	0.998873
409.811399	0.997912
410.192176	0.998632
410.572891	0.998684
410.953545	0.998831
411.334138	0.997822
411.714669	0.998686
412.095139	0.998317
412.475547	0.998780
412.855894	0.998313
413.236180	0.998695
413.616405	0.997940
413.996568	0.999737
414.376670	0.998589
414.756711	0.998160
415.136691	0.998363
415.516609	0.998735
415.896466	0.998618
416.276262	0.997957
416.655997	0.999589
417.035670	0.998180
417.415283	0.999246
417.794834	0.998477
418.174324	0.998331
418.553753	0.998117
418.933121	0.998773
419.312428	0.998173
419.691674	0.998094
420.070859	0.998956
420.449983	0.999325
420.829045	0.998461
421.208047	0.999415
421.586988	1.000223
421.965867	0.998514
422.344686	0.999964
422.723444	0.998386
423.102141	0.999752
423.480777	0.999141
423.859352	0.998563
424.237866	0.998372
424.616319	0.999436
424.994712	0.999037
425.373044	0.999097
425.751314	0.998981
426.129524	0.998715
426.507673	0.999531
426.885762	0.999293
427.263789	0.998714
427.641756	0.999174
428.019662	1.000765
428.397508	0.998828
428.775292	0.998136
429.153016	0.998299
429.530679	0.999813
429.908282	0.999718
430.285824	0.998612
430.663305	0.998650
431.040726	0.998477
431.418086	0.999511
431.795385	1.000097
432.172624	0.998794
432.549802	0.999020
432.926920	0.999402
433.303977	0.997699
433.680974	0.999105
434.057910	0.998671
434.434786	0.999660
434.811601	0.998860
435.188355	0.998880
435.565050	0.998213
435.941683	0.999222
436.318257	0.999666
436.694770	0.998392
437.071222	0.999374
437.447614	0.999304
437.823946	0.998534
438.200218	0.999498
438.576429	0.999608
438.952580	0.999797
439.328670	0.998715
439.704700	0.999346
440.080670	0.999347
440.456580	0.998898
440.832429	0.998189
441.208218	0.999414
441.583947	0.998620
441.959616	0.999609
442.335224	0.999188
442.710773	0.999783
443.086261	0.998158
443.461689	0.998921
443.837057	0.999142
444.212365	0.999132
444.587612	0.999114
444.962800	0.999270
445.337927	0.999365
445.712995	0.999830
446.088002	1.000160
446.462949	0.999099
446.837837	0.999368
447.212664	0.998743
447.587431	1.000053
447.962139	0.998748
448.336786	0.999503
448.711374	0.999917
449.085901	0.998779
449.460369	1.000173
449.834776	0.999504
450.209124	0.999608
450.583412	0.999842
450.957640	0.999980
451.331808	0.998917
451.705917	0.999237
452.079965	0.998756
452.453954	0.999847
452.827883	0.999452
453.201752	0.999613
453.575562	1.000147
453.949311	1.000246
454.323001	0.999378
454.696632	0.998914
455.070202	0.999044
455.443713	0.998866
455.817164	0.999349
456.190556	0.999536
456.563888	0.999633
456.937160	0.999005
457.310373	0.999218
457.683526	0.999118
458.056619	0.999371
458.429653	0.999300
458.802628	0.998773
459.175542	0.999473
459.548398	0.999455
459.921194	0.998825
460.293930	1.000008
460.666607	0.999171
461.039224	0.999016
461.411782	0.999716
461.784280	0.999066
462.156719	1.000185
462.529099	1.000082
462.901419	0.999643
463.273680	0.999258
463.645882	0.999178
464.018024	0.999047
464.390106	0.999166
464.762130	1.000756
465.134094	1.000305
465.505999	1.000439
465.877845	1.000267
466.249631	1.000469
466.621358	0.999736
466.993026	0.999743
467.364634	0.999742
467.736184	1.000444
468.107674	1.000014
468.479105	0.998711
468.850477	1.000128
469.221790	0.999260
469.593043	0.999202
469.964238	1.000328
470.335373	0.998760
470.706449	0.999494
471.077467	1.000200
471.448425	0.999929
471.819324	1.000496
472.190164	0.999445
472.560945	0.999372
472.931667	0.998936
473.302330	0.998105
473.672934	0.999423
474.043479	0.999213
474.413965	0.999275
474.784393	0.999451
475.154761	0.998834
475.525070	0.998697
475.895321	0.999809
476.265513	0.999156
476.635645	0.998998
477.005719	0.998720
477.375734	0.998218
477.745691	0.999207
478.115588	0.999200
478.485427	0.999857
478.855207	0.999865
479.224928	1.000075
479.594591	0.999525
479.964194	0.998996
480.333739	0.999095
480.703226	0.998877
481.072653	1.000244
481.442022	1.000186
481.811333	0.998448
482.180584	0.999503
482.549777	0.998457
482.918912	0.998599
483.287988	0.998365
483.657005	0.998362
484.025964	0.999496
484.394864	0.999159
484.763706	0.998990
485.132489	0.998324
485.501213	0.998054
485.869879	0.998125
486.238487	0.998063
486.607036	0.998075
486.975527	0.997288
487.343959	0.997047
487.712333	0.996941
488.080648	0.996587
488.448905	0.996683
488.817104	0.996406
489.185244	0.996264
489.553326	0.995597
489.921350	0.995074
490.289315	0.994144
490.657222	0.994664
491.025070	0.994073
491.392861	0.993775
491.760593	0.992903
492.128267	0.992607
492.495883	0.991686
492.863440	0.992066
493.230939	0.991308
493.598380	0.990397
493.965763	0.989898
494.333088	0.988911
494.700354	0.987752
495.067563	0.987473
495.434713	0.987109
495.801805	0.986258
496.168839	0.985324
496.535815	0.983806
496.902733	0.982666
497.269593	0.981677
497.636395	0.981395
498.003139	0.979758
498.369825	0.979182
498.736453	0.976870
499.103023	0.975424
499.469535	0.974129
499.835989	0.973386
500.202385	0.971741
500.568723	0.970988
500.935003	0.969126
501.301226	0.967077
501.667390	0.965721
502.033497	0.963854
502.399546	0.963037
502.765537	0.959874
503.131470	0.958763
503.497345	0.956612
503.863163	0.955638
504.228923	0.952722
504.594625	0.950154
504.960269	0.948963
505.325856	0.946535
505.691385	0.943843
506.056856	0.941182
506.422270	0.938584
506.787625	0.936198
507.152924	0.933639
507.518164	0.931013
507.883347	0.928272
508.248472	0.925246
508.613540	0.921860
508.978550	0.919401
509.343503	0.916549
509.708398	0.913092
510.073236	0.909572
510.438016	0.906760
510.802738	0.902616
511.167403	0.899440
511.532010	0.894930
511.896561	0.891486
512.261053	0.888818
512.625488	0.884453
512.989866	0.880218
513.354186	0.876253
513.718449	0.872524
514.082655	0.867748
514.446803	0.864713
514.810894	0.859732
515.174927	0.855111
515.538904	0.851373
515.902822	0.845779
516.266684	0.842890
516.630488	0.838081
516.994235	0.832742
517.357925	0.827271
517.721558	0.822747
518.085133	0.817123
518.448651	0.813335
518.812112	0.809023
519.175516	0.802843
519.538863	0.797720
519.902152	0.793076
520.265385	0.786283
520.628560	0.782536
520.991678	0.776571
521.354739	0.771777
521.717743	0.766838
522.080690	0.762245
522.443580	0.754912
522.806413	0.749759
523.169189	0.744369
523.531908	0.738690
523.894569	0.734600
524.257174	0.728636
524.619722	0.721883
524.982213	0.717928
525.344647	0.710914
525.707025	0.705913
526.069345	0.699938
526.431608	0.693791
526.793815	0.688266
527.155964	0.683200
527.518057	0.678156
527.880093	0.673074
528.242072	0.666761
528.603995	0.660730
528.965860	0.656158
529.327669	0.649760
529.689421	0.644341
530.051117	0.639375
530.412755	0.631687
530.774337	0.628528
531.135862	0.621824
531.497331	0.616883
531.858743	0.611781
532.220098	0.604864
532.581396	0.600291
532.942638	0.596272
533.303824	0.590745
533.664953	0.584402
534.026025	0.579701
534.387040	0.573063
534.747999	0.568139
535.108902	0.561432
535.469748	0.559512
535.830537	0.552684
536.191270	0.547645
536.551947	0.541719
536.912567	0.536520
537.273131	0.533546
537.633638	0.527835
537.994089	0.522554
538.354483	0.518554
538.714821	0.511777
539.075103	0.506580
539.435328	0.501668
539.795497	0.500202
540.155609	0.491680
540.515665	0.486170
540.875665	0.485487
541.235609	0.478700
541.595496	0.475009
541.955328	0.466614
542.315102	0.464557
542.674821	0.460636
543.034483	0.455877
543.394090	0.451329
543.753640	0.448539
544.113134	0.439807
544.472571	0.438811
544.831953	0.431317
545.191278	0.430246
545.550548	0.426137
545.909761	0.419212
546.268918	0.415751
546.628019	0.410539
546.987064	0.407950
547.346053	0.406529
547.704986	0.399909
548.063863	0.396610
548.422684	0.393714
548.781449	0.391080
549.140158	0.385369
549.498811	0.384179
549.857408	0.384486
550.215949	0.374939
550.574434	0.374616
550.932864	0.369015
551.291237	0.365252
551.649555	0.362589
552.007817	0.359839
552.366022	0.357439
552.724173	0.354846
553.082267	0.351996
553.440305	0.345784
553.798288	0.347594
554.156215	0.341212
554.514086	0.339311
554.871902	0.339552
555.229661	0.336109
555.587365	0.333849
555.945014	0.334328
556.302606	0.328242
556.660143	0.328679
557.017625	0.322519
557.375050	0.322467
557.732421	0.317445
558.089735	0.316751
558.446994	0.314959
558.804197	0.311772
559.161345	0.309492
559.518437	0.311214
559.875474	0.306886
560.232455	0.304223
560.589381	0.303854
560.946251	0.301232
561.303065	0.297606
561.659825	0.296950
562.016528	0.296807
562.373177	0.298035
562.729770	0.293333
563.086307	0.294181
563.442789	0.290355
563.799216	0.291645
564.155587	0.288954
564.511904	0.288363
564.868164	0.286910
565.224370	0.285980
565.580520	0.286174
565.936615	0.285185
566.292654	0.286426
566.648638	0.282591
567.004567	0.281988
567.360441	0.281605
567.716260	0.282498
568.072023	0.279575
568.427732	0.278751
568.783385	0.280573
569.138982	0.277622
569.494525	0.276394
569.850013	0.278539
570.205445	0.275849
570.560823	0.277499
570.916145	0.278637
571.271412	0.276229
571.626625	0.276971
571.981782	0.276630
572.336884	0.276926
572.691931	0.276068
573.046923	0.276433
573.401860	0.277234
573.756743	0.278434
574.111570	0.276572
574.466342	0.276756
574.821059	0.275041
575.175722	0.277465
575.530330	0.276853
575.884882	0.276037
576.239380	0.277914
576.593823	0.277984
576.948211	0.277108
577.302544	0.280069
577.656823	0.279318
578.011047	0.278970
578.365216	0.278928
578.719330	0.280941
579.073389	0.280444
579.427394	0.281445
579.781344	0.281980
580.135239	0.283177
580.489080	0.282349
580.842866	0.285111
581.196597	0.284759
581.550273	0.283437
581.903895	0.283928
582.257463	0.282374
582.610975	0.285420
582.964434	0.284607
583.317837	0.286808
583.671186	0.286934
584.024481	0.286937
584.377721	0.289230
584.730906	0.289673
585.084037	0.288721
585.437113	0.290253
585.790135	0.289740
586.143103	0.292526
586.496016	0.293637
586.848874	0.290943
587.201679	0.291590
587.554428	0.294739
587.907124	0.293417
588.259765	0.293921
588.612352	0.294382
588.964884	0.298321
589.317362	0.297526
589.669786	0.297528
590.022155	0.296015
590.374470	0.295330
590.726731	0.297131
591.078937	0.301629
591.431090	0.297772
591.783188	0.302289
592.135232	0.302577
592.487222	0.302216
592.839157	0.300848
593.191038	0.302763
593.542866	0.304392
593.894639	0.308195
594.246358	0.306137
594.598022	0.305431
594.949633	0.308890
595.301190	0.309285
595.652692	0.308725
596.004141	0.304596
596.355535	0.312785
596.706876	0.313299
597.058162	0.315849
597.409395	0.312701
597.760573	0.310466
598.111698	0.313818
598.462768	0.313973
598.813785	0.315384
599.164748	0.316445
599.515657	0.317033
599.866511	0.320761
600.217312	0.315598
600.568060	0.321112
600.918753	0.317248
601.269392	0.318081
601.619978	0.321296
601.970510	0.319050
602.320988	0.319102
602.671412	0.316348
603.021783	0.318810
603.372100	0.320459
603.722363	0.319874
604.072572	0.320703
604.422728	0.320832
604.772830	0.323090
605.122878	0.322591
605.472872	0.322699
605.822813	0.321062
606.172701	0.323793
606.522534	0.321375
606.872314	0.321235
607.222041	0.321946
607.571714	0.320391
607.921333	0.321787
608.270899	0.321584
608.620411	0.318218
608.969870	0.321794
609.319276	0.322207
609.668627	0.321967
610.017926	0.320482
610.367171	0.318997
610.716362	0.319777
611.065500	0.319837
611.414585	0.318728
611.763616	0.319412
612.112594	0.319306
612.461518	0.318939
612.810389	0.316590
613.159207	0.318968
613.507971	0.320655
613.856682	0.316571
614.205340	0.318109
614.553945	0.314853
614.902496	0.319057
615.250994	0.317120
615.599439	0.317866
615.947830	0.317154
616.296169	0.317946
616.644454	0.317289
616.992686	0.317578
617.340864	0.315401
617.688990	0.319004
618.037063	0.315662
618.385082	0.317386
618.733048	0.314431
619.080961	0.316362
619.428821	0.316000
619.776628	0.315628
620.124382	0.317528
620.472083	0.317554
620.819731	0.317017
621.167326	0.320996
621.514868	0.320606
621.862357	0.325308
622.209793	0.324223
622.557176	0.326931
622.904506	0.328044
623.251783	0.330178
623.599007	0.332487
623.946179	0.332069
624.293297	0.333874
624.640363	0.337710
624.987376	0.338318
625.334336	0.341125
625.681243	0.343287
626.028097	0.343813
626.374899	0.344759
626.721647	0.344718
627.068343	0.348318
627.414987	0.348776
627.761577	0.351365
628.108115	0.349774
628.454600	0.354945
628.801032	0.352398
629.147412	0.354631
629.493739	0.354542
629.840014	0.357486
630.186236	0.355040
630.532405	0.360529
630.878521	0.358329
631.224585	0.360191
631.570597	0.363717
631.916556	0.362337
632.262462	0.362649
632.608316	0.364871
632.954117	0.365246
633.299866	0.366626
633.645562	0.366569
633.991206	0.370875
634.336797	0.373697
634.682336	0.376140
635.027823	0.377769
635.373257	0.378079
635.718639	0.381534
636.063968	0.381098
636.409245	0.386728
636.754470	0.386749
637.099642	0.389474
637.444762	0.393229
637.789829	0.391919
638.134845	0.395415
638.479808	0.396728
638.824719	0.396487
639.169577	0.400502
639.514383	0.398898
639.859137	0.403356
640.203839	0.403591
640.548489	0.403375
640.893086	0.404779
641.237632	0.406670
641.582125	0.404960
641.926566	0.406574
642.270955	0.407080
642.615292	0.407103
642.959576	0.406220
643.303809	0.406652
643.647990	0.406388
643.992118	0.406948
644.336195	0.410495
644.680219	0.408990
645.024192	0.409428
645.368112	0.403120
645.711981	0.402242
646.055797	0.397789
646.399562	0.399771
646.743274	0.391649
647.086935	0.389239
647.430544	0.389472
647.774101	0.387992
648.117606	0.388326
648.461059	0.388791
648.804460	0.390837
649.147810	0.396140
649.491108	0.398105
649.834354	0.399408
650.177548	0.404734
650.520690	0.410122
650.863781	0.411263
651.206820	0.410768
651.549807	0.415138
651.892742	0.419422
652.235626	0.418636
652.578458	0.419835
652.921238	0.425723
653.263967	0.423651
653.606644	0.427586
653.949269	0.427170
654.291843	0.430501
654.634365	0.427726
654.976836	0.431019
655.319255	0.431190
655.661622	0.432645
656.003938	0.433159
656.346203	0.435352
656.688416	0.433253
657.030577	0.437093
657.372687	0.438739
657.714746	0.439686
658.056753	0.436684
658.398708	0.440159
658.740612	0.441641
659.082465	0.437837
659.424266	0.438536
659.766016	0.438155
660.107715	0.440373
660.449362	0.439199
660.790958	0.440106
661.132503	0.440762
661.473996	0.438243
661.815438	0.439152
662.156829	0.439289
662.498168	0.439798
662.839456	0.441723
663.180693	0.439136
663.521879	0.439150
663.863013	0.439760
664.204097	0.438682
664.545129	0.435543
664.886110	0.435998
665.227040	0.432760
665.567918	0.436099
665.908746	0.433810
666.249522	0.433543
666.590248	0.434059
666.930922	0.432692
667.271545	0.431367
667.612118	0.431388
667.952639	0.433492
668.293109	0.431730
668.633528	0.434511
668.973896	0.434889
669.314213	0.435167
669.654480	0.436534
669.994695	0.436736
670.334859	0.437885
670.674973	0.437807
671.015035	0.438692
671.355047	0.437466
671.695008	0.439650
672.034918	0.441208
672.374777	0.440519
672.714585	0.441670
673.054342	0.441549
673.394049	0.441569
673.733705	0.439431
674.073310	0.439959
674.412864	0.443679
674.752368	0.443954
675.091820	0.444075
675.431223	0.448497
675.770574	0.448270
676.109875	0.451156
676.449125	0.451589
676.788324	0.453665
677.127473	0.459127
677.466571	0.458668
677.805619	0.460500
678.144616	0.461254
678.483562	0.463002
678.822458	0.465780
679.161303	0.466888
679.500098	0.467158
679.838842	0.468641
680.177535	0.468206
680.516179	0.467342
680.854771	0.466120
681.193314	0.459779
681.531805	0.450575
681.870247	0.439368
682.208638	0.431902
682.546978	0.431085
682.885268	0.432587
683.223508	0.438734
683.561697	0.442380
683.899836	0.445535
684.237925	0.448942
684.575963	0.451046
684.913951	0.454578
685.251889	0.449847
685.589776	0.451900
685.927614	0.454131
686.265401	0.448478
686.603137	0.450035
686.940824	0.444090
687.278460	0.442273
687.616046	0.441975
687.953582	0.436919
688.291068	0.438530
688.628504	0.433502
688.965889	0.435609
689.303224	0.440099
689.640510	0.443921
689.977745	0.449657
690.314930	0.457458
690.652065	0.461944
690.989150	0.469066
691.326185	0.475837
691.663170	0.480701
692.000105	0.487482
692.336990	0.494953
692.673825	0.497083
693.010610	0.504743
693.347345	0.509427
693.684030	0.510732
694.020665	0.515213
694.357251	0.524947
694.693786	0.523975
695.030272	0.528043
695.366707	0.531432
695.703093	0.535505
696.039429	0.532707
696.375716	0.534316
696.711952	0.537287
697.048139	0.538820
697.384276	0.541412
697.720363	0.539306
698.056400	0.538290
698.392388	0.544933
698.728326	0.546744
699.064214	0.550236
699.400053	0.549983
699.735842	0.554086
700.071581	0.557226
700.407270	0.559848
700.742910	0.562381
701.078501	0.569418
701.414042	0.569744
701.749533	0.572565
702.084974	0.581034
702.420366	0.573311
702.755709	0.580877
703.091002	0.588833
703.426246	0.581477
703.761440	0.588334
704.096584	0.592677
704.431679	0.589731
704.766725	0.590754
705.101721	0.592996
705.436668	0.589949
705.771565	0.596734
706.106413	0.592710
706.441212	0.588916
706.775961	0.587384
707.110661	0.590181
707.445311	0.586432
707.779913	0.583402
708.114465	0.582541
708.448967	0.578777
708.783421	0.571442
709.117825	0.565738
709.452180	0.566257
709.786485	0.559534
710.120742	0.549436
710.454949	0.551104
710.789107	0.543892
711.123216	0.534933
711.457275	0.535945
711.791286	0.526872
712.125247	0.526509
712.459159	0.537404
712.793023	0.530169
713.126837	0.533406
713.460602	0.534040
713.794318	0.543511
714.127985	0.541857
714.461602	0.552071
714.795171	0.555926
715.128691	0.563503
715.462162	0.570599
715.795584	0.576292
716.128957	0.579142
716.462281	0.585882
716.795556	0.588801
717.128782	0.594692
717.461960	0.604158
717.795088	0.602459
718.128167	0.608180
718.461198	0.617330
718.794180	0.618233
719.127113	0.620954
719.459997	0.624324
719.792833	0.630437
720.125619	0.631896
720.458357	0.637708
720.791046	0.637049
721.123686	0.640424
721.456278	0.647449
721.788821	0.644043
722.121315	0.648947
722.453761	0.652823
722.786158	0.650652
723.118506	0.647072
723.450805	0.655105
723.783056	0.651052
724.115259	0.648187
724.447412	0.647893
724.779518	0.649303
725.111574	0.648468
725.443582	0.643389
725.775542	0.646154
726.107453	0.638312
726.439315	0.638008
726.771129	0.636356
727.102895	0.629692
727.434612	0.622776
727.766281	0.621218
728.097901	0.619646
728.429473	0.620364
728.760996	0.617956
729.092471	0.618723
729.423897	0.621783
729.755276	0.620978
730.086606	0.621823
730.417887	0.615529
730.749120	0.606700
731.080305	0.597475
731.411442	0.593852
731.742530	0.599057
732.073570	0.597694
732.404562	0.590788
732.735506	0.591474
733.066401	0.595691
733.397249	0.605684
733.728048	0.616072
734.058798	0.629989
734.389501	0.639984
734.720156	0.649196
735.050762	0.657381
735.381320	0.658408
735.711831	0.667108
736.042293	0.671933
736.372707	0.668706
736.703073	0.673077
737.033391	0.675312
737.363661	0.671805
737.693883	0.667372
738.024056	0.666396
738.354182	0.666194
738.684260	0.655817
739.014290	0.650968
739.344272	0.652603
739.674207	0.646174
740.004093	0.645279
740.333931	0.645794
740.663722	0.646493
740.993464	0.646743
741.323159	0.650012
741.652806	0.656378
741.982405	0.659875
742.311956	0.664546
742.641460	0.666664
742.970915	0.670629
743.300323	0.678015
743.629683	0.684818
743.958996	0.686344
744.288260	0.690619
744.617477	0.696943
744.946647	0.698721
745.275768	0.703165
745.604842	0.702987
745.933869	0.713413
746.262847	0.713987
746.591778	0.706792
746.920662	0.713904
747.249498	0.719902
747.578286	0.710906
747.907027	0.707563
748.235720	0.707862
748.564365	0.703583
748.892963	0.702950
749.221514	0.705179
749.550017	0.711694
749.878473	0.710262
750.206881	0.716890
750.535242	0.717901
750.863555	0.717948
751.191821	0.719386
751.520039	0.722026
751.848210	0.728031
752.176334	0.719600
752.504411	0.718539
752.832440	0.726994
753.160421	0.730812
753.488356	0.728722
753.816243	0.726413
754.144082	0.734526
754.471875	0.738948
754.799620	0.733838
755.127318	0.735112
755.454969	0.734790
755.782572	0.734359
756.110129	0.739450
756.437638	0.741169
756.765100	0.737621
757.092515	0.735841
757.419882	0.735238
757.747203	0.740616
758.074477	0.739865
758.401703	0.737446
758.728882	0.732397
759.056014	0.730906
759.383099	0.730517
759.710138	0.732156
760.037129	0.727383
760.364073	0.721820
760.690970	0.724003
761.017820	0.730783
761.344623	0.726122
761.671379	0.716331
761.998088	0.705168
762.324751	0.682805
762.651366	0.641600
762.977935	0.575084
763.304456	0.523749
763.630931	0.514289
763.957359	0.552606
764.283740	0.596712
764.610074	0.623514
764.936362	0.654508
765.262602	0.681173
765.588796	0.703278
765.914943	0.719690
766.241044	0.738022
766.567097	0.745153
766.893104	0.754074
767.219064	0.760674
767.544978	0.766993
767.870845	0.779833
768.196665	0.784094
768.522438	0.781198
768.848165	0.782060
769.173846	0.791176
769.499479	0.795833
769.825066	0.798937
770.150607	0.805049
770.476101	0.800463
770.801548	0.800616
771.126949	0.813217
771.452303	0.816214
771.777611	0.815901
772.102872	0.813703
772.428087	0.819623
772.753256	0.822615
773.078378	0.824603
773.403453	0.833894
773.728482	0.839208
774.053465	0.831941
774.378401	0.834850
774.703291	0.843270
775.028135	0.843816
775.352932	0.843850
775.677683	0.847090
776.002388	0.848148
776.327046	0.847075
776.651658	0.850919
776.976224	0.854377
777.300743	0.853447
777.625216	0.856604
777.949643	0.858221
778.274024	0.858254
778.598359	0.859322
778.922647	0.858759
779.246889	0.859608
779.571086	0.864383
779.895236	0.865599
780.219339	0.862858
780.543397	0.860154
780.867409	0.858334
781.191374	0.859353
781.515294	0.861483
781.839167	0.859839
782.162995	0.863925
782.486776	0.860711
782.810511	0.861504
783.134201	0.865567
783.457844	0.862784
783.781441	0.866757
784.104993	0.871936
784.428498	0.872096
784.751958	0.867526
785.075372	0.870610
785.398739	0.874364
785.722061	0.870353
786.045337	0.865537
786.368568	0.871111
786.691752	0.874160
787.014891	0.859097
787.337983	0.850162
787.661030	0.843545
787.984031	0.826243
788.306987	0.811979
788.629897	0.815110
788.952760	0.818576
789.275579	0.823426
789.598351	0.837732
789.921078	0.851809
790.243759	0.852849
790.566395	0.858802
790.888984	0.865750
791.211529	0.870576
791.534027	0.872972
791.856480	0.875522
792.178888	0.880584
792.501249	0.882860
792.823566	0.884546
793.145836	0.884228
793.468062	0.885464
793.790241	0.887082
794.112375	0.884777
794.434464	0.879224
794.756507	0.879377
795.078505	0.880075
795.400457	0.874380
795.722364	0.862421
796.044226	0.854927
796.366042	0.853839
796.687812	0.857806
797.009538	0.853114
797.331218	0.856564
797.652852	0.861299
797.974442	0.866281
798.295986	0.866500
798.617484	0.868543
798.938938	0.872305
799.260346	0.877182
799.581709	0.879786
799.903026	0.881702
800.224299	0.882582
800.545526	0.885867
800.866708	0.890410
801.187845	0.894622
801.508936	0.893800
801.829983	0.892120
802.150984	0.893972
802.471940	0.899587
802.792851	0.898396
803.113717	0.899811
803.434538	0.896800
803.755314	0.900256
804.076045	0.901283
804.396731	0.901605
804.717372	0.901754
805.037967	0.903773
805.358518	0.900292
805.679024	0.897902
805.999485	0.898267
806.319901	0.898633
806.640272	0.899570
806.960598	0.898183
807.280879	0.895663
807.601115	0.893593
807.921306	0.898112
808.241453	0.897361
808.561554	0.895507
808.881611	0.896691
809.201623	0.897147
809.521590	0.897101
809.841513	0.897801
810.161390	0.897574
810.481223	0.899778
810.801011	0.902531
811.120755	0.904949
811.440453	0.903306
811.760107	0.901990
812.079716	0.901338
812.399281	0.905234
812.718801	0.907260
813.038276	0.908279
813.357707	0.908775
813.677093	0.904792
813.996434	0.909066
814.315731	0.910503
814.634983	0.910987
814.954191	0.909544
815.273354	0.906239
815.592473	0.903203
815.911547	0.902557
816.230577	0.899852
816.549562	0.897821
816.868502	0.898833
817.187399	0.894756
817.506250	0.889727
817.825058	0.892924
818.143821	0.887907
818.462539	0.882964
818.781213	0.876187
819.099843	0.864811
819.418429	0.847752
819.736970	0.832791
820.055466	0.813156
820.373919	0.787394
820.692327	0.755731
821.010691	0.720871
821.329011	0.646185
821.647286	0.533104
821.965517	0.421305
822.283704	0.378170
822.601847	0.379975
822.919945	0.415516
823.237999	0.448150
823.556010	0.493910
823.873976	0.549151
824.191897	0.599046
824.509775	0.641010
824.827609	0.685777
825.145398	0.707563
825.463144	0.710474
825.780845	0.693151
826.098502	0.674760
826.416116	0.629227
826.733685	0.586581
827.051210	0.578125
827.368692	0.593004
827.686129	0.629904
828.003522	0.681356
828.320872	0.727555
828.638177	0.771621
828.955439	0.804063
829.272656	0.825053
829.589830	0.841797
829.906960	0.857250
830.224046	0.869186
830.541088	0.879160
830.858086	0.883198
831.175041	0.888809
831.491952	0.889094
831.808819	0.886504
832.125642	0.879886
832.442421	0.863607
832.759157	0.843468
833.075849	0.798875
833.392497	0.735284
833.709101	0.695080
834.025662	0.704648
834.342179	0.736086
834.658653	0.773785
834.975083	0.810084
835.291469	0.835699
835.607811	0.857619
835.924110	0.873114
836.240366	0.888786
836.556578	0.903156
836.872746	0.910295
837.188871	0.916913
837.504952	0.921557
837.820990	0.924835
838.136984	0.927268
838.452935	0.931221
838.768842	0.932463
839.084706	0.927381
839.400526	0.901120
839.716303	0.862465
840.032037	0.840251
840.347727	0.844573
840.663373	0.861542
840.978977	0.883616
841.294537	0.904379
841.610054	0.920196
841.925527	0.926229
842.240957	0.933587
842.556344	0.941354
842.871687	0.946962
843.186987	0.951472
843.502244	0.950572
843.817458	0.952842
844.132629	0.956819
844.447756	0.961799
844.762840	0.962160
845.077881	0.961512
845.392879	0.959635
845.707833	0.964081
846.022745	0.966322
846.337613	0.965217
846.652438	0.966608
846.967221	0.965031
847.281960	0.966187
847.596656	0.968539
847.911309	0.966718
848.225919	0.967840
848.540485	0.969004
848.855009	0.969915
849.169490	0.969663
849.483928	0.969409
849.798323	0.970791
850.112675	0.970139
850.426984	0.970084
850.741251	0.969968
851.055474	0.971411
851.369654	0.968304
851.683792	0.970159
851.997887	0.970307
852.311938	0.970889
852.625947	0.970848
852.939914	0.968505
853.253837	0.970091
853.567718	0.971415
853.881555	0.972076
854.195350	0.968911
854.509103	0.970532
854.822812	0.971072
855.136479	0.970246
855.450103	0.969551
855.763685	0.969324
856.077224	0.968641
856.390720	0.971307
856.704173	0.971307
857.017584	0.969418
857.330953	0.967019
857.644278	0.970352
857.957561	0.968817
858.270802	0.970186
858.584000	0.968480
858.897155	0.967697
859.210268	0.967483
859.523339	0.969028
859.836367	0.970257
860.149352	0.971886
860.462295	0.970221
860.775195	0.970603
861.088054	0.970064
861.400869	0.971289
861.713642	0.970578
862.026373	0.971022
862.339062	0.971355
862.651708	0.968915
862.964312	0.968297
863.276873	0.970669
863.589392	0.968770
863.901869	0.967274
864.214303	0.965782
864.526696	0.964274
864.839045	0.965283
865.151353	0.961745
865.463619	0.962892
865.775842	0.963199
866.088023	0.963955
866.400162	0.962764
866.712258	0.963069
867.024313	0.963300
867.336325	0.965111
867.648296	0.964514
867.960224	0.963063
868.272110	0.962642
868.583954	0.965542
868.895755	0.965353
869.207515	0.962293
869.519233	0.960696
869.830909	0.962725
870.142542	0.963130
870.454134	0.962345
870.765684	0.961862
871.077191	0.958758
871.388657	0.959659
871.700081	0.958699
872.011463	0.960620
872.322803	0.959237
872.634101	0.957603
872.945357	0.955700
873.256571	0.954766
873.567744	0.954302
873.878874	0.955875
874.189963	0.954261
874.501010	0.951909
874.812015	0.951390
875.122979	0.953086
875.433900	0.954452
875.744780	0.955237
876.055618	0.952808
876.366415	0.951062
876.677169	0.951866
876.987882	0.953696
877.298554	0.953421
877.609183	0.949500
877.919771	0.947924
878.230317	0.944753
878.540822	0.943342
878.851285	0.938105
879.161707	0.930346
879.472087	0.918670
879.782425	0.902241
880.092722	0.870208
880.402977	0.819533
880.713191	0.760722
881.023363	0.704136
881.333494	0.671699
881.643583	0.643522
881.953631	0.642673
882.263637	0.671780
882.573602	0.710572
882.883526	0.735764
883.193408	0.758329
883.503248	0.779882
883.813048	0.806003
884.122806	0.834230
884.432522	0.857030
884.742197	0.876587
885.051831	0.885404
885.361424	0.895501
885.670975	0.906617
885.980485	0.916406
886.289954	0.922516
886.599382	0.927342
886.908768	0.931129
887.218113	0.936577
887.527417	0.941319
887.836680	0.944253
888.145901	0.946079
888.455082	0.948242
888.764221	0.952124
889.073319	0.954507
889.382376	0.954206
889.691392	0.954773
890.000366	0.954459
890.309300	0.954928
890.618193	0.954816
890.927044	0.953716
891.235855	0.954262
891.544625	0.953929
891.853353	0.954162
892.162041	0.951281
892.470687	0.945681
892.779293	0.940452
893.087858	0.936651
893.396381	0.930445
893.704864	0.916588
894.013306	0.893769
894.321707	0.868456
894.630068	0.854243
894.938387	0.850608
895.246665	0.852772
895.554903	0.862880
895.863100	0.875594
896.171256	0.891876
896.479371	0.910021
896.787446	0.923663
897.095480	0.928437
897.403473	0.931917
897.711425	0.934603
898.019336	0.942140
898.327207	0.945812
898.635038	0.947897
898.942827	0.946896
899.250576	0.950199
899.558284	0.954403
899.865952	0.956172
900.173579	0.956659
900.481165	0.956844
900.788711	0.961541
901.096216	0.963264
901.403681	0.963293
901.711105	0.965197
902.018489	0.965913
902.325832	0.964061
902.633135	0.963612
902.940397	0.956687
903.247619	0.946135
903.554800	0.922931
903.861941	0.885183
904.169041	0.850364
904.476101	0.833395
904.783121	0.835208
905.090100	0.850257
905.397039	0.870873
905.703938	0.890273
906.010796	0.911290
906.317614	0.926018
906.624391	0.936895
906.931129	0.946408
907.237826	0.954118
907.544483	0.961162
907.851099	0.965305
908.157675	0.969070
908.464211	0.971162
908.770707	0.973668
909.077163	0.974980
909.383578	0.975188
909.689954	0.976817
909.996289	0.976954
910.302584	0.979646
910.608839	0.981175
910.915054	0.979180
911.221229	0.978922
911.527363	0.977352
911.833458	0.979564
912.139513	0.978729
912.445527	0.976868
912.751502	0.975412
913.057436	0.973526
913.363331	0.971157
913.669186	0.968133
913.975000	0.962133
914.280775	0.957910
914.586510	0.951286
914.892205	0.939635
915.197859	0.918855
915.503475	0.892288
915.809050	0.874842
916.114585	0.870053
916.420081	0.867891
916.725536	0.864343
917.030952	0.871416
917.336328	0.883130
917.641665	0.897687
917.946961	0.912352
918.252218	0.923683
918.557435	0.931859
918.862612	0.940245
919.167750	0.946334
919.472848	0.950017
919.777906	0.955561
920.082925	0.960152
920.387904	0.962941
920.692843	0.964435
920.997743	0.965549
921.302603	0.969577
921.607423	0.970125
921.912204	0.973315
922.216946	0.972725
922.521647	0.974483
922.826310	0.976914
923.130932	0.978599
923.435516	0.979027
923.740059	0.980383
924.044564	0.979820
924.349028	0.981411
924.653454	0.983056
924.957840	0.985447
925.262186	0.985966
925.566493	0.983995
925.870761	0.985561
926.174989	0.987587
926.479178	0.990129
926.783328	0.988496
927.087438	0.989325
927.391509	0.987132
927.695541	0.990518
927.999533	0.988339
928.303486	0.990198
928.607400	0.991107
928.911275	0.989521
929.215110	0.990777
929.518906	0.993033
929.822663	0.990430
930.126381	0.991733
930.430060	0.989977
930.733699	0.989990
931.037299	0.990712
931.340861	0.990319
931.644383	0.991119
931.947866	0.989079
932.251309	0.991179
932.554714	0.990442
932.858080	0.991087
933.161407	0.990468
933.464694	0.990103
933.767943	0.990830
934.071153	0.991210
934.374323	0.992252
934.677455	0.991345
934.980548	0.991501
935.283602	0.990644
935.586617	0.991900
935.889593	0.991333
936.192530	0.991258
936.495428	0.990576
936.798287	0.990166
937.101108	0.990166
937.403890	0.988764
937.706632	0.989132
938.009336	0.987485
938.312002	0.986638
938.614628	0.985180
938.917216	0.984533
939.219765	0.981933
939.522275	0.983832
939.824747	0.984414
940.127179	0.983789
940.429573	0.986049
940.731929	0.984157
941.034246	0.986293
941.336524	0.987514
941.638763	0.987701
941.940964	0.987291
942.243126	0.987407
942.545250	0.986734
942.847335	0.988382
943.149381	0.988825
943.451389	0.989159
943.753359	0.988723
944.055290	0.991028
944.357182	0.990668
944.659036	0.988712
944.960851	0.989887
945.262628	0.990481
945.564367	0.991891
945.866067	0.990034
946.167729	0.990926
946.469352	0.990062
946.770937	0.989776
947.072484	0.991812
947.373992	0.989277
947.675462	0.990831
947.976893	0.991808
948.278286	0.991081
948.579641	0.992718
948.880958	0.989977
949.182236	0.990722
949.483476	0.991883
949.784678	0.989901
950.085841	0.991053
950.386967	0.992261
950.688054	0.990929
950.989103	0.991747
951.290114	0.989665
951.591087	0.989672
951.892021	0.990310
952.192917	0.989776
952.493776	0.988426
952.794596	0.989048
953.095378	0.987777
953.396122	0.989404
953.696828	0.988029
953.997496	0.990754
954.298126	0.991154
954.598718	0.991117
954.899272	0.992093
955.199788	0.989719
955.500266	0.992133
955.800706	0.991884
956.101108	0.993990
956.401472	0.992968
956.701798	0.994039
957.002087	0.993508
957.302337	0.994311
957.602550	0.994347
957.902724	0.994629
958.202861	0.994829
958.502960	0.996063
958.803022	0.992725
959.103045	0.995518
959.403031	0.996682
959.702979	0.995153
960.002889	0.995896
960.302762	0.995120
960.602596	0.995872
960.902393	0.994903
961.202153	0.996033
961.501875	0.996812
961.801559	0.995202
962.101205	0.995963
962.400814	0.996077
962.700385	0.996907
962.999918	0.996435
963.299414	0.996550
963.598873	0.995310
963.898293	0.996206
964.197677	0.995779
964.497022	0.997472
964.796331	0.997707
965.095601	0.997250
965.394835	0.995947
965.694030	0.996835
965.993189	0.997286
966.292309	0.996596
966.591393	0.998302
966.890439	0.997071
967.189447	0.997043
967.488419	0.996832
967.787353	0.996517
968.086249	0.995559
968.385108	0.996745
968.683930	0.996438
968.982714	0.996858
969.281462	0.997371
969.580172	0.997372
969.878844	0.996484
970.177480	0.995370
970.476078	0.997881
970.774639	0.996849
971.073162	0.997254
971.371649	0.996592
971.670098	0.996374
971.968510	0.997634
972.266885	0.995302
972.565223	0.996737
972.863524	0.995954
973.161788	0.996167
973.460014	0.998672
973.758204	0.994921
974.056356	0.995754
974.354471	0.994139
974.652550	0.995752
974.950591	0.995735
975.248595	0.996814
975.546563	0.995901
975.844493	0.997714
976.142386	0.996201
976.440243	0.997547
976.738062	0.997408
977.035845	0.997938
977.333590	0.997001
977.631299	0.997380
977.928971	0.996964
978.226606	0.996163
978.524204	0.996806
978.821765	0.998311
979.119290	0.996452
979.416777	0.997285
979.714228	0.997082
980.011642	0.995989
980.309020	0.997481
980.606360	0.996971
980.903664	0.998100
981.200931	0.995864
981.498162	0.995224
981.795356	0.995412
982.092513	0.994208
982.389633	0.993575
982.686717	0.993050
982.983764	0.991481
983.280775	0.989914
983.577749	0.990566
983.874686	0.992091
984.171587	0.991134
984.468451	0.995083
984.765279	0.995340
985.062070	0.994507
985.358824	0.995163
985.655543	0.994118
985.952224	0.994773
986.248869	0.996000
986.545478	0.997341
986.842050	0.997802
987.138586	0.995772
987.435086	0.997439
987.731549	0.997424
988.027975	0.997312
988.324366	0.999103
988.620719	0.997236
988.917037	0.996766
989.213318	0.997472
989.509563	0.998698
989.805772	0.997279
990.101944	0.998002
990.398080	0.997093
990.694180	0.997898
990.990244	0.997542
991.286271	0.997209
991.582262	0.997492
991.878217	0.997561
992.174136	0.998123
992.470019	0.997953
992.765865	0.998375
993.061676	0.997701
993.357450	0.997437
993.653188	0.996797
993.948890	0.997674
994.244556	0.998389
994.540186	0.997323
994.835780	0.996389
995.131337	0.996984
995.426859	0.996397
995.722345	0.997676
996.017795	0.995615
996.313208	0.995528
996.608586	0.994892
996.903928	0.997361
997.199234	0.995485
997.494504	0.996037
997.789738	0.995310
998.084936	0.995831
998.380099	0.998254
998.675225	0.997318
998.970316	0.997508
999.265371	0.997315
999.560390	0.997164
999.855373	0.997287
1000.150320	0.998439
1000.445232	0.997885
1000.740108	0.999382
1001.034948	0.997818
1001.329752	0.998234
1001.624521	0.998694
1001.919254	0.996968
1002.213951	0.997751
1002.508613	0.997724
1002.803239	0.998824
1003.097829	0.999851
1003.392384	0.999116
1003.686903	0.998195
1003.981386	0.998411
1004.275834	0.999615
1004.570246	0.997625
1004.864623	0.998179
1005.158964	0.999012
1005.453270	0.997382
1005.747540	0.997432
1006.041775	0.998154
1006.335974	0.998777
1006.630138	0.998398
1006.924266	0.998877
1007.218359	1.000002
1007.512416	0.998878
1007.806438	0.998100
1008.100425	0.998516
1008.394376	0.999077
1008.688292	0.997728
1008.982172	1.000049
1009.276017	0.999312
1009.569827	0.998083
1009.863602	0.996929
1010.157341	0.998449
1010.451045	0.999272
1010.744714	0.998663
1011.038347	0.998366
1011.331945	0.998009
1011.625508	0.997582
1011.919036	0.997671
1012.212528	0.998940
1012.505986	0.995916
1012.799408	0.998392
1013.092795	0.997900
1013.386147	0.998984
1013.679464	0.998903
1013.972745	0.997459
1014.265992	0.997075
1014.559204	0.998228
1014.852380	0.998471
1015.145521	0.998752
1015.438628	0.999102
1015.731699	0.999705
1016.024736	0.998073
1016.317737	0.998266
1016.610703	0.998532
1016.903635	0.999500
1017.196531	0.998439
1017.489393	1.000008
1017.782219	0.998435
1018.075011	0.998636
1018.367768	0.998070
1018.660490	0.999249
1018.953177	0.999249
1019.245829	0.999249
