Dividing Wavelength (nm)	Counts (n)	Blue Motor Position (mm): 0.000000	Red Motor Position (mm): 15.900000	
326.493990	1.000592
326.888308	1.000592
327.282561	1.000592
327.676750	1.000014
328.070874	1.000212
328.464933	1.000721
328.858929	0.999805
329.252859	0.999459
329.646726	0.999415
330.040528	0.999788
330.434265	1.000071
330.827938	1.000870
331.221547	1.001466
331.615091	1.000352
332.008571	1.001210
332.401986	1.001632
332.795338	1.000426
333.188625	0.998982
333.581847	1.001260
333.975006	0.999752
334.368100	1.000368
334.761129	1.000430
335.154095	1.000505
335.546996	0.998433
335.939833	0.993212
336.332606	0.993443
336.725315	0.994231
337.117960	0.994903
337.510540	0.994436
337.903056	0.994293
338.295508	0.993051
338.687896	0.993879
339.080220	0.993691
339.472480	0.995006
339.864676	0.994053
340.256807	0.995263
340.648875	0.995106
341.040879	0.995099
341.432818	0.995344
341.824694	0.992722
342.216506	0.995725
342.608253	0.994107
342.999937	0.993244
343.391557	0.993819
343.783113	0.995011
344.174605	0.993971
344.566033	0.995899
344.957397	0.992687
345.348697	0.994181
345.739934	0.994775
346.131106	0.993689
346.522215	0.994421
346.913260	0.993328
347.304241	0.993564
347.695159	0.993500
348.086012	0.993488
348.476802	0.994818
348.867528	0.994047
349.258191	0.993460
349.648789	0.993815
350.039324	0.994474
350.429796	0.994876
350.820203	0.993266
351.210548	0.993963
351.600828	0.994541
351.991045	0.993286
352.381198	0.993654
352.771288	0.993408
353.161314	0.993071
353.551276	0.994935
353.941175	0.994504
354.331010	0.994146
354.720782	0.994399
355.110490	0.993891
355.500135	0.994112
355.889717	0.993599
356.279235	0.993567
356.668689	0.994028
357.058080	0.993287
357.447408	0.995564
357.836672	0.995495
358.225873	0.995379
358.615010	0.993967
359.004084	0.995487
359.393095	0.995255
359.782043	0.994070
360.170927	0.994474
360.559748	0.994572
360.948505	0.993745
361.337199	0.993973
361.725830	0.994496
362.114398	0.993689
362.502903	0.995096
362.891344	0.995433
363.279722	0.993863
363.668037	0.995590
364.056289	0.993899
364.444478	0.995127
364.832603	0.993307
365.220665	0.993988
365.608665	0.994561
365.996601	0.993155
366.384474	0.993586
366.772284	0.993000
367.160031	0.994070
367.547715	0.992545
367.935336	0.994950
368.322893	0.993524
368.710388	0.993239
369.097820	0.994992
369.485189	0.994450
369.872495	0.992647
370.259738	0.992610
370.646918	0.995138
371.034035	0.994111
371.421090	0.993448
371.808081	0.993058
372.195010	0.994194
372.581875	0.994364
372.968678	0.993361
373.355418	0.993933
373.742096	0.994459
374.128710	0.995270
374.515262	0.993501
374.901751	0.995090
375.288177	0.994240
375.674540	0.995060
376.060841	0.992986
376.447079	0.993932
376.833254	0.994427
377.219367	0.994840
377.605417	0.994783
377.991404	0.994404
378.377329	0.993635
378.763191	0.994129
379.148991	0.995097
379.534727	0.994729
379.920402	0.993966
380.306013	0.994775
380.691563	0.994982
381.077049	0.994812
381.462474	0.994189
381.847835	0.994196
382.233134	0.993907
382.618371	0.994815
383.003545	0.994158
383.388657	0.994037
383.773706	0.995472
384.158693	0.994711
384.543618	0.994590
384.928480	0.995492
385.313280	0.993821
385.698017	0.994447
386.082692	0.994957
386.467305	0.995298
386.851856	0.994264
387.236344	0.993843
387.620770	0.993548
388.005133	0.995516
388.389435	0.995465
388.773674	0.993715
389.157851	0.995776
389.541965	0.994760
389.926018	0.993503
390.310008	0.995393
390.693936	0.994274
391.077802	0.993971
391.461606	0.994348
391.845348	0.994213
392.229027	0.995150
392.612645	0.993736
392.996200	0.995080
393.379694	0.993887
393.763125	0.995161
394.146494	0.994357
394.529801	0.993356
394.913047	0.993544
395.296230	0.993046
395.679351	0.993024
396.062410	0.991331
396.445408	0.991970
396.828343	0.989655
397.211217	0.988693
397.594028	0.988277
397.976778	0.986170
398.359466	0.984147
398.742092	0.982302
399.124656	0.980034
399.507158	0.977489
399.889598	0.974408
400.271977	0.971283
400.654294	0.967496
401.036549	0.963528
401.418742	0.960455
401.800874	0.953987
402.182944	0.950063
402.564952	0.942564
402.946898	0.939909
403.328783	0.933516
403.710606	0.930034
404.092367	0.919868
404.474067	0.914879
404.855705	0.907582
405.237282	0.904097
405.618797	0.894086
406.000250	0.886150
406.381642	0.876923
406.762972	0.870058
407.144240	0.862939
407.525447	0.854922
407.906593	0.845289
408.287677	0.834942
408.668700	0.830355
409.049661	0.817881
409.430560	0.808631
409.811399	0.802911
410.192176	0.786245
410.572891	0.781485
410.953545	0.766788
411.334138	0.764337
411.714669	0.751851
412.095139	0.749456
412.475547	0.732556
412.855894	0.724902
413.236180	0.715798
413.616405	0.710206
413.996568	0.695971
414.376670	0.691442
414.756711	0.686973
415.136691	0.676186
415.516609	0.663155
415.896466	0.652448
416.276262	0.641974
416.655997	0.636475
417.035670	0.614559
417.415283	0.601888
417.794834	0.598543
418.174324	0.596640
418.553753	0.597570
418.933121	0.576493
419.312428	0.564819
419.691674	0.563466
420.070859	0.547924
420.449983	0.549934
420.829045	0.535547
421.208047	0.538712
421.586988	0.528138
421.965867	0.522752
422.344686	0.508346
422.723444	0.516413
423.102141	0.528098
423.480777	0.499501
423.859352	0.515871
424.237866	0.491135
424.616319	0.489674
424.994712	0.478406
425.373044	0.486172
425.751314	0.472384
426.129524	0.486327
426.507673	0.469040
426.885762	0.460960
427.263789	0.464333
427.641756	0.472878
428.019662	0.461923
428.397508	0.459230
428.775292	0.463027
429.153016	0.454577
429.530679	0.459866
429.908282	0.452577
430.285824	0.462173
430.663305	0.440112
431.040726	0.459945
431.418086	0.460238
431.795385	0.451227
432.172624	0.449856
432.549802	0.450645
432.926920	0.449658
433.303977	0.448100
433.680974	0.445521
434.057910	0.443452
434.434786	0.442878
434.811601	0.445697
435.188355	0.427295
435.565050	0.436944
435.941683	0.438574
436.318257	0.422300
436.694770	0.422869
437.071222	0.421329
437.447614	0.425462
437.823946	0.431683
438.200218	0.421348
438.576429	0.430795
438.952580	0.423343
439.328670	0.420296
439.704700	0.427213
440.080670	0.428139
440.456580	0.409092
440.832429	0.417325
441.208218	0.427605
441.583947	0.416997
441.959616	0.416502
442.335224	0.421797
442.710773	0.412514
443.086261	0.410232
443.461689	0.424682
443.837057	0.414545
444.212365	0.404308
444.587612	0.411076
444.962800	0.401256
445.337927	0.402668
445.712995	0.429293
446.088002	0.390972
446.462949	0.401734
446.837837	0.405889
447.212664	0.395282
447.587431	0.386463
447.962139	0.357045
448.336786	0.316817
448.711374	0.327027
449.085901	0.371013
449.460369	0.375404
449.834776	0.378676
450.209124	0.357951
450.583412	0.351114
450.957640	0.344033
451.331808	0.354930
451.705917	0.378152
452.079965	0.382535
452.453954	0.371290
452.827883	0.377519
453.201752	0.372880
453.575562	0.384213
453.949311	0.372656
454.323001	0.378975
454.696632	0.374521
455.070202	0.367096
455.443713	0.358839
455.817164	0.354220
456.190556	0.349742
456.563888	0.346433
456.937160	0.344101
457.310373	0.361159
457.683526	0.360114
458.056619	0.366017
458.429653	0.366643
458.802628	0.369546
459.175542	0.363870
459.548398	0.347124
459.921194	0.339724
460.293930	0.339498
460.666607	0.317086
461.039224	0.305185
461.411782	0.301254
461.784280	0.300203
462.156719	0.304768
462.529099	0.309165
462.901419	0.324867
463.273680	0.329288
463.645882	0.328708
464.018024	0.334957
464.390106	0.327783
464.762130	0.312390
465.134094	0.295376
465.505999	0.264846
465.877845	0.235209
466.249631	0.222445
466.621358	0.229724
466.993026	0.243743
467.364634	0.249894
467.736184	0.258556
468.107674	0.267449
468.479105	0.266522
468.850477	0.272987
469.221790	0.279810
469.593043	0.290259
469.964238	0.295189
470.335373	0.294183
470.706449	0.292695
471.077467	0.293270
471.448425	0.255146
471.819324	0.231064
472.190164	0.230377
472.560945	0.258877
472.931667	0.281426
473.302330	0.285213
473.672934	0.297400
474.043479	0.285358
474.413965	0.287473
474.784393	0.290648
475.154761	0.286015
475.525070	0.283072
475.895321	0.288629
476.265513	0.282773
476.635645	0.278497
477.005719	0.278067
477.375734	0.275012
477.745691	0.268259
478.115588	0.264928
478.485427	0.258232
478.855207	0.245195
479.224928	0.227386
479.594591	0.215963
479.964194	0.219259
480.333739	0.220331
480.703226	0.221761
481.072653	0.220383
481.442022	0.215886
481.811333	0.212494
482.180584	0.215971
482.549777	0.221174
482.918912	0.224552
483.287988	0.224340
483.657005	0.223817
484.025964	0.230551
484.394864	0.227627
484.763706	0.228078
485.132489	0.233138
485.501213	0.233927
485.869879	0.232120
486.238487	0.235574
486.607036	0.233307
486.975527	0.237742
487.343959	0.233594
487.712333	0.232982
488.080648	0.234191
488.448905	0.233452
488.817104	0.234672
489.185244	0.229272
489.553326	0.225894
489.921350	0.215912
490.289315	0.198538
490.657222	0.193712
491.025070	0.194536
491.392861	0.196826
491.760593	0.202571
492.128267	0.207861
492.495883	0.213679
492.863440	0.219856
493.230939	0.226100
493.598380	0.227638
493.965763	0.229768
494.333088	0.232155
494.700354	0.233281
495.067563	0.232381
495.434713	0.235609
495.801805	0.233459
496.168839	0.235190
496.535815	0.236360
496.902733	0.236522
497.269593	0.238067
497.636395	0.235962
498.003139	0.235961
498.369825	0.239120
498.736453	0.235831
499.103023	0.236948
499.469535	0.236387
499.835989	0.236852
500.202385	0.237499
500.568723	0.240865
500.935003	0.235984
501.301226	0.240105
501.667390	0.234766
502.033497	0.232830
502.399546	0.235706
502.765537	0.237464
503.131470	0.235627
503.497345	0.232182
503.863163	0.240916
504.228923	0.233889
504.594625	0.232477
504.960269	0.237954
505.325856	0.233155
505.691385	0.237691
506.056856	0.234188
506.422270	0.233660
506.787625	0.236180
507.152924	0.233490
507.518164	0.233990
507.883347	0.235818
508.248472	0.237399
508.613540	0.232639
508.978550	0.235192
509.343503	0.235446
509.708398	0.233055
510.073236	0.230755
510.438016	0.230793
510.802738	0.231317
511.167403	0.230680
511.532010	0.232586
511.896561	0.227916
512.261053	0.226942
512.625488	0.228928
512.989866	0.228943
513.354186	0.229776
513.718449	0.231279
514.082655	0.227770
514.446803	0.229900
514.810894	0.227681
515.174927	0.230187
515.538904	0.229721
515.902822	0.226948
516.266684	0.229113
516.630488	0.230305
516.994235	0.228815
517.357925	0.227733
517.721558	0.226144
518.085133	0.225549
518.448651	0.225789
518.812112	0.227879
519.175516	0.227416
519.538863	0.225254
519.902152	0.226541
520.265385	0.223483
520.628560	0.225381
520.991678	0.225597
521.354739	0.224453
521.717743	0.225824
522.080690	0.226241
522.443580	0.223546
522.806413	0.224371
523.169189	0.223853
523.531908	0.222511
523.894569	0.226247
524.257174	0.226334
524.619722	0.223890
524.982213	0.225267
525.344647	0.224014
525.707025	0.224953
526.069345	0.222988
526.431608	0.224592
526.793815	0.222357
527.155964	0.226561
527.518057	0.225679
527.880093	0.226808
528.242072	0.225264
528.603995	0.227151
528.965860	0.228808
529.327669	0.227605
529.689421	0.228703
530.051117	0.229469
530.412755	0.227178
530.774337	0.229551
531.135862	0.229711
531.497331	0.229130
531.858743	0.232014
532.220098	0.228837
532.581396	0.231327
532.942638	0.231917
533.303824	0.232603
533.664953	0.232429
534.026025	0.233892
534.387040	0.232079
534.747999	0.232196
535.108902	0.230955
535.469748	0.235904
535.830537	0.233556
536.191270	0.234146
536.551947	0.233894
536.912567	0.233896
537.273131	0.235848
537.633638	0.235406
537.994089	0.236134
538.354483	0.237117
538.714821	0.234257
539.075103	0.233848
539.435328	0.234653
539.795497	0.238464
540.155609	0.234968
540.515665	0.233089
540.875665	0.238740
541.235609	0.237073
541.595496	0.237493
541.955328	0.233744
542.315102	0.236358
542.674821	0.237233
543.034483	0.237752
543.394090	0.237404
543.753640	0.239017
544.113134	0.234277
544.472571	0.237480
544.831953	0.234402
545.191278	0.238582
545.550548	0.237964
545.909761	0.234606
546.268918	0.235464
546.628019	0.233955
546.987064	0.236763
547.346053	0.238367
547.704986	0.236331
548.063863	0.236584
548.422684	0.236660
548.781449	0.238425
549.140158	0.236345
549.498811	0.238955
549.857408	0.242017
550.215949	0.236797
550.574434	0.239859
550.932864	0.238044
551.291237	0.236561
551.649555	0.237864
552.007817	0.237419
552.366022	0.238387
552.724173	0.238910
553.082267	0.239234
553.440305	0.235952
553.798288	0.240324
554.156215	0.236753
554.514086	0.237554
554.871902	0.240781
555.229661	0.239949
555.587365	0.240741
555.945014	0.243187
556.302606	0.239890
556.660143	0.242440
557.017625	0.239113
557.375050	0.241346
557.732421	0.238014
558.089735	0.240097
558.446994	0.240460
558.804197	0.239366
559.161345	0.239602
559.518437	0.243021
559.875474	0.240693
560.232455	0.240143
560.589381	0.241377
560.946251	0.241217
561.303065	0.238991
561.659825	0.240500
562.016528	0.241888
562.373177	0.244752
562.729770	0.241727
563.086307	0.244172
563.442789	0.241997
563.799216	0.244632
564.155587	0.243357
564.511904	0.244400
564.868164	0.244864
565.224370	0.244545
565.580520	0.246175
565.936615	0.245787
566.292654	0.249235
566.648638	0.246108
567.004567	0.247074
567.360441	0.247436
567.716260	0.249748
568.072023	0.247422
568.427732	0.248249
568.783385	0.250523
569.138982	0.248619
569.494525	0.248220
569.850013	0.251231
570.205445	0.249830
570.560823	0.252200
570.916145	0.254228
571.271412	0.252479
571.626625	0.253956
571.981782	0.254509
572.336884	0.255178
572.691931	0.255082
573.046923	0.255921
573.401860	0.257256
573.756743	0.258866
574.111570	0.257845
574.466342	0.258312
574.821059	0.257729
575.175722	0.260350
575.530330	0.260100
575.884882	0.260338
576.239380	0.262397
576.593823	0.262799
576.948211	0.262422
577.302544	0.265373
577.656823	0.265219
578.011047	0.265281
578.365216	0.265761
578.719330	0.267814
579.073389	0.268030
579.427394	0.269074
579.781344	0.269755
580.135239	0.271562
580.489080	0.271097
580.842866	0.274082
581.196597	0.273810
581.550273	0.272336
581.903895	0.273544
582.257463	0.271665
582.610975	0.275096
582.964434	0.274337
583.317837	0.276937
583.671186	0.277469
584.024481	0.277562
584.377721	0.279668
584.730906	0.280413
585.084037	0.279480
585.437113	0.281373
585.790135	0.280931
586.143103	0.283567
586.496016	0.285021
586.848874	0.282554
587.201679	0.283157
587.554428	0.286259
587.907124	0.285096
588.259765	0.285631
588.612352	0.286259
588.964884	0.290276
589.317362	0.289670
589.669786	0.289611
590.022155	0.287819
590.374470	0.287586
590.726731	0.289705
591.078937	0.294040
591.431090	0.290680
591.783188	0.295316
592.135232	0.295144
592.487222	0.295542
592.839157	0.293537
593.191038	0.295701
593.542866	0.297685
593.894639	0.300961
594.246358	0.299324
594.598022	0.298235
594.949633	0.302287
595.301190	0.302738
595.652692	0.302390
596.004141	0.298264
596.355535	0.306476
596.706876	0.306626
597.058162	0.309398
597.409395	0.306462
597.760573	0.304344
598.111698	0.307485
598.462768	0.308115
598.813785	0.309740
599.164748	0.310578
599.515657	0.310797
599.866511	0.313847
600.217312	0.309436
600.568060	0.314776
600.918753	0.311356
601.269392	0.311976
601.619978	0.315328
601.970510	0.313289
602.320988	0.312951
602.671412	0.310890
603.021783	0.313958
603.372100	0.314618
603.722363	0.314584
604.072572	0.315234
604.422728	0.315231
604.772830	0.317193
605.122878	0.316806
605.472872	0.317116
605.822813	0.315747
606.172701	0.318503
606.522534	0.315830
606.872314	0.315689
607.222041	0.316654
607.571714	0.314768
607.921333	0.316042
608.270899	0.316113
608.620411	0.313005
608.969870	0.316507
609.319276	0.316685
609.668627	0.316357
610.017926	0.314888
610.367171	0.313813
610.716362	0.314129
611.065500	0.314479
611.414585	0.313283
611.763616	0.314053
612.112594	0.314571
612.461518	0.313881
612.810389	0.311377
613.159207	0.313787
613.507971	0.315331
613.856682	0.311670
614.205340	0.312792
614.553945	0.309776
614.902496	0.313517
615.250994	0.311569
615.599439	0.312503
615.947830	0.311881
616.296169	0.312405
616.644454	0.312298
616.992686	0.312550
617.340864	0.310535
617.688990	0.313820
618.037063	0.310553
618.385082	0.312472
618.733048	0.308922
619.080961	0.311608
619.428821	0.310975
619.776628	0.310571
620.124382	0.312542
620.472083	0.312409
620.819731	0.312151
621.167326	0.316199
621.514868	0.315583
621.862357	0.320103
622.209793	0.319677
622.557176	0.321738
622.904506	0.323151
623.251783	0.324850
623.599007	0.327613
623.946179	0.327026
624.293297	0.328842
624.640363	0.332784
624.987376	0.333229
625.334336	0.336011
625.681243	0.337748
626.028097	0.338630
626.374899	0.339774
626.721647	0.340020
627.068343	0.343284
627.414987	0.344430
627.761577	0.346862
628.108115	0.344961
628.454600	0.350159
628.801032	0.347277
629.147412	0.349660
629.493739	0.349682
629.840014	0.352794
630.186236	0.350109
630.532405	0.356182
630.878521	0.352919
631.224585	0.355719
631.570597	0.359090
631.916556	0.357318
632.262462	0.357935
632.608316	0.359900
632.954117	0.360305
633.299866	0.361313
633.645562	0.361725
633.991206	0.366097
634.336797	0.369545
634.682336	0.371013
635.027823	0.373628
635.373257	0.373350
635.718639	0.376959
636.063968	0.376210
636.409245	0.382349
636.754470	0.382449
637.099642	0.384966
637.444762	0.388479
637.789829	0.387361
638.134845	0.390804
638.479808	0.391763
638.824719	0.391414
639.169577	0.395695
639.514383	0.394402
639.859137	0.398385
640.203839	0.398833
640.548489	0.398929
640.893086	0.400462
641.237632	0.401835
641.582125	0.400625
641.926566	0.401853
642.270955	0.402073
642.615292	0.402475
642.959576	0.401929
643.303809	0.402440
643.647990	0.401853
643.992118	0.402309
644.336195	0.405865
644.680219	0.404159
645.024192	0.405031
645.368112	0.398595
645.711981	0.397169
646.055797	0.393280
646.399562	0.395162
646.743274	0.387639
647.086935	0.384530
647.430544	0.384750
647.774101	0.384168
648.117606	0.383423
648.461059	0.383778
648.804460	0.386218
649.147810	0.391956
649.491108	0.392970
649.834354	0.394961
650.177548	0.399942
650.520690	0.405655
650.863781	0.406634
651.206820	0.406009
651.549807	0.410635
651.892742	0.414297
652.235626	0.414250
652.578458	0.415264
652.921238	0.421098
653.263967	0.419189
653.606644	0.423272
653.949269	0.422645
654.291843	0.426760
654.634365	0.423014
654.976836	0.426136
655.319255	0.426193
655.661622	0.428452
656.003938	0.428469
656.346203	0.431349
656.688416	0.428921
657.030577	0.432343
657.372687	0.434765
657.714746	0.435434
658.056753	0.431974
658.398708	0.435892
658.740612	0.437072
659.082465	0.433590
659.424266	0.434321
659.766016	0.433310
660.107715	0.436255
660.449362	0.434376
660.790958	0.435628
661.132503	0.435716
661.473996	0.434021
661.815438	0.434712
662.156829	0.434971
662.498168	0.435465
662.839456	0.436932
663.180693	0.434683
663.521879	0.434611
663.863013	0.435945
664.204097	0.434008
664.545129	0.431192
664.886110	0.432004
665.227040	0.428837
665.567918	0.431742
665.908746	0.429477
666.249522	0.428958
666.590248	0.429778
666.930922	0.428671
667.271545	0.426568
667.612118	0.427231
667.952639	0.429143
668.293109	0.427373
668.633528	0.430263
668.973896	0.429859
669.314213	0.430516
669.654480	0.432339
669.994695	0.432820
670.334859	0.433529
670.674973	0.434007
671.015035	0.433587
671.355047	0.433460
671.695008	0.435159
672.034918	0.436716
672.374777	0.436066
672.714585	0.437367
673.054342	0.436738
673.394049	0.437385
673.733705	0.435080
674.073310	0.435638
674.412864	0.439028
674.752368	0.440009
675.091820	0.440052
675.431223	0.444201
675.770574	0.443231
676.109875	0.447092
676.449125	0.447039
676.788324	0.449277
677.127473	0.454275
677.466571	0.454469
677.805619	0.456317
678.144616	0.457368
678.483562	0.458936
678.822458	0.460522
679.161303	0.462426
679.500098	0.462387
679.838842	0.464577
680.177535	0.463654
680.516179	0.462585
680.854771	0.461758
681.193314	0.455042
681.531805	0.446052
681.870247	0.434953
682.208638	0.427171
682.546978	0.426782
682.885268	0.427697
683.223508	0.434547
683.561697	0.438387
683.899836	0.440943
684.237925	0.443361
684.575963	0.447031
684.913951	0.449409
685.251889	0.445470
685.589776	0.447545
685.927614	0.450124
686.265401	0.444099
686.603137	0.445684
686.940824	0.439858
687.278460	0.438446
687.616046	0.436996
687.953582	0.432058
688.291068	0.433389
688.628504	0.429175
688.965889	0.431394
689.303224	0.435844
689.640510	0.439597
689.977745	0.445229
690.314930	0.453223
690.652065	0.457607
690.989150	0.465114
691.326185	0.471794
691.663170	0.476360
692.000105	0.483122
692.336990	0.490039
692.673825	0.492795
693.010610	0.500302
693.347345	0.504781
693.684030	0.506789
694.020665	0.511852
694.357251	0.520144
694.693786	0.519629
695.030272	0.524154
695.366707	0.527312
695.703093	0.530983
696.039429	0.528749
696.375716	0.530197
696.711952	0.533802
697.048139	0.535324
697.384276	0.538015
697.720363	0.534977
698.056400	0.535058
698.392388	0.539979
698.728326	0.542943
699.064214	0.546018
699.400053	0.547004
699.735842	0.550433
700.071581	0.553282
700.407270	0.556381
700.742910	0.558840
701.078501	0.565078
701.414042	0.565370
701.749533	0.568541
702.084974	0.577682
702.420366	0.569960
702.755709	0.577347
703.091002	0.585381
703.426246	0.578803
703.761440	0.583794
704.096584	0.589348
704.431679	0.586308
704.766725	0.588297
705.101721	0.590023
705.436668	0.586564
705.771565	0.592368
706.106413	0.589755
706.441212	0.584952
706.775961	0.583409
707.110661	0.587058
707.445311	0.582754
707.779913	0.580035
708.114465	0.578372
708.448967	0.575027
708.783421	0.566554
709.117825	0.562139
709.452180	0.561549
709.786485	0.555719
710.120742	0.545775
710.454949	0.547171
710.789107	0.539880
711.123216	0.530610
711.457275	0.532639
711.791286	0.523549
712.125247	0.522368
712.459159	0.532720
712.793023	0.525385
713.126837	0.529891
713.460602	0.530518
713.794318	0.539200
714.127985	0.538366
714.461602	0.548398
714.795171	0.551715
715.128691	0.559971
715.462162	0.566998
715.795584	0.572903
716.128957	0.575845
716.462281	0.581729
716.795556	0.585465
717.128782	0.590697
717.461960	0.600480
717.795088	0.598493
718.128167	0.604816
718.461198	0.613863
718.794180	0.613672
719.127113	0.616864
719.459997	0.620647
719.792833	0.626701
720.125619	0.627945
720.458357	0.633438
720.791046	0.633166
721.123686	0.636550
721.456278	0.643577
721.788821	0.641215
722.121315	0.644560
722.453761	0.649428
722.786158	0.647065
723.118506	0.644015
723.450805	0.652298
723.783056	0.647701
724.115259	0.644723
724.447412	0.644016
724.779518	0.645843
725.111574	0.644690
725.443582	0.639617
725.775542	0.641700
726.107453	0.634957
726.439315	0.634829
726.771129	0.633484
727.102895	0.626573
727.434612	0.619312
727.766281	0.617156
728.097901	0.616066
728.429473	0.615829
728.760996	0.614702
729.092471	0.614415
729.423897	0.618746
729.755276	0.617921
730.086606	0.618346
730.417887	0.611550
730.749120	0.603248
731.080305	0.593579
731.411442	0.589670
731.742530	0.594993
732.073570	0.594731
732.404562	0.586090
732.735506	0.587160
733.066401	0.592555
733.397249	0.601679
733.728048	0.612560
734.058798	0.625611
734.389501	0.636004
734.720156	0.645690
735.050762	0.653589
735.381320	0.654777
735.711831	0.663275
736.042293	0.669128
736.372707	0.663998
736.703073	0.669816
737.033391	0.672009
737.363661	0.668420
737.693883	0.663229
738.024056	0.662285
738.354182	0.663155
738.684260	0.652761
739.014290	0.648962
739.344272	0.649271
739.674207	0.642494
740.004093	0.642089
740.333931	0.641866
740.663722	0.642386
740.993464	0.643634
741.323159	0.646029
741.652806	0.652517
741.982405	0.657272
742.311956	0.661180
742.641460	0.663349
742.970915	0.667190
743.300323	0.673990
743.629683	0.680653
743.958996	0.682490
744.288260	0.687292
744.617477	0.692806
744.946647	0.695031
745.275768	0.700620
745.604842	0.700172
745.933869	0.711274
746.262847	0.710490
746.591778	0.704382
746.920662	0.709917
747.249498	0.716744
747.578286	0.708082
747.907027	0.703208
748.235720	0.704780
748.564365	0.699313
748.892963	0.699358
749.221514	0.702419
749.550017	0.708104
749.878473	0.707287
750.206881	0.714381
750.535242	0.715059
750.863555	0.715349
751.191821	0.716256
751.520039	0.719905
751.848210	0.724447
752.176334	0.716619
752.504411	0.716042
752.832440	0.723922
753.160421	0.727216
753.488356	0.725699
753.816243	0.722909
754.144082	0.732187
754.471875	0.735470
754.799620	0.730332
755.127318	0.732435
755.454969	0.732589
755.782572	0.731722
756.110129	0.736327
756.437638	0.739293
756.765100	0.734930
757.092515	0.733374
757.419882	0.732670
757.747203	0.736973
758.074477	0.736799
758.401703	0.733645
758.728882	0.729195
759.056014	0.728003
759.383099	0.727166
759.710138	0.728521
760.037129	0.724443
760.364073	0.718676
760.690970	0.720631
761.017820	0.727049
761.344623	0.721470
761.671379	0.713381
761.998088	0.701396
762.324751	0.679391
762.651366	0.637067
762.977935	0.569924
763.304456	0.517936
763.630931	0.508707
763.957359	0.547315
764.283740	0.591644
764.610074	0.619243
764.936362	0.649968
765.262602	0.677595
765.588796	0.698253
765.914943	0.716779
766.241044	0.734206
766.567097	0.741107
766.893104	0.750457
767.219064	0.756666
767.544978	0.763898
767.870845	0.777521
768.196665	0.781020
768.522438	0.778651
768.848165	0.780100
769.173846	0.789592
769.499479	0.793878
769.825066	0.797548
770.150607	0.802340
770.476101	0.797605
770.801548	0.798775
771.126949	0.809215
771.452303	0.812823
771.777611	0.813277
772.102872	0.811587
772.428087	0.817116
772.753256	0.819943
773.078378	0.822958
773.403453	0.832158
773.728482	0.836587
774.053465	0.829646
774.378401	0.833457
774.703291	0.841927
775.028135	0.840244
775.352932	0.843347
775.677683	0.845409
776.002388	0.846738
776.327046	0.845959
776.651658	0.848139
776.976224	0.852260
777.300743	0.852589
777.625216	0.854917
777.949643	0.856237
778.274024	0.856971
778.598359	0.858459
778.922647	0.856700
779.246889	0.857704
779.571086	0.861801
779.895236	0.862663
780.219339	0.860084
780.543397	0.857462
780.867409	0.856126
781.191374	0.857699
781.515294	0.860091
781.839167	0.859322
782.162995	0.862154
782.486776	0.858707
782.810511	0.860199
783.134201	0.863301
783.457844	0.861349
783.781441	0.864687
784.104993	0.869943
784.428498	0.870638
784.751958	0.865681
785.075372	0.867766
785.398739	0.871617
785.722061	0.869010
786.045337	0.863951
786.368568	0.869100
786.691752	0.871883
787.014891	0.856915
787.337983	0.847964
787.661030	0.841302
787.984031	0.823372
788.306987	0.810446
788.629897	0.812147
788.952760	0.816282
789.275579	0.821230
789.598351	0.835816
789.921078	0.848631
790.243759	0.851272
790.566395	0.856168
790.888984	0.863737
791.211529	0.867067
791.534027	0.871819
791.856480	0.874432
792.178888	0.879135
792.501249	0.879918
792.823566	0.882863
793.145836	0.881891
793.468062	0.884191
793.790241	0.884302
794.112375	0.882780
794.434464	0.878538
794.756507	0.877829
795.078505	0.876612
795.400457	0.871239
795.722364	0.859885
796.044226	0.853715
796.366042	0.850999
796.687812	0.855295
797.009538	0.851039
797.331218	0.854454
797.652852	0.859158
797.974442	0.863733
798.295986	0.864430
798.617484	0.866650
798.938938	0.870398
799.260346	0.875704
799.581709	0.877435
799.903026	0.880500
800.224299	0.880011
800.545526	0.883799
800.866708	0.888782
801.187845	0.891079
801.508936	0.890907
801.829983	0.890469
802.150984	0.893061
802.471940	0.897277
802.792851	0.896553
803.113717	0.898776
803.434538	0.895941
803.755314	0.898310
804.076045	0.899850
804.396731	0.900293
804.717372	0.899305
805.037967	0.901489
805.358518	0.898490
805.679024	0.896863
805.999485	0.896025
806.319901	0.896171
806.640272	0.898200
806.960598	0.896583
807.280879	0.893374
807.601115	0.891661
807.921306	0.895454
808.241453	0.896343
808.561554	0.894065
808.881611	0.894522
809.201623	0.895549
809.521590	0.895799
809.841513	0.897137
810.161390	0.895655
810.481223	0.896433
810.801011	0.901259
811.120755	0.902758
811.440453	0.902421
811.760107	0.900159
812.079716	0.900937
812.399281	0.904810
812.718801	0.906428
813.038276	0.906915
813.357707	0.905894
813.677093	0.903579
813.996434	0.907613
814.315731	0.909308
814.634983	0.909125
814.954191	0.908070
815.273354	0.905209
815.592473	0.901180
815.911547	0.900423
816.230577	0.897936
816.549562	0.896096
816.868502	0.896157
817.187399	0.893219
817.506250	0.887510
817.825058	0.889410
818.143821	0.886592
818.462539	0.881637
818.781213	0.873221
819.099843	0.862072
819.418429	0.845779
819.736970	0.828998
820.055466	0.809013
820.373919	0.783741
820.692327	0.750044
821.010691	0.715582
821.329011	0.637745
821.647286	0.522050
821.965517	0.407759
822.283704	0.365124
822.601847	0.366211
822.919945	0.401772
823.237999	0.435126
823.556010	0.483158
823.873976	0.538960
824.191897	0.590149
824.509775	0.632065
824.827609	0.678296
825.145398	0.700127
825.463144	0.703069
825.780845	0.686351
826.098502	0.667718
826.416116	0.621258
826.733685	0.577036
827.051210	0.568626
827.368692	0.583896
827.686129	0.620283
828.003522	0.673439
828.320872	0.721610
828.638177	0.766371
828.955439	0.798799
829.272656	0.820151
829.589830	0.838446
829.906960	0.853959
830.224046	0.865823
830.541088	0.876530
830.858086	0.880317
831.175041	0.887308
831.491952	0.885898
831.808819	0.883104
832.125642	0.876891
832.442421	0.861642
832.759157	0.838791
833.075849	0.793966
833.392497	0.728681
833.709101	0.688033
834.025662	0.697576
834.342179	0.729183
834.658653	0.768902
834.975083	0.804471
835.291469	0.831031
835.607811	0.853781
835.924110	0.868741
836.240366	0.887474
836.556578	0.900321
836.872746	0.908808
837.188871	0.914767
837.504952	0.920077
837.820990	0.922817
838.136984	0.927100
838.452935	0.929367
838.768842	0.931467
839.084706	0.925053
839.400526	0.899457
839.716303	0.858761
840.032037	0.836109
840.347727	0.839842
840.663373	0.857859
840.978977	0.879411
841.294537	0.902752
841.610054	0.918597
841.925527	0.926633
842.240957	0.933090
842.556344	0.939941
842.871687	0.946458
843.186987	0.949690
843.502244	0.950135
843.817458	0.952675
844.132629	0.956031
844.447756	0.960413
844.762840	0.961164
845.077881	0.960116
845.392879	0.959376
845.707833	0.962017
846.022745	0.964785
846.337613	0.964684
846.652438	0.965443
846.967221	0.963883
847.281960	0.965994
847.596656	0.966804
847.911309	0.966447
848.225919	0.967579
848.540485	0.968444
848.855009	0.968761
849.169490	0.968741
849.483928	0.968528
849.798323	0.969673
850.112675	0.970464
850.426984	0.968989
850.741251	0.969300
851.055474	0.970506
851.369654	0.967586
851.683792	0.968956
851.997887	0.970523
852.311938	0.971400
852.625947	0.969976
852.939914	0.968248
853.253837	0.970038
853.567718	0.969990
853.881555	0.971094
854.195350	0.969029
854.509103	0.970064
854.822812	0.971125
855.136479	0.970302
855.450103	0.969587
855.763685	0.968664
856.077224	0.968686
856.390720	0.970234
856.704173	0.970394
857.017584	0.968402
857.330953	0.966128
857.644278	0.968298
857.957561	0.969278
858.270802	0.969179
858.584000	0.968010
858.897155	0.967063
859.210268	0.967521
859.523339	0.967549
859.836367	0.970106
860.149352	0.970626
860.462295	0.969301
860.775195	0.970439
861.088054	0.969482
861.400869	0.970104
861.713642	0.969967
862.026373	0.969940
862.339062	0.971181
862.651708	0.968134
862.964312	0.967629
863.276873	0.969876
863.589392	0.968432
863.901869	0.968058
864.214303	0.965011
864.526696	0.965354
864.839045	0.963830
865.151353	0.962565
865.463619	0.962337
865.775842	0.962105
866.088023	0.962742
866.400162	0.962702
866.712258	0.962577
867.024313	0.963576
867.336325	0.964031
867.648296	0.963446
867.960224	0.962624
868.272110	0.961819
868.583954	0.962723
868.895755	0.964220
869.207515	0.961272
869.519233	0.959807
869.830909	0.962125
870.142542	0.962849
870.454134	0.961266
870.765684	0.960881
871.077191	0.958026
871.388657	0.958975
871.700081	0.957393
872.011463	0.959826
872.322803	0.958247
872.634101	0.956261
872.945357	0.954069
873.256571	0.953222
873.567744	0.953146
873.878874	0.953457
874.189963	0.952302
874.501010	0.950938
874.812015	0.948823
875.122979	0.951396
875.433900	0.953550
875.744780	0.953821
876.055618	0.950429
876.366415	0.949653
876.677169	0.949473
876.987882	0.951223
877.298554	0.951952
877.609183	0.946693
877.919771	0.945361
878.230317	0.943637
878.540822	0.940838
878.851285	0.934999
879.161707	0.926467
879.472087	0.914718
879.782425	0.898148
880.092722	0.863248
880.402977	0.811962
880.713191	0.750553
881.023363	0.690612
881.333494	0.656728
881.643583	0.628836
881.953631	0.628074
882.263637	0.657478
882.573602	0.696270
882.883526	0.723220
883.193408	0.745892
883.503248	0.769716
883.813048	0.796572
884.122806	0.826926
884.432522	0.849985
884.742197	0.870914
885.051831	0.880752
885.361424	0.890560
885.670975	0.902890
885.980485	0.913088
886.289954	0.919173
886.599382	0.924019
886.908768	0.928045
887.218113	0.934565
887.527417	0.938899
887.836680	0.941127
888.145901	0.943214
888.455082	0.946013
888.764221	0.951365
889.073319	0.952947
889.382376	0.953850
889.691392	0.952316
890.000366	0.953200
890.309300	0.953836
890.618193	0.951980
890.927044	0.950883
891.235855	0.950885
891.544625	0.951288
891.853353	0.950629
892.162041	0.949143
892.470687	0.942653
892.779293	0.937991
893.087858	0.932964
893.396381	0.925382
893.704864	0.911519
894.013306	0.888942
894.321707	0.862160
894.630068	0.847143
894.938387	0.842153
895.246665	0.843928
895.554903	0.856214
895.863100	0.869455
896.171256	0.886399
896.479371	0.905971
896.787446	0.918861
897.095480	0.925185
897.403473	0.927622
897.711425	0.932205
898.019336	0.940169
898.327207	0.941631
898.635038	0.944799
898.942827	0.945542
899.250576	0.947306
899.558284	0.952980
899.865952	0.953706
900.173579	0.955857
900.481165	0.955791
900.788711	0.960013
901.096216	0.961174
901.403681	0.961650
901.711105	0.962793
902.018489	0.963833
902.325832	0.962086
902.633135	0.961511
902.940397	0.955658
903.247619	0.943480
903.554800	0.917303
903.861941	0.877700
904.169041	0.842488
904.476101	0.824327
904.783121	0.825157
905.090100	0.842022
905.397039	0.863575
905.703938	0.884698
906.010796	0.905607
906.317614	0.921644
906.624391	0.934565
906.931129	0.943954
907.237826	0.949726
907.544483	0.959255
907.851099	0.962256
908.157675	0.968712
908.464211	0.970634
908.770707	0.973015
909.077163	0.973711
909.383578	0.975358
909.689954	0.975213
909.996289	0.976486
910.302584	0.976657
910.608839	0.979875
910.915054	0.978055
911.221229	0.978495
911.527363	0.976493
911.833458	0.977313
912.139513	0.977928
912.445527	0.975676
912.751502	0.973083
913.057436	0.973333
913.363331	0.970137
913.669186	0.966431
913.975000	0.961548
914.280775	0.955653
914.586510	0.947811
914.892205	0.934532
915.197859	0.913843
915.503475	0.885318
915.809050	0.866627
916.114585	0.861456
916.420081	0.857276
916.725536	0.853290
917.030952	0.862878
917.336328	0.876142
917.641665	0.890829
917.946961	0.906163
918.252218	0.918182
918.557435	0.926992
918.862612	0.935793
919.167750	0.942268
919.472848	0.945408
919.777906	0.953199
920.082925	0.957460
920.387904	0.961588
920.692843	0.962331
920.997743	0.964293
921.302603	0.966579
921.607423	0.969383
921.912204	0.971964
922.216946	0.971266
922.521647	0.972919
922.826310	0.975269
923.130932	0.976187
923.435516	0.979281
923.740059	0.979305
924.044564	0.979117
924.349028	0.981376
924.653454	0.983748
924.957840	0.985953
925.262186	0.984446
925.566493	0.983131
925.870761	0.984909
926.174989	0.987450
926.479178	0.989116
926.783328	0.987851
927.087438	0.989439
927.391509	0.988931
927.695541	0.989397
927.999533	0.988864
928.303486	0.990006
928.607400	0.991216
928.911275	0.988753
929.215110	0.990524
929.518906	0.990348
929.822663	0.989739
930.126381	0.990590
930.430060	0.990775
930.733699	0.989113
931.037299	0.989039
931.340861	0.991201
931.644383	0.990429
931.947866	0.989600
932.251309	0.991581
932.554714	0.990061
932.858080	0.991124
933.161407	0.990181
933.464694	0.991100
933.767943	0.990376
934.071153	0.990899
934.374323	0.991593
934.677455	0.991815
934.980548	0.991371
935.283602	0.990450
935.586617	0.991455
935.889593	0.990471
936.192530	0.990282
936.495428	0.991203
936.798287	0.990623
937.101108	0.991012
937.403890	0.989920
937.706632	0.989237
938.009336	0.986978
938.312002	0.986012
938.614628	0.983402
938.917216	0.982970
939.219765	0.981526
939.522275	0.982671
939.824747	0.982126
940.127179	0.982920
940.429573	0.984664
940.731929	0.983738
941.034246	0.984207
941.336524	0.985467
941.638763	0.985596
941.940964	0.986388
942.243126	0.986261
942.545250	0.987633
942.847335	0.988503
943.149381	0.987364
943.451389	0.987382
943.753359	0.988068
944.055290	0.991099
944.357182	0.989154
944.659036	0.988783
944.960851	0.989015
945.262628	0.990251
945.564367	0.990601
945.866067	0.990489
946.167729	0.989722
946.469352	0.989805
946.770937	0.988306
947.072484	0.990996
947.373992	0.990854
947.675462	0.989985
947.976893	0.990240
948.278286	0.991068
948.579641	0.992132
948.880958	0.990990
949.182236	0.990631
949.483476	0.992514
949.784678	0.990289
950.085841	0.991682
950.386967	0.992028
950.688054	0.991089
950.989103	0.990547
951.290114	0.989919
951.591087	0.990112
951.892021	0.988973
952.192917	0.988689
952.493776	0.987892
952.794596	0.988895
953.095378	0.988277
953.396122	0.987534
953.696828	0.987342
953.997496	0.990080
954.298126	0.990124
954.598718	0.990277
954.899272	0.990081
955.199788	0.990924
955.500266	0.992035
955.800706	0.993625
956.101108	0.993740
956.401472	0.993606
956.701798	0.995071
957.002087	0.993302
957.302337	0.993362
957.602550	0.995640
957.902724	0.995678
958.202861	0.995276
958.502960	0.996106
958.803022	0.994291
959.103045	0.996548
959.403031	0.995065
959.702979	0.995708
960.002889	0.996440
960.302762	0.994691
960.602596	0.996296
960.902393	0.995088
961.202153	0.997193
961.501875	0.997001
961.801559	0.996088
962.101205	0.996159
962.400814	0.996391
962.700385	0.998042
962.999918	0.995619
963.299414	0.997478
963.598873	0.994936
963.898293	0.996195
964.197677	0.996529
964.497022	0.996814
964.796331	0.997901
965.095601	0.995812
965.394835	0.996840
965.694030	0.997762
965.993189	0.997890
966.292309	0.997635
966.591393	0.998329
966.890439	0.997594
967.189447	0.996754
967.488419	0.998095
967.787353	0.996775
968.086249	0.996502
968.385108	0.997667
968.683930	0.998768
968.982714	0.997381
969.281462	0.997145
969.580172	0.996700
969.878844	0.997523
970.177480	0.996150
970.476078	0.997029
970.774639	0.996908
971.073162	0.997753
971.371649	0.996692
971.670098	0.996870
971.968510	0.997649
972.266885	0.995926
972.565223	0.996015
972.863524	0.996765
973.161788	0.996200
973.460014	0.998741
973.758204	0.995859
974.056356	0.996300
974.354471	0.994444
974.652550	0.996419
974.950591	0.995895
975.248595	0.997356
975.546563	0.997258
975.844493	0.999047
976.142386	0.994877
976.440243	0.997110
976.738062	0.996348
977.035845	0.997682
977.333590	0.996517
977.631299	0.998212
977.928971	0.998150
978.226606	0.997389
978.524204	0.995854
978.821765	0.998024
979.119290	0.996651
979.416777	0.997282
979.714228	0.997659
980.011642	0.996603
980.309020	0.997166
980.606360	0.996732
980.903664	0.998560
981.200931	0.996887
981.498162	0.995121
981.795356	0.994334
982.092513	0.993679
982.389633	0.994249
982.686717	0.990761
982.983764	0.992343
983.280775	0.990862
983.577749	0.990305
983.874686	0.992202
984.171587	0.991057
984.468451	0.995049
984.765279	0.995036
985.062070	0.995054
985.358824	0.995713
985.655543	0.995432
985.952224	0.995828
986.248869	0.996633
986.545478	0.998384
986.842050	0.997723
987.138586	0.995890
987.435086	0.996822
987.731549	0.999263
988.027975	0.997439
988.324366	0.998089
988.620719	0.997861
988.917037	0.997195
989.213318	0.998327
989.509563	0.999250
989.805772	0.998419
990.101944	0.999440
990.398080	0.998407
990.694180	0.998191
990.990244	0.997608
991.286271	0.998330
991.582262	0.998543
991.878217	0.997286
992.174136	0.999056
992.470019	0.999672
992.765865	0.999396
993.061676	0.998449
993.357450	0.998125
993.653188	0.997222
993.948890	0.997892
994.244556	0.997440
994.540186	0.997588
994.835780	0.997263
995.131337	0.998460
995.426859	0.996696
995.722345	0.997688
996.017795	0.996267
996.313208	0.996120
996.608586	0.996731
996.903928	0.997484
997.199234	0.996470
997.494504	0.996886
997.789738	0.996712
998.084936	0.996501
998.380099	0.999653
998.675225	0.997059
998.970316	0.997702
999.265371	0.998836
999.560390	0.997860
999.855373	1.000358
1000.150320	0.999399
1000.445232	0.998249
1000.740108	0.998469
1001.034948	0.999647
1001.329752	0.999240
1001.624521	0.999668
1001.919254	0.998996
1002.213951	0.998428
1002.508613	0.999377
1002.803239	0.999158
1003.097829	0.998988
1003.392384	0.999883
1003.686903	0.999561
1003.981386	0.998781
1004.275834	0.999503
1004.570246	0.998777
1004.864623	0.999819
1005.158964	0.999915
1005.453270	0.999233
1005.747540	0.997885
1006.041775	0.998125
1006.335974	1.000089
1006.630138	0.999979
1006.924266	0.999046
1007.218359	1.000773
1007.512416	0.999681
1007.806438	1.001021
1008.100425	0.998780
1008.394376	0.998766
1008.688292	0.998582
1008.982172	1.000817
1009.276017	1.001049
1009.569827	0.998881
1009.863602	0.998725
1010.157341	0.999849
1010.451045	0.999743
1010.744714	0.998956
1011.038347	0.999503
1011.331945	0.999248
1011.625508	0.998136
1011.919036	0.998784
1012.212528	0.998600
1012.505986	0.999539
1012.799408	0.998103
1013.092795	1.000221
1013.386147	0.997782
1013.679464	1.000003
1013.972745	0.998463
1014.265992	0.997257
1014.559204	0.998374
1014.852380	0.998066
1015.145521	0.999427
1015.438628	0.999134
1015.731699	0.998655
1016.024736	0.999813
1016.317737	0.999416
1016.610703	0.999050
1016.903635	1.000355
1017.196531	0.997931
1017.489393	0.999666
1017.782219	1.000118
1018.075011	0.999073
1018.367768	0.998519
1018.660490	1.000815
1018.953177	1.000815
1019.245829	1.000815
