Dividing Wavelength (nm)	Counts (n)	Blue Motor Position (mm): 0.000000	Red Motor Position (mm): 20.300000	
326.493990	1.000928
326.888308	1.000928
327.282561	1.000928
327.676750	0.999367
328.070874	0.998860
328.464933	1.000864
328.858929	0.999002
329.252859	0.999175
329.646726	0.999272
330.040528	0.999836
330.434265	0.998288
330.827938	1.001020
331.221547	1.000688
331.615091	1.000064
332.008571	0.999792
332.401986	1.000796
332.795338	1.000968
333.188625	0.999116
333.581847	0.999952
333.975006	0.999291
334.368100	0.999687
334.761129	0.999111
335.154095	1.000564
335.546996	0.998203
335.939833	0.993904
336.332606	0.993749
336.725315	0.995639
337.117960	0.994985
337.510540	0.993564
337.903056	0.994675
338.295508	0.993546
338.687896	0.994353
339.080220	0.995111
339.472480	0.994960
339.864676	0.994889
340.256807	0.995018
340.648875	0.995258
341.040879	0.994234
341.432818	0.993674
341.824694	0.994021
342.216506	0.994700
342.608253	0.993859
342.999937	0.993313
343.391557	0.994574
343.783113	0.993958
344.174605	0.994560
344.566033	0.995097
344.957397	0.994053
345.348697	0.993914
345.739934	0.993777
346.131106	0.994168
346.522215	0.993779
346.913260	0.993518
347.304241	0.994692
347.695159	0.994703
348.086012	0.992226
348.476802	0.994289
348.867528	0.993276
349.258191	0.993507
349.648789	0.994378
350.039324	0.995024
350.429796	0.994841
350.820203	0.994418
351.210548	0.994398
351.600828	0.993337
351.991045	0.994986
352.381198	0.993639
352.771288	0.994965
353.161314	0.993470
353.551276	0.995574
353.941175	0.993605
354.331010	0.993521
354.720782	0.994635
355.110490	0.994453
355.500135	0.993383
355.889717	0.993970
356.279235	0.993390
356.668689	0.993532
357.058080	0.992630
357.447408	0.995088
357.836672	0.994664
358.225873	0.995081
358.615010	0.994337
359.004084	0.995147
359.393095	0.993800
359.782043	0.993948
360.170927	0.995982
360.559748	0.993573
360.948505	0.994191
361.337199	0.993851
361.725830	0.994528
362.114398	0.994048
362.502903	0.994132
362.891344	0.995358
363.279722	0.993748
363.668037	0.994520
364.056289	0.994670
364.444478	0.995231
364.832603	0.995001
365.220665	0.993757
365.608665	0.993322
365.996601	0.994385
366.384474	0.993481
366.772284	0.993914
367.160031	0.993112
367.547715	0.991702
367.935336	0.994070
368.322893	0.994272
368.710388	0.992834
369.097820	0.993987
369.485189	0.994975
369.872495	0.993656
370.259738	0.992706
370.646918	0.994629
371.034035	0.994228
371.421090	0.993425
371.808081	0.993512
372.195010	0.995684
372.581875	0.994923
372.968678	0.994102
373.355418	0.994495
373.742096	0.993859
374.128710	0.995922
374.515262	0.994482
374.901751	0.995965
375.288177	0.994929
375.674540	0.994601
376.060841	0.994938
376.447079	0.995341
376.833254	0.995956
377.219367	0.995384
377.605417	0.995299
377.991404	0.995159
378.377329	0.994113
378.763191	0.995213
379.148991	0.995922
379.534727	0.996224
379.920402	0.995792
380.306013	0.995033
380.691563	0.995777
381.077049	0.994876
381.462474	0.996329
381.847835	0.996195
382.233134	0.995741
382.618371	0.995588
383.003545	0.995656
383.388657	0.995246
383.773706	0.996306
384.158693	0.995159
384.543618	0.995971
384.928480	0.996939
385.313280	0.995987
385.698017	0.996281
386.082692	0.995954
386.467305	0.996816
386.851856	0.995216
387.236344	0.995066
387.620770	0.994529
388.005133	0.996546
388.389435	0.997210
388.773674	0.996227
389.157851	0.996879
389.541965	0.996331
389.926018	0.996445
390.310008	0.996973
390.693936	0.996010
391.077802	0.996922
391.461606	0.995908
391.845348	0.996402
392.229027	0.996555
392.612645	0.996642
392.996200	0.997642
393.379694	0.996268
393.763125	0.996086
394.146494	0.996803
394.529801	0.996313
394.913047	0.996971
395.296230	0.996603
395.679351	0.995717
396.062410	0.995868
396.445408	0.996100
396.828343	0.996307
397.211217	0.995475
397.594028	0.996240
397.976778	0.994756
398.359466	0.995782
398.742092	0.995725
399.124656	0.995838
399.507158	0.996084
399.889598	0.995349
400.271977	0.996060
400.654294	0.995935
401.036549	0.996485
401.418742	0.996096
401.800874	0.996138
402.182944	0.995750
402.564952	0.995856
402.946898	0.995981
403.328783	0.995979
403.710606	0.996151
404.092367	0.995196
404.474067	0.995281
404.855705	0.996637
405.237282	0.996160
405.618797	0.995423
406.000250	0.995583
406.381642	0.996358
406.762972	0.995397
407.144240	0.996515
407.525447	0.996128
407.906593	0.995370
408.287677	0.994245
408.668700	0.995425
409.049661	0.993734
409.430560	0.994874
409.811399	0.993992
410.192176	0.993856
410.572891	0.994368
410.953545	0.993516
411.334138	0.992350
411.714669	0.992751
412.095139	0.991513
412.475547	0.990529
412.855894	0.990428
413.236180	0.988581
413.616405	0.988241
413.996568	0.987436
414.376670	0.984614
414.756711	0.983435
415.136691	0.980338
415.516609	0.979680
415.896466	0.977122
416.276262	0.973147
416.655997	0.972376
417.035670	0.968457
417.415283	0.965394
417.794834	0.962293
418.174324	0.959127
418.553753	0.957520
418.933121	0.951260
419.312428	0.947686
419.691674	0.944807
420.070859	0.939703
420.449983	0.935717
420.829045	0.929507
421.208047	0.927223
421.586988	0.921064
421.965867	0.914547
422.344686	0.907327
422.723444	0.904033
423.102141	0.901209
423.480777	0.890529
423.859352	0.886799
424.237866	0.876734
424.616319	0.869944
424.994712	0.860956
425.373044	0.856467
425.751314	0.845380
426.129524	0.842572
426.507673	0.829501
426.885762	0.821975
427.263789	0.813473
427.641756	0.810423
428.019662	0.797754
428.397508	0.788697
428.775292	0.780091
429.153016	0.769258
429.530679	0.764055
429.908282	0.752029
430.285824	0.748392
430.663305	0.728776
431.040726	0.730051
431.418086	0.722276
431.795385	0.709360
432.172624	0.699296
432.549802	0.691638
432.926920	0.682470
433.303977	0.673215
433.680974	0.663257
434.057910	0.653427
434.434786	0.644737
434.811601	0.638226
435.188355	0.619100
435.565050	0.616846
435.941683	0.609990
436.318257	0.591210
436.694770	0.583679
437.071222	0.574686
437.447614	0.570686
437.823946	0.568769
438.200218	0.552830
438.576429	0.553888
438.952580	0.541986
439.328670	0.532565
439.704700	0.532054
440.080670	0.526844
440.456580	0.505223
440.832429	0.506013
441.208218	0.509999
441.583947	0.495029
441.959616	0.490550
442.335224	0.489673
442.710773	0.477528
443.086261	0.470937
443.461689	0.479290
443.837057	0.466068
444.212365	0.453486
444.587612	0.456327
444.962800	0.442933
445.337927	0.441215
445.712995	0.463264
446.088002	0.424403
446.462949	0.431957
446.837837	0.433486
447.212664	0.420849
447.587431	0.410586
447.962139	0.380663
448.336786	0.339290
448.711374	0.347760
449.085901	0.388249
449.460369	0.390995
449.834776	0.392716
450.209124	0.371629
450.583412	0.363040
450.957640	0.355402
451.331808	0.365222
451.705917	0.387604
452.079965	0.391485
452.453954	0.379005
452.827883	0.384777
453.201752	0.379103
453.575562	0.390467
453.949311	0.378229
454.323001	0.383778
454.696632	0.379706
455.070202	0.371651
455.443713	0.363230
455.817164	0.358459
456.190556	0.353731
456.563888	0.350017
456.937160	0.347116
457.310373	0.364464
457.683526	0.363207
458.056619	0.368565
458.429653	0.369411
458.802628	0.372216
459.175542	0.366371
459.548398	0.349172
459.921194	0.341732
460.293930	0.341153
460.666607	0.319061
461.039224	0.307073
461.411782	0.302744
461.784280	0.302288
462.156719	0.306314
462.529099	0.310806
462.901419	0.326897
463.273680	0.331092
463.645882	0.330196
464.018024	0.336319
464.390106	0.328932
464.762130	0.313904
465.134094	0.296857
465.505999	0.266298
465.877845	0.236894
466.249631	0.223821
466.621358	0.231184
466.993026	0.245008
467.364634	0.251290
467.736184	0.260135
468.107674	0.268663
468.479105	0.267624
468.850477	0.274259
469.221790	0.281132
469.593043	0.291292
469.964238	0.296471
470.335373	0.295378
470.706449	0.293901
471.077467	0.294535
471.448425	0.256386
471.819324	0.232380
472.190164	0.231818
472.560945	0.260317
472.931667	0.282552
473.302330	0.286731
473.672934	0.298534
474.043479	0.286932
474.413965	0.288638
474.784393	0.292048
475.154761	0.287202
475.525070	0.283778
475.895321	0.289824
476.265513	0.284181
476.635645	0.279544
477.005719	0.279565
477.375734	0.276220
477.745691	0.269323
478.115588	0.265881
478.485427	0.259367
478.855207	0.246620
479.224928	0.229094
479.594591	0.217209
479.964194	0.220573
480.333739	0.221875
480.703226	0.223386
481.072653	0.221752
481.442022	0.217387
481.811333	0.213766
482.180584	0.217396
482.549777	0.222663
482.918912	0.226002
483.287988	0.225699
483.657005	0.225385
484.025964	0.231809
484.394864	0.229040
484.763706	0.229612
485.132489	0.234739
485.501213	0.235356
485.869879	0.233710
486.238487	0.237049
486.607036	0.234999
486.975527	0.239484
487.343959	0.235349
487.712333	0.234000
488.080648	0.235954
488.448905	0.234960
488.817104	0.236247
489.185244	0.231058
489.553326	0.227809
489.921350	0.217418
490.289315	0.200241
490.657222	0.195080
491.025070	0.196507
491.392861	0.198404
491.760593	0.204033
492.128267	0.209434
492.495883	0.215022
492.863440	0.221125
493.230939	0.227508
493.598380	0.228860
493.965763	0.230728
494.333088	0.233402
494.700354	0.234747
495.067563	0.233655
495.434713	0.236911
495.801805	0.234800
496.168839	0.236559
496.535815	0.237454
496.902733	0.237355
497.269593	0.239156
497.636395	0.236956
498.003139	0.236979
498.369825	0.240179
498.736453	0.236621
499.103023	0.237975
499.469535	0.237459
499.835989	0.237719
500.202385	0.238583
500.568723	0.241832
500.935003	0.237316
501.301226	0.241010
501.667390	0.235806
502.033497	0.233641
502.399546	0.236700
502.765537	0.238572
503.131470	0.236880
503.497345	0.233417
503.863163	0.242089
504.228923	0.234942
504.594625	0.233571
504.960269	0.239164
505.325856	0.234159
505.691385	0.238546
506.056856	0.235414
506.422270	0.234801
506.787625	0.237287
507.152924	0.234565
507.518164	0.234868
507.883347	0.236785
508.248472	0.238664
508.613540	0.233634
508.978550	0.236173
509.343503	0.236689
509.708398	0.234522
510.073236	0.231878
510.438016	0.231975
510.802738	0.232872
511.167403	0.232030
511.532010	0.233712
511.896561	0.229304
512.261053	0.228093
512.625488	0.230132
512.989866	0.230262
513.354186	0.230816
513.718449	0.232498
514.082655	0.229058
514.446803	0.231324
514.810894	0.228802
515.174927	0.231343
515.538904	0.230784
515.902822	0.227891
516.266684	0.230205
516.630488	0.231301
516.994235	0.230079
517.357925	0.229084
517.721558	0.227158
518.085133	0.226769
518.448651	0.226912
518.812112	0.229086
519.175516	0.228675
519.538863	0.226552
519.902152	0.227817
520.265385	0.224843
520.628560	0.226494
520.991678	0.227133
521.354739	0.225654
521.717743	0.227144
522.080690	0.227492
522.443580	0.225159
522.806413	0.225945
523.169189	0.225305
523.531908	0.223944
523.894569	0.227587
524.257174	0.227567
524.619722	0.225384
524.982213	0.226425
525.344647	0.225467
525.707025	0.226083
526.069345	0.224135
526.431608	0.225863
526.793815	0.224049
527.155964	0.228113
527.518057	0.226995
527.880093	0.228028
528.242072	0.226626
528.603995	0.228557
528.965860	0.230280
529.327669	0.228987
529.689421	0.229802
530.051117	0.230738
530.412755	0.228606
530.774337	0.231032
531.135862	0.231363
531.497331	0.230501
531.858743	0.233311
532.220098	0.230023
532.581396	0.232781
532.942638	0.233092
533.303824	0.234007
533.664953	0.234030
534.026025	0.235616
534.387040	0.233359
534.747999	0.233521
535.108902	0.232297
535.469748	0.237253
535.830537	0.235110
536.191270	0.235539
536.551947	0.235060
536.912567	0.235452
537.273131	0.237034
537.633638	0.237124
537.994089	0.237301
538.354483	0.238646
538.714821	0.235753
539.075103	0.235226
539.435328	0.235971
539.795497	0.239800
540.155609	0.236344
540.515665	0.234420
540.875665	0.240132
541.235609	0.238837
541.595496	0.238929
541.955328	0.235445
542.315102	0.238012
542.674821	0.238902
543.034483	0.239012
543.394090	0.239075
543.753640	0.240661
544.113134	0.235626
544.472571	0.238691
544.831953	0.235877
545.191278	0.240017
545.550548	0.239426
545.909761	0.236303
546.268918	0.236950
546.628019	0.235307
546.987064	0.237969
547.346053	0.239683
547.704986	0.237670
548.063863	0.237989
548.422684	0.238047
548.781449	0.239916
549.140158	0.237654
549.498811	0.240435
549.857408	0.243447
550.215949	0.238458
550.574434	0.241317
550.932864	0.239362
551.291237	0.238030
551.649555	0.239540
552.007817	0.238989
552.366022	0.239782
552.724173	0.240173
553.082267	0.240356
553.440305	0.237425
553.798288	0.241927
554.156215	0.238426
554.514086	0.238998
554.871902	0.242193
555.229661	0.241620
555.587365	0.242097
555.945014	0.244459
556.302606	0.241354
556.660143	0.244099
557.017625	0.240430
557.375050	0.242770
557.732421	0.239636
558.089735	0.241584
558.446994	0.241912
558.804197	0.241033
559.161345	0.240786
559.518437	0.244377
559.875474	0.242052
560.232455	0.241488
560.589381	0.242933
560.946251	0.242533
561.303065	0.240391
561.659825	0.241820
562.016528	0.243046
562.373177	0.246191
562.729770	0.243371
563.086307	0.245643
563.442789	0.243511
563.799216	0.246161
564.155587	0.244850
564.511904	0.245974
564.868164	0.246135
565.224370	0.246138
565.580520	0.247930
565.936615	0.247475
566.292654	0.250493
566.648638	0.247608
567.004567	0.248521
567.360441	0.249203
567.716260	0.250999
568.072023	0.249118
568.427732	0.249594
568.783385	0.252385
569.138982	0.250109
569.494525	0.249677
569.850013	0.252790
570.205445	0.250979
570.560823	0.253650
570.916145	0.255704
571.271412	0.253898
571.626625	0.255328
571.981782	0.255756
572.336884	0.256719
572.691931	0.256326
573.046923	0.257396
573.401860	0.258854
573.756743	0.260429
574.111570	0.259325
574.466342	0.259939
574.821059	0.258935
575.175722	0.261731
575.530330	0.261505
575.884882	0.261603
576.239380	0.263828
576.593823	0.264152
576.948211	0.263693
577.302544	0.267055
577.656823	0.266540
578.011047	0.266392
578.365216	0.267613
578.719330	0.269147
579.073389	0.269246
579.427394	0.270345
579.781344	0.271546
580.135239	0.272789
580.489080	0.272155
580.842866	0.275090
581.196597	0.275377
581.550273	0.273780
581.903895	0.274757
582.257463	0.272907
582.610975	0.276429
582.964434	0.275670
583.317837	0.278241
583.671186	0.278470
584.024481	0.278657
584.377721	0.281145
584.730906	0.281579
585.084037	0.280861
585.437113	0.282640
585.790135	0.282017
586.143103	0.285278
586.496016	0.286392
586.848874	0.283679
587.201679	0.284292
587.554428	0.287665
587.907124	0.286200
588.259765	0.287065
588.612352	0.287650
588.964884	0.291210
589.317362	0.291264
589.669786	0.291257
590.022155	0.289159
590.374470	0.288642
590.726731	0.290905
591.078937	0.295569
591.431090	0.291307
591.783188	0.296346
592.135232	0.296703
592.487222	0.296646
592.839157	0.294495
593.191038	0.297055
593.542866	0.298816
593.894639	0.302821
594.246358	0.300276
594.598022	0.300220
594.949633	0.303466
595.301190	0.304413
595.652692	0.303275
596.004141	0.299757
596.355535	0.307837
596.706876	0.308139
597.058162	0.310909
597.409395	0.308158
597.760573	0.305416
598.111698	0.308946
598.462768	0.309262
598.813785	0.310455
599.164748	0.311613
599.515657	0.312150
599.866511	0.315334
600.217312	0.310819
600.568060	0.316180
600.918753	0.312183
601.269392	0.313358
601.619978	0.316678
601.970510	0.314263
602.320988	0.314555
602.671412	0.312003
603.021783	0.314289
603.372100	0.315931
603.722363	0.315796
604.072572	0.316328
604.422728	0.316352
604.772830	0.318403
605.122878	0.317788
605.472872	0.318612
605.822813	0.316810
606.172701	0.319288
606.522534	0.316843
606.872314	0.316253
607.222041	0.317627
607.571714	0.316016
607.921333	0.317635
608.270899	0.317147
608.620411	0.314006
608.969870	0.317460
609.319276	0.317748
609.668627	0.317553
610.017926	0.316037
610.367171	0.314443
610.716362	0.315375
611.065500	0.315882
611.414585	0.314174
611.763616	0.315074
612.112594	0.315503
612.461518	0.314919
612.810389	0.312567
613.159207	0.315210
613.507971	0.316785
613.856682	0.312285
614.205340	0.314191
614.553945	0.310977
614.902496	0.314860
615.250994	0.312429
615.599439	0.313525
615.947830	0.312801
616.296169	0.313994
616.644454	0.313317
616.992686	0.313504
617.340864	0.311622
617.688990	0.315031
618.037063	0.311508
618.385082	0.313274
618.733048	0.310317
619.080961	0.312544
619.428821	0.312104
619.776628	0.311657
620.124382	0.313356
620.472083	0.313655
620.819731	0.313217
621.167326	0.317150
621.514868	0.316397
621.862357	0.321098
622.209793	0.320563
622.557176	0.322815
622.904506	0.323912
623.251783	0.325848
623.599007	0.328452
623.946179	0.328100
624.293297	0.329713
624.640363	0.334132
624.987376	0.334694
625.334336	0.337013
625.681243	0.339368
626.028097	0.339764
626.374899	0.341052
626.721647	0.341008
627.068343	0.344068
627.414987	0.345530
627.761577	0.347208
628.108115	0.345948
628.454600	0.350897
628.801032	0.348025
629.147412	0.350304
629.493739	0.350739
629.840014	0.353538
630.186236	0.351415
630.532405	0.356575
630.878521	0.354350
631.224585	0.356750
631.570597	0.360171
631.916556	0.358208
632.262462	0.358272
632.608316	0.360656
632.954117	0.361889
633.299866	0.362372
633.645562	0.362655
633.991206	0.367199
634.336797	0.369765
634.682336	0.372512
635.027823	0.373843
635.373257	0.374414
635.718639	0.377910
636.063968	0.377042
636.409245	0.383104
636.754470	0.383189
637.099642	0.385683
637.444762	0.388862
637.789829	0.388446
638.134845	0.391728
638.479808	0.392976
638.824719	0.392730
639.169577	0.396460
639.514383	0.395519
639.859137	0.399994
640.203839	0.399467
640.548489	0.400431
640.893086	0.401269
641.237632	0.403221
641.582125	0.401593
641.926566	0.402964
642.270955	0.403035
642.615292	0.403196
642.959576	0.402338
643.303809	0.403370
643.647990	0.402434
643.992118	0.403176
644.336195	0.406881
644.680219	0.405032
645.024192	0.406121
645.368112	0.399222
645.711981	0.398828
646.055797	0.393605
646.399562	0.396364
646.743274	0.388606
647.086935	0.386049
647.430544	0.385794
647.774101	0.384670
648.117606	0.383802
648.461059	0.384961
648.804460	0.387058
649.147810	0.392460
649.491108	0.394035
649.834354	0.395697
650.177548	0.400763
650.520690	0.406466
650.863781	0.407466
651.206820	0.407053
651.549807	0.411257
651.892742	0.415295
652.235626	0.414767
652.578458	0.416367
652.921238	0.421926
653.263967	0.419659
653.606644	0.423607
653.949269	0.423352
654.291843	0.427040
654.634365	0.424001
654.976836	0.426976
655.319255	0.427730
655.661622	0.429099
656.003938	0.429269
656.346203	0.432402
656.688416	0.430036
657.030577	0.433365
657.372687	0.435622
657.714746	0.436052
658.056753	0.433158
658.398708	0.437178
658.740612	0.437990
659.082465	0.433960
659.424266	0.435086
659.766016	0.434264
660.107715	0.436954
660.449362	0.435961
660.790958	0.436363
661.132503	0.437051
661.473996	0.434481
661.815438	0.435524
662.156829	0.435613
662.498168	0.436335
662.839456	0.438344
663.180693	0.435586
663.521879	0.435645
663.863013	0.436460
664.204097	0.434896
664.545129	0.432310
664.886110	0.432037
665.227040	0.429728
665.567918	0.431873
665.908746	0.429981
666.249522	0.429891
666.590248	0.430532
666.930922	0.429004
667.271545	0.427919
667.612118	0.428296
667.952639	0.429983
668.293109	0.428443
668.633528	0.430920
668.973896	0.430918
669.314213	0.431430
669.654480	0.432880
669.994695	0.433712
670.334859	0.434189
670.674973	0.434427
671.015035	0.434773
671.355047	0.434557
671.695008	0.435388
672.034918	0.437466
672.374777	0.436348
672.714585	0.438080
673.054342	0.437947
673.394049	0.438218
673.733705	0.435382
674.073310	0.436597
674.412864	0.439638
674.752368	0.440964
675.091820	0.440268
675.431223	0.444733
675.770574	0.445077
676.109875	0.448315
676.449125	0.447302
676.788324	0.449845
677.127473	0.455625
677.466571	0.455560
677.805619	0.457253
678.144616	0.457698
678.483562	0.459470
678.822458	0.461449
679.161303	0.463258
679.500098	0.463047
679.838842	0.465624
680.177535	0.465048
680.516179	0.463199
680.854771	0.462083
681.193314	0.455518
681.531805	0.447256
681.870247	0.435980
682.208638	0.428503
682.546978	0.427055
682.885268	0.429315
683.223508	0.435081
683.561697	0.438631
683.899836	0.441429
684.237925	0.444968
684.575963	0.447492
684.913951	0.450322
685.251889	0.446179
685.589776	0.448313
685.927614	0.450587
686.265401	0.444675
686.603137	0.445785
686.940824	0.440410
687.278460	0.438861
687.616046	0.438165
687.953582	0.432666
688.291068	0.434195
688.628504	0.430067
688.965889	0.432041
689.303224	0.436468
689.640510	0.440315
689.977745	0.446057
690.314930	0.454086
690.652065	0.458496
690.989150	0.465879
691.326185	0.472310
691.663170	0.477260
692.000105	0.483506
692.336990	0.491305
692.673825	0.493728
693.010610	0.500780
693.347345	0.505863
693.684030	0.507287
694.020665	0.512233
694.357251	0.520616
694.693786	0.520565
695.030272	0.524349
695.366707	0.528041
695.703093	0.531380
696.039429	0.528997
696.375716	0.531079
696.711952	0.533843
697.048139	0.536058
697.384276	0.537834
697.720363	0.536262
698.056400	0.535568
698.392388	0.540686
698.728326	0.543809
699.064214	0.546491
699.400053	0.547454
699.735842	0.550976
700.071581	0.553335
700.407270	0.556989
700.742910	0.559304
701.078501	0.565962
701.414042	0.565878
701.749533	0.568732
702.084974	0.578195
702.420366	0.570563
702.755709	0.577392
703.091002	0.585793
703.426246	0.578545
703.761440	0.585281
704.096584	0.590534
704.431679	0.586240
704.766725	0.588868
705.101721	0.589997
705.436668	0.585937
705.771565	0.593250
706.106413	0.590122
706.441212	0.585065
706.775961	0.584355
707.110661	0.587478
707.445311	0.583330
707.779913	0.580051
708.114465	0.579535
708.448967	0.575273
708.783421	0.567598
709.117825	0.562596
709.452180	0.561902
709.786485	0.555963
710.120742	0.546145
710.454949	0.548113
710.789107	0.540464
711.123216	0.531296
711.457275	0.533223
711.791286	0.523564
712.125247	0.522525
712.459159	0.533732
712.793023	0.526426
713.126837	0.530090
713.460602	0.530827
713.794318	0.540439
714.127985	0.538425
714.461602	0.548879
714.795171	0.552840
715.128691	0.559922
715.462162	0.566536
715.795584	0.573252
716.128957	0.576566
716.462281	0.581994
716.795556	0.586081
717.128782	0.591275
717.461960	0.601141
717.795088	0.598891
718.128167	0.605644
718.461198	0.613403
718.794180	0.615209
719.127113	0.617858
719.459997	0.621192
719.792833	0.626900
720.125619	0.628594
720.458357	0.634227
720.791046	0.634218
721.123686	0.637248
721.456278	0.644964
721.788821	0.641430
722.121315	0.646123
722.453761	0.649556
722.786158	0.648147
723.118506	0.644026
723.450805	0.652827
723.783056	0.648444
724.115259	0.644966
724.447412	0.645846
724.779518	0.645882
725.111574	0.645354
725.443582	0.641185
725.775542	0.642787
726.107453	0.635142
726.439315	0.634736
726.771129	0.633604
727.102895	0.626458
727.434612	0.619447
727.766281	0.617197
728.097901	0.616847
728.429473	0.616953
728.760996	0.614979
729.092471	0.615057
729.423897	0.619141
729.755276	0.618397
730.086606	0.618310
730.417887	0.612549
730.749120	0.603318
731.080305	0.594594
731.411442	0.590246
731.742530	0.595606
732.073570	0.594380
732.404562	0.586996
732.735506	0.587508
733.066401	0.592855
733.397249	0.602364
733.728048	0.613499
734.058798	0.626059
734.389501	0.636925
734.720156	0.646313
735.050762	0.654483
735.381320	0.655133
735.711831	0.664283
736.042293	0.669488
736.372707	0.664809
736.703073	0.669736
737.033391	0.672384
737.363661	0.669666
737.693883	0.664372
738.024056	0.662347
738.354182	0.663833
738.684260	0.652779
739.014290	0.649160
739.344272	0.649104
739.674207	0.643204
740.004093	0.642405
740.333931	0.643237
740.663722	0.642559
740.993464	0.643178
741.323159	0.647413
741.652806	0.652087
741.982405	0.657459
742.311956	0.661692
742.641460	0.664562
742.970915	0.667023
743.300323	0.675026
743.629683	0.681598
743.958996	0.683563
744.288260	0.687941
744.617477	0.693578
744.946647	0.695301
745.275768	0.701028
745.604842	0.700225
745.933869	0.710276
746.262847	0.711026
746.591778	0.704489
746.920662	0.710492
747.249498	0.717558
747.578286	0.707997
747.907027	0.704573
748.235720	0.705110
748.564365	0.700251
748.892963	0.700021
749.221514	0.702517
749.550017	0.708517
749.878473	0.707427
750.206881	0.713563
750.535242	0.715051
750.863555	0.714715
751.191821	0.716167
751.520039	0.720101
751.848210	0.724126
752.176334	0.716770
752.504411	0.715820
752.832440	0.724365
753.160421	0.727853
753.488356	0.725723
753.816243	0.723353
754.144082	0.731480
754.471875	0.735644
754.799620	0.730673
755.127318	0.732352
755.454969	0.732483
755.782572	0.731010
756.110129	0.736768
756.437638	0.738573
756.765100	0.736114
757.092515	0.734104
757.419882	0.732663
757.747203	0.737764
758.074477	0.736980
758.401703	0.734369
758.728882	0.729186
759.056014	0.728317
759.383099	0.727199
759.710138	0.728569
760.037129	0.725035
760.364073	0.718452
760.690970	0.720602
761.017820	0.727359
761.344623	0.722065
761.671379	0.713797
761.998088	0.702464
762.324751	0.679007
762.651366	0.637409
762.977935	0.570748
763.304456	0.518546
763.630931	0.509733
763.957359	0.548324
764.283740	0.593082
764.610074	0.619440
764.936362	0.650468
765.262602	0.678264
765.588796	0.698718
765.914943	0.716787
766.241044	0.735308
766.567097	0.741495
766.893104	0.751483
767.219064	0.757554
767.544978	0.763470
767.870845	0.776980
768.196665	0.781526
768.522438	0.778968
768.848165	0.781127
769.173846	0.788775
769.499479	0.793436
769.825066	0.797558
770.150607	0.802615
770.476101	0.797370
770.801548	0.798649
771.126949	0.810079
771.452303	0.813555
771.777611	0.813486
772.102872	0.810855
772.428087	0.817559
772.753256	0.819893
773.078378	0.823132
773.403453	0.831391
773.728482	0.836288
774.053465	0.829039
774.378401	0.832655
774.703291	0.840203
775.028135	0.841465
775.352932	0.842266
775.677683	0.845557
776.002388	0.846593
776.327046	0.845284
776.651658	0.848980
776.976224	0.852408
777.300743	0.852478
777.625216	0.855460
777.949643	0.856623
778.274024	0.856431
778.598359	0.858181
778.922647	0.857202
779.246889	0.857451
779.571086	0.860906
779.895236	0.864135
780.219339	0.861379
780.543397	0.858137
780.867409	0.856924
781.191374	0.859154
781.515294	0.860002
781.839167	0.859032
782.162995	0.862352
782.486776	0.859138
782.810511	0.859878
783.134201	0.863191
783.457844	0.861666
783.781441	0.863710
784.104993	0.870476
784.428498	0.869773
784.751958	0.865574
785.075372	0.868848
785.398739	0.872303
785.722061	0.868324
786.045337	0.863498
786.368568	0.868698
786.691752	0.871542
787.014891	0.856775
787.337983	0.847506
787.661030	0.840537
787.984031	0.823397
788.306987	0.810588
788.629897	0.812396
788.952760	0.815686
789.275579	0.821818
789.598351	0.837254
789.921078	0.848552
790.243759	0.851358
790.566395	0.855752
790.888984	0.863587
791.211529	0.868390
791.534027	0.872380
791.856480	0.873548
792.178888	0.880151
792.501249	0.880642
792.823566	0.883219
793.145836	0.882543
793.468062	0.885218
793.790241	0.885307
794.112375	0.883013
794.434464	0.878562
794.756507	0.877062
795.078505	0.877257
795.400457	0.871596
795.722364	0.860051
796.044226	0.852371
796.366042	0.851582
796.687812	0.855256
797.009538	0.851825
797.331218	0.854901
797.652852	0.858837
797.974442	0.863245
798.295986	0.863526
798.617484	0.865493
798.938938	0.870779
799.260346	0.875441
799.581709	0.877307
799.903026	0.879605
800.224299	0.880286
800.545526	0.884053
800.866708	0.888706
801.187845	0.891684
801.508936	0.892186
801.829983	0.889821
802.150984	0.891750
802.471940	0.897259
802.792851	0.896594
803.113717	0.897429
803.434538	0.896078
803.755314	0.898425
804.076045	0.899405
804.396731	0.899638
804.717372	0.899629
805.037967	0.901342
805.358518	0.898640
805.679024	0.896971
805.999485	0.896348
806.319901	0.896616
806.640272	0.897592
806.960598	0.897041
807.280879	0.893276
807.601115	0.892262
807.921306	0.895407
808.241453	0.896128
808.561554	0.893474
808.881611	0.894523
809.201623	0.895210
809.521590	0.896104
809.841513	0.897477
810.161390	0.896235
810.481223	0.897679
810.801011	0.901457
811.120755	0.902376
811.440453	0.901259
811.760107	0.899674
812.079716	0.900220
812.399281	0.903654
812.718801	0.905657
813.038276	0.907394
813.357707	0.906703
813.677093	0.902420
813.996434	0.906194
814.315731	0.908090
814.634983	0.910481
814.954191	0.906832
815.273354	0.904242
815.592473	0.901232
815.911547	0.900674
816.230577	0.897965
816.549562	0.895488
816.868502	0.896933
817.187399	0.893536
817.506250	0.887120
817.825058	0.891068
818.143821	0.886210
818.462539	0.881110
818.781213	0.872313
819.099843	0.862089
819.418429	0.845931
819.736970	0.830192
820.055466	0.809301
820.373919	0.784524
820.692327	0.751102
821.010691	0.716837
821.329011	0.639156
821.647286	0.523956
821.965517	0.410340
822.283704	0.367958
822.601847	0.368835
822.919945	0.404681
823.237999	0.438382
823.556010	0.484541
823.873976	0.540625
824.191897	0.591462
824.509775	0.633719
824.827609	0.678900
825.145398	0.701175
825.463144	0.704895
825.780845	0.687095
826.098502	0.668160
826.416116	0.622967
826.733685	0.579269
827.051210	0.570637
827.368692	0.584899
827.686129	0.622678
828.003522	0.675306
828.320872	0.722933
828.638177	0.766706
828.955439	0.799534
829.272656	0.820774
829.589830	0.838463
829.906960	0.854093
830.224046	0.867596
830.541088	0.877338
830.858086	0.881200
831.175041	0.887561
831.491952	0.886030
831.808819	0.882964
832.125642	0.876550
832.442421	0.862087
832.759157	0.840453
833.075849	0.793653
833.392497	0.730019
833.709101	0.689461
834.025662	0.698239
834.342179	0.730355
834.658653	0.769766
834.975083	0.806532
835.291469	0.831319
835.607811	0.853895
835.924110	0.870357
836.240366	0.886482
836.556578	0.901620
836.872746	0.907788
837.188871	0.914631
837.504952	0.920260
837.820990	0.922242
838.136984	0.926508
838.452935	0.929929
838.768842	0.931107
839.084706	0.924707
839.400526	0.899459
839.716303	0.858107
840.032037	0.836417
840.347727	0.840388
840.663373	0.858542
840.978977	0.880301
841.294537	0.901339
841.610054	0.917534
841.925527	0.926423
842.240957	0.932134
842.556344	0.939853
842.871687	0.946542
843.186987	0.950220
843.502244	0.949609
843.817458	0.951463
844.132629	0.955430
844.447756	0.959473
844.762840	0.960663
845.077881	0.958974
845.392879	0.960306
845.707833	0.962849
846.022745	0.964490
846.337613	0.965282
846.652438	0.965357
846.967221	0.964423
847.281960	0.963127
847.596656	0.967559
847.911309	0.966367
848.225919	0.968367
848.540485	0.968599
848.855009	0.968463
849.169490	0.968108
849.483928	0.969745
849.798323	0.969413
850.112675	0.970350
850.426984	0.969826
850.741251	0.970338
851.055474	0.970869
851.369654	0.968333
851.683792	0.968867
851.997887	0.970005
852.311938	0.969962
852.625947	0.969061
852.939914	0.968521
853.253837	0.969383
853.567718	0.970766
853.881555	0.969913
854.195350	0.967208
854.509103	0.970152
854.822812	0.969477
855.136479	0.969674
855.450103	0.968302
855.763685	0.968590
856.077224	0.968004
856.390720	0.970994
856.704173	0.970588
857.017584	0.968627
857.330953	0.967455
857.644278	0.967912
857.957561	0.967596
858.270802	0.968194
858.584000	0.966656
858.897155	0.966902
859.210268	0.967397
859.523339	0.967568
859.836367	0.970367
860.149352	0.971259
860.462295	0.969344
860.775195	0.969288
861.088054	0.968832
861.400869	0.969431
861.713642	0.970440
862.026373	0.970617
862.339062	0.970336
862.651708	0.968382
862.964312	0.966927
863.276873	0.969395
863.589392	0.967745
863.901869	0.967617
864.214303	0.965460
864.526696	0.963253
864.839045	0.964458
865.151353	0.961920
865.463619	0.963099
865.775842	0.961752
866.088023	0.961974
866.400162	0.961317
866.712258	0.961339
867.024313	0.963200
867.336325	0.963596
867.648296	0.963450
867.960224	0.962439
868.272110	0.961798
868.583954	0.963075
868.895755	0.962924
869.207515	0.961796
869.519233	0.959540
869.830909	0.960453
870.142542	0.961726
870.454134	0.961455
870.765684	0.960232
871.077191	0.957270
871.388657	0.959382
871.700081	0.958982
872.011463	0.958563
872.322803	0.958089
872.634101	0.956787
872.945357	0.953536
873.256571	0.953215
873.567744	0.953034
873.878874	0.953289
874.189963	0.952431
874.501010	0.951028
874.812015	0.949593
875.122979	0.950800
875.433900	0.953639
875.744780	0.953482
876.055618	0.951191
876.366415	0.950621
876.677169	0.949538
876.987882	0.950462
877.298554	0.950796
877.609183	0.947277
877.919771	0.945214
878.230317	0.942191
878.540822	0.941176
878.851285	0.935491
879.161707	0.927311
879.472087	0.915151
879.782425	0.899320
880.092722	0.864776
880.402977	0.813501
880.713191	0.752348
881.023363	0.693260
881.333494	0.659499
881.643583	0.631379
881.953631	0.631282
882.263637	0.660725
882.573602	0.699186
882.883526	0.725229
883.193408	0.748472
883.503248	0.771023
883.813048	0.797968
884.122806	0.827535
884.432522	0.850150
884.742197	0.870217
885.051831	0.881373
885.361424	0.891496
885.670975	0.903677
885.980485	0.913587
886.289954	0.919000
886.599382	0.924208
886.908768	0.928095
887.218113	0.934995
887.527417	0.939445
887.836680	0.942184
888.145901	0.944146
888.455082	0.946101
888.764221	0.949948
889.073319	0.951801
889.382376	0.953363
889.691392	0.952474
890.000366	0.952960
890.309300	0.953659
890.618193	0.951968
890.927044	0.950767
891.235855	0.950630
891.544625	0.951644
891.853353	0.951087
892.162041	0.948859
892.470687	0.943302
892.779293	0.937837
893.087858	0.934163
893.396381	0.926927
893.704864	0.912818
894.013306	0.889628
894.321707	0.863155
894.630068	0.848795
894.938387	0.843207
895.246665	0.844885
895.554903	0.857422
895.863100	0.870466
896.171256	0.887789
896.479371	0.904168
896.787446	0.919170
897.095480	0.924831
897.403473	0.928355
897.711425	0.932626
898.019336	0.940488
898.327207	0.943302
898.635038	0.946259
898.942827	0.945478
899.250576	0.948475
899.558284	0.951457
899.865952	0.954496
900.173579	0.954486
900.481165	0.955158
900.788711	0.958740
901.096216	0.961073
901.403681	0.961955
901.711105	0.962471
902.018489	0.962416
902.325832	0.961861
902.633135	0.961627
902.940397	0.955494
903.247619	0.944778
903.554800	0.918896
903.861941	0.879160
904.169041	0.844467
904.476101	0.826661
904.783121	0.827586
905.090100	0.843427
905.397039	0.865071
905.703938	0.887390
906.010796	0.906561
906.317614	0.923388
906.624391	0.935073
906.931129	0.943229
907.237826	0.951653
907.544483	0.958841
907.851099	0.964216
908.157675	0.967476
908.464211	0.970184
908.770707	0.972239
909.077163	0.975142
909.383578	0.974234
909.689954	0.974632
909.996289	0.975663
910.302584	0.977403
910.608839	0.980469
910.915054	0.978181
911.221229	0.977990
911.527363	0.977080
911.833458	0.977095
912.139513	0.976709
912.445527	0.975007
912.751502	0.974656
913.057436	0.971302
913.363331	0.970261
913.669186	0.966163
913.975000	0.960572
914.280775	0.955657
914.586510	0.948183
914.892205	0.935025
915.197859	0.915051
915.503475	0.887030
915.809050	0.867497
916.114585	0.861657
916.420081	0.860064
916.725536	0.856024
917.030952	0.864006
917.336328	0.877030
917.641665	0.892636
917.946961	0.906887
918.252218	0.919506
918.557435	0.928103
918.862612	0.937022
919.167750	0.941962
919.472848	0.947053
919.777906	0.951834
920.082925	0.958061
920.387904	0.962032
920.692843	0.962981
920.997743	0.963898
921.302603	0.967070
921.607423	0.969910
921.912204	0.971832
922.216946	0.971486
922.521647	0.973257
922.826310	0.974204
923.130932	0.976200
923.435516	0.978713
923.740059	0.980973
924.044564	0.978597
924.349028	0.980492
924.653454	0.982322
924.957840	0.984158
925.262186	0.983034
925.566493	0.983421
925.870761	0.984561
926.174989	0.986121
926.479178	0.988646
926.783328	0.987947
927.087438	0.987911
927.391509	0.988571
927.695541	0.989911
927.999533	0.989554
928.303486	0.989808
928.607400	0.990854
928.911275	0.989378
929.215110	0.989869
929.518906	0.991529
929.822663	0.988993
930.126381	0.991446
930.430060	0.990034
930.733699	0.990128
931.037299	0.989041
931.340861	0.991343
931.644383	0.989624
931.947866	0.989321
932.251309	0.990133
932.554714	0.989851
932.858080	0.989289
933.161407	0.990610
933.464694	0.991909
933.767943	0.990233
934.071153	0.991171
934.374323	0.991898
934.677455	0.990629
934.980548	0.991738
935.283602	0.990081
935.586617	0.990044
935.889593	0.990320
936.192530	0.990230
936.495428	0.990767
936.798287	0.990408
937.101108	0.990421
937.403890	0.989173
937.706632	0.989759
938.009336	0.986944
938.312002	0.985693
938.614628	0.984141
938.917216	0.982836
939.219765	0.980903
939.522275	0.982265
939.824747	0.983419
940.127179	0.983388
940.429573	0.984011
940.731929	0.984475
941.034246	0.984370
941.336524	0.985455
941.638763	0.986040
941.940964	0.986690
942.243126	0.986085
942.545250	0.987513
942.847335	0.988114
943.149381	0.987619
943.451389	0.988336
943.753359	0.988775
944.055290	0.990369
944.357182	0.990616
944.659036	0.987561
944.960851	0.989977
945.262628	0.990996
945.564367	0.990652
945.866067	0.990460
946.167729	0.989769
946.469352	0.989525
946.770937	0.988837
947.072484	0.990743
947.373992	0.989311
947.675462	0.990986
947.976893	0.989307
948.278286	0.990429
948.579641	0.992149
948.880958	0.990466
949.182236	0.991334
949.483476	0.991911
949.784678	0.990526
950.085841	0.991155
950.386967	0.991289
950.688054	0.990653
950.989103	0.991881
951.290114	0.988528
951.591087	0.989662
951.892021	0.989571
952.192917	0.988657
952.493776	0.988147
952.794596	0.987435
953.095378	0.987777
953.396122	0.988350
953.696828	0.986826
953.997496	0.989368
954.298126	0.991085
954.598718	0.991407
954.899272	0.991931
955.199788	0.990901
955.500266	0.992357
955.800706	0.992653
956.101108	0.992973
956.401472	0.994547
956.701798	0.994439
957.002087	0.993662
957.302337	0.993705
957.602550	0.995646
957.902724	0.995812
958.202861	0.996507
958.502960	0.995324
958.803022	0.993655
959.103045	0.996837
959.403031	0.995158
959.702979	0.995757
960.002889	0.995139
960.302762	0.994114
960.602596	0.995634
960.902393	0.994121
961.202153	0.996528
961.501875	0.995908
961.801559	0.995884
962.101205	0.996117
962.400814	0.995716
962.700385	0.995834
962.999918	0.995927
963.299414	0.995931
963.598873	0.996437
963.898293	0.994231
964.197677	0.995713
964.497022	0.995776
964.796331	0.997093
965.095601	0.996220
965.394835	0.996795
965.694030	0.995987
965.993189	0.996769
966.292309	0.996357
966.591393	0.997812
966.890439	0.997095
967.189447	0.996727
967.488419	0.997116
967.787353	0.995807
968.086249	0.996658
968.385108	0.997058
968.683930	0.996906
968.982714	0.998148
969.281462	0.997776
969.580172	0.996124
969.878844	0.996879
970.177480	0.997021
970.476078	0.997186
970.774639	0.996176
971.073162	0.997068
971.371649	0.996281
971.670098	0.996993
971.968510	0.997176
972.266885	0.994846
972.565223	0.996311
972.863524	0.995874
973.161788	0.996065
973.460014	0.997268
973.758204	0.995988
974.056356	0.995828
974.354471	0.995138
974.652550	0.996197
974.950591	0.995378
975.248595	0.996718
975.546563	0.996380
975.844493	0.997841
976.142386	0.995533
976.440243	0.998299
976.738062	0.996525
977.035845	0.997546
977.333590	0.996673
977.631299	0.997378
977.928971	0.997244
978.226606	0.997445
978.524204	0.996137
978.821765	0.997669
979.119290	0.996772
979.416777	0.995735
979.714228	0.997286
980.011642	0.996133
980.309020	0.997002
980.606360	0.996914
980.903664	0.996784
981.200931	0.995570
981.498162	0.995904
981.795356	0.994428
982.092513	0.994314
982.389633	0.994174
982.686717	0.992254
982.983764	0.991383
983.280775	0.989971
983.577749	0.990116
983.874686	0.991253
984.171587	0.991988
984.468451	0.994616
984.765279	0.995313
985.062070	0.993938
985.358824	0.994380
985.655543	0.994216
985.952224	0.995636
986.248869	0.996684
986.545478	0.996872
986.842050	0.998080
987.138586	0.995736
987.435086	0.997657
987.731549	0.998679
988.027975	0.998152
988.324366	0.997110
988.620719	0.997146
988.917037	0.996357
989.213318	0.998406
989.509563	0.998692
989.805772	0.998413
990.101944	0.999454
990.398080	0.997650
990.694180	0.997388
990.990244	0.997283
991.286271	0.998090
991.582262	0.998088
991.878217	0.997875
992.174136	0.999203
992.470019	0.997333
992.765865	0.997243
993.061676	0.997930
993.357450	0.997346
993.653188	0.997135
993.948890	0.997286
994.244556	0.997005
994.540186	0.996422
994.835780	0.997810
995.131337	0.997910
995.426859	0.996588
995.722345	0.997557
996.017795	0.995939
996.313208	0.995927
996.608586	0.995942
996.903928	0.997308
997.199234	0.996150
997.494504	0.996505
997.789738	0.995960
998.084936	0.995970
998.380099	0.997524
998.675225	0.996770
998.970316	0.996546
999.265371	0.998006
999.560390	0.997166
999.855373	0.998533
1000.150320	0.997778
1000.445232	0.997612
1000.740108	0.997503
1001.034948	0.998103
1001.329752	0.999696
1001.624521	0.998173
1001.919254	0.998016
1002.213951	0.998213
1002.508613	0.997643
1002.803239	0.999052
1003.097829	0.998258
1003.392384	0.998820
1003.686903	0.999558
1003.981386	0.999217
1004.275834	0.999955
1004.570246	0.997953
1004.864623	0.998243
1005.158964	0.999268
1005.453270	0.997953
1005.747540	0.998041
1006.041775	0.999121
1006.335974	0.999569
1006.630138	0.999655
1006.924266	0.999575
1007.218359	0.999941
1007.512416	0.999743
1007.806438	0.998597
1008.100425	0.998279
1008.394376	0.998551
1008.688292	0.998790
1008.982172	0.999695
1009.276017	0.999750
1009.569827	0.998796
1009.863602	0.998371
1010.157341	0.999310
1010.451045	0.998687
1010.744714	0.999092
1011.038347	0.999225
1011.331945	0.998325
1011.625508	0.997327
1011.919036	0.999034
1012.212528	0.999589
1012.505986	0.997468
1012.799408	0.998368
1013.092795	0.999047
1013.386147	0.997964
1013.679464	0.999379
1013.972745	0.997609
1014.265992	0.998243
1014.559204	0.998895
1014.852380	0.998482
1015.145521	0.998968
1015.438628	0.999213
1015.731699	0.998986
1016.024736	0.999071
1016.317737	0.999079
1016.610703	0.997894
1016.903635	0.997682
1017.196531	1.000222
1017.489393	0.999348
1017.782219	0.998643
1018.075011	0.998626
1018.367768	1.000110
1018.660490	0.998985
1018.953177	0.998985
1019.245829	0.998985
