Dividing Wavelength (nm)	Counts (n)	Blue Motor Position (mm): 0.000000	Red Motor Position (mm): 32.500000	
326.493990	1.000427
326.888308	1.000427
327.282561	1.000427
327.676750	0.999313
328.070874	0.998227
328.464933	0.999841
328.858929	0.999171
329.252859	0.999875
329.646726	0.999051
330.040528	1.001171
330.434265	0.999385
330.827938	1.000354
331.221547	1.000402
331.615091	1.000048
332.008571	0.999631
332.401986	1.000118
332.795338	1.000179
333.188625	0.998002
333.581847	1.000278
333.975006	0.999555
334.368100	0.998579
334.761129	1.000237
335.154095	1.000860
335.546996	0.998994
335.939833	0.994663
336.332606	0.994991
336.725315	0.995752
337.117960	0.997054
337.510540	0.995533
337.903056	0.997062
338.295508	0.994497
338.687896	0.995992
339.080220	0.996792
339.472480	0.994786
339.864676	0.996050
340.256807	0.996709
340.648875	0.996960
341.040879	0.997661
341.432818	0.995751
341.824694	0.995620
342.216506	0.997714
342.608253	0.994875
342.999937	0.995473
343.391557	0.996315
343.783113	0.996500
344.174605	0.996343
344.566033	0.996617
344.957397	0.995304
345.348697	0.996311
345.739934	0.995303
346.131106	0.996662
346.522215	0.993678
346.913260	0.996209
347.304241	0.995889
347.695159	0.995663
348.086012	0.994277
348.476802	0.995878
348.867528	0.996031
349.258191	0.994441
349.648789	0.996941
350.039324	0.995714
350.429796	0.997440
350.820203	0.997327
351.210548	0.996005
351.600828	0.995003
351.991045	0.996024
352.381198	0.994269
352.771288	0.995279
353.161314	0.995200
353.551276	0.997629
353.941175	0.994748
354.331010	0.995867
354.720782	0.996860
355.110490	0.995886
355.500135	0.996891
355.889717	0.995973
356.279235	0.995102
356.668689	0.995378
357.058080	0.995046
357.447408	0.996025
357.836672	0.995378
358.225873	0.996511
358.615010	0.997405
359.004084	0.997651
359.393095	0.996272
359.782043	0.996871
360.170927	0.996356
360.559748	0.996853
360.948505	0.995940
361.337199	0.995110
361.725830	0.995656
362.114398	0.996005
362.502903	0.996333
362.891344	0.996757
363.279722	0.995257
363.668037	0.996455
364.056289	0.996621
364.444478	0.996494
364.832603	0.995997
365.220665	0.995706
365.608665	0.995395
365.996601	0.994504
366.384474	0.996065
366.772284	0.995897
367.160031	0.995412
367.547715	0.994706
367.935336	0.996106
368.322893	0.995184
368.710388	0.994799
369.097820	0.996560
369.485189	0.994656
369.872495	0.994944
370.259738	0.994615
370.646918	0.997212
371.034035	0.995955
371.421090	0.996937
371.808081	0.996354
372.195010	0.996341
372.581875	0.996915
372.968678	0.996126
373.355418	0.996019
373.742096	0.995232
374.128710	0.997041
374.515262	0.996328
374.901751	0.996267
375.288177	0.996094
375.674540	0.996935
376.060841	0.996364
376.447079	0.997080
376.833254	0.997188
377.219367	0.996907
377.605417	0.996050
377.991404	0.996534
378.377329	0.996413
378.763191	0.996151
379.148991	0.996999
379.534727	0.997120
379.920402	0.997372
380.306013	0.997572
380.691563	0.997676
381.077049	0.997435
381.462474	0.997536
381.847835	0.998168
382.233134	0.996779
382.618371	0.997316
383.003545	0.998258
383.388657	0.997201
383.773706	0.999225
384.158693	0.997172
384.543618	0.997090
384.928480	0.998091
385.313280	0.997761
385.698017	0.999014
386.082692	0.998301
386.467305	0.997048
386.851856	0.997635
387.236344	0.998087
387.620770	0.997016
388.005133	0.998440
388.389435	0.997778
388.773674	0.996718
389.157851	0.998830
389.541965	0.997982
389.926018	0.997017
390.310008	0.999299
390.693936	0.997907
391.077802	0.997922
391.461606	0.998508
391.845348	0.997165
392.229027	0.998816
392.612645	0.998030
392.996200	0.999945
393.379694	0.997879
393.763125	0.999867
394.146494	0.998850
394.529801	0.997897
394.913047	0.998585
395.296230	0.999162
395.679351	0.998555
396.062410	0.998322
396.445408	0.997795
396.828343	0.997659
397.211217	0.998757
397.594028	0.998043
397.976778	0.998810
398.359466	0.998418
398.742092	0.997859
399.124656	0.998365
399.507158	0.999202
399.889598	0.998461
400.271977	0.999349
400.654294	0.998590
401.036549	0.999437
401.418742	0.998682
401.800874	0.999070
402.182944	0.999325
402.564952	0.997594
402.946898	0.998716
403.328783	0.998805
403.710606	0.998802
404.092367	0.999578
404.474067	0.998924
404.855705	0.997954
405.237282	0.999130
405.618797	0.998654
406.000250	0.997332
406.381642	0.998863
406.762972	0.999234
407.144240	0.999516
407.525447	0.999328
407.906593	0.998003
408.287677	0.998749
408.668700	0.999907
409.049661	0.998111
409.430560	0.999246
409.811399	0.998419
410.192176	0.999009
410.572891	0.999628
410.953545	0.999139
411.334138	0.997702
411.714669	0.999112
412.095139	0.998353
412.475547	0.999749
412.855894	0.998709
413.236180	0.999225
413.616405	0.999764
413.996568	0.999900
414.376670	0.999171
414.756711	0.998859
415.136691	0.998690
415.516609	0.998811
415.896466	0.998061
416.276262	0.997985
416.655997	0.999052
417.035670	0.998060
417.415283	0.999372
417.794834	0.999114
418.174324	0.998697
418.553753	0.999637
418.933121	0.999007
419.312428	0.998803
419.691674	0.998427
420.070859	0.999611
420.449983	0.999389
420.829045	0.998979
421.208047	0.999751
421.586988	1.000285
421.965867	0.998343
422.344686	0.999493
422.723444	0.998617
423.102141	1.000008
423.480777	0.999498
423.859352	0.998637
424.237866	0.999040
424.616319	0.999358
424.994712	0.999119
425.373044	0.999217
425.751314	0.999022
426.129524	0.998571
426.507673	0.999476
426.885762	0.999469
427.263789	0.999160
427.641756	0.999274
428.019662	0.999582
428.397508	0.999044
428.775292	0.998404
429.153016	0.998858
429.530679	0.999508
429.908282	0.999718
430.285824	0.998750
430.663305	0.999598
431.040726	0.999038
431.418086	0.999668
431.795385	0.999651
432.172624	0.998480
432.549802	0.999883
432.926920	0.998936
433.303977	0.998450
433.680974	1.000008
434.057910	0.998952
434.434786	0.999565
434.811601	0.998934
435.188355	0.998934
435.565050	0.998278
435.941683	0.999322
436.318257	0.998964
436.694770	0.998052
437.071222	0.999830
437.447614	0.998758
437.823946	0.998938
438.200218	0.998926
438.576429	1.000100
438.952580	0.999731
439.328670	0.998837
439.704700	0.999285
440.080670	0.999193
440.456580	0.998698
440.832429	0.998267
441.208218	0.999326
441.583947	0.999301
441.959616	0.999159
442.335224	0.998986
442.710773	0.999957
443.086261	0.998911
443.461689	0.998497
443.837057	0.999057
444.212365	0.999525
444.587612	0.999324
444.962800	0.999021
445.337927	0.999111
445.712995	0.998413
446.088002	0.999460
446.462949	0.999763
446.837837	1.000233
447.212664	0.999287
447.587431	0.999153
447.962139	0.999683
448.336786	0.999305
448.711374	0.999600
449.085901	0.998965
449.460369	0.999562
449.834776	0.999551
450.209124	0.999874
450.583412	0.999425
450.957640	0.999137
451.331808	0.998635
451.705917	0.999446
452.079965	0.998680
452.453954	0.998500
452.827883	0.999315
453.201752	0.998879
453.575562	1.000078
453.949311	0.999983
454.323001	0.999205
454.696632	0.999523
455.070202	0.999348
455.443713	0.999464
455.817164	0.999505
456.190556	0.999803
456.563888	0.998699
456.937160	0.999932
457.310373	0.999555
457.683526	0.998834
458.056619	0.999296
458.429653	0.999242
458.802628	0.998879
459.175542	0.998757
459.548398	0.999523
459.921194	0.998950
460.293930	0.999319
460.666607	0.999088
461.039224	0.998079
461.411782	0.998998
461.784280	0.999035
462.156719	0.999905
462.529099	0.999429
462.901419	0.999789
463.273680	0.998664
463.645882	0.998368
464.018024	0.999502
464.390106	0.999108
464.762130	0.999547
465.134094	1.000060
465.505999	0.999600
465.877845	0.999399
466.249631	1.000079
466.621358	0.999417
466.993026	0.999933
467.364634	0.999792
467.736184	0.999390
468.107674	0.999717
468.479105	0.999176
468.850477	0.999439
469.221790	0.999539
469.593043	1.000034
469.964238	0.999221
470.335373	0.999398
470.706449	0.999377
471.077467	0.999566
471.448425	0.999571
471.819324	0.999836
472.190164	0.998930
472.560945	0.999088
472.931667	0.998699
473.302330	0.999000
473.672934	0.999229
474.043479	0.998916
474.413965	0.998814
474.784393	0.999179
475.154761	0.999007
475.525070	0.997581
475.895321	0.998728
476.265513	0.998923
476.635645	0.998173
477.005719	0.998545
477.375734	0.997433
477.745691	0.997951
478.115588	0.997825
478.485427	0.998505
478.855207	0.997842
479.224928	0.997273
479.594591	0.997421
479.964194	0.997328
480.333739	0.997401
480.703226	0.997178
481.072653	0.997510
481.442022	0.996300
481.811333	0.995326
482.180584	0.996277
482.549777	0.995182
482.918912	0.995007
483.287988	0.994788
483.657005	0.994409
484.025964	0.994227
484.394864	0.993539
484.763706	0.993052
485.132489	0.992482
485.501213	0.992053
485.869879	0.992177
486.238487	0.990878
486.607036	0.990528
486.975527	0.988919
487.343959	0.988784
487.712333	0.987270
488.080648	0.986417
488.448905	0.985592
488.817104	0.985026
489.185244	0.984075
489.553326	0.983107
489.921350	0.980656
490.289315	0.978346
490.657222	0.977906
491.025070	0.976142
491.392861	0.974950
491.760593	0.974329
492.128267	0.973399
492.495883	0.972485
492.863440	0.972022
493.230939	0.970273
493.598380	0.968281
493.965763	0.966331
494.333088	0.965612
494.700354	0.962703
495.067563	0.960816
495.434713	0.959322
495.801805	0.957830
496.168839	0.955608
496.535815	0.951860
496.902733	0.950998
497.269593	0.947916
497.636395	0.946647
498.003139	0.943165
498.369825	0.941510
498.736453	0.937121
499.103023	0.934845
499.469535	0.932426
499.835989	0.929957
500.202385	0.927670
500.568723	0.923923
500.935003	0.921152
501.301226	0.915806
501.667390	0.913065
502.033497	0.909329
502.399546	0.906944
502.765537	0.902564
503.131470	0.899210
503.497345	0.894439
503.863163	0.893128
504.228923	0.887847
504.594625	0.883937
504.960269	0.881200
505.325856	0.875129
505.691385	0.871675
506.056856	0.866639
506.422270	0.861520
506.787625	0.858807
507.152924	0.853397
507.518164	0.849443
507.883347	0.844121
508.248472	0.839760
508.613540	0.834256
508.978550	0.829389
509.343503	0.824195
509.708398	0.819131
510.073236	0.813220
510.438016	0.808295
510.802738	0.803329
511.167403	0.797674
511.532010	0.791516
511.896561	0.786601
512.261053	0.780934
512.625488	0.774596
512.989866	0.768906
513.354186	0.763486
513.718449	0.757874
514.082655	0.751784
514.446803	0.746644
514.810894	0.740220
515.174927	0.734146
515.538904	0.729519
515.902822	0.721827
516.266684	0.717130
516.630488	0.711046
516.994235	0.705488
517.357925	0.697988
517.721558	0.691972
518.085133	0.684556
518.448651	0.680542
518.812112	0.674422
519.175516	0.667159
519.538863	0.660756
519.902152	0.655702
520.265385	0.647061
520.628560	0.642590
520.991678	0.635529
521.354739	0.629764
521.717743	0.624821
522.080690	0.618989
522.443580	0.610331
522.806413	0.605049
523.169189	0.598352
523.531908	0.591671
523.894569	0.588311
524.257174	0.581709
524.619722	0.574550
524.982213	0.569919
525.344647	0.562542
525.707025	0.558055
526.069345	0.550577
526.431608	0.545224
526.793815	0.538481
527.155964	0.535173
527.518057	0.529278
527.880093	0.523909
528.242072	0.517894
528.603995	0.512643
528.965860	0.508781
529.327669	0.502322
529.689421	0.497689
530.051117	0.492692
530.412755	0.485208
530.774337	0.482470
531.135862	0.476497
531.497331	0.472106
531.858743	0.467998
532.220098	0.461383
532.581396	0.458390
532.942638	0.453738
533.303824	0.449514
533.664953	0.443779
534.026025	0.440310
534.387040	0.433995
534.747999	0.429717
535.108902	0.424033
535.469748	0.423250
535.830537	0.417224
536.191270	0.413088
536.551947	0.408331
536.912567	0.403879
537.273131	0.401783
537.633638	0.397456
537.994089	0.393748
538.354483	0.390750
538.714821	0.384757
539.075103	0.380507
539.435328	0.377057
539.795497	0.376910
540.155609	0.369682
540.515665	0.364967
540.875665	0.366245
541.235609	0.361048
541.595496	0.358273
541.955328	0.350828
542.315102	0.350695
542.674821	0.348447
543.034483	0.345173
543.394090	0.341747
543.753640	0.340355
544.113134	0.332642
544.472571	0.332660
544.831953	0.326993
545.191278	0.328325
545.550548	0.325233
545.909761	0.319227
546.268918	0.317531
546.628019	0.313237
546.987064	0.313144
547.346053	0.312863
547.704986	0.308217
548.063863	0.306111
548.422684	0.304455
548.781449	0.303847
549.140158	0.299309
549.498811	0.299975
549.857408	0.301353
550.215949	0.293982
550.574434	0.295072
550.932864	0.291718
551.291237	0.288635
551.649555	0.287977
552.007817	0.286178
552.366022	0.285557
552.724173	0.284122
553.082267	0.282732
553.440305	0.278169
553.798288	0.281460
554.156215	0.276364
554.514086	0.275569
554.871902	0.277476
555.229661	0.275542
555.587365	0.274820
555.945014	0.276348
556.302606	0.271625
556.660143	0.273292
557.017625	0.268551
557.375050	0.269950
557.732421	0.265898
558.089735	0.267038
558.446994	0.266184
558.804197	0.264252
559.161345	0.263321
559.518437	0.266394
559.875474	0.263026
560.232455	0.261729
560.589381	0.262045
560.946251	0.261516
561.303065	0.258377
561.659825	0.259200
562.016528	0.259932
562.373177	0.262266
562.729770	0.259133
563.086307	0.260628
563.442789	0.258158
563.799216	0.260380
564.155587	0.258689
564.511904	0.259329
564.868164	0.259109
565.224370	0.258716
565.580520	0.259721
565.936615	0.259123
566.292654	0.261960
566.648638	0.258621
567.004567	0.259122
567.360441	0.259467
567.716260	0.261237
568.072023	0.258669
568.427732	0.258992
568.783385	0.261550
569.138982	0.259242
569.494525	0.258593
569.850013	0.261523
570.205445	0.259650
570.560823	0.262029
570.916145	0.263646
571.271412	0.261879
571.626625	0.263205
571.981782	0.263473
572.336884	0.264070
572.691931	0.263889
573.046923	0.264901
573.401860	0.266129
573.756743	0.267577
574.111570	0.266504
574.466342	0.266629
574.821059	0.265755
575.175722	0.268322
575.530330	0.267826
575.884882	0.267939
576.239380	0.270011
576.593823	0.270326
576.948211	0.269738
577.302544	0.272714
577.656823	0.272329
578.011047	0.272235
578.365216	0.272984
578.719330	0.275045
579.073389	0.274574
579.427394	0.275848
579.781344	0.276826
580.135239	0.278326
580.489080	0.277553
580.842866	0.280491
581.196597	0.280304
581.550273	0.278846
581.903895	0.280108
582.257463	0.277821
582.610975	0.281455
582.964434	0.280833
583.317837	0.283175
583.671186	0.283685
584.024481	0.283425
584.377721	0.285574
584.730906	0.286644
585.084037	0.285725
585.437113	0.287744
585.790135	0.287021
586.143103	0.289910
586.496016	0.290716
586.848874	0.288381
587.201679	0.288537
587.554428	0.292272
587.907124	0.290805
588.259765	0.291388
588.612352	0.291883
588.964884	0.295984
589.317362	0.295452
589.669786	0.295367
590.022155	0.293783
590.374470	0.293169
590.726731	0.294789
591.078937	0.300185
591.431090	0.296103
591.783188	0.300315
592.135232	0.300612
592.487222	0.301020
592.839157	0.298888
593.191038	0.301235
593.542866	0.303180
593.894639	0.306629
594.246358	0.304175
594.598022	0.304127
594.949633	0.307751
595.301190	0.308132
595.652692	0.307644
596.004141	0.303740
596.355535	0.311927
596.706876	0.312009
597.058162	0.314954
597.409395	0.311916
597.760573	0.309259
598.111698	0.312769
598.462768	0.313082
598.813785	0.314570
599.164748	0.315920
599.515657	0.315675
599.866511	0.319790
600.217312	0.314485
600.568060	0.319985
600.918753	0.316358
601.269392	0.317184
601.619978	0.320352
601.970510	0.318328
602.320988	0.318216
602.671412	0.315606
603.021783	0.318482
603.372100	0.320048
603.722363	0.319692
604.072572	0.320419
604.422728	0.319826
604.772830	0.322168
605.122878	0.321398
605.472872	0.322188
605.822813	0.320690
606.172701	0.323155
606.522534	0.320414
606.872314	0.320765
607.222041	0.321536
607.571714	0.319788
607.921333	0.321055
608.270899	0.320527
608.620411	0.317373
608.969870	0.321275
609.319276	0.321584
609.668627	0.321397
610.017926	0.320128
610.367171	0.318396
610.716362	0.319090
611.065500	0.319165
611.414585	0.318393
611.763616	0.318464
612.112594	0.319261
612.461518	0.318737
612.810389	0.316301
613.159207	0.318895
613.507971	0.320746
613.856682	0.315858
614.205340	0.317785
614.553945	0.314448
614.902496	0.318535
615.250994	0.316475
615.599439	0.317026
615.947830	0.316654
616.296169	0.317637
616.644454	0.317424
616.992686	0.317170
617.340864	0.315131
617.688990	0.318704
618.037063	0.315204
618.385082	0.317252
618.733048	0.313795
619.080961	0.316317
619.428821	0.315345
619.776628	0.315229
620.124382	0.317172
620.472083	0.317246
620.819731	0.316719
621.167326	0.320393
621.514868	0.320489
621.862357	0.324936
622.209793	0.324365
622.557176	0.326364
622.904506	0.327416
623.251783	0.330049
623.599007	0.332418
623.946179	0.332264
624.293297	0.333699
624.640363	0.337388
624.987376	0.337854
625.334336	0.340475
625.681243	0.342817
626.028097	0.343233
626.374899	0.344544
626.721647	0.344405
627.068343	0.348211
627.414987	0.348544
627.761577	0.351518
628.108115	0.349370
628.454600	0.354551
628.801032	0.351795
629.147412	0.353975
629.493739	0.354018
629.840014	0.357567
630.186236	0.355027
630.532405	0.360502
630.878521	0.358187
631.224585	0.359807
631.570597	0.363939
631.916556	0.362203
632.262462	0.362210
632.608316	0.364242
632.954117	0.365384
633.299866	0.366261
633.645562	0.366107
633.991206	0.370476
634.336797	0.373996
634.682336	0.375931
635.027823	0.377382
635.373257	0.377773
635.718639	0.381359
636.063968	0.380896
636.409245	0.386873
636.754470	0.387139
637.099642	0.389159
637.444762	0.392769
637.789829	0.391557
638.134845	0.395551
638.479808	0.395846
638.824719	0.396037
639.169577	0.400088
639.514383	0.398808
639.859137	0.402981
640.203839	0.402745
640.548489	0.403349
640.893086	0.405356
641.237632	0.406489
641.582125	0.404921
641.926566	0.406802
642.270955	0.406316
642.615292	0.406974
642.959576	0.405938
643.303809	0.406434
643.647990	0.406206
643.992118	0.406584
644.336195	0.410199
644.680219	0.408489
645.024192	0.409264
645.368112	0.402848
645.711981	0.402112
646.055797	0.397367
646.399562	0.399759
646.743274	0.391830
647.086935	0.389493
647.430544	0.389020
647.774101	0.388440
648.117606	0.387965
648.461059	0.388741
648.804460	0.390786
649.147810	0.395796
649.491108	0.397617
649.834354	0.398733
650.177548	0.404533
650.520690	0.409803
650.863781	0.411302
651.206820	0.410238
651.549807	0.414999
651.892742	0.419362
652.235626	0.418093
652.578458	0.419237
652.921238	0.425300
653.263967	0.423216
653.606644	0.427479
653.949269	0.427191
654.291843	0.430985
654.634365	0.427966
654.976836	0.430972
655.319255	0.430577
655.661622	0.432899
656.003938	0.432890
656.346203	0.435926
656.688416	0.433403
657.030577	0.436801
657.372687	0.438449
657.714746	0.439666
658.056753	0.436513
658.398708	0.439581
658.740612	0.441824
659.082465	0.437790
659.424266	0.438352
659.766016	0.437491
660.107715	0.440319
660.449362	0.439416
660.790958	0.440196
661.132503	0.440098
661.473996	0.438119
661.815438	0.439132
662.156829	0.439336
662.498168	0.439602
662.839456	0.441410
663.180693	0.439098
663.521879	0.439092
663.863013	0.440189
664.204097	0.438330
664.545129	0.434912
664.886110	0.435728
665.227040	0.432776
665.567918	0.435996
665.908746	0.433569
666.249522	0.432921
666.590248	0.434040
666.930922	0.432598
667.271545	0.431856
667.612118	0.430956
667.952639	0.432819
668.293109	0.431559
668.633528	0.435022
668.973896	0.434157
669.314213	0.435000
669.654480	0.436569
669.994695	0.436703
670.334859	0.437914
670.674973	0.437874
671.015035	0.438160
671.355047	0.437858
671.695008	0.438652
672.034918	0.440720
672.374777	0.440222
672.714585	0.441268
673.054342	0.441429
673.394049	0.441599
673.733705	0.439393
674.073310	0.440586
674.412864	0.443564
674.752368	0.443955
675.091820	0.443931
675.431223	0.448843
675.770574	0.447944
676.109875	0.451446
676.449125	0.450860
676.788324	0.453337
677.127473	0.459718
677.466571	0.458502
677.805619	0.460001
678.144616	0.461124
678.483562	0.462986
678.822458	0.465394
679.161303	0.466773
679.500098	0.467215
679.838842	0.468797
680.177535	0.468192
680.516179	0.466415
680.854771	0.465886
681.193314	0.459623
681.531805	0.450716
681.870247	0.439401
682.208638	0.431831
682.546978	0.430812
682.885268	0.432051
683.223508	0.438686
683.561697	0.442712
683.899836	0.445163
684.237925	0.448370
684.575963	0.451040
684.913951	0.454464
685.251889	0.449671
685.589776	0.451447
685.927614	0.454076
686.265401	0.448406
686.603137	0.449673
686.940824	0.444159
687.278460	0.442208
687.616046	0.440672
687.953582	0.436680
688.291068	0.437605
688.628504	0.433586
688.965889	0.435388
689.303224	0.439768
689.640510	0.443694
689.977745	0.449713
690.314930	0.457207
690.652065	0.461637
690.989150	0.469484
691.326185	0.476657
691.663170	0.480634
692.000105	0.487653
692.336990	0.494662
692.673825	0.496831
693.010610	0.503790
693.347345	0.509696
693.684030	0.510912
694.020665	0.515854
694.357251	0.524263
694.693786	0.524155
695.030272	0.528242
695.366707	0.531415
695.703093	0.535317
696.039429	0.533138
696.375716	0.534262
696.711952	0.536961
697.048139	0.539187
697.384276	0.541182
697.720363	0.539528
698.056400	0.538126
698.392388	0.544072
698.728326	0.546935
699.064214	0.549258
699.400053	0.550707
699.735842	0.554102
700.071581	0.556972
700.407270	0.560183
700.742910	0.562450
701.078501	0.569010
701.414042	0.568024
701.749533	0.571429
702.084974	0.581170
702.420366	0.573132
702.755709	0.581067
703.091002	0.588707
703.426246	0.581673
703.761440	0.587449
704.096584	0.592599
704.431679	0.589559
704.766725	0.591932
705.101721	0.593391
705.436668	0.589788
705.771565	0.596622
706.106413	0.593052
706.441212	0.588516
706.775961	0.586491
707.110661	0.590450
707.445311	0.586562
707.779913	0.583830
708.114465	0.582175
708.448967	0.578675
708.783421	0.570960
709.117825	0.565632
709.452180	0.565948
709.786485	0.559568
710.120742	0.548806
710.454949	0.551537
710.789107	0.543390
711.123216	0.535000
711.457275	0.536571
711.791286	0.527068
712.125247	0.525892
712.459159	0.536955
712.793023	0.529638
713.126837	0.533892
713.460602	0.534222
713.794318	0.543588
714.127985	0.542382
714.461602	0.552071
714.795171	0.555668
715.128691	0.563566
715.462162	0.570314
715.795584	0.576005
716.128957	0.579613
716.462281	0.585629
716.795556	0.589389
717.128782	0.594083
717.461960	0.603510
717.795088	0.601773
718.128167	0.607633
718.461198	0.616507
718.794180	0.617504
719.127113	0.620057
719.459997	0.623501
719.792833	0.629713
720.125619	0.631484
720.458357	0.637045
720.791046	0.636955
721.123686	0.640415
721.456278	0.646959
721.788821	0.644276
722.121315	0.648599
722.453761	0.652477
722.786158	0.651041
723.118506	0.647743
723.450805	0.654899
723.783056	0.651656
724.115259	0.648498
724.447412	0.647726
724.779518	0.649916
725.111574	0.648476
725.443582	0.644006
725.775542	0.645948
726.107453	0.638299
726.439315	0.637907
726.771129	0.636634
727.102895	0.629268
727.434612	0.622564
727.766281	0.620921
728.097901	0.620082
728.429473	0.620101
728.760996	0.617896
729.092471	0.617792
729.423897	0.622165
729.755276	0.620927
730.086606	0.621360
730.417887	0.616255
730.749120	0.606859
731.080305	0.597448
731.411442	0.593467
731.742530	0.598634
732.073570	0.597746
732.404562	0.590257
732.735506	0.591452
733.066401	0.596556
733.397249	0.605650
733.728048	0.616926
734.058798	0.629424
734.389501	0.639508
734.720156	0.649114
735.050762	0.657366
735.381320	0.658370
735.711831	0.667107
736.042293	0.672576
736.372707	0.667665
736.703073	0.672142
737.033391	0.674766
737.363661	0.672219
737.693883	0.666427
738.024056	0.666383
738.354182	0.666434
738.684260	0.655209
739.014290	0.651778
739.344272	0.652385
739.674207	0.646508
740.004093	0.645808
740.333931	0.645694
740.663722	0.646126
740.993464	0.646632
741.323159	0.650450
741.652806	0.655004
741.982405	0.660214
742.311956	0.664506
742.641460	0.666515
742.970915	0.670533
743.300323	0.677816
743.629683	0.684705
743.958996	0.686502
744.288260	0.690622
744.617477	0.696765
744.946647	0.698358
745.275768	0.703236
745.604842	0.703296
745.933869	0.713116
746.262847	0.713451
746.591778	0.707881
746.920662	0.713263
747.249498	0.719746
747.578286	0.710671
747.907027	0.707227
748.235720	0.708685
748.564365	0.702555
748.892963	0.702731
749.221514	0.706409
749.550017	0.711128
749.878473	0.710556
750.206881	0.717377
750.535242	0.718164
750.863555	0.717435
751.191821	0.719679
751.520039	0.722229
751.848210	0.727315
752.176334	0.720129
752.504411	0.719188
752.832440	0.727445
753.160421	0.732082
753.488356	0.728723
753.816243	0.726247
754.144082	0.734629
754.471875	0.738607
754.799620	0.733976
755.127318	0.734798
755.454969	0.734953
755.782572	0.734414
756.110129	0.739181
756.437638	0.742386
756.765100	0.738149
757.092515	0.736517
757.419882	0.734474
757.747203	0.740969
758.074477	0.740064
758.401703	0.737819
758.728882	0.731334
759.056014	0.731719
759.383099	0.730657
759.710138	0.731031
760.037129	0.728581
760.364073	0.721993
760.690970	0.724038
761.017820	0.729903
761.344623	0.725441
761.671379	0.716832
761.998088	0.704817
762.324751	0.683068
762.651366	0.641384
762.977935	0.574937
763.304456	0.523443
763.630931	0.514350
763.957359	0.552987
764.283740	0.597189
764.610074	0.623980
764.936362	0.654385
765.262602	0.681288
765.588796	0.702379
765.914943	0.720154
766.241044	0.737681
766.567097	0.744258
766.893104	0.754247
767.219064	0.760204
767.544978	0.766434
767.870845	0.779545
768.196665	0.785064
768.522438	0.781502
768.848165	0.783498
769.173846	0.792416
769.499479	0.795858
769.825066	0.799112
770.150607	0.804671
770.476101	0.799773
770.801548	0.801072
771.126949	0.811857
771.452303	0.815949
771.777611	0.815322
772.102872	0.814895
772.428087	0.819927
772.753256	0.823062
773.078378	0.825681
773.403453	0.833846
773.728482	0.837701
774.053465	0.831287
774.378401	0.835307
774.703291	0.844544
775.028135	0.843311
775.352932	0.844146
775.677683	0.846851
776.002388	0.848286
776.327046	0.847681
776.651658	0.850674
776.976224	0.854252
777.300743	0.853788
777.625216	0.857700
777.949643	0.858197
778.274024	0.859194
778.598359	0.860483
778.922647	0.858685
779.246889	0.859494
779.571086	0.862608
779.895236	0.866032
780.219339	0.861362
780.543397	0.859760
780.867409	0.857954
781.191374	0.860497
781.515294	0.862099
781.839167	0.861074
782.162995	0.864988
782.486776	0.861728
782.810511	0.861375
783.134201	0.865921
783.457844	0.863648
783.781441	0.866059
784.104993	0.871315
784.428498	0.871952
784.751958	0.867916
785.075372	0.870561
785.398739	0.872911
785.722061	0.871021
786.045337	0.865353
786.368568	0.870678
786.691752	0.873737
787.014891	0.859088
787.337983	0.849943
787.661030	0.843420
787.984031	0.825841
788.306987	0.812349
788.629897	0.815739
788.952760	0.819578
789.275579	0.823432
789.598351	0.838330
789.921078	0.852030
790.243759	0.853547
790.566395	0.858539
790.888984	0.865133
791.211529	0.869872
791.534027	0.873987
791.856480	0.875258
792.178888	0.880489
792.501249	0.883544
792.823566	0.884554
793.145836	0.885215
793.468062	0.886357
793.790241	0.887217
794.112375	0.884853
794.434464	0.880586
794.756507	0.878887
795.078505	0.879228
795.400457	0.873319
795.722364	0.862053
796.044226	0.854093
796.366042	0.854860
796.687812	0.857701
797.009538	0.853658
797.331218	0.855732
797.652852	0.861410
797.974442	0.866203
798.295986	0.865906
798.617484	0.868720
798.938938	0.873243
799.260346	0.877924
799.581709	0.879676
799.903026	0.881528
800.224299	0.881623
800.545526	0.885982
800.866708	0.889889
801.187845	0.893969
801.508936	0.893580
801.829983	0.891511
802.150984	0.894102
802.471940	0.899242
802.792851	0.898681
803.113717	0.900068
803.434538	0.897692
803.755314	0.899980
804.076045	0.901524
804.396731	0.901456
804.717372	0.901751
805.037967	0.903378
805.358518	0.901086
805.679024	0.897635
805.999485	0.899028
806.319901	0.897732
806.640272	0.900357
806.960598	0.898433
807.280879	0.895019
807.601115	0.893386
807.921306	0.897688
808.241453	0.898337
808.561554	0.895204
808.881611	0.895717
809.201623	0.897830
809.521590	0.897401
809.841513	0.898936
810.161390	0.897936
810.481223	0.899777
810.801011	0.903297
811.120755	0.904639
811.440453	0.903572
811.760107	0.902102
812.079716	0.902011
812.399281	0.904820
812.718801	0.907827
813.038276	0.908841
813.357707	0.907106
813.677093	0.905154
813.996434	0.908905
814.315731	0.909009
814.634983	0.911241
814.954191	0.909982
815.273354	0.907686
815.592473	0.902312
815.911547	0.903037
816.230577	0.899972
816.549562	0.897463
816.868502	0.898560
817.187399	0.895043
817.506250	0.890132
817.825058	0.892963
818.143821	0.888563
818.462539	0.883667
818.781213	0.876544
819.099843	0.863992
819.418429	0.849634
819.736970	0.832188
820.055466	0.812859
820.373919	0.787811
820.692327	0.755866
821.010691	0.721732
821.329011	0.645189
821.647286	0.532735
821.965517	0.420227
822.283704	0.378089
822.601847	0.379866
822.919945	0.415381
823.237999	0.447824
823.556010	0.493736
823.873976	0.549171
824.191897	0.599022
824.509775	0.640861
824.827609	0.685418
825.145398	0.707575
825.463144	0.709936
825.780845	0.692860
826.098502	0.674189
826.416116	0.629610
826.733685	0.586359
827.051210	0.578258
827.368692	0.592334
827.686129	0.629776
828.003522	0.681476
828.320872	0.728599
828.638177	0.770940
828.955439	0.804049
829.272656	0.824449
829.589830	0.840920
829.906960	0.858223
830.224046	0.869727
830.541088	0.879853
830.858086	0.882935
831.175041	0.890049
831.491952	0.888730
831.808819	0.886182
832.125642	0.879243
832.442421	0.864630
832.759157	0.843284
833.075849	0.798511
833.392497	0.735134
833.709101	0.695180
834.025662	0.704265
834.342179	0.736188
834.658653	0.774163
834.975083	0.810479
835.291469	0.835012
835.607811	0.858412
835.924110	0.872724
836.240366	0.889898
836.556578	0.903713
836.872746	0.909990
837.188871	0.915993
837.504952	0.922149
837.820990	0.926195
838.136984	0.929711
838.452935	0.931761
838.768842	0.933065
839.084706	0.927182
839.400526	0.901245
839.716303	0.862264
840.032037	0.840656
840.347727	0.844691
840.663373	0.861288
840.978977	0.881804
841.294537	0.904518
841.610054	0.920667
841.925527	0.927738
842.240957	0.933722
842.556344	0.941474
842.871687	0.946897
843.186987	0.951126
843.502244	0.952212
843.817458	0.953382
844.132629	0.957262
844.447756	0.961559
844.762840	0.960743
845.077881	0.960160
845.392879	0.960975
845.707833	0.964336
846.022745	0.965612
846.337613	0.966381
846.652438	0.967380
846.967221	0.964920
847.281960	0.965911
847.596656	0.967158
847.911309	0.966757
848.225919	0.968743
848.540485	0.969295
848.855009	0.969929
849.169490	0.969357
849.483928	0.969384
849.798323	0.971397
850.112675	0.971052
850.426984	0.970651
850.741251	0.970317
851.055474	0.970852
851.369654	0.969634
851.683792	0.969864
851.997887	0.971124
852.311938	0.971589
852.625947	0.970021
852.939914	0.968482
853.253837	0.969473
853.567718	0.971945
853.881555	0.971541
854.195350	0.969858
854.509103	0.970245
854.822812	0.971762
855.136479	0.970896
855.450103	0.970734
855.763685	0.968969
856.077224	0.969245
856.390720	0.971498
856.704173	0.971033
857.017584	0.969824
857.330953	0.968409
857.644278	0.968846
857.957561	0.969758
858.270802	0.969561
858.584000	0.968964
858.897155	0.968091
859.210268	0.967898
859.523339	0.968801
859.836367	0.970925
860.149352	0.972076
860.462295	0.969468
860.775195	0.970727
861.088054	0.970341
861.400869	0.970575
861.713642	0.970344
862.026373	0.970487
862.339062	0.972263
862.651708	0.968239
862.964312	0.969100
863.276873	0.968736
863.589392	0.969352
863.901869	0.967416
864.214303	0.966876
864.526696	0.965502
864.839045	0.964737
865.151353	0.962539
865.463619	0.963612
865.775842	0.964470
866.088023	0.961645
866.400162	0.963108
866.712258	0.963381
867.024313	0.963930
867.336325	0.964359
867.648296	0.965319
867.960224	0.962999
868.272110	0.963924
868.583954	0.964567
868.895755	0.965606
869.207515	0.961353
869.519233	0.960230
869.830909	0.962302
870.142542	0.963578
870.454134	0.962623
870.765684	0.961133
871.077191	0.958311
871.388657	0.961094
871.700081	0.959192
872.011463	0.960360
872.322803	0.960003
872.634101	0.957314
872.945357	0.956558
873.256571	0.953943
873.567744	0.955136
873.878874	0.955316
874.189963	0.952830
874.501010	0.953056
874.812015	0.951798
875.122979	0.952498
875.433900	0.955567
875.744780	0.955684
876.055618	0.953154
876.366415	0.952022
876.677169	0.951648
876.987882	0.953241
877.298554	0.953156
877.609183	0.948884
877.919771	0.946750
878.230317	0.944443
878.540822	0.942636
878.851285	0.938002
879.161707	0.930266
879.472087	0.918732
879.782425	0.902048
880.092722	0.869925
880.402977	0.819864
880.713191	0.760616
881.023363	0.703040
881.333494	0.671224
881.643583	0.642872
881.953631	0.642706
882.263637	0.671426
882.573602	0.709925
882.883526	0.734918
883.193408	0.757507
883.503248	0.777939
883.813048	0.805872
884.122806	0.833948
884.432522	0.856539
884.742197	0.876684
885.051831	0.885430
885.361424	0.895761
885.670975	0.906173
885.980485	0.916642
886.289954	0.922446
886.599382	0.928116
886.908768	0.931521
887.218113	0.936392
887.527417	0.941301
887.836680	0.943556
888.145901	0.945180
888.455082	0.948188
888.764221	0.952075
889.073319	0.954740
889.382376	0.954726
889.691392	0.955064
890.000366	0.955109
890.309300	0.955890
890.618193	0.955517
890.927044	0.953392
891.235855	0.951894
891.544625	0.953424
891.853353	0.953953
892.162041	0.951670
892.470687	0.944636
892.779293	0.940431
893.087858	0.936024
893.396381	0.929100
893.704864	0.916399
894.013306	0.893614
894.321707	0.868192
894.630068	0.854746
894.938387	0.849813
895.246665	0.850168
895.554903	0.863157
895.863100	0.875179
896.171256	0.891851
896.479371	0.910258
896.787446	0.923539
897.095480	0.928821
897.403473	0.931817
897.711425	0.936451
898.019336	0.942344
898.327207	0.944809
898.635038	0.946718
898.942827	0.946891
899.250576	0.951189
899.558284	0.953284
899.865952	0.956505
900.173579	0.956953
900.481165	0.958030
900.788711	0.962059
901.096216	0.963876
901.403681	0.962491
901.711105	0.965439
902.018489	0.964968
902.325832	0.964519
902.633135	0.963625
902.940397	0.957490
903.247619	0.946232
903.554800	0.921817
903.861941	0.883501
904.169041	0.850964
904.476101	0.834415
904.783121	0.835564
905.090100	0.850984
905.397039	0.871184
905.703938	0.891541
906.010796	0.910356
906.317614	0.926788
906.624391	0.937507
906.931129	0.946380
907.237826	0.954742
907.544483	0.961485
907.851099	0.964681
908.157675	0.968856
908.464211	0.971877
908.770707	0.974015
909.077163	0.975467
909.383578	0.975047
909.689954	0.975650
909.996289	0.976648
910.302584	0.979449
910.608839	0.980780
910.915054	0.979477
911.221229	0.979578
911.527363	0.978491
911.833458	0.978795
912.139513	0.977847
912.445527	0.977314
912.751502	0.976029
913.057436	0.973568
913.363331	0.972239
913.669186	0.968611
913.975000	0.963322
914.280775	0.958293
914.586510	0.951383
914.892205	0.939168
915.197859	0.918654
915.503475	0.891492
915.809050	0.874758
916.114585	0.869156
916.420081	0.867755
916.725536	0.863152
917.030952	0.871552
917.336328	0.883137
917.641665	0.897783
917.946961	0.913097
918.252218	0.923363
918.557435	0.931005
918.862612	0.940492
919.167750	0.945962
919.472848	0.949259
919.777906	0.956199
920.082925	0.961347
920.387904	0.964558
920.692843	0.964816
920.997743	0.965145
921.302603	0.969543
921.607423	0.970639
921.912204	0.974616
922.216946	0.972800
922.521647	0.975362
922.826310	0.975876
923.130932	0.978265
923.435516	0.979954
923.740059	0.981302
924.044564	0.978796
924.349028	0.982013
924.653454	0.983780
924.957840	0.985379
925.262186	0.985242
925.566493	0.984438
925.870761	0.985067
926.174989	0.987136
926.479178	0.988221
926.783328	0.989543
927.087438	0.988813
927.391509	0.988839
927.695541	0.989853
927.999533	0.989400
928.303486	0.990429
928.607400	0.991478
928.911275	0.990698
929.215110	0.991262
929.518906	0.990941
929.822663	0.990705
930.126381	0.992966
930.430060	0.990642
930.733699	0.989499
931.037299	0.989578
931.340861	0.990641
931.644383	0.990705
931.947866	0.990488
932.251309	0.991921
932.554714	0.990517
932.858080	0.990610
933.161407	0.989706
933.464694	0.992452
933.767943	0.990085
934.071153	0.991324
934.374323	0.993071
934.677455	0.991604
934.980548	0.992812
935.283602	0.991103
935.586617	0.992316
935.889593	0.990769
936.192530	0.991381
936.495428	0.990627
936.798287	0.991489
937.101108	0.990984
937.403890	0.989569
937.706632	0.990228
938.009336	0.988295
938.312002	0.986911
938.614628	0.984552
938.917216	0.984674
939.219765	0.981964
939.522275	0.983486
939.824747	0.983605
940.127179	0.983776
940.429573	0.984831
940.731929	0.985285
941.034246	0.984407
941.336524	0.986767
941.638763	0.987850
941.940964	0.987861
942.243126	0.987165
942.545250	0.988470
942.847335	0.989415
943.149381	0.988148
943.451389	0.988387
943.753359	0.988910
944.055290	0.991696
944.357182	0.990139
944.659036	0.989253
944.960851	0.989186
945.262628	0.990958
945.564367	0.991064
945.866067	0.990273
946.167729	0.990113
946.469352	0.990968
946.770937	0.989178
947.072484	0.991865
947.373992	0.990056
947.675462	0.990172
947.976893	0.991150
948.278286	0.990794
948.579641	0.991790
948.880958	0.991768
949.182236	0.991553
949.483476	0.991532
949.784678	0.990927
950.085841	0.992730
950.386967	0.990746
950.688054	0.991290
950.989103	0.991553
951.290114	0.990463
951.591087	0.990209
951.892021	0.990380
952.192917	0.989521
952.493776	0.989343
952.794596	0.988170
953.095378	0.988258
953.396122	0.989186
953.696828	0.988149
953.997496	0.989824
954.298126	0.991471
954.598718	0.990353
954.899272	0.990601
955.199788	0.991341
955.500266	0.992753
955.800706	0.993380
956.101108	0.994275
956.401472	0.994942
956.701798	0.993800
957.002087	0.992982
957.302337	0.993784
957.602550	0.995745
957.902724	0.994704
958.202861	0.993936
958.502960	0.995538
958.803022	0.994380
959.103045	0.995787
959.403031	0.995697
959.702979	0.994556
960.002889	0.995930
960.302762	0.994153
960.602596	0.995716
960.902393	0.994447
961.202153	0.996071
961.501875	0.996713
961.801559	0.995283
962.101205	0.996348
962.400814	0.996600
962.700385	0.996201
962.999918	0.996810
963.299414	0.997751
963.598873	0.995157
963.898293	0.996194
964.197677	0.997484
964.497022	0.996440
964.796331	0.997126
965.095601	0.997087
965.394835	0.996475
965.694030	0.996083
965.993189	0.997295
966.292309	0.996979
966.591393	0.996735
966.890439	0.997575
967.189447	0.996550
967.488419	0.997317
967.787353	0.995691
968.086249	0.996052
968.385108	0.996337
968.683930	0.997154
968.982714	0.996977
969.281462	0.996667
969.580172	0.995786
969.878844	0.998529
970.177480	0.997007
970.476078	0.996849
970.774639	0.997229
971.073162	0.997250
971.371649	0.996917
971.670098	0.996644
971.968510	0.996859
972.266885	0.995486
972.565223	0.996418
972.863524	0.995343
973.161788	0.996956
973.460014	0.997523
973.758204	0.994663
974.056356	0.995795
974.354471	0.993956
974.652550	0.996225
974.950591	0.995580
975.248595	0.996143
975.546563	0.998085
975.844493	0.996759
976.142386	0.996871
976.440243	0.996465
976.738062	0.996519
977.035845	0.996622
977.333590	0.996680
977.631299	0.998138
977.928971	0.995525
978.226606	0.996338
978.524204	0.995884
978.821765	0.998880
979.119290	0.995897
979.416777	0.996746
979.714228	0.996870
980.011642	0.996224
980.309020	0.997099
980.606360	0.996017
980.903664	0.998184
981.200931	0.995652
981.498162	0.994669
981.795356	0.995679
982.092513	0.994388
982.389633	0.994439
982.686717	0.991843
982.983764	0.992173
983.280775	0.991402
983.577749	0.990392
983.874686	0.992115
984.171587	0.993079
984.468451	0.994519
984.765279	0.994978
985.062070	0.993468
985.358824	0.995726
985.655543	0.995019
985.952224	0.996472
986.248869	0.996409
986.545478	0.997878
986.842050	0.998377
987.138586	0.995040
987.435086	0.997926
987.731549	0.999130
988.027975	0.998128
988.324366	0.997629
988.620719	0.997276
988.917037	0.994917
989.213318	0.997958
989.509563	0.998545
989.805772	0.997444
990.101944	0.998760
990.398080	0.995869
990.694180	0.998004
990.990244	0.997433
991.286271	0.998514
991.582262	0.997587
991.878217	0.997458
992.174136	0.999158
992.470019	0.998495
992.765865	0.998139
993.061676	0.997085
993.357450	0.997680
993.653188	0.996684
993.948890	0.997729
994.244556	0.996292
994.540186	0.997548
994.835780	0.996111
995.131337	0.997574
995.426859	0.996454
995.722345	0.996773
996.017795	0.994886
996.313208	0.996544
996.608586	0.995513
996.903928	0.997253
997.199234	0.995990
997.494504	0.996559
997.789738	0.996715
998.084936	0.994965
998.380099	0.998095
998.675225	0.996725
998.970316	0.997382
999.265371	0.999182
999.560390	0.998044
999.855373	0.999250
1000.150320	0.998242
1000.445232	0.997764
1000.740108	0.998061
1001.034948	0.997651
1001.329752	0.997681
1001.624521	0.998352
1001.919254	0.998183
1002.213951	0.998958
1002.508613	0.997918
1002.803239	0.999416
1003.097829	0.999072
1003.392384	0.999269
1003.686903	0.997505
1003.981386	0.998473
1004.275834	0.997950
1004.570246	0.998097
1004.864623	0.999613
1005.158964	0.999178
1005.453270	0.997972
1005.747540	0.997043
1006.041775	0.998801
1006.335974	0.999358
1006.630138	0.999431
1006.924266	0.999889
1007.218359	1.000030
1007.512416	0.998582
1007.806438	0.998436
1008.100425	0.999606
1008.394376	0.997749
1008.688292	0.998722
1008.982172	1.000791
1009.276017	0.998283
1009.569827	0.997546
1009.863602	0.997911
1010.157341	0.998860
1010.451045	0.999119
1010.744714	0.997445
1011.038347	0.999287
1011.331945	0.998244
1011.625508	0.997699
1011.919036	0.998754
1012.212528	0.998791
1012.505986	0.997836
1012.799408	0.998709
1013.092795	0.998785
1013.386147	0.998728
1013.679464	0.998197
1013.972745	0.998549
1014.265992	0.996717
1014.559204	0.999218
1014.852380	0.999468
1015.145521	0.999659
1015.438628	0.999512
1015.731699	0.998503
1016.024736	1.000685
1016.317737	0.998775
1016.610703	0.999527
1016.903635	1.000256
1017.196531	0.997265
1017.489393	0.999123
1017.782219	0.998401
1018.075011	0.999375
1018.367768	0.998254
1018.660490	0.999200
1018.953177	0.999200
1019.245829	0.999200
