Dividing Wavelength (nm)	Counts (n)	Blue Motor Position (mm): 0.000000	Red Motor Position (mm): 5.700000	
326.493990	1.001455
326.888308	1.001455
327.282561	1.001455
327.676750	0.999722
328.070874	0.998981
328.464933	1.000464
328.858929	0.999289
329.252859	0.999605
329.646726	1.000114
330.040528	0.999407
330.434265	0.999703
330.827938	0.999683
331.221547	1.000794
331.615091	0.998825
332.008571	1.000138
332.401986	0.999314
332.795338	1.000163
333.188625	0.998567
333.581847	1.000174
333.975006	0.999269
334.368100	0.998512
334.761129	0.999471
335.154095	1.000372
335.546996	0.997171
335.939833	0.991716
336.332606	0.993214
336.725315	0.994166
337.117960	0.994139
337.510540	0.994177
337.903056	0.993980
338.295508	0.991074
338.687896	0.993121
339.080220	0.994017
339.472480	0.993501
339.864676	0.993875
340.256807	0.994011
340.648875	0.994087
341.040879	0.993820
341.432818	0.993632
341.824694	0.992926
342.216506	0.992837
342.608253	0.993452
342.999937	0.993338
343.391557	0.993926
343.783113	0.993348
344.174605	0.993353
344.566033	0.993348
344.957397	0.991256
345.348697	0.993963
345.739934	0.992376
346.131106	0.993176
346.522215	0.991752
346.913260	0.993166
347.304241	0.992898
347.695159	0.992747
348.086012	0.991375
348.476802	0.993321
348.867528	0.993159
349.258191	0.992381
349.648789	0.993421
350.039324	0.993617
350.429796	0.994389
350.820203	0.993241
351.210548	0.993266
351.600828	0.993129
351.991045	0.992503
352.381198	0.992107
352.771288	0.992358
353.161314	0.993240
353.551276	0.992874
353.941175	0.992013
354.331010	0.991622
354.720782	0.992312
355.110490	0.992810
355.500135	0.994286
355.889717	0.991985
356.279235	0.990669
356.668689	0.991511
357.058080	0.991656
357.447408	0.993823
357.836672	0.992297
358.225873	0.992389
358.615010	0.992280
359.004084	0.994053
359.393095	0.992948
359.782043	0.991767
360.170927	0.993199
360.559748	0.992795
360.948505	0.991896
361.337199	0.991628
361.725830	0.992195
362.114398	0.991780
362.502903	0.992041
362.891344	0.992117
363.279722	0.992076
363.668037	0.992944
364.056289	0.992322
364.444478	0.992879
364.832603	0.991759
365.220665	0.991590
365.608665	0.991674
365.996601	0.991494
366.384474	0.991774
366.772284	0.991896
367.160031	0.990516
367.547715	0.991272
367.935336	0.990810
368.322893	0.991618
368.710388	0.990269
369.097820	0.991324
369.485189	0.989157
369.872495	0.989938
370.259738	0.987564
370.646918	0.989368
371.034035	0.989426
371.421090	0.986886
371.808081	0.985814
372.195010	0.984158
372.581875	0.982299
372.968678	0.980888
373.355418	0.977711
373.742096	0.974872
374.128710	0.972490
374.515262	0.967880
374.901751	0.965872
375.288177	0.961136
375.674540	0.957626
376.060841	0.952177
376.447079	0.947445
376.833254	0.942005
377.219367	0.937554
377.605417	0.927895
377.991404	0.924427
378.377329	0.918314
378.763191	0.912431
379.148991	0.905157
379.534727	0.896683
379.920402	0.888132
380.306013	0.884328
380.691563	0.870419
381.077049	0.862621
381.462474	0.857217
381.847835	0.846242
382.233134	0.838496
382.618371	0.835984
383.003545	0.819379
383.388657	0.814484
383.773706	0.806284
384.158693	0.800391
384.543618	0.791882
384.928480	0.781580
385.313280	0.770474
385.698017	0.767772
386.082692	0.754843
386.467305	0.751705
386.851856	0.742421
387.236344	0.736481
387.620770	0.727562
388.005133	0.721808
388.389435	0.715097
388.773674	0.711155
389.157851	0.700827
389.541965	0.697273
389.926018	0.702318
390.310008	0.689260
390.693936	0.683666
391.077802	0.676167
391.461606	0.677517
391.845348	0.666205
392.229027	0.666945
392.612645	0.662703
392.996200	0.650062
393.379694	0.642671
393.763125	0.632598
394.146494	0.636708
394.529801	0.626568
394.913047	0.620010
395.296230	0.624840
395.679351	0.616171
396.062410	0.612712
396.445408	0.616149
396.828343	0.610678
397.211217	0.605392
397.594028	0.617828
397.976778	0.607550
398.359466	0.604381
398.742092	0.599409
399.124656	0.611224
399.507158	0.599997
399.889598	0.596920
400.271977	0.588857
400.654294	0.593424
401.036549	0.591811
401.418742	0.596124
401.800874	0.581022
402.182944	0.579037
402.564952	0.569529
402.946898	0.572421
403.328783	0.571824
403.710606	0.584351
404.092367	0.558808
404.474067	0.563892
404.855705	0.561663
405.237282	0.572064
405.618797	0.557674
406.000250	0.553651
406.381642	0.544361
406.762972	0.548749
407.144240	0.547115
407.525447	0.548156
407.906593	0.540484
408.287677	0.535650
408.668700	0.544023
409.049661	0.537495
409.430560	0.532860
409.811399	0.541520
410.192176	0.523253
410.572891	0.530026
410.953545	0.518851
411.334138	0.531529
411.714669	0.524689
412.095139	0.536195
412.475547	0.520590
412.855894	0.523004
413.236180	0.522347
413.616405	0.527557
413.996568	0.518333
414.376670	0.524316
414.756711	0.528691
415.136691	0.526151
415.516609	0.517599
415.896466	0.513240
416.276262	0.508869
416.655997	0.510704
417.035670	0.491952
417.415283	0.484413
417.794834	0.489057
418.174324	0.494391
418.553753	0.504346
418.933121	0.485759
419.312428	0.479837
419.691674	0.485264
420.070859	0.474868
420.449983	0.481876
420.829045	0.472136
421.208047	0.480337
421.586988	0.474065
421.965867	0.472329
422.344686	0.461223
422.723444	0.474398
423.102141	0.490362
423.480777	0.463886
423.859352	0.484209
424.237866	0.461130
424.616319	0.461767
424.994712	0.453574
425.373044	0.463181
425.751314	0.451432
426.129524	0.467791
426.507673	0.451932
426.885762	0.445500
427.263789	0.450671
427.641756	0.460443
428.019662	0.450443
428.397508	0.449501
428.775292	0.453539
429.153016	0.446401
429.530679	0.452174
429.908282	0.445725
430.285824	0.455651
430.663305	0.434459
431.040726	0.455153
431.418086	0.455587
431.795385	0.447106
432.172624	0.444938
432.549802	0.446028
432.926920	0.444872
433.303977	0.444586
433.680974	0.441528
434.057910	0.440189
434.434786	0.439430
434.811601	0.441884
435.188355	0.423891
435.565050	0.433811
435.941683	0.435207
436.318257	0.419803
436.694770	0.419858
437.071222	0.418575
437.447614	0.422684
437.823946	0.429285
438.200218	0.419256
438.576429	0.428714
438.952580	0.421388
439.328670	0.418138
439.704700	0.424783
440.080670	0.425767
440.456580	0.407282
440.832429	0.414638
441.208218	0.425717
441.583947	0.415037
441.959616	0.414992
442.335224	0.419882
442.710773	0.410863
443.086261	0.408203
443.461689	0.422548
443.837057	0.412023
444.212365	0.402769
444.587612	0.409016
444.962800	0.399137
445.337927	0.400986
445.712995	0.426539
446.088002	0.389038
446.462949	0.399692
446.837837	0.404241
447.212664	0.393116
447.587431	0.384904
447.962139	0.355208
448.336786	0.314781
448.711374	0.324839
449.085901	0.368690
449.460369	0.373063
449.834776	0.376559
450.209124	0.355818
450.583412	0.348583
450.957640	0.341831
451.331808	0.352864
451.705917	0.376709
452.079965	0.380557
452.453954	0.369399
452.827883	0.375550
453.201752	0.370718
453.575562	0.382239
453.949311	0.370282
454.323001	0.376904
454.696632	0.372892
455.070202	0.365122
455.443713	0.357244
455.817164	0.351649
456.190556	0.347752
456.563888	0.344551
456.937160	0.342344
457.310373	0.359466
457.683526	0.358282
458.056619	0.363782
458.429653	0.364775
458.802628	0.367679
459.175542	0.362176
459.548398	0.344486
459.921194	0.337316
460.293930	0.336985
460.666607	0.314788
461.039224	0.303136
461.411782	0.298819
461.784280	0.297861
462.156719	0.302075
462.529099	0.306716
462.901419	0.322656
463.273680	0.327065
463.645882	0.326356
464.018024	0.332408
464.390106	0.325276
464.762130	0.309623
465.134094	0.293141
465.505999	0.262122
465.877845	0.232629
466.249631	0.219746
466.621358	0.227288
466.993026	0.241020
467.364634	0.247092
467.736184	0.256026
468.107674	0.264390
468.479105	0.263561
468.850477	0.270275
469.221790	0.277283
469.593043	0.287377
469.964238	0.292478
470.335373	0.291437
470.706449	0.290038
471.077467	0.290771
471.448425	0.252428
471.819324	0.228142
472.190164	0.227720
472.560945	0.256239
472.931667	0.278529
473.302330	0.282701
473.672934	0.294438
474.043479	0.282842
474.413965	0.284616
474.784393	0.287918
475.154761	0.282985
475.525070	0.279927
475.895321	0.285923
476.265513	0.279622
476.635645	0.275305
477.005719	0.275055
477.375734	0.271983
477.745691	0.265038
478.115588	0.261683
478.485427	0.255091
478.855207	0.242116
479.224928	0.224532
479.594591	0.212901
479.964194	0.216249
480.333739	0.217475
480.703226	0.219062
481.072653	0.217551
481.442022	0.212907
481.811333	0.209449
482.180584	0.212987
482.549777	0.218280
482.918912	0.221758
483.287988	0.221434
483.657005	0.221033
484.025964	0.227666
484.394864	0.224995
484.763706	0.225676
485.132489	0.230573
485.501213	0.231108
485.869879	0.229452
486.238487	0.232827
486.607036	0.230534
486.975527	0.235235
487.343959	0.230801
487.712333	0.230116
488.080648	0.231759
488.448905	0.230774
488.817104	0.232186
489.185244	0.226766
489.553326	0.223453
489.921350	0.213221
490.289315	0.195842
490.657222	0.190969
491.025070	0.192078
491.392861	0.194040
491.760593	0.200033
492.128267	0.205595
492.495883	0.210884
492.863440	0.217289
493.230939	0.223838
493.598380	0.225014
493.965763	0.227043
494.333088	0.229445
494.700354	0.230893
495.067563	0.229976
495.434713	0.233058
495.801805	0.230937
496.168839	0.232505
496.535815	0.234023
496.902733	0.233738
497.269593	0.235549
497.636395	0.233359
498.003139	0.233596
498.369825	0.236337
498.736453	0.232722
499.103023	0.234060
499.469535	0.233808
499.835989	0.233900
500.202385	0.234906
500.568723	0.238320
500.935003	0.233770
501.301226	0.237724
501.667390	0.232050
502.033497	0.230015
502.399546	0.232973
502.765537	0.234886
503.131470	0.233528
503.497345	0.229504
503.863163	0.238539
504.228923	0.231491
504.594625	0.230085
504.960269	0.235549
505.325856	0.230570
505.691385	0.235161
506.056856	0.231794
506.422270	0.231175
506.787625	0.233613
507.152924	0.231173
507.518164	0.231413
507.883347	0.233320
508.248472	0.234868
508.613540	0.230088
508.978550	0.232670
509.343503	0.232954
509.708398	0.230655
510.073236	0.228344
510.438016	0.228156
510.802738	0.228929
511.167403	0.228119
511.532010	0.230078
511.896561	0.225489
512.261053	0.224498
512.625488	0.226583
512.989866	0.226719
513.354186	0.227028
513.718449	0.228910
514.082655	0.225096
514.446803	0.227453
514.810894	0.225206
515.174927	0.227640
515.538904	0.227295
515.902822	0.224056
516.266684	0.226509
516.630488	0.227358
516.994235	0.226249
517.357925	0.224835
517.721558	0.223623
518.085133	0.222860
518.448651	0.222923
518.812112	0.225328
519.175516	0.224838
519.538863	0.222409
519.902152	0.224181
520.265385	0.221208
520.628560	0.223060
520.991678	0.223214
521.354739	0.222297
521.717743	0.223388
522.080690	0.223901
522.443580	0.221086
522.806413	0.222043
523.169189	0.221180
523.531908	0.220207
523.894569	0.223879
524.257174	0.223744
524.619722	0.221638
524.982213	0.222598
525.344647	0.221516
525.707025	0.222529
526.069345	0.220570
526.431608	0.222340
526.793815	0.220021
527.155964	0.224109
527.518057	0.223253
527.880093	0.224347
528.242072	0.222793
528.603995	0.224536
528.965860	0.226403
529.327669	0.225080
529.689421	0.226389
530.051117	0.226991
530.412755	0.224971
530.774337	0.227026
531.135862	0.227374
531.497331	0.226707
531.858743	0.229545
532.220098	0.226276
532.581396	0.228804
532.942638	0.229237
533.303824	0.230310
533.664953	0.230043
534.026025	0.231554
534.387040	0.229543
534.747999	0.229497
535.108902	0.228411
535.469748	0.233489
535.830537	0.231432
536.191270	0.231925
536.551947	0.231234
536.912567	0.231308
537.273131	0.233232
537.633638	0.233298
537.994089	0.233755
538.354483	0.234666
538.714821	0.231658
539.075103	0.231353
539.435328	0.232365
539.795497	0.235951
540.155609	0.232309
540.515665	0.230770
540.875665	0.236510
541.235609	0.234642
541.595496	0.235042
541.955328	0.231354
542.315102	0.234185
542.674821	0.235226
543.034483	0.235118
543.394090	0.234599
543.753640	0.237005
544.113134	0.231902
544.472571	0.235066
544.831953	0.231923
545.191278	0.235914
545.550548	0.235614
545.909761	0.232316
546.268918	0.233191
546.628019	0.231508
546.987064	0.234159
547.346053	0.235930
547.704986	0.233730
548.063863	0.234150
548.422684	0.234046
548.781449	0.236078
549.140158	0.233575
549.498811	0.236468
549.857408	0.239729
550.215949	0.234649
550.574434	0.237391
550.932864	0.235540
551.291237	0.234160
551.649555	0.235241
552.007817	0.235492
552.366022	0.236273
552.724173	0.236298
553.082267	0.236450
553.440305	0.233394
553.798288	0.237915
554.156215	0.234377
554.514086	0.235216
554.871902	0.238347
555.229661	0.237519
555.587365	0.238118
555.945014	0.240520
556.302606	0.237651
556.660143	0.240195
557.017625	0.236380
557.375050	0.238730
557.732421	0.235735
558.089735	0.238022
558.446994	0.237761
558.804197	0.237211
559.161345	0.237338
559.518437	0.240651
559.875474	0.238520
560.232455	0.237448
560.589381	0.238889
560.946251	0.238986
561.303065	0.236675
561.659825	0.237969
562.016528	0.239396
562.373177	0.242177
562.729770	0.239679
563.086307	0.241610
563.442789	0.239287
563.799216	0.242244
564.155587	0.241041
564.511904	0.242079
564.868164	0.242265
565.224370	0.242229
565.580520	0.243803
565.936615	0.243738
566.292654	0.246660
566.648638	0.243747
567.004567	0.244482
567.360441	0.245238
567.716260	0.247380
568.072023	0.244933
568.427732	0.245646
568.783385	0.248121
569.138982	0.246272
569.494525	0.245906
569.850013	0.248832
570.205445	0.247141
570.560823	0.249818
570.916145	0.251717
571.271412	0.250261
571.626625	0.251436
571.981782	0.251981
572.336884	0.252751
572.691931	0.252583
573.046923	0.253548
573.401860	0.255125
573.756743	0.256572
574.111570	0.255661
574.466342	0.256171
574.821059	0.255114
575.175722	0.258015
575.530330	0.257774
575.884882	0.258040
576.239380	0.259950
576.593823	0.260507
576.948211	0.260024
577.302544	0.263344
577.656823	0.262995
578.011047	0.262924
578.365216	0.263603
578.719330	0.265816
579.073389	0.265389
579.427394	0.266609
579.781344	0.267684
580.135239	0.268996
580.489080	0.268500
580.842866	0.271432
581.196597	0.271798
581.550273	0.270293
581.903895	0.271316
582.257463	0.269421
582.610975	0.272553
582.964434	0.272179
583.317837	0.274503
583.671186	0.274625
584.024481	0.275032
584.377721	0.277564
584.730906	0.278209
585.084037	0.277329
585.437113	0.278974
585.790135	0.278734
586.143103	0.281607
586.496016	0.282802
586.848874	0.280205
587.201679	0.280878
587.554428	0.284287
587.907124	0.282901
588.259765	0.283532
588.612352	0.284100
588.964884	0.287779
589.317362	0.287612
589.669786	0.287381
590.022155	0.286245
590.374470	0.285213
590.726731	0.287439
591.078937	0.292096
591.431090	0.288218
591.783188	0.293001
592.135232	0.292976
592.487222	0.293094
592.839157	0.291130
593.191038	0.293191
593.542866	0.295304
593.894639	0.299022
594.246358	0.296653
594.598022	0.296486
594.949633	0.300223
595.301190	0.300763
595.652692	0.300056
596.004141	0.296378
596.355535	0.303945
596.706876	0.304295
597.058162	0.307477
597.409395	0.304208
597.760573	0.302189
598.111698	0.305415
598.462768	0.305633
598.813785	0.307032
599.164748	0.308561
599.515657	0.308367
599.866511	0.312072
600.217312	0.307154
600.568060	0.312696
600.918753	0.308723
601.269392	0.309945
601.619978	0.313142
601.970510	0.310803
602.320988	0.311163
602.671412	0.308618
603.021783	0.311233
603.372100	0.312359
603.722363	0.312597
604.072572	0.312914
604.422728	0.312821
604.772830	0.314785
605.122878	0.314402
605.472872	0.315129
605.822813	0.313306
606.172701	0.315959
606.522534	0.313676
606.872314	0.313621
607.222041	0.314476
607.571714	0.312662
607.921333	0.314172
608.270899	0.313944
608.620411	0.310239
608.969870	0.314280
609.319276	0.314440
609.668627	0.314338
610.017926	0.312933
610.367171	0.311869
610.716362	0.312122
611.065500	0.312223
611.414585	0.311094
611.763616	0.311740
612.112594	0.312134
612.461518	0.311704
612.810389	0.308920
613.159207	0.311842
613.507971	0.313350
613.856682	0.309344
614.205340	0.310767
614.553945	0.307770
614.902496	0.311000
615.250994	0.309311
615.599439	0.310182
615.947830	0.309661
616.296169	0.310681
616.644454	0.309857
616.992686	0.310066
617.340864	0.307631
617.688990	0.311608
618.037063	0.307945
618.385082	0.309871
618.733048	0.306910
619.080961	0.309098
619.428821	0.308501
619.776628	0.308370
620.124382	0.309894
620.472083	0.310592
620.819731	0.309844
621.167326	0.313811
621.514868	0.313293
621.862357	0.317720
622.209793	0.317179
622.557176	0.319510
622.904506	0.320768
623.251783	0.323257
623.599007	0.325184
623.946179	0.324961
624.293297	0.326788
624.640363	0.330838
624.987376	0.331347
625.334336	0.333931
625.681243	0.335634
626.028097	0.336702
626.374899	0.337826
626.721647	0.338121
627.068343	0.341246
627.414987	0.342675
627.761577	0.344019
628.108115	0.342370
628.454600	0.348059
628.801032	0.345466
629.147412	0.347280
629.493739	0.347412
629.840014	0.350630
630.186236	0.348135
630.532405	0.354113
630.878521	0.351283
631.224585	0.353294
631.570597	0.356989
631.916556	0.355285
632.262462	0.355804
632.608316	0.356933
632.954117	0.358725
633.299866	0.359161
633.645562	0.359814
633.991206	0.364094
634.336797	0.366645
634.682336	0.369304
635.027823	0.371072
635.373257	0.371213
635.718639	0.375275
636.063968	0.373943
636.409245	0.380053
636.754470	0.380545
637.099642	0.383234
637.444762	0.386109
637.789829	0.385247
638.134845	0.388662
638.479808	0.389951
638.824719	0.389249
639.169577	0.393597
639.514383	0.392571
639.859137	0.396596
640.203839	0.396517
640.548489	0.396850
640.893086	0.398344
641.237632	0.400287
641.582125	0.398664
641.926566	0.400115
642.270955	0.400421
642.615292	0.400542
642.959576	0.399642
643.303809	0.400136
643.647990	0.399813
643.992118	0.400424
644.336195	0.404355
644.680219	0.402201
645.024192	0.402868
645.368112	0.396943
645.711981	0.395198
646.055797	0.390843
646.399562	0.393634
646.743274	0.385400
647.086935	0.382570
647.430544	0.382641
647.774101	0.381953
648.117606	0.381508
648.461059	0.381746
648.804460	0.384591
649.147810	0.389643
649.491108	0.391367
649.834354	0.392663
650.177548	0.398143
650.520690	0.403243
650.863781	0.404637
651.206820	0.404065
651.549807	0.408647
651.892742	0.412813
652.235626	0.411850
652.578458	0.412625
652.921238	0.419450
653.263967	0.416583
653.606644	0.420389
653.949269	0.420439
654.291843	0.424351
654.634365	0.421314
654.976836	0.424495
655.319255	0.424655
655.661622	0.425995
656.003938	0.426454
656.346203	0.429019
656.688416	0.427180
657.030577	0.430338
657.372687	0.433101
657.714746	0.432979
658.056753	0.430755
658.398708	0.434216
658.740612	0.435053
659.082465	0.431721
659.424266	0.431783
659.766016	0.431217
660.107715	0.434727
660.449362	0.433333
660.790958	0.434039
661.132503	0.434135
661.473996	0.431952
661.815438	0.432768
662.156829	0.432741
662.498168	0.433747
662.839456	0.435186
663.180693	0.433270
663.521879	0.432807
663.863013	0.432792
664.204097	0.432510
664.545129	0.429277
664.886110	0.430028
665.227040	0.427279
665.567918	0.429396
665.908746	0.427571
666.249522	0.426871
666.590248	0.428257
666.930922	0.426050
667.271545	0.425176
667.612118	0.425343
667.952639	0.426512
668.293109	0.425381
668.633528	0.428617
668.973896	0.428230
669.314213	0.428597
669.654480	0.430102
669.994695	0.430469
670.334859	0.431713
670.674973	0.431477
671.015035	0.431547
671.355047	0.431437
671.695008	0.433079
672.034918	0.434453
672.374777	0.433850
672.714585	0.434979
673.054342	0.434798
673.394049	0.435681
673.733705	0.433048
674.073310	0.433541
674.412864	0.436913
674.752368	0.437222
675.091820	0.437796
675.431223	0.442123
675.770574	0.441585
676.109875	0.445788
676.449125	0.444956
676.788324	0.447227
677.127473	0.452492
677.466571	0.451631
677.805619	0.453807
678.144616	0.455232
678.483562	0.456578
678.822458	0.459513
679.161303	0.460955
679.500098	0.460467
679.838842	0.462242
680.177535	0.462188
680.516179	0.460308
680.854771	0.459885
681.193314	0.453180
681.531805	0.444179
681.870247	0.432896
682.208638	0.425254
682.546978	0.423792
682.885268	0.425572
683.223508	0.432458
683.561697	0.436050
683.899836	0.439173
684.237925	0.442116
684.575963	0.444549
684.913951	0.447859
685.251889	0.444038
685.589776	0.446007
685.927614	0.447901
686.265401	0.442246
686.603137	0.443467
686.940824	0.437561
687.278460	0.435872
687.616046	0.435153
687.953582	0.430147
688.291068	0.431276
688.628504	0.426979
688.965889	0.429512
689.303224	0.434208
689.640510	0.436853
689.977745	0.443386
690.314930	0.451416
690.652065	0.456159
690.989150	0.463113
691.326185	0.469286
691.663170	0.474414
692.000105	0.481402
692.336990	0.488682
692.673825	0.491427
693.010610	0.498368
693.347345	0.503746
693.684030	0.504831
694.020665	0.509754
694.357251	0.518600
694.693786	0.518495
695.030272	0.522117
695.366707	0.526195
695.703093	0.528997
696.039429	0.527167
696.375716	0.528578
696.711952	0.531100
697.048139	0.533229
697.384276	0.535332
697.720363	0.533182
698.056400	0.533138
698.392388	0.538360
698.728326	0.541260
699.064214	0.544150
699.400053	0.544874
699.735842	0.548523
700.071581	0.551183
700.407270	0.554672
700.742910	0.556565
701.078501	0.563041
701.414042	0.563356
701.749533	0.567203
702.084974	0.575752
702.420366	0.567387
702.755709	0.575300
703.091002	0.583262
703.426246	0.576610
703.761440	0.582523
704.096584	0.587956
704.431679	0.585254
704.766725	0.585959
705.101721	0.588020
705.436668	0.583889
705.771565	0.591067
706.106413	0.587703
706.441212	0.583152
706.775961	0.581910
707.110661	0.585079
707.445311	0.580745
707.779913	0.578552
708.114465	0.576236
708.448967	0.573428
708.783421	0.564831
709.117825	0.560194
709.452180	0.560405
709.786485	0.553532
710.120742	0.544056
710.454949	0.545203
710.789107	0.537691
711.123216	0.528970
711.457275	0.530163
711.791286	0.521165
712.125247	0.520547
712.459159	0.531180
712.793023	0.523174
713.126837	0.527538
713.460602	0.528122
713.794318	0.537975
714.127985	0.536368
714.461602	0.546338
714.795171	0.549559
715.128691	0.557670
715.462162	0.564793
715.795584	0.570692
716.128957	0.573699
716.462281	0.579972
716.795556	0.583737
717.128782	0.589096
717.461960	0.598199
717.795088	0.595981
718.128167	0.603016
718.461198	0.611756
718.794180	0.612246
719.127113	0.614864
719.459997	0.618292
719.792833	0.624779
720.125619	0.625810
720.458357	0.632139
720.791046	0.632130
721.123686	0.634497
721.456278	0.642540
721.788821	0.639076
722.121315	0.644262
722.453761	0.647174
722.786158	0.645526
723.118506	0.641911
723.450805	0.650339
723.783056	0.646313
724.115259	0.643364
724.447412	0.643003
724.779518	0.644600
725.111574	0.643333
725.443582	0.638697
725.775542	0.639971
726.107453	0.633143
726.439315	0.633180
726.771129	0.631052
727.102895	0.624639
727.434612	0.617311
727.766281	0.615864
728.097901	0.614990
728.429473	0.614134
728.760996	0.613111
729.092471	0.612715
729.423897	0.616761
729.755276	0.615934
730.086606	0.615327
730.417887	0.610499
730.749120	0.600718
731.080305	0.592525
731.411442	0.588077
731.742530	0.592930
732.073570	0.591570
732.404562	0.583712
732.735506	0.585634
733.066401	0.589917
733.397249	0.599650
733.728048	0.610925
734.058798	0.623826
734.389501	0.634570
734.720156	0.643462
735.050762	0.651409
735.381320	0.652659
735.711831	0.662617
736.042293	0.666909
736.372707	0.663051
736.703073	0.667523
737.033391	0.669817
737.363661	0.666631
737.693883	0.661848
738.024056	0.661235
738.354182	0.661081
738.684260	0.650196
739.014290	0.646752
739.344272	0.647016
739.674207	0.641224
740.004093	0.640253
740.333931	0.640743
740.663722	0.640747
740.993464	0.641362
741.323159	0.644623
741.652806	0.649691
741.982405	0.655516
742.311956	0.659439
742.641460	0.661649
742.970915	0.664704
743.300323	0.672733
743.629683	0.679643
743.958996	0.681738
744.288260	0.686625
744.617477	0.692044
744.946647	0.693031
745.275768	0.698111
745.604842	0.698452
745.933869	0.708400
746.262847	0.709409
746.591778	0.702291
746.920662	0.708609
747.249498	0.714819
747.578286	0.705662
747.907027	0.701775
748.235720	0.703039
748.564365	0.697831
748.892963	0.698556
749.221514	0.700799
749.550017	0.705846
749.878473	0.705596
750.206881	0.711348
750.535242	0.713625
750.863555	0.713052
751.191821	0.714190
751.520039	0.717137
751.848210	0.722207
752.176334	0.714940
752.504411	0.714438
752.832440	0.721513
753.160421	0.725294
753.488356	0.724147
753.816243	0.721601
754.144082	0.729706
754.471875	0.733561
754.799620	0.729214
755.127318	0.730364
755.454969	0.730085
755.782572	0.730327
756.110129	0.734105
756.437638	0.737010
756.765100	0.733582
757.092515	0.731845
757.419882	0.730208
757.747203	0.735827
758.074477	0.735743
758.401703	0.732598
758.728882	0.728293
759.056014	0.726268
759.383099	0.725290
759.710138	0.726288
760.037129	0.723021
760.364073	0.717200
760.690970	0.718317
761.017820	0.725793
761.344623	0.720089
761.671379	0.711473
761.998088	0.699132
762.324751	0.677684
762.651366	0.635218
762.977935	0.567656
763.304456	0.514750
763.630931	0.505901
763.957359	0.545263
764.283740	0.589393
764.610074	0.616808
764.936362	0.647684
765.262602	0.674771
765.588796	0.696479
765.914943	0.714814
766.241044	0.732167
766.567097	0.739250
766.893104	0.749010
767.219064	0.755260
767.544978	0.762242
767.870845	0.775482
768.196665	0.778612
768.522438	0.777019
768.848165	0.778000
769.173846	0.786894
769.499479	0.792729
769.825066	0.795105
770.150607	0.800757
770.476101	0.796046
770.801548	0.797027
771.126949	0.807635
771.452303	0.811607
771.777611	0.811116
772.102872	0.809922
772.428087	0.815812
772.753256	0.818870
773.078378	0.821081
773.403453	0.830289
773.728482	0.834482
774.053465	0.828128
774.378401	0.831211
774.703291	0.839431
775.028135	0.839760
775.352932	0.841617
775.677683	0.845218
776.002388	0.845651
776.327046	0.844738
776.651658	0.847204
776.976224	0.850403
777.300743	0.850488
777.625216	0.852763
777.949643	0.856020
778.274024	0.855943
778.598359	0.856600
778.922647	0.855054
779.246889	0.855854
779.571086	0.860376
779.895236	0.862282
780.219339	0.858750
780.543397	0.856737
780.867409	0.854911
781.191374	0.857322
781.515294	0.858871
781.839167	0.857279
782.162995	0.860454
782.486776	0.858695
782.810511	0.858460
783.134201	0.862455
783.457844	0.859301
783.781441	0.863488
784.104993	0.868890
784.428498	0.868984
784.751958	0.865377
785.075372	0.867434
785.398739	0.870561
785.722061	0.866362
786.045337	0.863252
786.368568	0.867899
786.691752	0.870377
787.014891	0.854921
787.337983	0.847913
787.661030	0.839095
787.984031	0.820938
788.306987	0.808567
788.629897	0.811006
788.952760	0.814604
789.275579	0.818833
789.598351	0.834168
789.921078	0.848372
790.243759	0.849979
790.566395	0.854385
790.888984	0.861889
791.211529	0.866615
791.534027	0.871046
791.856480	0.872149
792.178888	0.877860
792.501249	0.879598
792.823566	0.881303
793.145836	0.881210
793.468062	0.883225
793.790241	0.882248
794.112375	0.881583
794.434464	0.876411
794.756507	0.876087
795.078505	0.876130
795.400457	0.870424
795.722364	0.857536
796.044226	0.850211
796.366042	0.851130
796.687812	0.853029
797.009538	0.849648
797.331218	0.851654
797.652852	0.857803
797.974442	0.862558
798.295986	0.862384
798.617484	0.864442
798.938938	0.869012
799.260346	0.874182
799.581709	0.875807
799.903026	0.877231
800.224299	0.878220
800.545526	0.882858
800.866708	0.886537
801.187845	0.891159
801.508936	0.889856
801.829983	0.889148
802.150984	0.891660
802.471940	0.895222
802.792851	0.895729
803.113717	0.896695
803.434538	0.894868
803.755314	0.897024
804.076045	0.898564
804.396731	0.898578
804.717372	0.899125
805.037967	0.899479
805.358518	0.897828
805.679024	0.895626
805.999485	0.895103
806.319901	0.895111
806.640272	0.897201
806.960598	0.895417
807.280879	0.891457
807.601115	0.891074
807.921306	0.895204
808.241453	0.893357
808.561554	0.892692
808.881611	0.892478
809.201623	0.893929
809.521590	0.893591
809.841513	0.895207
810.161390	0.894171
810.481223	0.895826
810.801011	0.899292
811.120755	0.900571
811.440453	0.899748
811.760107	0.898830
812.079716	0.898601
812.399281	0.902518
812.718801	0.904852
813.038276	0.905552
813.357707	0.905658
813.677093	0.901586
813.996434	0.905428
814.315731	0.906600
814.634983	0.907394
814.954191	0.906088
815.273354	0.903025
815.592473	0.899503
815.911547	0.899557
816.230577	0.896735
816.549562	0.894705
816.868502	0.894699
817.187399	0.891262
817.506250	0.886494
817.825058	0.887817
818.143821	0.884986
818.462539	0.879148
818.781213	0.871464
819.099843	0.859646
819.418429	0.843842
819.736970	0.826526
820.055466	0.807474
820.373919	0.780833
820.692327	0.747894
821.010691	0.712697
821.329011	0.633783
821.647286	0.517457
821.965517	0.402558
822.283704	0.358954
822.601847	0.359976
822.919945	0.395420
823.237999	0.430337
823.556010	0.477345
823.873976	0.534044
824.191897	0.584940
824.509775	0.628422
824.827609	0.674386
825.145398	0.696717
825.463144	0.700753
825.780845	0.683015
826.098502	0.664280
826.416116	0.617386
826.733685	0.572402
827.051210	0.563740
827.368692	0.578740
827.686129	0.616501
828.003522	0.670484
828.320872	0.719314
828.638177	0.762837
828.955439	0.796278
829.272656	0.817798
829.589830	0.835864
829.906960	0.850992
830.224046	0.863716
830.541088	0.874937
830.858086	0.878437
831.175041	0.885186
831.491952	0.884143
831.808819	0.881626
832.125642	0.873703
832.442421	0.859257
832.759157	0.837536
833.075849	0.790419
833.392497	0.726399
833.709101	0.684624
834.025662	0.694831
834.342179	0.727119
834.658653	0.765504
834.975083	0.802233
835.291469	0.827619
835.607811	0.851876
835.924110	0.867446
836.240366	0.884569
836.556578	0.900194
836.872746	0.906766
837.188871	0.913613
837.504952	0.917655
837.820990	0.922100
838.136984	0.925232
838.452935	0.928859
838.768842	0.931420
839.084706	0.922100
839.400526	0.896473
839.716303	0.856908
840.032037	0.833777
840.347727	0.836792
840.663373	0.856224
840.978977	0.877093
841.294537	0.900100
841.610054	0.916134
841.925527	0.924773
842.240957	0.931547
842.556344	0.938010
842.871687	0.945448
843.186987	0.948271
843.502244	0.948365
843.817458	0.950777
844.132629	0.954448
844.447756	0.958686
844.762840	0.959166
845.077881	0.959354
845.392879	0.959465
845.707833	0.961525
846.022745	0.963086
846.337613	0.964395
846.652438	0.965437
846.967221	0.963576
847.281960	0.964263
847.596656	0.966728
847.911309	0.964350
848.225919	0.965642
848.540485	0.967795
848.855009	0.967976
849.169490	0.966366
849.483928	0.967842
849.798323	0.967551
850.112675	0.967098
850.426984	0.968132
850.741251	0.967804
851.055474	0.969404
851.369654	0.967945
851.683792	0.968405
851.997887	0.969069
852.311938	0.969839
852.625947	0.968771
852.939914	0.967006
853.253837	0.967892
853.567718	0.969338
853.881555	0.970261
854.195350	0.967503
854.509103	0.967840
854.822812	0.969800
855.136479	0.969847
855.450103	0.968362
855.763685	0.967355
856.077224	0.968639
856.390720	0.970468
856.704173	0.969484
857.017584	0.968457
857.330953	0.966282
857.644278	0.967055
857.957561	0.967933
858.270802	0.967906
858.584000	0.967057
858.897155	0.965049
859.210268	0.966443
859.523339	0.967234
859.836367	0.969029
860.149352	0.969770
860.462295	0.967674
860.775195	0.969512
861.088054	0.967996
861.400869	0.969031
861.713642	0.968094
862.026373	0.969671
862.339062	0.969258
862.651708	0.967922
862.964312	0.965777
863.276873	0.968532
863.589392	0.967151
863.901869	0.965412
864.214303	0.963341
864.526696	0.962913
864.839045	0.962567
865.151353	0.960226
865.463619	0.960975
865.775842	0.961294
866.088023	0.961491
866.400162	0.960333
866.712258	0.961604
867.024313	0.960626
867.336325	0.962970
867.648296	0.961408
867.960224	0.960157
868.272110	0.960238
868.583954	0.962378
868.895755	0.962498
869.207515	0.960119
869.519233	0.957743
869.830909	0.960530
870.142542	0.962509
870.454134	0.960128
870.765684	0.959689
871.077191	0.956743
871.388657	0.957281
871.700081	0.955975
872.011463	0.956687
872.322803	0.957441
872.634101	0.955589
872.945357	0.953850
873.256571	0.951696
873.567744	0.951180
873.878874	0.951418
874.189963	0.951144
874.501010	0.950270
874.812015	0.948664
875.122979	0.949998
875.433900	0.952611
875.744780	0.951664
876.055618	0.949544
876.366415	0.947300
876.677169	0.948661
876.987882	0.949979
877.298554	0.949922
877.609183	0.946326
877.919771	0.943696
878.230317	0.940336
878.540822	0.938404
878.851285	0.933212
879.161707	0.924589
879.472087	0.912489
879.782425	0.894952
880.092722	0.861320
880.402977	0.807614
880.713191	0.746285
881.023363	0.684569
881.333494	0.649862
881.643583	0.622186
881.953631	0.621897
882.263637	0.650690
882.573602	0.690206
882.883526	0.717136
883.193408	0.740831
883.503248	0.764968
883.813048	0.791809
884.122806	0.822717
884.432522	0.846035
884.742197	0.865805
885.051831	0.877372
885.361424	0.887344
885.670975	0.899940
885.980485	0.909833
886.289954	0.916264
886.599382	0.921704
886.908768	0.925341
887.218113	0.931865
887.527417	0.937579
887.836680	0.940590
888.145901	0.941061
888.455082	0.944419
888.764221	0.949170
889.073319	0.951853
889.382376	0.951989
889.691392	0.951366
890.000366	0.951834
890.309300	0.951454
890.618193	0.951647
890.927044	0.950649
891.235855	0.949359
891.544625	0.950126
891.853353	0.949967
892.162041	0.947071
892.470687	0.941250
892.779293	0.935858
893.087858	0.932023
893.396381	0.923785
893.704864	0.909926
894.013306	0.886569
894.321707	0.857964
894.630068	0.843573
894.938387	0.838668
895.246665	0.839926
895.554903	0.852159
895.863100	0.866216
896.171256	0.883451
896.479371	0.902361
896.787446	0.916096
897.095480	0.922746
897.403473	0.925711
897.711425	0.929890
898.019336	0.938304
898.327207	0.940293
898.635038	0.943204
898.942827	0.943043
899.250576	0.946885
899.558284	0.950419
899.865952	0.951934
900.173579	0.951841
900.481165	0.954203
900.788711	0.958059
901.096216	0.960051
901.403681	0.959764
901.711105	0.960661
902.018489	0.961557
902.325832	0.960176
902.633135	0.959075
902.940397	0.953945
903.247619	0.940786
903.554800	0.915963
903.861941	0.874115
904.169041	0.837098
904.476101	0.818669
904.783121	0.819761
905.090100	0.837561
905.397039	0.859772
905.703938	0.881358
906.010796	0.903079
906.317614	0.920590
906.624391	0.932548
906.931129	0.941726
907.237826	0.949626
907.544483	0.957071
907.851099	0.960142
908.157675	0.965785
908.464211	0.969324
908.770707	0.971511
909.077163	0.973376
909.383578	0.973741
909.689954	0.974045
909.996289	0.973557
910.302584	0.976643
910.608839	0.978103
910.915054	0.976824
911.221229	0.977632
911.527363	0.976009
911.833458	0.975996
912.139513	0.975619
912.445527	0.974089
912.751502	0.973216
913.057436	0.971115
913.363331	0.968739
913.669186	0.964157
913.975000	0.959885
914.280775	0.953473
914.586510	0.946223
914.892205	0.931313
915.197859	0.911294
915.503475	0.882785
915.809050	0.862585
916.114585	0.855324
916.420081	0.853159
916.725536	0.849595
917.030952	0.857964
917.336328	0.872187
917.641665	0.887476
917.946961	0.902336
918.252218	0.915404
918.557435	0.924712
918.862612	0.933333
919.167750	0.940053
919.472848	0.944776
919.777906	0.950002
920.082925	0.955670
920.387904	0.960576
920.692843	0.961437
920.997743	0.962072
921.302603	0.965766
921.607423	0.967362
921.912204	0.971264
922.216946	0.969814
922.521647	0.972053
922.826310	0.973233
923.130932	0.975492
923.435516	0.976996
923.740059	0.977833
924.044564	0.978367
924.349028	0.979799
924.653454	0.981380
924.957840	0.984628
925.262186	0.981973
925.566493	0.983548
925.870761	0.983232
926.174989	0.985531
926.479178	0.987090
926.783328	0.987865
927.087438	0.987926
927.391509	0.987181
927.695541	0.989183
927.999533	0.989486
928.303486	0.988915
928.607400	0.991040
928.911275	0.989047
929.215110	0.989213
929.518906	0.989527
929.822663	0.989740
930.126381	0.990253
930.430060	0.990715
930.733699	0.989641
931.037299	0.988960
931.340861	0.990480
931.644383	0.989801
931.947866	0.989088
932.251309	0.990138
932.554714	0.989935
932.858080	0.989888
933.161407	0.988511
933.464694	0.990129
933.767943	0.989401
934.071153	0.991158
934.374323	0.990994
934.677455	0.990463
934.980548	0.990750
935.283602	0.989544
935.586617	0.990472
935.889593	0.989485
936.192530	0.990537
936.495428	0.990062
936.798287	0.991139
937.101108	0.987986
937.403890	0.988037
937.706632	0.987748
938.009336	0.986085
938.312002	0.984342
938.614628	0.983536
938.917216	0.982149
939.219765	0.979968
939.522275	0.982299
939.824747	0.981876
940.127179	0.982029
940.429573	0.982743
940.731929	0.982995
941.034246	0.982383
941.336524	0.984266
941.638763	0.986325
941.940964	0.985447
942.243126	0.984230
942.545250	0.987719
942.847335	0.987520
943.149381	0.987971
943.451389	0.987529
943.753359	0.988124
944.055290	0.990533
944.357182	0.989459
944.659036	0.987874
944.960851	0.988641
945.262628	0.988913
945.564367	0.989572
945.866067	0.988379
946.167729	0.989267
946.469352	0.989066
946.770937	0.988271
947.072484	0.989850
947.373992	0.988415
947.675462	0.989776
947.976893	0.989370
948.278286	0.989470
948.579641	0.990426
948.880958	0.990042
949.182236	0.990199
949.483476	0.991400
949.784678	0.989562
950.085841	0.990407
950.386967	0.989587
950.688054	0.990162
950.989103	0.990005
951.290114	0.988136
951.591087	0.989052
951.892021	0.988551
952.192917	0.987448
952.493776	0.987757
952.794596	0.988028
953.095378	0.985697
953.396122	0.986658
953.696828	0.986225
953.997496	0.989383
954.298126	0.989329
954.598718	0.990298
954.899272	0.990789
955.199788	0.990884
955.500266	0.991714
955.800706	0.991776
956.101108	0.992439
956.401472	0.993176
956.701798	0.992773
957.002087	0.992564
957.302337	0.993198
957.602550	0.995039
957.902724	0.994300
958.202861	0.994665
958.502960	0.994557
958.803022	0.992968
959.103045	0.995258
959.403031	0.995742
959.702979	0.993949
960.002889	0.995174
960.302762	0.993937
960.602596	0.995585
960.902393	0.994573
961.202153	0.996769
961.501875	0.995277
961.801559	0.994886
962.101205	0.995850
962.400814	0.996323
962.700385	0.995134
962.999918	0.996512
963.299414	0.996383
963.598873	0.995457
963.898293	0.995071
964.197677	0.995680
964.497022	0.995865
964.796331	0.997848
965.095601	0.997561
965.394835	0.995993
965.694030	0.996513
965.993189	0.997814
966.292309	0.995664
966.591393	0.997014
966.890439	0.996326
967.189447	0.996572
967.488419	0.997289
967.787353	0.996243
968.086249	0.996274
968.385108	0.997002
968.683930	0.996483
968.982714	0.997561
969.281462	0.996686
969.580172	0.995597
969.878844	0.998112
970.177480	0.996630
970.476078	0.997414
970.774639	0.997004
971.073162	0.996371
971.371649	0.996280
971.670098	0.995975
971.968510	0.996635
972.266885	0.995495
972.565223	0.995041
972.863524	0.995460
973.161788	0.995643
973.460014	0.996173
973.758204	0.996603
974.056356	0.994816
974.354471	0.995461
974.652550	0.995872
974.950591	0.995747
975.248595	0.996314
975.546563	0.996852
975.844493	0.999152
976.142386	0.997119
976.440243	0.997278
976.738062	0.996368
977.035845	0.997573
977.333590	0.996879
977.631299	0.997679
977.928971	0.996201
978.226606	0.997115
978.524204	0.995901
978.821765	0.998957
979.119290	0.996148
979.416777	0.996247
979.714228	0.997521
980.011642	0.996079
980.309020	0.997710
980.606360	0.996555
980.903664	0.997824
981.200931	0.996181
981.498162	0.994371
981.795356	0.994757
982.092513	0.994104
982.389633	0.993137
982.686717	0.991136
982.983764	0.990464
983.280775	0.989036
983.577749	0.990898
983.874686	0.990785
984.171587	0.990584
984.468451	0.992812
984.765279	0.994383
985.062070	0.994262
985.358824	0.994566
985.655543	0.994039
985.952224	0.996489
986.248869	0.995777
986.545478	0.996279
986.842050	0.997453
987.138586	0.996660
987.435086	0.996309
987.731549	0.998921
988.027975	0.997665
988.324366	0.997958
988.620719	0.996784
988.917037	0.995463
989.213318	0.997704
989.509563	0.997836
989.805772	0.997906
990.101944	0.997769
990.398080	0.996881
990.694180	0.998116
990.990244	0.997513
991.286271	0.998004
991.582262	0.998038
991.878217	0.997865
992.174136	0.998258
992.470019	0.998246
992.765865	0.997798
993.061676	0.996797
993.357450	0.997407
993.653188	0.996117
993.948890	0.996411
994.244556	0.997289
994.540186	0.997082
994.835780	0.996050
995.131337	0.997271
995.426859	0.996560
995.722345	0.997397
996.017795	0.996803
996.313208	0.996228
996.608586	0.995721
996.903928	0.996550
997.199234	0.995861
997.494504	0.995401
997.789738	0.996233
998.084936	0.995625
998.380099	0.997582
998.675225	0.996278
998.970316	0.997363
999.265371	0.998094
999.560390	0.997750
999.855373	0.998598
1000.150320	0.997887
1000.445232	0.997726
1000.740108	0.998419
1001.034948	0.997211
1001.329752	0.998519
1001.624521	0.997645
1001.919254	0.998270
1002.213951	0.997350
1002.508613	0.997300
1002.803239	0.999000
1003.097829	0.999319
1003.392384	0.999121
1003.686903	0.998538
1003.981386	0.998004
1004.275834	0.999073
1004.570246	0.998109
1004.864623	0.999016
1005.158964	0.998785
1005.453270	0.998246
1005.747540	0.996564
1006.041775	0.998529
1006.335974	0.998557
1006.630138	0.998714
1006.924266	0.999538
1007.218359	0.999815
1007.512416	0.998806
1007.806438	0.998023
1008.100425	0.998953
1008.394376	0.999474
1008.688292	0.997860
1008.982172	1.000083
1009.276017	0.999022
1009.569827	0.998353
1009.863602	0.997547
1010.157341	0.998934
1010.451045	0.998772
1010.744714	0.998951
1011.038347	0.998725
1011.331945	0.999345
1011.625508	0.997910
1011.919036	0.998998
1012.212528	0.998787
1012.505986	0.997235
1012.799408	0.997990
1013.092795	0.998153
1013.386147	0.998888
1013.679464	0.999158
1013.972745	0.998731
1014.265992	0.997714
1014.559204	0.998642
1014.852380	0.998159
1015.145521	0.999917
1015.438628	0.999973
1015.731699	0.997681
1016.024736	0.998495
1016.317737	0.998489
1016.610703	0.997405
1016.903635	0.999774
1017.196531	0.997723
1017.489393	0.999347
1017.782219	0.997437
1018.075011	0.998506
1018.367768	0.998740
1018.660490	0.999366
1018.953177	0.999366
1019.245829	0.999366
