Dividing Wavelength (nm)	Counts (n)	Blue Motor Position (mm): 0.000000	Red Motor Position (mm): 19.400000	
326.493990	1.000772
326.888308	1.000772
327.282561	1.000772
327.676750	1.000248
328.070874	0.999741
328.464933	0.999976
328.858929	0.998723
329.252859	0.999600
329.646726	0.999941
330.040528	0.999785
330.434265	0.999198
330.827938	0.999780
331.221547	1.000434
331.615091	1.000224
332.008571	0.998874
332.401986	0.999530
332.795338	1.000048
333.188625	0.998142
333.581847	1.000002
333.975006	0.999633
334.368100	0.998654
334.761129	0.999415
335.154095	1.000283
335.546996	0.997672
335.939833	0.992708
336.332606	0.993689
336.725315	0.994291
337.117960	0.994974
337.510540	0.993665
337.903056	0.994478
338.295508	0.993498
338.687896	0.994001
339.080220	0.993727
339.472480	0.994356
339.864676	0.995053
340.256807	0.995194
340.648875	0.994384
341.040879	0.993370
341.432818	0.994553
341.824694	0.993545
342.216506	0.994663
342.608253	0.994108
342.999937	0.994085
343.391557	0.994155
343.783113	0.993032
344.174605	0.994565
344.566033	0.993727
344.957397	0.993185
345.348697	0.994756
345.739934	0.995615
346.131106	0.992796
346.522215	0.992974
346.913260	0.993184
347.304241	0.994148
347.695159	0.993659
348.086012	0.992531
348.476802	0.994055
348.867528	0.995457
349.258191	0.992537
349.648789	0.993816
350.039324	0.993875
350.429796	0.993575
350.820203	0.993904
351.210548	0.994488
351.600828	0.993380
351.991045	0.993788
352.381198	0.992747
352.771288	0.994505
353.161314	0.993980
353.551276	0.995540
353.941175	0.993086
354.331010	0.992491
354.720782	0.993761
355.110490	0.994012
355.500135	0.994758
355.889717	0.993695
356.279235	0.994085
356.668689	0.993470
357.058080	0.993990
357.447408	0.994334
357.836672	0.995369
358.225873	0.993884
358.615010	0.994193
359.004084	0.995435
359.393095	0.992927
359.782043	0.994064
360.170927	0.994442
360.559748	0.995303
360.948505	0.994393
361.337199	0.993538
361.725830	0.994524
362.114398	0.993568
362.502903	0.994096
362.891344	0.994067
363.279722	0.992782
363.668037	0.994483
364.056289	0.993847
364.444478	0.994741
364.832603	0.994915
365.220665	0.993405
365.608665	0.993804
365.996601	0.993836
366.384474	0.994052
366.772284	0.993887
367.160031	0.992638
367.547715	0.992808
367.935336	0.993813
368.322893	0.994579
368.710388	0.992932
369.097820	0.994213
369.485189	0.993659
369.872495	0.992629
370.259738	0.992846
370.646918	0.993667
371.034035	0.995668
371.421090	0.993550
371.808081	0.993769
372.195010	0.994144
372.581875	0.993225
372.968678	0.994710
373.355418	0.993622
373.742096	0.993654
374.128710	0.994027
374.515262	0.993950
374.901751	0.994359
375.288177	0.995501
375.674540	0.994648
376.060841	0.994276
376.447079	0.994616
376.833254	0.994057
377.219367	0.994070
377.605417	0.995391
377.991404	0.994716
378.377329	0.993960
378.763191	0.994349
379.148991	0.995677
379.534727	0.995183
379.920402	0.995067
380.306013	0.994996
380.691563	0.996088
381.077049	0.994241
381.462474	0.995190
381.847835	0.994181
382.233134	0.994481
382.618371	0.994491
383.003545	0.995041
383.388657	0.995420
383.773706	0.995586
384.158693	0.994633
384.543618	0.994361
384.928480	0.994716
385.313280	0.995228
385.698017	0.995176
386.082692	0.996378
386.467305	0.994876
386.851856	0.995157
387.236344	0.994949
387.620770	0.994653
388.005133	0.995615
388.389435	0.997007
388.773674	0.994123
389.157851	0.996829
389.541965	0.995271
389.926018	0.995192
390.310008	0.996967
390.693936	0.995191
391.077802	0.995642
391.461606	0.995074
391.845348	0.994823
392.229027	0.996416
392.612645	0.995095
392.996200	0.996904
393.379694	0.994961
393.763125	0.996207
394.146494	0.995007
394.529801	0.995449
394.913047	0.995252
395.296230	0.995680
395.679351	0.995125
396.062410	0.995387
396.445408	0.995818
396.828343	0.994972
397.211217	0.995406
397.594028	0.995042
397.976778	0.994641
398.359466	0.994818
398.742092	0.994349
399.124656	0.994095
399.507158	0.995456
399.889598	0.994958
400.271977	0.995793
400.654294	0.995345
401.036549	0.995059
401.418742	0.995149
401.800874	0.993828
402.182944	0.994048
402.564952	0.994030
402.946898	0.996206
403.328783	0.994958
403.710606	0.994041
404.092367	0.994727
404.474067	0.994696
404.855705	0.994753
405.237282	0.994917
405.618797	0.994817
406.000250	0.993704
406.381642	0.994586
406.762972	0.993897
407.144240	0.993502
407.525447	0.993053
407.906593	0.992241
408.287677	0.992009
408.668700	0.991142
409.049661	0.989822
409.430560	0.989115
409.811399	0.987336
410.192176	0.986355
410.572891	0.984360
410.953545	0.982419
411.334138	0.980535
411.714669	0.978852
412.095139	0.976480
412.475547	0.975134
412.855894	0.972449
413.236180	0.969743
413.616405	0.966377
413.996568	0.962973
414.376670	0.960094
414.756711	0.956260
415.136691	0.953541
415.516609	0.948418
415.896466	0.944169
416.276262	0.939039
416.655997	0.935388
417.035670	0.927438
417.415283	0.921713
417.794834	0.917549
418.174324	0.912729
418.553753	0.909643
418.933121	0.900162
419.312428	0.892810
419.691674	0.887031
420.070859	0.878812
420.449983	0.873563
420.829045	0.864100
421.208047	0.859657
421.586988	0.850746
421.965867	0.842581
422.344686	0.830638
422.723444	0.826894
423.102141	0.824455
423.480777	0.807442
423.859352	0.805856
424.237866	0.788291
424.616319	0.780899
424.994712	0.768872
425.373044	0.764185
425.751314	0.749819
426.129524	0.747824
426.507673	0.731455
426.885762	0.720767
427.263789	0.713038
427.641756	0.710967
428.019662	0.695949
428.397508	0.686084
428.775292	0.678659
429.153016	0.665869
429.530679	0.661622
429.908282	0.648817
430.285824	0.647589
430.663305	0.623790
431.040726	0.629950
431.418086	0.623558
431.795385	0.608760
432.172624	0.600216
432.549802	0.593475
432.926920	0.584653
433.303977	0.577134
433.680974	0.568511
434.057910	0.560733
434.434786	0.553474
434.811601	0.548873
435.188355	0.528269
435.565050	0.530339
435.941683	0.526334
436.318257	0.506937
436.694770	0.501984
437.071222	0.495327
437.447614	0.493883
437.823946	0.495194
438.200218	0.481043
438.576429	0.485449
438.952580	0.474754
439.328670	0.468027
439.704700	0.470913
440.080670	0.468307
440.456580	0.446926
440.832429	0.450948
441.208218	0.458589
441.583947	0.446256
441.959616	0.443583
442.335224	0.446081
442.710773	0.434908
443.086261	0.430719
443.461689	0.442391
443.837057	0.430921
444.212365	0.419657
444.587612	0.424881
444.962800	0.413462
445.337927	0.413884
445.712995	0.438530
446.088002	0.401059
446.462949	0.410208
446.837837	0.414001
447.212664	0.402136
447.587431	0.393379
447.962139	0.363397
448.336786	0.322318
448.711374	0.332613
449.085901	0.375388
449.460369	0.379529
449.834776	0.382422
450.209124	0.362101
450.583412	0.354148
450.957640	0.347248
451.331808	0.358243
451.705917	0.381189
452.079965	0.385343
452.453954	0.373645
452.827883	0.380402
453.201752	0.374886
453.575562	0.386553
453.949311	0.374397
454.323001	0.380473
454.696632	0.376409
455.070202	0.368965
455.443713	0.361097
455.817164	0.355519
456.190556	0.351582
456.563888	0.347945
456.937160	0.345715
457.310373	0.362992
457.683526	0.361191
458.056619	0.367240
458.429653	0.367528
458.802628	0.371028
459.175542	0.365410
459.548398	0.348333
459.921194	0.340399
460.293930	0.340445
460.666607	0.318114
461.039224	0.306377
461.411782	0.302283
461.784280	0.301138
462.156719	0.305286
462.529099	0.310097
462.901419	0.325922
463.273680	0.330169
463.645882	0.329940
464.018024	0.335392
464.390106	0.328511
464.762130	0.313404
465.134094	0.296504
465.505999	0.265809
465.877845	0.236196
466.249631	0.223181
466.621358	0.230678
466.993026	0.244352
467.364634	0.250754
467.736184	0.259430
468.107674	0.268153
468.479105	0.267294
468.850477	0.274004
469.221790	0.280876
469.593043	0.290941
469.964238	0.295780
470.335373	0.295034
470.706449	0.293164
471.077467	0.294095
471.448425	0.256183
471.819324	0.232046
472.190164	0.231294
472.560945	0.260014
472.931667	0.282240
473.302330	0.286165
473.672934	0.298518
474.043479	0.286442
474.413965	0.288085
474.784393	0.291520
475.154761	0.286496
475.525070	0.283695
475.895321	0.289431
476.265513	0.283792
476.635645	0.279272
477.005719	0.279203
477.375734	0.275393
477.745691	0.269188
478.115588	0.265697
478.485427	0.259052
478.855207	0.245959
479.224928	0.228566
479.594591	0.216750
479.964194	0.220299
480.333739	0.221488
480.703226	0.223119
481.072653	0.221369
481.442022	0.217163
481.811333	0.213563
482.180584	0.216994
482.549777	0.222335
482.918912	0.225520
483.287988	0.225312
483.657005	0.225249
484.025964	0.231372
484.394864	0.228844
484.763706	0.229446
485.132489	0.234579
485.501213	0.235264
485.869879	0.233546
486.238487	0.236765
486.607036	0.234565
486.975527	0.239020
487.343959	0.235123
487.712333	0.233940
488.080648	0.235555
488.448905	0.234392
488.817104	0.235663
489.185244	0.230478
489.553326	0.227290
489.921350	0.217223
490.289315	0.199687
490.657222	0.194805
491.025070	0.195906
491.392861	0.197766
491.760593	0.203650
492.128267	0.208986
492.495883	0.214701
492.863440	0.221000
493.230939	0.227197
493.598380	0.228446
493.965763	0.230574
494.333088	0.232856
494.700354	0.234351
495.067563	0.233622
495.434713	0.236584
495.801805	0.234528
496.168839	0.235599
496.535815	0.237300
496.902733	0.237233
497.269593	0.238816
497.636395	0.236559
498.003139	0.236761
498.369825	0.239790
498.736453	0.236281
499.103023	0.237557
499.469535	0.237247
499.835989	0.237476
500.202385	0.238505
500.568723	0.241563
500.935003	0.236812
501.301226	0.240886
501.667390	0.235291
502.033497	0.233328
502.399546	0.236505
502.765537	0.238242
503.131470	0.236771
503.497345	0.233011
503.863163	0.241695
504.228923	0.234679
504.594625	0.233270
504.960269	0.238790
505.325856	0.233958
505.691385	0.238212
506.056856	0.235175
506.422270	0.234579
506.787625	0.237185
507.152924	0.234568
507.518164	0.235094
507.883347	0.236466
508.248472	0.238409
508.613540	0.233240
508.978550	0.235741
509.343503	0.236373
509.708398	0.234032
510.073236	0.231661
510.438016	0.231902
510.802738	0.232598
511.167403	0.231570
511.532010	0.233299
511.896561	0.228848
512.261053	0.227781
512.625488	0.229896
512.989866	0.230044
513.354186	0.230452
513.718449	0.232191
514.082655	0.228520
514.446803	0.230860
514.810894	0.228547
515.174927	0.231249
515.538904	0.230658
515.902822	0.227600
516.266684	0.230033
516.630488	0.231238
516.994235	0.229847
517.357925	0.228625
517.721558	0.227108
518.085133	0.226732
518.448651	0.226556
518.812112	0.228731
519.175516	0.228358
519.538863	0.226281
519.902152	0.227745
520.265385	0.224651
520.628560	0.226305
520.991678	0.226499
521.354739	0.225690
521.717743	0.226925
522.080690	0.227360
522.443580	0.224656
522.806413	0.225464
523.169189	0.224931
523.531908	0.223881
523.894569	0.227410
524.257174	0.227404
524.619722	0.225101
524.982213	0.226242
525.344647	0.225225
525.707025	0.226028
526.069345	0.224061
526.431608	0.225606
526.793815	0.223591
527.155964	0.227518
527.518057	0.226736
527.880093	0.227887
528.242072	0.226319
528.603995	0.228211
528.965860	0.230116
529.327669	0.228641
529.689421	0.229760
530.051117	0.230803
530.412755	0.228283
530.774337	0.230555
531.135862	0.231015
531.497331	0.230239
531.858743	0.232998
532.220098	0.230073
532.581396	0.232185
532.942638	0.233111
533.303824	0.233661
533.664953	0.233515
534.026025	0.235372
534.387040	0.233154
534.747999	0.233281
535.108902	0.231929
535.469748	0.237018
535.830537	0.234792
536.191270	0.235315
536.551947	0.235007
536.912567	0.234951
537.273131	0.236810
537.633638	0.236909
537.994089	0.237295
538.354483	0.238044
538.714821	0.235316
539.075103	0.234988
539.435328	0.235691
539.795497	0.239514
540.155609	0.236221
540.515665	0.234308
540.875665	0.239830
541.235609	0.238447
541.595496	0.238709
541.955328	0.235042
542.315102	0.237817
542.674821	0.238543
543.034483	0.238566
543.394090	0.238404
543.753640	0.240163
544.113134	0.235209
544.472571	0.238636
544.831953	0.235567
545.191278	0.239605
545.550548	0.239135
545.909761	0.235610
546.268918	0.236556
546.628019	0.234717
546.987064	0.237696
547.346053	0.239424
547.704986	0.237061
548.063863	0.237422
548.422684	0.237723
548.781449	0.239640
549.140158	0.237102
549.498811	0.240264
549.857408	0.243323
550.215949	0.237689
550.574434	0.241099
550.932864	0.239032
551.291237	0.237656
551.649555	0.239059
552.007817	0.238647
552.366022	0.239805
552.724173	0.239904
553.082267	0.240258
553.440305	0.237074
553.798288	0.241394
554.156215	0.238040
554.514086	0.238760
554.871902	0.242029
555.229661	0.241263
555.587365	0.241562
555.945014	0.243924
556.302606	0.240958
556.660143	0.243733
557.017625	0.240040
557.375050	0.242403
557.732421	0.239181
558.089735	0.241422
558.446994	0.241433
558.804197	0.240492
559.161345	0.240608
559.518437	0.244357
559.875474	0.241765
560.232455	0.241180
560.589381	0.242277
560.946251	0.242366
561.303065	0.240121
561.659825	0.241472
562.016528	0.243015
562.373177	0.245774
562.729770	0.243075
563.086307	0.245085
563.442789	0.242946
563.799216	0.245690
564.155587	0.244709
564.511904	0.245775
564.868164	0.245727
565.224370	0.245869
565.580520	0.247399
565.936615	0.247242
566.292654	0.250127
566.648638	0.247326
567.004567	0.248005
567.360441	0.248439
567.716260	0.250638
568.072023	0.248218
568.427732	0.248841
568.783385	0.251662
569.138982	0.249809
569.494525	0.249217
569.850013	0.251900
570.205445	0.250794
570.560823	0.253201
570.916145	0.255376
571.271412	0.253535
571.626625	0.254936
571.981782	0.255214
572.336884	0.256379
572.691931	0.255759
573.046923	0.257030
573.401860	0.258307
573.756743	0.260133
574.111570	0.258844
574.466342	0.259322
574.821059	0.258641
575.175722	0.261511
575.530330	0.261118
575.884882	0.261411
576.239380	0.263211
576.593823	0.263964
576.948211	0.263257
577.302544	0.266523
577.656823	0.266186
578.011047	0.266270
578.365216	0.266675
578.719330	0.269012
579.073389	0.268886
579.427394	0.270167
579.781344	0.271091
580.135239	0.272420
580.489080	0.271912
580.842866	0.274984
581.196597	0.274624
581.550273	0.273409
581.903895	0.274369
582.257463	0.272445
582.610975	0.276362
582.964434	0.275400
583.317837	0.277754
583.671186	0.278152
584.024481	0.278577
584.377721	0.280764
584.730906	0.281421
585.084037	0.280406
585.437113	0.282540
585.790135	0.281749
586.143103	0.284753
586.496016	0.286141
586.848874	0.283428
587.201679	0.283973
587.554428	0.287455
587.907124	0.286081
588.259765	0.286791
588.612352	0.287059
588.964884	0.291169
589.317362	0.290586
589.669786	0.290503
590.022155	0.289218
590.374470	0.288690
590.726731	0.290613
591.078937	0.295381
591.431090	0.291750
591.783188	0.295775
592.135232	0.296137
592.487222	0.296481
592.839157	0.294398
593.191038	0.296756
593.542866	0.298581
593.894639	0.302175
594.246358	0.300219
594.598022	0.299536
594.949633	0.302995
595.301190	0.303982
595.652692	0.303073
596.004141	0.299283
596.355535	0.307182
596.706876	0.307483
597.058162	0.310544
597.409395	0.307715
597.760573	0.305313
598.111698	0.308302
598.462768	0.308621
598.813785	0.310138
599.164748	0.311472
599.515657	0.311911
599.866511	0.315256
600.217312	0.310302
600.568060	0.315882
600.918753	0.311939
601.269392	0.313049
601.619978	0.316603
601.970510	0.313741
602.320988	0.314168
602.671412	0.311795
603.021783	0.314621
603.372100	0.315567
603.722363	0.315322
604.072572	0.316030
604.422728	0.316126
604.772830	0.318165
605.122878	0.317615
605.472872	0.318208
605.822813	0.316765
606.172701	0.319488
606.522534	0.316577
606.872314	0.316028
607.222041	0.317095
607.571714	0.315434
607.921333	0.317222
608.270899	0.316764
608.620411	0.313579
608.969870	0.317391
609.319276	0.317521
609.668627	0.317265
610.017926	0.316122
610.367171	0.314479
610.716362	0.315713
611.065500	0.315346
611.414585	0.314151
611.763616	0.314611
612.112594	0.314959
612.461518	0.314539
612.810389	0.312284
613.159207	0.314412
613.507971	0.316630
613.856682	0.312209
614.205340	0.313684
614.553945	0.310487
614.902496	0.314293
615.250994	0.312343
615.599439	0.313178
615.947830	0.312569
616.296169	0.313384
616.644454	0.313269
616.992686	0.313264
617.340864	0.310953
617.688990	0.314399
618.037063	0.311425
618.385082	0.312813
618.733048	0.309964
619.080961	0.312056
619.428821	0.311623
619.776628	0.310854
620.124382	0.313301
620.472083	0.313318
620.819731	0.313026
621.167326	0.316835
621.514868	0.316387
621.862357	0.320852
622.209793	0.320378
622.557176	0.322299
622.904506	0.323768
623.251783	0.326079
623.599007	0.328635
623.946179	0.327994
624.293297	0.329655
624.640363	0.333346
624.987376	0.333825
625.334336	0.336307
625.681243	0.338851
626.028097	0.339208
626.374899	0.340425
626.721647	0.340825
627.068343	0.344120
627.414987	0.344633
627.761577	0.347475
628.108115	0.345497
628.454600	0.350404
628.801032	0.348126
629.147412	0.349901
629.493739	0.350264
629.840014	0.353538
630.186236	0.350817
630.532405	0.356463
630.878521	0.353974
631.224585	0.356033
631.570597	0.359940
631.916556	0.357754
632.262462	0.358422
632.608316	0.360355
632.954117	0.361196
633.299866	0.362198
633.645562	0.362639
633.991206	0.366903
634.336797	0.370013
634.682336	0.371411
635.027823	0.373702
635.373257	0.374162
635.718639	0.377243
636.063968	0.376641
636.409245	0.383088
636.754470	0.383192
637.099642	0.385768
637.444762	0.389327
637.789829	0.387963
638.134845	0.391241
638.479808	0.392876
638.824719	0.392486
639.169577	0.396209
639.514383	0.395719
639.859137	0.399373
640.203839	0.399243
640.548489	0.399664
640.893086	0.401255
641.237632	0.402561
641.582125	0.400864
641.926566	0.402363
642.270955	0.403154
642.615292	0.403179
642.959576	0.402625
643.303809	0.402937
643.647990	0.402317
643.992118	0.403133
644.336195	0.406766
644.680219	0.404708
645.024192	0.405738
645.368112	0.399426
645.711981	0.398567
646.055797	0.393678
646.399562	0.396212
646.743274	0.387984
647.086935	0.385308
647.430544	0.385651
647.774101	0.384784
648.117606	0.384053
648.461059	0.384358
648.804460	0.386950
649.147810	0.392286
649.491108	0.393902
649.834354	0.395194
650.177548	0.400758
650.520690	0.406200
650.863781	0.407253
651.206820	0.406570
651.549807	0.411459
651.892742	0.415376
652.235626	0.414750
652.578458	0.415411
652.921238	0.421859
653.263967	0.419859
653.606644	0.423441
653.949269	0.423198
654.291843	0.427281
654.634365	0.423934
654.976836	0.427124
655.319255	0.427265
655.661622	0.428441
656.003938	0.429157
656.346203	0.431650
656.688416	0.429743
657.030577	0.433221
657.372687	0.434701
657.714746	0.435899
658.056753	0.432967
658.398708	0.436772
658.740612	0.438193
659.082465	0.433392
659.424266	0.434396
659.766016	0.433911
660.107715	0.436837
660.449362	0.435313
660.790958	0.436063
661.132503	0.437025
661.473996	0.434355
661.815438	0.435272
662.156829	0.435919
662.498168	0.436248
662.839456	0.437439
663.180693	0.435847
663.521879	0.435666
663.863013	0.436869
664.204097	0.434475
664.545129	0.431432
664.886110	0.431921
665.227040	0.429398
665.567918	0.432216
665.908746	0.429817
666.249522	0.429594
666.590248	0.430273
666.930922	0.428528
667.271545	0.427821
667.612118	0.427650
667.952639	0.429739
668.293109	0.428009
668.633528	0.431164
668.973896	0.430779
669.314213	0.431929
669.654480	0.432996
669.994695	0.433084
670.334859	0.434322
670.674973	0.434347
671.015035	0.434137
671.355047	0.434355
671.695008	0.435555
672.034918	0.437204
672.374777	0.436213
672.714585	0.437651
673.054342	0.437434
673.394049	0.437946
673.733705	0.434968
674.073310	0.435949
674.412864	0.439674
674.752368	0.439965
675.091820	0.440549
675.431223	0.445130
675.770574	0.444456
676.109875	0.447243
676.449125	0.447896
676.788324	0.449769
677.127473	0.455144
677.466571	0.455270
677.805619	0.456777
678.144616	0.457538
678.483562	0.459124
678.822458	0.461929
679.161303	0.463232
679.500098	0.463175
679.838842	0.465014
680.177535	0.464646
680.516179	0.462903
680.854771	0.462185
681.193314	0.455319
681.531805	0.447018
681.870247	0.435338
682.208638	0.427911
682.546978	0.426881
682.885268	0.428443
683.223508	0.435189
683.561697	0.438648
683.899836	0.440929
684.237925	0.444587
684.575963	0.447437
684.913951	0.450222
685.251889	0.445925
685.589776	0.448107
685.927614	0.449984
686.265401	0.445064
686.603137	0.446072
686.940824	0.439825
687.278460	0.438445
687.616046	0.437798
687.953582	0.432143
688.291068	0.433998
688.628504	0.429673
688.965889	0.431783
689.303224	0.435828
689.640510	0.440098
689.977745	0.445688
690.314930	0.453958
690.652065	0.458363
690.989150	0.465699
691.326185	0.471955
691.663170	0.476850
692.000105	0.483737
692.336990	0.490888
692.673825	0.492896
693.010610	0.500356
693.347345	0.505564
693.684030	0.506970
694.020665	0.512050
694.357251	0.520777
694.693786	0.520760
695.030272	0.524250
695.366707	0.527971
695.703093	0.531759
696.039429	0.529028
696.375716	0.530943
696.711952	0.533506
697.048139	0.535921
697.384276	0.537429
697.720363	0.535681
698.056400	0.534993
698.392388	0.540784
698.728326	0.543563
699.064214	0.546211
699.400053	0.547102
699.735842	0.550376
700.071581	0.553134
700.407270	0.555684
700.742910	0.558802
701.078501	0.565528
701.414042	0.565559
701.749533	0.568275
702.084974	0.577467
702.420366	0.569680
702.755709	0.577644
703.091002	0.584900
703.426246	0.578192
703.761440	0.583908
704.096584	0.589430
704.431679	0.586656
704.766725	0.588366
705.101721	0.589959
705.436668	0.586225
705.771565	0.593179
706.106413	0.589566
706.441212	0.585230
706.775961	0.584146
707.110661	0.586724
707.445311	0.583252
707.779913	0.580789
708.114465	0.578450
708.448967	0.575013
708.783421	0.567722
709.117825	0.561807
709.452180	0.562468
709.786485	0.555505
710.120742	0.545806
710.454949	0.547659
710.789107	0.540228
711.123216	0.530914
711.457275	0.532954
711.791286	0.523913
712.125247	0.522337
712.459159	0.533419
712.793023	0.525718
713.126837	0.529723
713.460602	0.530469
713.794318	0.540026
714.127985	0.538223
714.461602	0.548804
714.795171	0.551997
715.128691	0.560330
715.462162	0.567473
715.795584	0.572589
716.128957	0.575787
716.462281	0.582082
716.795556	0.585897
717.128782	0.590640
717.461960	0.600349
717.795088	0.598321
718.128167	0.604467
718.461198	0.613580
718.794180	0.614193
719.127113	0.616583
719.459997	0.620678
719.792833	0.626819
720.125619	0.627933
720.458357	0.634537
720.791046	0.633366
721.123686	0.637098
721.456278	0.643323
721.788821	0.641660
722.121315	0.645478
722.453761	0.649389
722.786158	0.647621
723.118506	0.643384
723.450805	0.652014
723.783056	0.647710
724.115259	0.645082
724.447412	0.644882
724.779518	0.645761
725.111574	0.644970
725.443582	0.640700
725.775542	0.642237
726.107453	0.634297
726.439315	0.635024
726.771129	0.633053
727.102895	0.626285
727.434612	0.619986
727.766281	0.616713
728.097901	0.616636
728.429473	0.616839
728.760996	0.614394
729.092471	0.614548
729.423897	0.618456
729.755276	0.617736
730.086606	0.617679
730.417887	0.612628
730.749120	0.602783
731.080305	0.594063
731.411442	0.590398
731.742530	0.595604
732.073570	0.594842
732.404562	0.586393
732.735506	0.587857
733.066401	0.592780
733.397249	0.601760
733.728048	0.612700
734.058798	0.625514
734.389501	0.636552
734.720156	0.645874
735.050762	0.654241
735.381320	0.655036
735.711831	0.664384
736.042293	0.668991
736.372707	0.664479
736.703073	0.669379
737.033391	0.671769
737.363661	0.667804
737.693883	0.663951
738.024056	0.663378
738.354182	0.662531
738.684260	0.652761
739.014290	0.649117
739.344272	0.649359
739.674207	0.642236
740.004093	0.642524
740.333931	0.642560
740.663722	0.642766
740.993464	0.642842
741.323159	0.647622
741.652806	0.652235
741.982405	0.656670
742.311956	0.661498
742.641460	0.664053
742.970915	0.666952
743.300323	0.674907
743.629683	0.681337
743.958996	0.683266
744.288260	0.687832
744.617477	0.693696
744.946647	0.695447
745.275768	0.700341
745.604842	0.700358
745.933869	0.710448
746.262847	0.710093
746.591778	0.704004
746.920662	0.710318
747.249498	0.717187
747.578286	0.707868
747.907027	0.704151
748.235720	0.704800
748.564365	0.700122
748.892963	0.699607
749.221514	0.702990
749.550017	0.707545
749.878473	0.707318
750.206881	0.713979
750.535242	0.714144
750.863555	0.715684
751.191821	0.715835
751.520039	0.719042
751.848210	0.724434
752.176334	0.716173
752.504411	0.715838
752.832440	0.723687
753.160421	0.727223
753.488356	0.726135
753.816243	0.724087
754.144082	0.731487
754.471875	0.734904
754.799620	0.730918
755.127318	0.732489
755.454969	0.732070
755.782572	0.731308
756.110129	0.735790
756.437638	0.738526
756.765100	0.735214
757.092515	0.733155
757.419882	0.731870
757.747203	0.737830
758.074477	0.737129
758.401703	0.734830
758.728882	0.729462
759.056014	0.727662
759.383099	0.727157
759.710138	0.728368
760.037129	0.725343
760.364073	0.719120
760.690970	0.721485
761.017820	0.727584
761.344623	0.722541
761.671379	0.713204
761.998088	0.701443
762.324751	0.679281
762.651366	0.637297
762.977935	0.570009
763.304456	0.518565
763.630931	0.509133
763.957359	0.547885
764.283740	0.592814
764.610074	0.619709
764.936362	0.650524
765.262602	0.677494
765.588796	0.698573
765.914943	0.716344
766.241044	0.735084
766.567097	0.742051
766.893104	0.750227
767.219064	0.757675
767.544978	0.764066
767.870845	0.777193
768.196665	0.781533
768.522438	0.779125
768.848165	0.780535
769.173846	0.788951
769.499479	0.793659
769.825066	0.796758
770.150607	0.802248
770.476101	0.797950
770.801548	0.798265
771.126949	0.810217
771.452303	0.813471
771.777611	0.812940
772.102872	0.812665
772.428087	0.817927
772.753256	0.820566
773.078378	0.822592
773.403453	0.831582
773.728482	0.836828
774.053465	0.829856
774.378401	0.832440
774.703291	0.842044
775.028135	0.840216
775.352932	0.843213
775.677683	0.845488
776.002388	0.846141
776.327046	0.845294
776.651658	0.849142
776.976224	0.852972
777.300743	0.852925
777.625216	0.855512
777.949643	0.856802
778.274024	0.856451
778.598359	0.858654
778.922647	0.855997
779.246889	0.857003
779.571086	0.862184
779.895236	0.863081
780.219339	0.859802
780.543397	0.857445
780.867409	0.856237
781.191374	0.858090
781.515294	0.860159
781.839167	0.858751
782.162995	0.861957
782.486776	0.858866
782.810511	0.859741
783.134201	0.862967
783.457844	0.861874
783.781441	0.864896
784.104993	0.869936
784.428498	0.870434
784.751958	0.866410
785.075372	0.868290
785.398739	0.872851
785.722061	0.869387
786.045337	0.863927
786.368568	0.868872
786.691752	0.871175
787.014891	0.856768
787.337983	0.847661
787.661030	0.840680
787.984031	0.823800
788.306987	0.810154
788.629897	0.813050
788.952760	0.816224
789.275579	0.820561
789.598351	0.836666
789.921078	0.848535
790.243759	0.850666
790.566395	0.856299
790.888984	0.863449
791.211529	0.867977
791.534027	0.872205
791.856480	0.873386
792.178888	0.878579
792.501249	0.881284
792.823566	0.882266
793.145836	0.882813
793.468062	0.884444
793.790241	0.884038
794.112375	0.883037
794.434464	0.878378
794.756507	0.875869
795.078505	0.876992
795.400457	0.872145
795.722364	0.859663
796.044226	0.852456
796.366042	0.851473
796.687812	0.855086
797.009538	0.850560
797.331218	0.853784
797.652852	0.858896
797.974442	0.864261
798.295986	0.862933
798.617484	0.866388
798.938938	0.870300
799.260346	0.874650
799.581709	0.877430
799.903026	0.879214
800.224299	0.880260
800.545526	0.883992
800.866708	0.887743
801.187845	0.891575
801.508936	0.890884
801.829983	0.888998
802.150984	0.892347
802.471940	0.897396
802.792851	0.896219
803.113717	0.898329
803.434538	0.895608
803.755314	0.897494
804.076045	0.899925
804.396731	0.899857
804.717372	0.898769
805.037967	0.901293
805.358518	0.898854
805.679024	0.895859
805.999485	0.895899
806.319901	0.896489
806.640272	0.898128
806.960598	0.896536
807.280879	0.892651
807.601115	0.891395
807.921306	0.895185
808.241453	0.895351
808.561554	0.892898
808.881611	0.893474
809.201623	0.895895
809.521590	0.895330
809.841513	0.896484
810.161390	0.894811
810.481223	0.897344
810.801011	0.900568
811.120755	0.902541
811.440453	0.900641
811.760107	0.900808
812.079716	0.898973
812.399281	0.903920
812.718801	0.905541
813.038276	0.907149
813.357707	0.906429
813.677093	0.903530
813.996434	0.906270
814.315731	0.908067
814.634983	0.908870
814.954191	0.907830
815.273354	0.904342
815.592473	0.902413
815.911547	0.901357
816.230577	0.899316
816.549562	0.895342
816.868502	0.897028
817.187399	0.893295
817.506250	0.887471
817.825058	0.889739
818.143821	0.887036
818.462539	0.880608
818.781213	0.874090
819.099843	0.861822
819.418429	0.846177
819.736970	0.828169
820.055466	0.809019
820.373919	0.783427
820.692327	0.750406
821.010691	0.716418
821.329011	0.638272
821.647286	0.523819
821.965517	0.409590
822.283704	0.367131
822.601847	0.368287
822.919945	0.403811
823.237999	0.437547
823.556010	0.484415
823.873976	0.539811
824.191897	0.591078
824.509775	0.633079
824.827609	0.678804
825.145398	0.701389
825.463144	0.704326
825.780845	0.686852
826.098502	0.668869
826.416116	0.622808
826.733685	0.577981
827.051210	0.569524
827.368692	0.584457
827.686129	0.622142
828.003522	0.674913
828.320872	0.723100
828.638177	0.766713
828.955439	0.799019
829.272656	0.821196
829.589830	0.838153
829.906960	0.854499
830.224046	0.866133
830.541088	0.876221
830.858086	0.880833
831.175041	0.887359
831.491952	0.886557
831.808819	0.883261
832.125642	0.877107
832.442421	0.860779
832.759157	0.839809
833.075849	0.793002
833.392497	0.730181
833.709101	0.689694
834.025662	0.698537
834.342179	0.730843
834.658653	0.769643
834.975083	0.805635
835.291469	0.830934
835.607811	0.854088
835.924110	0.869674
836.240366	0.887152
836.556578	0.901103
836.872746	0.908929
837.188871	0.914392
837.504952	0.919935
837.820990	0.923722
838.136984	0.926278
838.452935	0.929371
838.768842	0.931424
839.084706	0.923914
839.400526	0.898914
839.716303	0.858073
840.032037	0.836358
840.347727	0.840262
840.663373	0.858020
840.978977	0.880013
841.294537	0.901773
841.610054	0.917094
841.925527	0.926208
842.240957	0.932320
842.556344	0.940698
842.871687	0.945125
843.186987	0.949884
843.502244	0.949624
843.817458	0.951970
844.132629	0.956532
844.447756	0.960028
844.762840	0.959945
845.077881	0.959826
845.392879	0.959604
845.707833	0.962108
846.022745	0.964468
846.337613	0.964633
846.652438	0.965975
846.967221	0.964720
847.281960	0.964177
847.596656	0.967267
847.911309	0.966180
848.225919	0.966848
848.540485	0.967813
848.855009	0.968126
849.169490	0.968413
849.483928	0.968538
849.798323	0.969825
850.112675	0.968708
850.426984	0.969438
850.741251	0.969574
851.055474	0.970680
851.369654	0.966846
851.683792	0.969385
851.997887	0.970782
852.311938	0.970031
852.625947	0.970114
852.939914	0.967886
853.253837	0.968789
853.567718	0.970723
853.881555	0.971167
854.195350	0.968028
854.509103	0.969788
854.822812	0.969083
855.136479	0.969703
855.450103	0.969039
855.763685	0.967779
856.077224	0.967868
856.390720	0.970139
856.704173	0.970571
857.017584	0.968776
857.330953	0.967442
857.644278	0.968227
857.957561	0.967699
858.270802	0.968370
858.584000	0.967358
858.897155	0.966847
859.210268	0.967169
859.523339	0.966981
859.836367	0.971170
860.149352	0.970172
860.462295	0.967726
860.775195	0.969210
861.088054	0.969052
861.400869	0.969339
861.713642	0.970411
862.026373	0.969839
862.339062	0.971479
862.651708	0.967650
862.964312	0.967774
863.276873	0.969161
863.589392	0.966997
863.901869	0.966428
864.214303	0.964817
864.526696	0.964085
864.839045	0.962734
865.151353	0.961121
865.463619	0.962487
865.775842	0.962854
866.088023	0.962094
866.400162	0.962421
866.712258	0.961380
867.024313	0.962969
867.336325	0.963845
867.648296	0.964569
867.960224	0.961699
868.272110	0.961431
868.583954	0.964569
868.895755	0.964311
869.207515	0.962114
869.519233	0.959071
869.830909	0.960176
870.142542	0.961523
870.454134	0.962517
870.765684	0.960959
871.077191	0.957912
871.388657	0.958694
871.700081	0.957720
872.011463	0.958012
872.322803	0.958526
872.634101	0.956657
872.945357	0.954590
873.256571	0.953981
873.567744	0.952879
873.878874	0.953684
874.189963	0.952033
874.501010	0.950740
874.812015	0.950144
875.122979	0.951344
875.433900	0.952633
875.744780	0.953108
876.055618	0.950262
876.366415	0.949869
876.677169	0.950113
876.987882	0.952048
877.298554	0.950273
877.609183	0.947815
877.919771	0.943716
878.230317	0.943027
878.540822	0.940689
878.851285	0.934260
879.161707	0.926934
879.472087	0.915053
879.782425	0.898969
880.092722	0.864844
880.402977	0.813355
880.713191	0.751694
881.023363	0.693281
881.333494	0.659081
881.643583	0.630704
881.953631	0.630273
882.263637	0.659735
882.573602	0.698922
882.883526	0.725238
883.193408	0.747727
883.503248	0.770032
883.813048	0.798049
884.122806	0.827546
884.432522	0.850920
884.742197	0.869682
885.051831	0.882034
885.361424	0.891172
885.670975	0.904170
885.980485	0.913516
886.289954	0.919080
886.599382	0.924264
886.908768	0.928341
887.218113	0.933835
887.527417	0.940129
887.836680	0.941432
888.145901	0.944214
888.455082	0.944915
888.764221	0.950280
889.073319	0.952235
889.382376	0.952836
889.691392	0.952981
890.000366	0.951786
890.309300	0.953119
890.618193	0.952951
890.927044	0.952075
891.235855	0.951258
891.544625	0.950857
891.853353	0.951929
892.162041	0.949515
892.470687	0.942863
892.779293	0.938181
893.087858	0.933885
893.396381	0.926380
893.704864	0.912536
894.013306	0.888648
894.321707	0.862802
894.630068	0.847866
894.938387	0.843106
895.246665	0.844174
895.554903	0.856614
895.863100	0.870685
896.171256	0.886871
896.479371	0.906080
896.787446	0.918224
897.095480	0.926338
897.403473	0.927920
897.711425	0.933254
898.019336	0.939918
898.327207	0.942911
898.635038	0.944715
898.942827	0.945188
899.250576	0.948660
899.558284	0.952716
899.865952	0.954263
900.173579	0.954659
900.481165	0.955460
900.788711	0.959626
901.096216	0.960681
901.403681	0.961293
901.711105	0.961937
902.018489	0.962969
902.325832	0.962548
902.633135	0.961348
902.940397	0.955081
903.247619	0.943586
903.554800	0.917642
903.861941	0.877943
904.169041	0.842790
904.476101	0.826526
904.783121	0.825999
905.090100	0.842102
905.397039	0.864099
905.703938	0.886060
906.010796	0.905823
906.317614	0.923637
906.624391	0.933743
906.931129	0.944328
907.237826	0.951733
907.544483	0.959323
907.851099	0.962011
908.157675	0.967447
908.464211	0.969661
908.770707	0.972364
909.077163	0.974321
909.383578	0.974515
909.689954	0.975756
909.996289	0.975067
910.302584	0.977682
910.608839	0.978981
910.915054	0.978582
911.221229	0.978883
911.527363	0.976790
911.833458	0.977796
912.139513	0.976684
912.445527	0.975095
912.751502	0.973604
913.057436	0.971471
913.363331	0.969987
913.669186	0.966390
913.975000	0.961065
914.280775	0.956045
914.586510	0.947482
914.892205	0.933985
915.197859	0.914360
915.503475	0.886462
915.809050	0.867389
916.114585	0.861326
916.420081	0.858527
916.725536	0.854774
917.030952	0.863532
917.336328	0.876841
917.641665	0.890904
917.946961	0.906825
918.252218	0.918336
918.557435	0.927021
918.862612	0.936855
919.167750	0.941375
919.472848	0.947082
919.777906	0.953403
920.082925	0.958058
920.387904	0.961244
920.692843	0.962814
920.997743	0.964092
921.302603	0.967515
921.607423	0.969527
921.912204	0.971644
922.216946	0.971862
922.521647	0.972810
922.826310	0.974705
923.130932	0.977691
923.435516	0.977573
923.740059	0.978254
924.044564	0.978505
924.349028	0.980771
924.653454	0.982959
924.957840	0.985903
925.262186	0.984122
925.566493	0.983767
925.870761	0.984272
926.174989	0.987215
926.479178	0.987971
926.783328	0.988394
927.087438	0.988171
927.391509	0.988177
927.695541	0.989921
927.999533	0.988341
928.303486	0.989252
928.607400	0.992246
928.911275	0.989020
929.215110	0.989814
929.518906	0.990143
929.822663	0.989383
930.126381	0.991826
930.430060	0.990962
930.733699	0.990180
931.037299	0.989502
931.340861	0.990093
931.644383	0.988635
931.947866	0.989903
932.251309	0.989254
932.554714	0.989808
932.858080	0.989955
933.161407	0.990500
933.464694	0.990933
933.767943	0.990408
934.071153	0.990861
934.374323	0.991776
934.677455	0.989876
934.980548	0.990608
935.283602	0.990483
935.586617	0.991490
935.889593	0.990698
936.192530	0.990624
936.495428	0.990218
936.798287	0.990743
937.101108	0.989371
937.403890	0.988432
937.706632	0.988330
938.009336	0.987220
938.312002	0.985985
938.614628	0.983377
938.917216	0.983462
939.219765	0.981658
939.522275	0.983223
939.824747	0.983305
940.127179	0.982405
940.429573	0.984113
940.731929	0.984945
941.034246	0.983558
941.336524	0.985653
941.638763	0.985966
941.940964	0.986383
942.243126	0.986219
942.545250	0.986106
942.847335	0.988476
943.149381	0.987650
943.451389	0.987698
943.753359	0.988040
944.055290	0.989264
944.357182	0.989067
944.659036	0.988696
944.960851	0.989812
945.262628	0.989432
945.564367	0.990857
945.866067	0.989906
946.167729	0.990283
946.469352	0.990043
946.770937	0.988664
947.072484	0.989913
947.373992	0.989698
947.675462	0.990545
947.976893	0.989945
948.278286	0.989503
948.579641	0.991294
948.880958	0.990272
949.182236	0.990569
949.483476	0.990816
949.784678	0.989070
950.085841	0.991155
950.386967	0.990278
950.688054	0.990081
950.989103	0.990066
951.290114	0.988781
951.591087	0.989123
951.892021	0.989681
952.192917	0.988518
952.493776	0.988056
952.794596	0.988301
953.095378	0.986328
953.396122	0.987905
953.696828	0.987420
953.997496	0.990263
954.298126	0.991043
954.598718	0.991094
954.899272	0.991344
955.199788	0.989659
955.500266	0.992147
955.800706	0.993219
956.101108	0.992906
956.401472	0.992636
956.701798	0.993509
957.002087	0.992260
957.302337	0.994525
957.602550	0.994525
957.902724	0.994236
958.202861	0.995159
958.502960	0.995043
958.803022	0.993656
959.103045	0.996118
959.403031	0.995145
959.702979	0.995153
960.002889	0.995554
960.302762	0.994011
960.602596	0.996559
960.902393	0.993925
961.202153	0.996128
961.501875	0.998353
961.801559	0.994784
962.101205	0.996147
962.400814	0.995536
962.700385	0.997289
962.999918	0.995970
963.299414	0.996029
963.598873	0.995544
963.898293	0.995986
964.197677	0.995657
964.497022	0.996381
964.796331	0.996334
965.095601	0.995555
965.394835	0.996127
965.694030	0.995825
965.993189	0.997477
966.292309	0.995635
966.591393	0.997391
966.890439	0.996917
967.189447	0.996271
967.488419	0.996511
967.787353	0.995612
968.086249	0.997132
968.385108	0.997006
968.683930	0.997755
968.982714	0.996358
969.281462	0.996886
969.580172	0.996353
969.878844	0.996414
970.177480	0.996606
970.476078	0.997009
970.774639	0.995644
971.073162	0.997562
971.371649	0.996139
971.670098	0.995831
971.968510	0.997532
972.266885	0.994991
972.565223	0.996120
972.863524	0.996196
973.161788	0.996125
973.460014	0.997432
973.758204	0.995519
974.056356	0.996443
974.354471	0.994751
974.652550	0.996141
974.950591	0.995763
975.248595	0.996407
975.546563	0.996739
975.844493	0.998249
976.142386	0.996070
976.440243	0.996907
976.738062	0.996609
977.035845	0.997063
977.333590	0.996309
977.631299	0.997598
977.928971	0.997080
978.226606	0.996476
978.524204	0.995061
978.821765	0.998482
979.119290	0.996266
979.416777	0.996683
979.714228	0.997617
980.011642	0.995535
980.309020	0.995995
980.606360	0.996672
980.903664	0.998161
981.200931	0.996314
981.498162	0.995431
981.795356	0.994790
982.092513	0.994281
982.389633	0.993451
982.686717	0.990238
982.983764	0.990810
983.280775	0.990345
983.577749	0.990291
983.874686	0.990196
984.171587	0.992289
984.468451	0.994490
984.765279	0.994542
985.062070	0.994969
985.358824	0.994715
985.655543	0.994129
985.952224	0.996497
986.248869	0.996303
986.545478	0.995731
986.842050	0.998118
987.138586	0.996001
987.435086	0.997648
987.731549	0.998528
988.027975	0.996685
988.324366	0.997224
988.620719	0.996265
988.917037	0.995779
989.213318	0.998659
989.509563	0.999281
989.805772	0.997532
990.101944	0.998100
990.398080	0.997498
990.694180	0.998130
990.990244	0.997122
991.286271	0.998610
991.582262	0.998446
991.878217	0.997019
992.174136	0.999288
992.470019	0.998612
992.765865	0.997751
993.061676	0.998742
993.357450	0.997951
993.653188	0.997248
993.948890	0.997536
994.244556	0.997337
994.540186	0.997978
994.835780	0.996443
995.131337	0.996787
995.426859	0.997394
995.722345	0.998077
996.017795	0.995769
996.313208	0.995901
996.608586	0.995851
996.903928	0.996401
997.199234	0.996470
997.494504	0.996282
997.789738	0.995511
998.084936	0.995952
998.380099	0.998240
998.675225	0.996868
998.970316	0.998013
999.265371	0.998655
999.560390	0.997071
999.855373	0.997492
1000.150320	0.997345
1000.445232	0.998390
1000.740108	0.997104
1001.034948	0.997365
1001.329752	0.998381
1001.624521	0.998539
1001.919254	0.998066
1002.213951	0.998252
1002.508613	0.997189
1002.803239	0.999885
1003.097829	0.999191
1003.392384	0.998746
1003.686903	0.998677
1003.981386	0.999850
1004.275834	0.998249
1004.570246	0.998079
1004.864623	0.999560
1005.158964	0.999586
1005.453270	0.998205
1005.747540	0.997564
1006.041775	0.998164
1006.335974	0.998600
1006.630138	0.998246
1006.924266	1.000107
1007.218359	0.999333
1007.512416	0.999111
1007.806438	0.998561
1008.100425	1.000421
1008.394376	0.998547
1008.688292	0.999095
1008.982172	1.000045
1009.276017	0.999323
1009.569827	0.997686
1009.863602	0.999222
1010.157341	0.999686
1010.451045	0.999088
1010.744714	0.999635
1011.038347	0.999688
1011.331945	0.999017
1011.625508	0.997670
1011.919036	0.998987
1012.212528	0.999338
1012.505986	0.997518
1012.799408	0.998281
1013.092795	0.999982
1013.386147	0.998606
1013.679464	0.998442
1013.972745	0.997883
1014.265992	0.998270
1014.559204	0.999069
1014.852380	0.998827
1015.145521	0.998348
1015.438628	0.998505
1015.731699	0.998887
1016.024736	0.997866
1016.317737	0.999282
1016.610703	0.998924
1016.903635	0.999582
1017.196531	0.998396
1017.489393	0.999147
1017.782219	0.998250
1018.075011	0.998808
1018.367768	0.998372
1018.660490	0.999783
1018.953177	0.999783
1019.245829	0.999783
