Dividing Wavelength (nm)	Counts (n)	Blue Motor Position (mm): 0.000000	Red Motor Position (mm): 10.400000	
326.493990	1.000446
326.888308	1.000446
327.282561	1.000446
327.676750	1.001834
328.070874	0.999110
328.464933	1.000963
328.858929	0.998753
329.252859	1.000630
329.646726	0.999493
330.040528	1.000969
330.434265	0.999376
330.827938	1.001576
331.221547	1.000650
331.615091	1.000595
332.008571	0.999594
332.401986	1.000036
332.795338	1.000822
333.188625	1.000020
333.581847	1.000974
333.975006	0.999537
334.368100	1.000260
334.761129	1.000761
335.154095	1.001726
335.546996	0.998959
335.939833	0.992567
336.332606	0.992996
336.725315	0.995144
337.117960	0.995555
337.510540	0.993653
337.903056	0.994362
338.295508	0.993246
338.687896	0.994115
339.080220	0.993990
339.472480	0.994045
339.864676	0.993747
340.256807	0.994885
340.648875	0.994342
341.040879	0.994964
341.432818	0.993682
341.824694	0.993441
342.216506	0.994622
342.608253	0.994541
342.999937	0.993321
343.391557	0.994355
343.783113	0.992867
344.174605	0.993530
344.566033	0.994304
344.957397	0.993918
345.348697	0.993282
345.739934	0.993283
346.131106	0.993436
346.522215	0.994529
346.913260	0.993167
347.304241	0.992771
347.695159	0.994121
348.086012	0.992331
348.476802	0.993812
348.867528	0.994540
349.258191	0.992187
349.648789	0.993964
350.039324	0.994044
350.429796	0.994661
350.820203	0.993731
351.210548	0.992968
351.600828	0.994529
351.991045	0.994726
352.381198	0.992484
352.771288	0.993604
353.161314	0.993695
353.551276	0.994001
353.941175	0.994033
354.331010	0.993321
354.720782	0.993851
355.110490	0.992975
355.500135	0.993862
355.889717	0.993472
356.279235	0.993173
356.668689	0.992907
357.058080	0.994145
357.447408	0.993646
357.836672	0.993890
358.225873	0.993513
358.615010	0.993326
359.004084	0.994421
359.393095	0.993604
359.782043	0.994455
360.170927	0.994994
360.559748	0.994672
360.948505	0.992693
361.337199	0.992870
361.725830	0.992658
362.114398	0.993429
362.502903	0.995016
362.891344	0.995543
363.279722	0.992587
363.668037	0.994030
364.056289	0.992529
364.444478	0.993909
364.832603	0.993281
365.220665	0.991503
365.608665	0.992320
365.996601	0.992407
366.384474	0.992590
366.772284	0.993091
367.160031	0.991081
367.547715	0.991641
367.935336	0.992277
368.322893	0.992651
368.710388	0.992285
369.097820	0.991837
369.485189	0.992010
369.872495	0.990669
370.259738	0.990629
370.646918	0.993422
371.034035	0.992537
371.421090	0.992673
371.808081	0.993047
372.195010	0.992234
372.581875	0.992835
372.968678	0.992050
373.355418	0.992584
373.742096	0.992158
374.128710	0.993161
374.515262	0.991969
374.901751	0.992491
375.288177	0.992505
375.674540	0.992360
376.060841	0.992412
376.447079	0.991082
376.833254	0.991874
377.219367	0.992329
377.605417	0.991806
377.991404	0.991979
378.377329	0.991764
378.763191	0.991192
379.148991	0.993120
379.534727	0.991443
379.920402	0.991634
380.306013	0.990306
380.691563	0.990171
381.077049	0.987542
381.462474	0.986319
381.847835	0.984643
382.233134	0.982658
382.618371	0.981045
383.003545	0.977248
383.388657	0.974529
383.773706	0.972002
384.158693	0.967863
384.543618	0.963118
384.928480	0.960640
385.313280	0.954506
385.698017	0.950072
386.082692	0.944863
386.467305	0.939334
386.851856	0.932731
387.236344	0.926474
387.620770	0.919935
388.005133	0.913454
388.389435	0.906069
388.773674	0.898756
389.157851	0.890035
389.541965	0.882603
389.926018	0.877999
390.310008	0.866732
390.693936	0.857389
391.077802	0.847496
391.461606	0.841296
391.845348	0.828613
392.229027	0.822403
392.612645	0.812442
392.996200	0.799162
393.379694	0.787385
393.763125	0.773874
394.146494	0.768726
394.529801	0.754746
394.913047	0.742312
395.296230	0.738557
395.679351	0.725840
396.062410	0.715887
396.445408	0.711286
396.828343	0.700135
397.211217	0.689411
397.594028	0.693645
397.976778	0.679048
398.359466	0.670609
398.742092	0.660471
399.124656	0.666400
399.507158	0.651157
399.889598	0.644357
400.271977	0.631800
400.654294	0.632142
401.036549	0.626410
401.418742	0.627371
401.800874	0.610436
402.182944	0.605427
402.564952	0.594253
402.946898	0.593319
403.328783	0.591151
403.710606	0.600030
404.092367	0.573375
404.474067	0.576481
404.855705	0.574075
405.237282	0.582550
405.618797	0.566978
406.000250	0.561270
406.381642	0.551349
406.762972	0.555042
407.144240	0.553035
407.525447	0.553090
407.906593	0.544670
408.287677	0.539874
408.668700	0.547478
409.049661	0.540304
409.430560	0.536735
409.811399	0.544352
410.192176	0.525407
410.572891	0.532567
410.953545	0.520894
411.334138	0.533894
411.714669	0.526913
412.095139	0.538067
412.475547	0.522846
412.855894	0.524722
413.236180	0.523771
413.616405	0.528650
413.996568	0.519674
414.376670	0.525247
414.756711	0.530984
415.136691	0.527066
415.516609	0.518329
415.896466	0.514523
416.276262	0.510621
416.655997	0.512382
417.035670	0.493826
417.415283	0.486295
417.794834	0.490444
418.174324	0.495395
418.553753	0.504443
418.933121	0.487266
419.312428	0.481230
419.691674	0.486176
420.070859	0.475001
420.449983	0.483305
420.829045	0.472695
421.208047	0.481193
421.586988	0.475128
421.965867	0.473882
422.344686	0.462731
422.723444	0.475106
423.102141	0.491517
423.480777	0.464809
423.859352	0.484983
424.237866	0.462315
424.616319	0.462739
424.994712	0.453890
425.373044	0.464324
425.751314	0.452469
426.129524	0.468747
426.507673	0.452830
426.885762	0.446801
427.263789	0.452106
427.641756	0.461283
428.019662	0.452012
428.397508	0.450240
428.775292	0.454970
429.153016	0.447311
429.530679	0.453446
429.908282	0.446322
430.285824	0.456191
430.663305	0.434499
431.040726	0.455435
431.418086	0.456225
431.795385	0.447933
432.172624	0.446234
432.549802	0.447204
432.926920	0.446113
433.303977	0.445500
433.680974	0.442377
434.057910	0.441118
434.434786	0.440737
434.811601	0.442876
435.188355	0.425558
435.565050	0.434355
435.941683	0.435876
436.318257	0.420549
436.694770	0.421130
437.071222	0.419068
437.447614	0.423856
437.823946	0.430109
438.200218	0.420058
438.576429	0.429167
438.952580	0.422331
439.328670	0.418974
439.704700	0.425714
440.080670	0.426775
440.456580	0.407908
440.832429	0.415339
441.208218	0.426664
441.583947	0.415467
441.959616	0.415341
442.335224	0.420421
442.710773	0.411640
443.086261	0.409505
443.461689	0.423498
443.837057	0.412851
444.212365	0.402979
444.587612	0.410187
444.962800	0.400179
445.337927	0.401493
445.712995	0.427389
446.088002	0.390069
446.462949	0.400075
446.837837	0.405209
447.212664	0.394153
447.587431	0.385906
447.962139	0.356722
448.336786	0.315382
448.711374	0.325823
449.085901	0.369667
449.460369	0.374038
449.834776	0.377464
450.209124	0.357237
450.583412	0.349360
450.957640	0.342457
451.331808	0.353449
451.705917	0.377310
452.079965	0.381612
452.453954	0.370265
452.827883	0.377190
453.201752	0.371794
453.575562	0.383169
453.949311	0.371910
454.323001	0.377761
454.696632	0.373755
455.070202	0.366176
455.443713	0.358006
455.817164	0.352961
456.190556	0.348732
456.563888	0.345390
456.937160	0.343072
457.310373	0.360473
457.683526	0.358990
458.056619	0.364722
458.429653	0.365521
458.802628	0.368913
459.175542	0.363060
459.548398	0.345736
459.921194	0.337957
460.293930	0.338399
460.666607	0.315355
461.039224	0.304338
461.411782	0.299735
461.784280	0.299251
462.156719	0.303622
462.529099	0.307668
462.901419	0.323561
463.273680	0.328130
463.645882	0.327317
464.018024	0.333595
464.390106	0.326679
464.762130	0.311248
465.134094	0.294127
465.505999	0.263464
465.877845	0.233714
466.249631	0.220720
466.621358	0.228150
466.993026	0.242043
467.364634	0.248267
467.736184	0.257122
468.107674	0.265811
468.479105	0.264658
468.850477	0.271461
469.221790	0.278540
469.593043	0.288654
469.964238	0.293595
470.335373	0.292481
470.706449	0.290832
471.077467	0.291308
471.448425	0.253568
471.819324	0.229323
472.190164	0.228719
472.560945	0.257534
472.931667	0.279540
473.302330	0.283806
473.672934	0.295509
474.043479	0.283683
474.413965	0.285421
474.784393	0.289479
475.154761	0.284124
475.525070	0.281038
475.895321	0.287012
476.265513	0.281141
476.635645	0.276536
477.005719	0.276371
477.375734	0.272927
477.745691	0.266502
478.115588	0.262898
478.485427	0.256290
478.855207	0.243295
479.224928	0.225539
479.594591	0.213714
479.964194	0.217254
480.333739	0.218552
480.703226	0.219938
481.072653	0.218453
481.442022	0.214002
481.811333	0.210459
482.180584	0.214283
482.549777	0.219163
482.918912	0.222694
483.287988	0.222311
483.657005	0.221981
484.025964	0.228543
484.394864	0.225919
484.763706	0.226502
485.132489	0.231217
485.501213	0.232055
485.869879	0.230571
486.238487	0.233924
486.607036	0.231625
486.975527	0.236178
487.343959	0.232167
487.712333	0.231143
488.080648	0.232634
488.448905	0.231857
488.817104	0.232883
489.185244	0.227675
489.553326	0.224439
489.921350	0.214675
490.289315	0.196829
490.657222	0.192138
491.025070	0.193209
491.392861	0.195061
491.760593	0.200792
492.128267	0.206318
492.495883	0.211939
492.863440	0.217925
493.230939	0.224524
493.598380	0.225852
493.965763	0.228005
494.333088	0.230413
494.700354	0.231666
495.067563	0.230714
495.434713	0.234088
495.801805	0.232052
496.168839	0.233607
496.535815	0.234813
496.902733	0.234870
497.269593	0.236286
497.636395	0.234060
498.003139	0.234311
498.369825	0.237462
498.736453	0.234007
499.103023	0.235376
499.469535	0.234700
499.835989	0.234783
500.202385	0.235972
500.568723	0.239371
500.935003	0.234347
501.301226	0.238671
501.667390	0.232920
502.033497	0.231290
502.399546	0.233872
502.765537	0.236004
503.131470	0.234618
503.497345	0.230416
503.863163	0.239399
504.228923	0.232286
504.594625	0.231192
504.960269	0.236385
505.325856	0.231747
505.691385	0.236007
506.056856	0.232810
506.422270	0.232429
506.787625	0.234807
507.152924	0.232000
507.518164	0.232350
507.883347	0.234279
508.248472	0.235758
508.613540	0.230803
508.978550	0.233607
509.343503	0.233756
509.708398	0.231455
510.073236	0.229188
510.438016	0.229198
510.802738	0.230112
511.167403	0.229115
511.532010	0.230963
511.896561	0.226447
512.261053	0.225099
512.625488	0.227455
512.989866	0.227741
513.354186	0.227995
513.718449	0.229816
514.082655	0.226069
514.446803	0.228247
514.810894	0.226016
515.174927	0.228595
515.538904	0.227699
515.902822	0.224932
516.266684	0.227346
516.630488	0.228645
516.994235	0.227379
517.357925	0.226101
517.721558	0.224375
518.085133	0.223929
518.448651	0.224005
518.812112	0.226353
519.175516	0.226066
519.538863	0.223627
519.902152	0.225099
520.265385	0.222193
520.628560	0.223731
520.991678	0.224068
521.354739	0.223035
521.717743	0.224431
522.080690	0.224871
522.443580	0.221918
522.806413	0.222972
523.169189	0.222392
523.531908	0.221409
523.894569	0.224776
524.257174	0.224665
524.619722	0.222567
524.982213	0.223585
525.344647	0.222394
525.707025	0.223417
526.069345	0.221151
526.431608	0.222989
526.793815	0.221084
527.155964	0.225410
527.518057	0.224194
527.880093	0.225238
528.242072	0.223718
528.603995	0.225582
528.965860	0.227564
529.327669	0.226030
529.689421	0.226935
530.051117	0.227945
530.412755	0.225553
530.774337	0.227806
531.135862	0.228366
531.497331	0.227525
531.858743	0.230243
532.220098	0.227277
532.581396	0.229659
532.942638	0.230372
533.303824	0.231427
533.664953	0.230799
534.026025	0.232768
534.387040	0.230670
534.747999	0.230715
535.108902	0.229490
535.469748	0.234651
535.830537	0.232132
536.191270	0.232659
536.551947	0.232337
536.912567	0.232346
537.273131	0.234180
537.633638	0.234424
537.994089	0.234662
538.354483	0.235746
538.714821	0.232672
539.075103	0.232326
539.435328	0.233161
539.795497	0.236863
540.155609	0.233311
540.515665	0.231614
540.875665	0.237005
541.235609	0.235741
541.595496	0.235827
541.955328	0.232341
542.315102	0.235112
542.674821	0.236131
543.034483	0.236129
543.394090	0.235796
543.753640	0.237550
544.113134	0.232841
544.472571	0.236091
544.831953	0.232958
545.191278	0.237074
545.550548	0.236463
545.909761	0.233367
546.268918	0.234137
546.628019	0.232339
546.987064	0.235147
547.346053	0.236988
547.704986	0.234709
548.063863	0.235153
548.422684	0.235434
548.781449	0.237000
549.140158	0.234491
549.498811	0.237596
549.857408	0.240776
550.215949	0.235703
550.574434	0.238332
550.932864	0.236356
551.291237	0.235166
551.649555	0.236515
552.007817	0.236110
552.366022	0.237159
552.724173	0.237232
553.082267	0.237730
553.440305	0.234469
553.798288	0.239026
554.156215	0.235731
554.514086	0.235995
554.871902	0.239133
555.229661	0.238648
555.587365	0.239013
555.945014	0.241666
556.302606	0.238410
556.660143	0.240899
557.017625	0.237508
557.375050	0.239667
557.732421	0.236842
558.089735	0.239067
558.446994	0.238998
558.804197	0.237900
559.161345	0.238240
559.518437	0.241676
559.875474	0.239172
560.232455	0.238918
560.589381	0.239762
560.946251	0.239887
561.303065	0.237487
561.659825	0.239278
562.016528	0.240456
562.373177	0.243315
562.729770	0.240493
563.086307	0.242597
563.442789	0.240253
563.799216	0.243196
564.155587	0.242053
564.511904	0.243013
564.868164	0.243068
565.224370	0.243423
565.580520	0.244744
565.936615	0.244748
566.292654	0.247733
566.648638	0.244668
567.004567	0.245760
567.360441	0.246375
567.716260	0.248361
568.072023	0.245999
568.427732	0.246636
568.783385	0.249308
569.138982	0.247408
569.494525	0.246837
569.850013	0.249664
570.205445	0.248500
570.560823	0.250903
570.916145	0.252660
571.271412	0.250915
571.626625	0.252712
571.981782	0.252936
572.336884	0.253724
572.691931	0.253578
573.046923	0.254515
573.401860	0.255964
573.756743	0.257652
574.111570	0.256555
574.466342	0.256908
574.821059	0.256138
575.175722	0.259134
575.530330	0.258516
575.884882	0.259121
576.239380	0.261224
576.593823	0.261620
576.948211	0.260843
577.302544	0.264470
577.656823	0.263665
578.011047	0.263808
578.365216	0.264436
578.719330	0.266728
579.073389	0.266907
579.427394	0.267908
579.781344	0.268494
580.135239	0.270177
580.489080	0.269716
580.842866	0.272546
581.196597	0.272468
581.550273	0.271330
581.903895	0.272417
582.257463	0.270326
582.610975	0.273638
582.964434	0.272943
583.317837	0.275272
583.671186	0.276050
584.024481	0.275591
584.377721	0.278515
584.730906	0.279365
585.084037	0.278085
585.437113	0.279968
585.790135	0.279522
586.143103	0.282639
586.496016	0.284058
586.848874	0.280733
587.201679	0.281567
587.554428	0.285221
587.907124	0.284362
588.259765	0.284550
588.612352	0.285152
588.964884	0.288981
589.317362	0.288447
589.669786	0.288230
590.022155	0.286728
590.374470	0.286500
590.726731	0.288385
591.078937	0.292695
591.431090	0.289181
591.783188	0.293552
592.135232	0.293739
592.487222	0.294202
592.839157	0.292099
593.191038	0.294470
593.542866	0.296335
593.894639	0.300169
594.246358	0.298127
594.598022	0.297475
594.949633	0.301101
595.301190	0.302011
595.652692	0.300632
596.004141	0.296971
596.355535	0.304928
596.706876	0.305307
597.058162	0.308031
597.409395	0.305348
597.760573	0.302925
598.111698	0.306293
598.462768	0.306808
598.813785	0.308224
599.164748	0.309467
599.515657	0.309578
599.866511	0.313068
600.217312	0.308433
600.568060	0.313628
600.918753	0.310078
601.269392	0.310986
601.619978	0.314244
601.970510	0.311852
602.320988	0.312318
602.671412	0.309850
603.021783	0.312263
603.372100	0.313656
603.722363	0.313263
604.072572	0.313976
604.422728	0.313832
604.772830	0.315733
605.122878	0.315471
605.472872	0.316073
605.822813	0.314351
606.172701	0.316862
606.522534	0.314898
606.872314	0.314580
607.222041	0.315403
607.571714	0.313476
607.921333	0.314931
608.270899	0.314633
608.620411	0.311491
608.969870	0.315099
609.319276	0.315172
609.668627	0.315361
610.017926	0.313796
610.367171	0.312321
610.716362	0.312874
611.065500	0.313740
611.414585	0.311823
611.763616	0.312761
612.112594	0.312857
612.461518	0.312592
612.810389	0.310215
613.159207	0.312527
613.507971	0.314354
613.856682	0.310110
614.205340	0.311698
614.553945	0.308526
614.902496	0.312371
615.250994	0.310483
615.599439	0.310927
615.947830	0.310659
616.296169	0.311915
616.644454	0.310916
616.992686	0.311167
617.340864	0.308832
617.688990	0.312386
618.037063	0.309094
618.385082	0.310854
618.733048	0.307670
619.080961	0.310004
619.428821	0.309831
619.776628	0.309115
620.124382	0.311119
620.472083	0.311653
620.819731	0.310648
621.167326	0.314704
621.514868	0.314291
621.862357	0.318786
622.209793	0.318305
622.557176	0.320641
622.904506	0.321839
623.251783	0.323810
623.599007	0.326357
623.946179	0.325746
624.293297	0.327952
624.640363	0.331752
624.987376	0.332287
625.334336	0.334606
625.681243	0.336745
626.028097	0.337157
626.374899	0.338928
626.721647	0.338838
627.068343	0.342425
627.414987	0.343404
627.761577	0.345271
628.108115	0.343288
628.454600	0.348863
628.801032	0.345859
629.147412	0.348300
629.493739	0.348378
629.840014	0.351736
630.186236	0.348747
630.532405	0.354580
630.878521	0.351550
631.224585	0.354228
631.570597	0.357856
631.916556	0.356161
632.262462	0.356257
632.608316	0.358414
632.954117	0.359284
633.299866	0.360501
633.645562	0.361035
633.991206	0.364757
634.336797	0.367751
634.682336	0.369979
635.027823	0.372110
635.373257	0.372026
635.718639	0.375559
636.063968	0.375256
636.409245	0.380855
636.754470	0.381326
637.099642	0.383860
637.444762	0.387136
637.789829	0.386499
638.134845	0.389597
638.479808	0.391031
638.824719	0.390311
639.169577	0.394409
639.514383	0.393359
639.859137	0.397927
640.203839	0.397619
640.548489	0.398049
640.893086	0.399300
641.237632	0.400766
641.582125	0.399114
641.926566	0.401135
642.270955	0.400862
642.615292	0.401772
642.959576	0.400468
643.303809	0.401338
643.647990	0.400686
643.992118	0.400852
644.336195	0.404892
644.680219	0.403175
645.024192	0.403584
645.368112	0.397286
645.711981	0.396455
646.055797	0.391767
646.399562	0.394253
646.743274	0.386295
647.086935	0.383474
647.430544	0.384119
647.774101	0.382887
648.117606	0.382020
648.461059	0.383122
648.804460	0.385086
649.147810	0.390251
649.491108	0.391826
649.834354	0.393971
650.177548	0.398873
650.520690	0.404458
650.863781	0.405546
651.206820	0.405326
651.549807	0.409445
651.892742	0.413692
652.235626	0.413070
652.578458	0.414145
652.921238	0.419981
653.263967	0.417957
653.606644	0.421911
653.949269	0.421357
654.291843	0.425567
654.634365	0.422389
654.976836	0.425020
655.319255	0.425853
655.661622	0.427530
656.003938	0.427333
656.346203	0.430659
656.688416	0.427658
657.030577	0.431588
657.372687	0.433509
657.714746	0.434396
658.056753	0.431329
658.398708	0.434743
658.740612	0.436249
659.082465	0.432059
659.424266	0.432637
659.766016	0.432287
660.107715	0.434862
660.449362	0.433957
660.790958	0.434005
661.132503	0.434418
661.473996	0.432405
661.815438	0.433588
662.156829	0.433970
662.498168	0.434018
662.839456	0.435889
663.180693	0.433806
663.521879	0.434129
663.863013	0.434535
664.204097	0.432932
664.545129	0.430213
664.886110	0.430562
665.227040	0.427680
665.567918	0.430311
665.908746	0.428614
666.249522	0.427775
666.590248	0.429429
666.930922	0.427490
667.271545	0.425905
667.612118	0.425922
667.952639	0.427674
668.293109	0.426194
668.633528	0.429152
668.973896	0.429228
669.314213	0.429148
669.654480	0.431277
669.994695	0.431143
670.334859	0.432664
670.674973	0.432310
671.015035	0.432575
671.355047	0.432257
671.695008	0.433790
672.034918	0.435012
672.374777	0.435361
672.714585	0.435742
673.054342	0.435815
673.394049	0.436080
673.733705	0.433902
674.073310	0.434907
674.412864	0.438018
674.752368	0.438368
675.091820	0.438389
675.431223	0.443315
675.770574	0.442720
676.109875	0.445853
676.449125	0.445864
676.788324	0.448261
677.127473	0.453935
677.466571	0.453301
677.805619	0.454482
678.144616	0.455879
678.483562	0.457611
678.822458	0.460406
679.161303	0.461663
679.500098	0.461705
679.838842	0.463420
680.177535	0.462852
680.516179	0.462000
680.854771	0.460861
681.193314	0.454135
681.531805	0.445582
681.870247	0.433550
682.208638	0.426105
682.546978	0.425484
682.885268	0.426782
683.223508	0.433094
683.561697	0.437032
683.899836	0.439353
684.237925	0.442625
684.575963	0.445330
684.913951	0.448104
685.251889	0.444547
685.589776	0.446356
685.927614	0.448776
686.265401	0.442523
686.603137	0.444251
686.940824	0.438143
687.278460	0.436809
687.616046	0.435520
687.953582	0.430878
688.291068	0.432380
688.628504	0.428077
688.965889	0.430323
689.303224	0.434252
689.640510	0.438238
689.977745	0.444377
690.314930	0.452125
690.652065	0.456915
690.989150	0.463885
691.326185	0.470629
691.663170	0.474833
692.000105	0.482363
692.336990	0.489013
692.673825	0.491499
693.010610	0.498545
693.347345	0.504203
693.684030	0.505716
694.020665	0.510604
694.357251	0.519349
694.693786	0.519301
695.030272	0.523058
695.366707	0.527069
695.703093	0.529888
696.039429	0.527848
696.375716	0.529770
696.711952	0.532399
697.048139	0.534435
697.384276	0.536244
697.720363	0.534250
698.056400	0.533437
698.392388	0.539222
698.728326	0.542842
699.064214	0.545000
699.400053	0.545669
699.735842	0.549066
700.071581	0.551690
700.407270	0.555390
700.742910	0.557873
701.078501	0.563579
701.414042	0.564311
701.749533	0.567774
702.084974	0.576634
702.420366	0.568499
702.755709	0.576442
703.091002	0.584493
703.426246	0.577617
703.761440	0.583595
704.096584	0.587903
704.431679	0.584799
704.766725	0.587425
705.101721	0.588867
705.436668	0.585179
705.771565	0.592253
706.106413	0.588247
706.441212	0.583524
706.775961	0.582713
707.110661	0.585454
707.445311	0.581886
707.779913	0.578759
708.114465	0.577030
708.448967	0.574601
708.783421	0.565486
709.117825	0.560346
709.452180	0.561196
709.786485	0.554417
710.120742	0.544142
710.454949	0.546595
710.789107	0.538671
711.123216	0.529945
711.457275	0.531068
711.791286	0.521750
712.125247	0.521124
712.459159	0.531224
712.793023	0.523943
713.126837	0.528681
713.460602	0.528941
713.794318	0.538365
714.127985	0.536850
714.461602	0.547474
714.795171	0.550450
715.128691	0.558307
715.462162	0.565589
715.795584	0.571705
716.128957	0.574629
716.462281	0.580042
716.795556	0.584507
717.128782	0.589653
717.461960	0.598634
717.795088	0.597012
718.128167	0.603761
718.461198	0.611864
718.794180	0.612763
719.127113	0.615558
719.459997	0.619190
719.792833	0.625468
720.125619	0.627650
720.458357	0.632680
720.791046	0.632360
721.123686	0.636105
721.456278	0.643343
721.788821	0.639878
722.121315	0.644184
722.453761	0.648040
722.786158	0.646482
723.118506	0.643164
723.450805	0.650177
723.783056	0.646852
724.115259	0.643969
724.447412	0.644094
724.779518	0.644997
725.111574	0.643808
725.443582	0.639624
725.775542	0.641482
726.107453	0.633972
726.439315	0.633399
726.771129	0.631848
727.102895	0.624883
727.434612	0.617616
727.766281	0.615760
728.097901	0.615565
728.429473	0.615478
728.760996	0.613998
729.092471	0.613714
729.423897	0.616869
729.755276	0.615985
730.086606	0.616842
730.417887	0.610915
730.749120	0.601706
731.080305	0.592563
731.411442	0.589033
731.742530	0.593730
732.073570	0.592533
732.404562	0.584747
732.735506	0.586421
733.066401	0.591110
733.397249	0.600346
733.728048	0.610997
734.058798	0.624648
734.389501	0.634939
734.720156	0.644538
735.050762	0.652570
735.381320	0.654316
735.711831	0.662753
736.042293	0.667797
736.372707	0.663633
736.703073	0.668494
737.033391	0.670434
737.363661	0.667514
737.693883	0.662082
738.024056	0.660955
738.354182	0.662369
738.684260	0.651238
739.014290	0.647241
739.344272	0.648693
739.674207	0.641322
740.004093	0.640528
740.333931	0.641745
740.663722	0.641000
740.993464	0.641826
741.323159	0.645705
741.652806	0.649940
741.982405	0.655279
742.311956	0.660606
742.641460	0.662062
742.970915	0.665922
743.300323	0.673814
743.629683	0.680251
743.958996	0.682118
744.288260	0.686661
744.617477	0.691883
744.946647	0.694136
745.275768	0.698708
745.604842	0.698944
745.933869	0.708843
746.262847	0.709021
746.591778	0.702930
746.920662	0.709569
747.249498	0.716199
747.578286	0.707284
747.907027	0.702988
748.235720	0.703449
748.564365	0.699132
748.892963	0.698362
749.221514	0.701434
749.550017	0.707052
749.878473	0.706579
750.206881	0.712437
750.535242	0.714127
750.863555	0.713912
751.191821	0.715159
751.520039	0.717982
751.848210	0.723080
752.176334	0.715997
752.504411	0.715058
752.832440	0.722513
753.160421	0.726351
753.488356	0.724631
753.816243	0.722177
754.144082	0.729739
754.471875	0.734947
754.799620	0.729820
755.127318	0.731245
755.454969	0.730714
755.782572	0.730401
756.110129	0.734905
756.437638	0.738048
756.765100	0.734556
757.092515	0.732384
757.419882	0.731548
757.747203	0.736797
758.074477	0.735710
758.401703	0.732659
758.728882	0.728207
759.056014	0.727330
759.383099	0.725335
759.710138	0.727746
760.037129	0.723611
760.364073	0.717611
760.690970	0.720109
761.017820	0.725712
761.344623	0.720972
761.671379	0.712172
761.998088	0.700400
762.324751	0.678456
762.651366	0.635417
762.977935	0.568563
763.304456	0.516425
763.630931	0.507095
763.957359	0.545748
764.283740	0.590814
764.610074	0.617765
764.936362	0.648991
765.262602	0.675722
765.588796	0.697567
765.914943	0.714923
766.241044	0.733249
766.567097	0.739919
766.893104	0.749564
767.219064	0.755698
767.544978	0.762770
767.870845	0.775294
768.196665	0.779845
768.522438	0.777581
768.848165	0.780195
769.173846	0.788264
769.499479	0.792721
769.825066	0.795688
770.150607	0.801098
770.476101	0.796764
770.801548	0.797854
771.126949	0.809644
771.452303	0.811653
771.777611	0.812821
772.102872	0.811736
772.428087	0.816714
772.753256	0.819529
773.078378	0.822506
773.403453	0.831256
773.728482	0.834851
774.053465	0.828103
774.378401	0.831963
774.703291	0.840363
775.028135	0.840630
775.352932	0.841471
775.677683	0.844747
776.002388	0.845827
776.327046	0.844067
776.651658	0.847811
776.976224	0.852452
777.300743	0.850868
777.625216	0.853599
777.949643	0.855418
778.274024	0.856332
778.598359	0.857061
778.922647	0.855623
779.246889	0.857582
779.571086	0.860036
779.895236	0.862958
780.219339	0.859617
780.543397	0.856177
780.867409	0.855710
781.191374	0.857562
781.515294	0.859387
781.839167	0.858590
782.162995	0.861489
782.486776	0.858314
782.810511	0.859062
783.134201	0.862836
783.457844	0.860020
783.781441	0.863583
784.104993	0.868840
784.428498	0.869595
784.751958	0.866445
785.075372	0.867507
785.398739	0.871286
785.722061	0.867690
786.045337	0.863918
786.368568	0.868108
786.691752	0.870884
787.014891	0.856342
787.337983	0.848108
787.661030	0.839441
787.984031	0.821800
788.306987	0.808942
788.629897	0.811652
788.952760	0.815092
789.275579	0.819197
789.598351	0.834877
789.921078	0.848435
790.243759	0.850823
790.566395	0.855616
790.888984	0.862428
791.211529	0.868114
791.534027	0.870360
791.856480	0.873261
792.178888	0.878182
792.501249	0.881071
792.823566	0.881547
793.145836	0.881987
793.468062	0.885009
793.790241	0.884414
794.112375	0.883316
794.434464	0.877765
794.756507	0.876565
795.078505	0.876541
795.400457	0.870866
795.722364	0.858655
796.044226	0.852661
796.366042	0.850893
796.687812	0.854320
797.009538	0.849979
797.331218	0.852767
797.652852	0.858872
797.974442	0.863104
798.295986	0.862596
798.617484	0.866148
798.938938	0.869766
799.260346	0.875067
799.581709	0.876810
799.903026	0.879099
800.224299	0.879669
800.545526	0.883670
800.866708	0.887479
801.187845	0.891392
801.508936	0.890736
801.829983	0.888813
802.150984	0.891376
802.471940	0.896709
802.792851	0.894193
803.113717	0.896873
803.434538	0.895439
803.755314	0.897411
804.076045	0.899965
804.396731	0.899310
804.717372	0.898552
805.037967	0.900283
805.358518	0.899093
805.679024	0.895768
805.999485	0.895163
806.319901	0.896002
806.640272	0.896478
806.960598	0.895738
807.280879	0.892099
807.601115	0.891016
807.921306	0.895094
808.241453	0.895639
808.561554	0.892428
808.881611	0.893511
809.201623	0.894523
809.521590	0.895190
809.841513	0.895972
810.161390	0.895176
810.481223	0.896460
810.801011	0.900051
811.120755	0.901424
811.440453	0.900040
811.760107	0.899306
812.079716	0.898513
812.399281	0.902657
812.718801	0.905248
813.038276	0.906054
813.357707	0.904729
813.677093	0.902844
813.996434	0.906299
814.315731	0.907407
814.634983	0.908065
814.954191	0.906769
815.273354	0.903654
815.592473	0.899613
815.911547	0.900575
816.230577	0.897329
816.549562	0.895031
816.868502	0.895717
817.187399	0.892708
817.506250	0.887264
817.825058	0.888368
818.143821	0.885613
818.462539	0.879655
818.781213	0.871240
819.099843	0.861424
819.418429	0.844823
819.736970	0.827823
820.055466	0.807595
820.373919	0.781482
820.692327	0.748367
821.010691	0.713456
821.329011	0.635129
821.647286	0.518423
821.965517	0.403884
822.283704	0.361135
822.601847	0.361846
822.919945	0.397512
823.237999	0.431906
823.556010	0.479087
823.873976	0.535363
824.191897	0.586208
824.509775	0.629296
824.827609	0.675508
825.145398	0.698573
825.463144	0.701116
825.780845	0.684017
826.098502	0.665168
826.416116	0.619289
826.733685	0.574823
827.051210	0.565308
827.368692	0.580466
827.686129	0.618467
828.003522	0.672394
828.320872	0.720498
828.638177	0.764455
828.955439	0.797769
829.272656	0.819534
829.589830	0.835932
829.906960	0.852517
830.224046	0.865009
830.541088	0.875444
830.858086	0.879790
831.175041	0.886075
831.491952	0.885540
831.808819	0.882203
832.125642	0.875173
832.442421	0.860609
832.759157	0.837641
833.075849	0.790929
833.392497	0.726556
833.709101	0.686038
834.025662	0.695349
834.342179	0.727136
834.658653	0.767097
834.975083	0.803935
835.291469	0.829992
835.607811	0.853005
835.924110	0.869380
836.240366	0.887195
836.556578	0.900323
836.872746	0.908463
837.188871	0.914506
837.504952	0.919409
837.820990	0.923503
838.136984	0.926462
838.452935	0.928868
838.768842	0.930902
839.084706	0.923999
839.400526	0.897406
839.716303	0.857467
840.032037	0.834230
840.347727	0.837904
840.663373	0.857244
840.978977	0.878541
841.294537	0.899888
841.610054	0.917635
841.925527	0.925157
842.240957	0.932812
842.556344	0.938288
842.871687	0.946312
843.186987	0.950102
843.502244	0.949367
843.817458	0.951714
844.132629	0.955947
844.447756	0.959264
844.762840	0.959515
845.077881	0.959651
845.392879	0.959658
845.707833	0.962587
846.022745	0.964638
846.337613	0.964754
846.652438	0.967178
846.967221	0.964123
847.281960	0.965405
847.596656	0.967154
847.911309	0.965046
848.225919	0.967292
848.540485	0.969002
848.855009	0.968010
849.169490	0.969152
849.483928	0.967650
849.798323	0.970000
850.112675	0.969734
850.426984	0.969147
850.741251	0.969263
851.055474	0.969491
851.369654	0.967582
851.683792	0.969049
851.997887	0.969122
852.311938	0.969743
852.625947	0.969028
852.939914	0.967628
853.253837	0.969409
853.567718	0.971348
853.881555	0.970936
854.195350	0.968354
854.509103	0.969837
854.822812	0.970335
855.136479	0.969828
855.450103	0.968322
855.763685	0.967855
856.077224	0.968784
856.390720	0.970806
856.704173	0.970519
857.017584	0.967454
857.330953	0.966613
857.644278	0.967999
857.957561	0.967973
858.270802	0.967761
858.584000	0.967911
858.897155	0.966075
859.210268	0.967067
859.523339	0.968543
859.836367	0.969902
860.149352	0.971066
860.462295	0.967592
860.775195	0.968886
861.088054	0.968838
861.400869	0.970231
861.713642	0.969791
862.026373	0.969929
862.339062	0.970411
862.651708	0.967224
862.964312	0.967044
863.276873	0.968286
863.589392	0.967821
863.901869	0.967446
864.214303	0.964826
864.526696	0.964350
864.839045	0.963722
865.151353	0.961821
865.463619	0.961864
865.775842	0.962585
866.088023	0.961420
866.400162	0.961411
866.712258	0.961714
867.024313	0.962692
867.336325	0.962751
867.648296	0.962910
867.960224	0.962232
868.272110	0.960985
868.583954	0.963275
868.895755	0.962646
869.207515	0.961252
869.519233	0.958246
869.830909	0.960574
870.142542	0.961684
870.454134	0.961900
870.765684	0.960339
871.077191	0.957315
871.388657	0.958048
871.700081	0.957054
872.011463	0.958932
872.322803	0.958663
872.634101	0.956274
872.945357	0.954251
873.256571	0.953076
873.567744	0.952099
873.878874	0.953138
874.189963	0.950805
874.501010	0.950440
874.812015	0.948321
875.122979	0.950887
875.433900	0.951541
875.744780	0.953781
876.055618	0.949890
876.366415	0.950057
876.677169	0.948748
876.987882	0.950486
877.298554	0.949697
877.609183	0.946567
877.919771	0.944603
878.230317	0.941899
878.540822	0.939409
878.851285	0.934183
879.161707	0.926365
879.472087	0.913733
879.782425	0.897325
880.092722	0.861677
880.402977	0.807940
880.713191	0.747233
881.023363	0.686405
881.333494	0.651983
881.643583	0.623329
881.953631	0.623683
882.263637	0.652266
882.573602	0.692119
882.883526	0.718382
883.193408	0.742518
883.503248	0.766484
883.813048	0.793812
884.122806	0.823664
884.432522	0.847693
884.742197	0.867909
885.051831	0.879547
885.361424	0.888966
885.670975	0.901869
885.980485	0.911267
886.289954	0.917949
886.599382	0.924134
886.908768	0.925986
887.218113	0.933551
887.527417	0.937560
887.836680	0.941962
888.145901	0.942574
888.455082	0.944657
888.764221	0.949901
889.073319	0.951726
889.382376	0.952509
889.691392	0.952289
890.000366	0.950990
890.309300	0.952247
890.618193	0.952953
890.927044	0.950411
891.235855	0.950801
891.544625	0.951465
891.853353	0.951638
892.162041	0.949059
892.470687	0.941094
892.779293	0.936661
893.087858	0.933232
893.396381	0.924861
893.704864	0.911149
894.013306	0.886493
894.321707	0.859687
894.630068	0.843886
894.938387	0.838884
895.246665	0.840813
895.554903	0.853976
895.863100	0.867631
896.171256	0.885428
896.479371	0.904040
896.787446	0.917875
897.095480	0.923182
897.403473	0.926683
897.711425	0.930428
898.019336	0.938961
898.327207	0.941718
898.635038	0.942951
898.942827	0.944056
899.250576	0.947674
899.558284	0.950403
899.865952	0.952816
900.173579	0.955173
900.481165	0.955129
900.788711	0.958658
901.096216	0.960102
901.403681	0.960270
901.711105	0.962374
902.018489	0.962342
902.325832	0.961697
902.633135	0.960397
902.940397	0.955079
903.247619	0.942111
903.554800	0.915535
903.861941	0.876085
904.169041	0.839461
904.476101	0.820826
904.783121	0.822071
905.090100	0.838528
905.397039	0.860292
905.703938	0.883315
906.010796	0.903329
906.317614	0.921161
906.624391	0.932775
906.931129	0.941599
907.237826	0.950688
907.544483	0.957721
907.851099	0.961604
908.157675	0.966667
908.464211	0.969208
908.770707	0.972883
909.077163	0.973398
909.383578	0.974082
909.689954	0.973916
909.996289	0.974947
910.302584	0.977863
910.608839	0.979230
910.915054	0.977500
911.221229	0.977514
911.527363	0.976534
911.833458	0.976575
912.139513	0.976615
912.445527	0.974714
912.751502	0.973032
913.057436	0.971166
913.363331	0.968422
913.669186	0.965397
913.975000	0.959887
914.280775	0.954680
914.586510	0.945946
914.892205	0.933306
915.197859	0.910986
915.503475	0.883171
915.809050	0.862813
916.114585	0.857191
916.420081	0.854458
916.725536	0.850958
917.030952	0.859639
917.336328	0.872951
917.641665	0.888320
917.946961	0.904314
918.252218	0.916130
918.557435	0.925554
918.862612	0.933598
919.167750	0.941756
919.472848	0.945156
919.777906	0.949975
920.082925	0.956503
920.387904	0.960488
920.692843	0.962574
920.997743	0.962813
921.302603	0.966704
921.607423	0.968761
921.912204	0.971121
922.216946	0.970660
922.521647	0.972761
922.826310	0.974066
923.130932	0.975871
923.435516	0.977697
923.740059	0.978669
924.044564	0.977449
924.349028	0.980432
924.653454	0.982929
924.957840	0.985099
925.262186	0.984194
925.566493	0.982669
925.870761	0.985536
926.174989	0.985494
926.479178	0.987417
926.783328	0.987578
927.087438	0.989059
927.391509	0.987464
927.695541	0.989292
927.999533	0.989047
928.303486	0.989336
928.607400	0.990665
928.911275	0.989883
929.215110	0.989844
929.518906	0.990924
929.822663	0.989135
930.126381	0.990765
930.430060	0.989495
930.733699	0.989140
931.037299	0.989058
931.340861	0.991723
931.644383	0.990679
931.947866	0.988516
932.251309	0.991537
932.554714	0.989291
932.858080	0.990139
933.161407	0.990704
933.464694	0.990964
933.767943	0.988488
934.071153	0.990826
934.374323	0.991242
934.677455	0.990578
934.980548	0.992172
935.283602	0.991722
935.586617	0.991327
935.889593	0.990155
936.192530	0.990686
936.495428	0.990771
936.798287	0.990501
937.101108	0.990710
937.403890	0.989335
937.706632	0.987874
938.009336	0.987283
938.312002	0.984751
938.614628	0.984367
938.917216	0.983098
939.219765	0.980685
939.522275	0.983222
939.824747	0.982674
940.127179	0.983157
940.429573	0.983920
940.731929	0.983481
941.034246	0.984192
941.336524	0.984446
941.638763	0.984853
941.940964	0.984961
942.243126	0.986367
942.545250	0.988276
942.847335	0.987143
943.149381	0.988101
943.451389	0.987707
943.753359	0.988037
944.055290	0.989750
944.357182	0.990190
944.659036	0.987938
944.960851	0.990050
945.262628	0.989630
945.564367	0.990513
945.866067	0.989655
946.167729	0.988584
946.469352	0.989289
946.770937	0.988981
947.072484	0.991394
947.373992	0.989591
947.675462	0.989196
947.976893	0.990505
948.278286	0.989812
948.579641	0.991033
948.880958	0.990553
949.182236	0.990062
949.483476	0.991745
949.784678	0.989379
950.085841	0.991508
950.386967	0.990212
950.688054	0.990841
950.989103	0.990126
951.290114	0.989344
951.591087	0.990764
951.892021	0.988337
952.192917	0.989756
952.493776	0.987971
952.794596	0.988297
953.095378	0.988281
953.396122	0.988172
953.696828	0.987153
953.997496	0.990452
954.298126	0.989716
954.598718	0.989753
954.899272	0.990332
955.199788	0.989880
955.500266	0.990882
955.800706	0.991844
956.101108	0.992921
956.401472	0.994390
956.701798	0.993777
957.002087	0.992914
957.302337	0.993144
957.602550	0.995078
957.902724	0.994929
958.202861	0.995672
958.502960	0.995409
958.803022	0.993601
959.103045	0.996275
959.403031	0.996563
959.702979	0.995453
960.002889	0.995786
960.302762	0.994656
960.602596	0.995979
960.902393	0.995000
961.202153	0.996004
961.501875	0.997101
961.801559	0.995185
962.101205	0.996660
962.400814	0.995944
962.700385	0.997294
962.999918	0.996786
963.299414	0.996838
963.598873	0.995920
963.898293	0.996234
964.197677	0.995345
964.497022	0.996318
964.796331	0.997116
965.095601	0.996293
965.394835	0.996096
965.694030	0.996315
965.993189	0.996386
966.292309	0.996889
966.591393	0.997267
966.890439	0.997234
967.189447	0.997218
967.488419	0.997663
967.787353	0.996075
968.086249	0.995952
968.385108	0.997594
968.683930	0.997115
968.982714	0.997482
969.281462	0.997868
969.580172	0.996330
969.878844	0.997569
970.177480	0.995972
970.476078	0.997481
970.774639	0.996731
971.073162	0.997081
971.371649	0.996377
971.670098	0.996401
971.968510	0.997512
972.266885	0.994639
972.565223	0.996332
972.863524	0.995541
973.161788	0.995948
973.460014	0.997443
973.758204	0.996071
974.056356	0.996367
974.354471	0.994483
974.652550	0.996858
974.950591	0.997132
975.248595	0.996440
975.546563	0.996721
975.844493	0.997943
976.142386	0.997081
976.440243	0.997230
976.738062	0.996656
977.035845	0.997950
977.333590	0.996718
977.631299	0.997573
977.928971	0.997136
978.226606	0.996282
978.524204	0.996813
978.821765	0.998320
979.119290	0.996251
979.416777	0.996594
979.714228	0.997951
980.011642	0.996072
980.309020	0.997659
980.606360	0.997153
980.903664	0.998489
981.200931	0.996988
981.498162	0.996094
981.795356	0.995304
982.092513	0.993583
982.389633	0.995738
982.686717	0.991655
982.983764	0.991212
983.280775	0.990224
983.577749	0.989744
983.874686	0.992768
984.171587	0.991183
984.468451	0.994899
984.765279	0.994947
985.062070	0.993710
985.358824	0.994280
985.655543	0.994544
985.952224	0.995918
986.248869	0.995721
986.545478	0.996550
986.842050	0.997644
987.138586	0.995290
987.435086	0.997828
987.731549	0.999705
988.027975	0.998734
988.324366	0.998174
988.620719	0.998179
988.917037	0.996377
989.213318	0.998315
989.509563	0.998466
989.805772	0.998972
990.101944	0.998583
990.398080	0.998056
990.694180	0.999049
990.990244	0.997394
991.286271	0.997658
991.582262	0.997399
991.878217	0.998332
992.174136	0.999051
992.470019	0.998602
992.765865	0.998538
993.061676	0.998623
993.357450	0.998628
993.653188	0.996604
993.948890	0.997731
994.244556	0.998550
994.540186	0.997574
994.835780	0.994893
995.131337	0.997646
995.426859	0.996531
995.722345	0.997199
996.017795	0.996366
996.313208	0.996192
996.608586	0.996280
996.903928	0.996192
997.199234	0.996286
997.494504	0.996276
997.789738	0.996211
998.084936	0.996693
998.380099	0.999162
998.675225	0.996578
998.970316	0.998352
999.265371	0.998028
999.560390	0.998240
999.855373	0.999176
1000.150320	0.997310
1000.445232	0.998997
1000.740108	0.997642
1001.034948	0.998836
1001.329752	0.998396
1001.624521	0.999771
1001.919254	0.999130
1002.213951	0.998274
1002.508613	0.998737
1002.803239	0.998510
1003.097829	0.999477
1003.392384	0.999069
1003.686903	0.998418
1003.981386	0.997728
1004.275834	0.999053
1004.570246	0.997478
1004.864623	0.999937
1005.158964	0.998912
1005.453270	0.999669
1005.747540	0.996845
1006.041775	0.998327
1006.335974	0.999581
1006.630138	0.999732
1006.924266	0.999405
1007.218359	1.000943
1007.512416	0.999332
1007.806438	0.998464
1008.100425	0.999809
1008.394376	0.999993
1008.688292	0.998986
1008.982172	1.000839
1009.276017	0.999174
1009.569827	0.998572
1009.863602	0.997625
1010.157341	0.999286
1010.451045	0.999104
1010.744714	1.000044
1011.038347	0.998670
1011.331945	0.998973
1011.625508	0.997702
1011.919036	0.997911
1012.212528	0.998853
1012.505986	0.997462
1012.799408	0.998401
1013.092795	0.999841
1013.386147	0.998239
1013.679464	0.999371
1013.972745	0.997829
1014.265992	0.997281
1014.559204	0.998430
1014.852380	0.999261
1015.145521	0.999065
1015.438628	0.999376
1015.731699	0.999553
1016.024736	1.000270
1016.317737	0.999396
1016.610703	0.999041
1016.903635	0.999970
1017.196531	0.999417
1017.489393	0.999389
1017.782219	0.998595
1018.075011	0.997893
1018.367768	0.998183
1018.660490	0.998872
1018.953177	0.998872
1019.245829	0.998872
