Dividing Wavelength (nm)	Counts (n)	Blue Motor Position (mm): 0.000000	Red Motor Position (mm): 4.700000	
326.493990	1.000776
326.888308	1.000776
327.282561	1.000776
327.676750	0.999062
328.070874	0.999921
328.464933	1.000286
328.858929	1.000250
329.252859	0.999909
329.646726	0.999678
330.040528	0.999834
330.434265	0.998739
330.827938	1.001604
331.221547	1.000498
331.615091	0.999648
332.008571	0.999825
332.401986	1.000314
332.795338	1.001464
333.188625	0.999211
333.581847	1.000402
333.975006	0.999185
334.368100	0.998838
334.761129	0.999826
335.154095	0.999948
335.546996	0.998507
335.939833	0.991678
336.332606	0.992484
336.725315	0.994805
337.117960	0.995625
337.510540	0.993707
337.903056	0.993299
338.295508	0.993208
338.687896	0.993995
339.080220	0.993417
339.472480	0.993886
339.864676	0.994183
340.256807	0.994183
340.648875	0.994272
341.040879	0.993793
341.432818	0.993904
341.824694	0.993841
342.216506	0.994469
342.608253	0.993732
342.999937	0.993946
343.391557	0.992718
343.783113	0.994261
344.174605	0.992957
344.566033	0.994126
344.957397	0.992388
345.348697	0.993401
345.739934	0.993026
346.131106	0.994162
346.522215	0.993074
346.913260	0.993450
347.304241	0.993511
347.695159	0.992982
348.086012	0.991606
348.476802	0.993981
348.867528	0.993240
349.258191	0.991899
349.648789	0.994146
350.039324	0.993035
350.429796	0.994483
350.820203	0.993504
351.210548	0.994004
351.600828	0.992768
351.991045	0.992810
352.381198	0.992048
352.771288	0.993107
353.161314	0.993104
353.551276	0.994410
353.941175	0.993087
354.331010	0.992282
354.720782	0.993418
355.110490	0.991798
355.500135	0.993101
355.889717	0.992753
356.279235	0.992723
356.668689	0.991739
357.058080	0.992736
357.447408	0.994161
357.836672	0.993533
358.225873	0.992666
358.615010	0.993926
359.004084	0.994128
359.393095	0.993479
359.782043	0.993123
360.170927	0.994174
360.559748	0.994056
360.948505	0.992128
361.337199	0.992219
361.725830	0.992768
362.114398	0.992105
362.502903	0.992200
362.891344	0.992889
363.279722	0.991967
363.668037	0.993010
364.056289	0.991439
364.444478	0.993281
364.832603	0.991490
365.220665	0.991770
365.608665	0.992552
365.996601	0.991305
366.384474	0.991249
366.772284	0.991929
367.160031	0.990267
367.547715	0.991120
367.935336	0.990649
368.322893	0.990261
368.710388	0.989824
369.097820	0.989294
369.485189	0.988153
369.872495	0.987490
370.259738	0.986478
370.646918	0.986929
371.034035	0.985304
371.421090	0.983255
371.808081	0.980016
372.195010	0.976778
372.581875	0.973904
372.968678	0.971247
373.355418	0.967619
373.742096	0.962508
374.128710	0.959412
374.515262	0.954680
374.901751	0.949951
375.288177	0.946115
375.674540	0.939445
376.060841	0.934282
376.447079	0.929329
376.833254	0.922436
377.219367	0.916479
377.605417	0.906450
377.991404	0.903091
378.377329	0.895120
378.763191	0.888541
379.148991	0.881132
379.534727	0.872769
379.920402	0.864408
380.306013	0.859436
380.691563	0.846692
381.077049	0.839197
381.462474	0.833633
381.847835	0.822718
382.233134	0.815958
382.618371	0.814643
383.003545	0.797310
383.388657	0.793241
383.773706	0.786095
384.158693	0.779557
384.543618	0.773049
384.928480	0.764178
385.313280	0.753218
385.698017	0.751909
386.082692	0.739821
386.467305	0.736970
386.851856	0.730164
387.236344	0.724257
387.620770	0.716855
388.005133	0.711653
388.389435	0.705840
388.773674	0.702890
389.157851	0.694979
389.541965	0.691295
389.926018	0.697311
390.310008	0.685231
390.693936	0.681705
391.077802	0.672800
391.461606	0.674846
391.845348	0.663518
392.229027	0.664268
392.612645	0.661096
392.996200	0.648385
393.379694	0.641148
393.763125	0.630600
394.146494	0.635895
394.529801	0.626706
394.913047	0.618880
395.296230	0.623994
395.679351	0.615850
396.062410	0.612522
396.445408	0.615286
396.828343	0.610095
397.211217	0.605557
397.594028	0.618426
397.976778	0.606854
398.359466	0.604232
398.742092	0.599022
399.124656	0.612302
399.507158	0.600847
399.889598	0.597286
400.271977	0.588405
400.654294	0.593307
401.036549	0.591926
401.418742	0.595987
401.800874	0.581496
402.182944	0.578916
402.564952	0.569674
402.946898	0.572152
403.328783	0.572577
403.710606	0.583688
404.092367	0.558966
404.474067	0.564173
404.855705	0.561803
405.237282	0.571922
405.618797	0.557814
406.000250	0.553026
406.381642	0.544787
406.762972	0.549080
407.144240	0.547824
407.525447	0.547964
407.906593	0.541067
408.287677	0.535868
408.668700	0.543549
409.049661	0.537213
409.430560	0.533421
409.811399	0.541897
410.192176	0.523305
410.572891	0.530683
410.953545	0.518753
411.334138	0.532297
411.714669	0.524682
412.095139	0.536544
412.475547	0.521588
412.855894	0.523064
413.236180	0.522502
413.616405	0.527361
413.996568	0.518501
414.376670	0.524407
414.756711	0.528682
415.136691	0.525826
415.516609	0.517224
415.896466	0.513010
416.276262	0.509313
416.655997	0.511168
417.035670	0.492765
417.415283	0.485296
417.794834	0.489467
418.174324	0.494395
418.553753	0.504300
418.933121	0.485584
419.312428	0.479645
419.691674	0.485413
420.070859	0.474424
420.449983	0.482010
420.829045	0.471903
421.208047	0.480811
421.586988	0.474202
421.965867	0.473056
422.344686	0.461625
422.723444	0.473897
423.102141	0.490419
423.480777	0.463860
423.859352	0.484029
424.237866	0.461746
424.616319	0.462116
424.994712	0.453352
425.373044	0.463413
425.751314	0.452002
426.129524	0.467708
426.507673	0.451816
426.885762	0.445282
427.263789	0.450869
427.641756	0.460583
428.019662	0.450473
428.397508	0.448862
428.775292	0.454043
429.153016	0.446250
429.530679	0.452350
429.908282	0.445516
430.285824	0.455621
430.663305	0.434151
431.040726	0.455353
431.418086	0.455565
431.795385	0.446858
432.172624	0.445787
432.549802	0.446336
432.926920	0.444869
433.303977	0.444405
433.680974	0.441688
434.057910	0.440303
434.434786	0.439837
434.811601	0.441952
435.188355	0.424080
435.565050	0.433877
435.941683	0.435562
436.318257	0.419651
436.694770	0.420629
437.071222	0.418743
437.447614	0.423038
437.823946	0.429536
438.200218	0.419156
438.576429	0.428772
438.952580	0.421397
439.328670	0.418462
439.704700	0.425203
440.080670	0.425840
440.456580	0.407062
440.832429	0.414838
441.208218	0.425946
441.583947	0.415129
441.959616	0.414772
442.335224	0.419802
442.710773	0.410677
443.086261	0.408860
443.461689	0.422462
443.837057	0.412788
444.212365	0.402447
444.587612	0.408640
444.962800	0.398937
445.337927	0.400975
445.712995	0.426723
446.088002	0.389393
446.462949	0.399652
446.837837	0.404008
447.212664	0.393500
447.587431	0.384661
447.962139	0.354891
448.336786	0.314638
448.711374	0.324903
449.085901	0.368641
449.460369	0.373197
449.834776	0.377128
450.209124	0.355704
450.583412	0.348479
450.957640	0.341918
451.331808	0.352825
451.705917	0.376371
452.079965	0.380949
452.453954	0.369064
452.827883	0.376085
453.201752	0.371048
453.575562	0.382333
453.949311	0.370645
454.323001	0.377067
454.696632	0.372272
455.070202	0.365295
455.443713	0.356866
455.817164	0.352177
456.190556	0.347841
456.563888	0.344456
456.937160	0.342155
457.310373	0.359789
457.683526	0.358221
458.056619	0.363452
458.429653	0.364654
458.802628	0.367503
459.175542	0.362066
459.548398	0.344472
459.921194	0.337473
460.293930	0.337152
460.666607	0.314887
461.039224	0.302835
461.411782	0.298712
461.784280	0.297895
462.156719	0.302255
462.529099	0.306707
462.901419	0.322658
463.273680	0.327000
463.645882	0.326603
464.018024	0.332594
464.390106	0.325021
464.762130	0.309917
465.134094	0.293186
465.505999	0.262117
465.877845	0.232702
466.249631	0.219465
466.621358	0.227127
466.993026	0.240897
467.364634	0.247017
467.736184	0.255857
468.107674	0.264656
468.479105	0.263374
468.850477	0.270418
469.221790	0.277307
469.593043	0.287632
469.964238	0.292385
470.335373	0.291562
470.706449	0.289753
471.077467	0.290339
471.448425	0.252477
471.819324	0.228375
472.190164	0.227432
472.560945	0.256329
472.931667	0.278825
473.302330	0.282455
473.672934	0.294642
474.043479	0.282959
474.413965	0.284651
474.784393	0.288103
475.154761	0.283059
475.525070	0.279717
475.895321	0.286094
476.265513	0.279991
476.635645	0.275272
477.005719	0.275367
477.375734	0.272235
477.745691	0.265263
478.115588	0.261841
478.485427	0.255312
478.855207	0.242197
479.224928	0.224640
479.594591	0.212966
479.964194	0.216182
480.333739	0.217524
480.703226	0.218899
481.072653	0.217441
481.442022	0.213072
481.811333	0.209481
482.180584	0.213063
482.549777	0.218324
482.918912	0.221732
483.287988	0.221255
483.657005	0.220976
484.025964	0.227388
484.394864	0.224939
484.763706	0.225853
485.132489	0.230576
485.501213	0.231226
485.869879	0.229629
486.238487	0.232880
486.607036	0.230524
486.975527	0.235331
487.343959	0.231110
487.712333	0.229873
488.080648	0.231478
488.448905	0.230862
488.817104	0.232001
489.185244	0.226512
489.553326	0.223460
489.921350	0.213317
490.289315	0.195959
490.657222	0.190786
491.025070	0.192052
491.392861	0.194195
491.760593	0.199822
492.128267	0.205383
492.495883	0.211182
492.863440	0.217018
493.230939	0.223638
493.598380	0.225166
493.965763	0.227189
494.333088	0.229261
494.700354	0.230779
495.067563	0.229782
495.434713	0.233292
495.801805	0.231021
496.168839	0.232727
496.535815	0.233643
496.902733	0.233706
497.269593	0.235395
497.636395	0.233379
498.003139	0.233622
498.369825	0.236472
498.736453	0.232808
499.103023	0.234406
499.469535	0.234082
499.835989	0.234077
500.202385	0.235161
500.568723	0.238233
500.935003	0.233726
501.301226	0.237800
501.667390	0.232161
502.033497	0.230245
502.399546	0.233026
502.765537	0.235077
503.131470	0.233306
503.497345	0.229624
503.863163	0.238183
504.228923	0.231522
504.594625	0.230070
504.960269	0.235670
505.325856	0.230583
505.691385	0.235156
506.056856	0.231940
506.422270	0.231162
506.787625	0.233479
507.152924	0.231151
507.518164	0.231497
507.883347	0.233229
508.248472	0.234922
508.613540	0.229944
508.978550	0.232483
509.343503	0.232758
509.708398	0.230676
510.073236	0.228329
510.438016	0.228202
510.802738	0.228958
511.167403	0.228213
511.532010	0.230181
511.896561	0.225411
512.261053	0.224278
512.625488	0.226369
512.989866	0.226697
513.354186	0.227081
513.718449	0.228866
514.082655	0.225236
514.446803	0.227704
514.810894	0.225193
515.174927	0.227926
515.538904	0.227115
515.902822	0.224085
516.266684	0.226548
516.630488	0.227651
516.994235	0.226534
517.357925	0.225103
517.721558	0.223474
518.085133	0.222992
518.448651	0.223127
518.812112	0.225251
519.175516	0.224839
519.538863	0.222911
519.902152	0.224205
520.265385	0.221055
520.628560	0.222895
520.991678	0.223206
521.354739	0.222193
521.717743	0.223448
522.080690	0.223779
522.443580	0.221117
522.806413	0.221919
523.169189	0.221451
523.531908	0.220283
523.894569	0.224057
524.257174	0.223662
524.619722	0.221572
524.982213	0.222525
525.344647	0.221566
525.707025	0.222363
526.069345	0.220503
526.431608	0.222077
526.793815	0.220023
527.155964	0.224267
527.518057	0.223251
527.880093	0.224325
528.242072	0.222728
528.603995	0.224745
528.965860	0.226520
529.327669	0.225135
529.689421	0.225990
530.051117	0.227073
530.412755	0.224551
530.774337	0.226963
531.135862	0.227280
531.497331	0.226717
531.858743	0.229408
532.220098	0.226196
532.581396	0.229015
532.942638	0.229258
533.303824	0.230309
533.664953	0.230154
534.026025	0.231749
534.387040	0.229571
534.747999	0.229747
535.108902	0.228329
535.469748	0.233543
535.830537	0.231376
536.191270	0.231689
536.551947	0.231429
536.912567	0.231341
537.273131	0.233044
537.633638	0.233269
537.994089	0.233581
538.354483	0.235054
538.714821	0.231838
539.075103	0.231325
539.435328	0.232233
539.795497	0.235750
540.155609	0.232473
540.515665	0.230533
540.875665	0.236285
541.235609	0.234787
541.595496	0.234798
541.955328	0.231447
542.315102	0.233845
542.674821	0.235229
543.034483	0.235118
543.394090	0.234775
543.753640	0.236574
544.113134	0.231954
544.472571	0.234876
544.831953	0.231975
545.191278	0.235995
545.550548	0.235814
545.909761	0.232324
546.268918	0.233275
546.628019	0.231417
546.987064	0.234210
547.346053	0.236191
547.704986	0.233709
548.063863	0.234011
548.422684	0.234234
548.781449	0.236132
549.140158	0.233437
549.498811	0.236673
549.857408	0.239750
550.215949	0.234508
550.574434	0.237548
550.932864	0.235498
551.291237	0.234110
551.649555	0.235540
552.007817	0.235263
552.366022	0.235828
552.724173	0.236426
553.082267	0.236472
553.440305	0.233655
553.798288	0.237883
554.156215	0.234574
554.514086	0.235329
554.871902	0.238414
555.229661	0.237736
555.587365	0.238083
555.945014	0.240650
556.302606	0.237769
556.660143	0.240033
557.017625	0.236618
557.375050	0.238784
557.732421	0.235776
558.089735	0.237949
558.446994	0.237814
558.804197	0.237100
559.161345	0.237135
559.518437	0.240645
559.875474	0.238007
560.232455	0.237750
560.589381	0.238847
560.946251	0.239039
561.303065	0.236390
561.659825	0.238280
562.016528	0.239273
562.373177	0.242225
562.729770	0.239350
563.086307	0.241632
563.442789	0.239699
563.799216	0.242116
564.155587	0.241157
564.511904	0.242040
564.868164	0.242282
565.224370	0.242116
565.580520	0.243547
565.936615	0.243435
566.292654	0.246809
566.648638	0.243560
567.004567	0.244610
567.360441	0.244764
567.716260	0.247445
568.072023	0.245106
568.427732	0.245772
568.783385	0.248245
569.138982	0.246132
569.494525	0.245971
569.850013	0.248612
570.205445	0.247090
570.560823	0.249721
570.916145	0.251588
571.271412	0.250130
571.626625	0.251367
571.981782	0.251866
572.336884	0.252875
572.691931	0.252227
573.046923	0.253850
573.401860	0.254964
573.756743	0.256765
574.111570	0.255401
574.466342	0.256174
574.821059	0.255117
575.175722	0.257768
575.530330	0.257781
575.884882	0.257830
576.239380	0.260245
576.593823	0.260560
576.948211	0.259964
577.302544	0.263442
577.656823	0.263009
578.011047	0.262950
578.365216	0.263642
578.719330	0.265556
579.073389	0.265418
579.427394	0.266865
579.781344	0.267537
580.135239	0.269159
580.489080	0.268661
580.842866	0.271722
581.196597	0.271325
581.550273	0.270059
581.903895	0.271133
582.257463	0.269206
582.610975	0.272442
582.964434	0.272412
583.317837	0.274387
583.671186	0.274526
584.024481	0.274790
584.377721	0.277345
584.730906	0.278021
585.084037	0.277060
585.437113	0.278989
585.790135	0.278668
586.143103	0.281651
586.496016	0.282666
586.848874	0.280070
587.201679	0.280600
587.554428	0.284300
587.907124	0.283043
588.259765	0.283404
588.612352	0.283916
588.964884	0.287934
589.317362	0.287416
589.669786	0.287229
590.022155	0.286008
590.374470	0.285459
590.726731	0.286990
591.078937	0.292098
591.431090	0.288181
591.783188	0.292758
592.135232	0.293218
592.487222	0.292871
592.839157	0.291034
593.191038	0.293290
593.542866	0.295565
593.894639	0.298935
594.246358	0.297054
594.598022	0.296290
594.949633	0.300231
595.301190	0.300922
595.652692	0.300027
596.004141	0.296382
596.355535	0.304287
596.706876	0.304508
597.058162	0.307305
597.409395	0.304367
597.760573	0.302165
598.111698	0.305511
598.462768	0.305955
598.813785	0.306989
599.164748	0.308322
599.515657	0.308635
599.866511	0.312220
600.217312	0.307177
600.568060	0.312612
600.918753	0.309084
601.269392	0.309427
601.619978	0.313055
601.970510	0.310893
602.320988	0.311107
602.671412	0.308721
603.021783	0.311376
603.372100	0.312195
603.722363	0.312150
604.072572	0.312974
604.422728	0.312880
604.772830	0.315216
605.122878	0.314553
605.472872	0.314697
605.822813	0.313362
606.172701	0.316241
606.522534	0.313665
606.872314	0.313409
607.222041	0.314536
607.571714	0.312549
607.921333	0.313687
608.270899	0.313731
608.620411	0.310436
608.969870	0.314387
609.319276	0.314244
609.668627	0.314375
610.017926	0.312916
610.367171	0.311490
610.716362	0.312428
611.065500	0.312411
611.414585	0.311041
611.763616	0.311855
612.112594	0.312265
612.461518	0.311795
612.810389	0.308829
613.159207	0.311441
613.507971	0.313410
613.856682	0.308937
614.205340	0.310807
614.553945	0.307525
614.902496	0.311741
615.250994	0.309676
615.599439	0.310206
615.947830	0.309609
616.296169	0.310573
616.644454	0.310147
616.992686	0.310025
617.340864	0.307678
617.688990	0.311453
618.037063	0.308273
618.385082	0.309988
618.733048	0.307173
619.080961	0.309367
619.428821	0.308873
619.776628	0.308074
620.124382	0.310235
620.472083	0.310625
620.819731	0.310028
621.167326	0.313883
621.514868	0.313178
621.862357	0.317989
622.209793	0.317028
622.557176	0.319295
622.904506	0.320712
623.251783	0.322555
623.599007	0.324989
623.946179	0.325147
624.293297	0.326343
624.640363	0.330689
624.987376	0.330941
625.334336	0.333596
625.681243	0.335590
626.028097	0.336576
626.374899	0.337843
626.721647	0.337777
627.068343	0.341075
627.414987	0.342395
627.761577	0.344302
628.108115	0.342481
628.454600	0.347959
628.801032	0.345166
629.147412	0.347028
629.493739	0.347836
629.840014	0.350562
630.186236	0.348325
630.532405	0.353972
630.878521	0.351150
631.224585	0.353263
631.570597	0.357082
631.916556	0.355146
632.262462	0.355623
632.608316	0.357772
632.954117	0.358490
633.299866	0.359318
633.645562	0.359801
633.991206	0.364040
634.336797	0.367345
634.682336	0.369228
635.027823	0.370994
635.373257	0.371438
635.718639	0.375347
636.063968	0.374094
636.409245	0.380076
636.754470	0.380470
637.099642	0.382869
637.444762	0.386380
637.789829	0.385236
638.134845	0.388830
638.479808	0.389517
638.824719	0.389693
639.169577	0.393594
639.514383	0.392829
639.859137	0.396920
640.203839	0.396697
640.548489	0.397261
640.893086	0.398348
641.237632	0.400414
641.582125	0.398606
641.926566	0.400136
642.270955	0.400258
642.615292	0.400884
642.959576	0.399525
643.303809	0.400316
643.647990	0.399839
643.992118	0.400373
644.336195	0.404021
644.680219	0.402537
645.024192	0.403127
645.368112	0.396793
645.711981	0.395732
646.055797	0.390629
646.399562	0.393336
646.743274	0.385318
647.086935	0.382569
647.430544	0.382678
647.774101	0.381829
648.117606	0.381446
648.461059	0.381736
648.804460	0.384287
649.147810	0.389676
649.491108	0.391662
649.834354	0.392949
650.177548	0.398460
650.520690	0.403961
650.863781	0.404952
651.206820	0.404220
651.549807	0.408982
651.892742	0.412196
652.235626	0.412225
652.578458	0.413256
652.921238	0.419414
653.263967	0.417398
653.606644	0.420927
653.949269	0.421257
654.291843	0.424290
654.634365	0.421600
654.976836	0.424924
655.319255	0.424731
655.661622	0.426502
656.003938	0.426683
656.346203	0.429740
656.688416	0.427067
657.030577	0.430808
657.372687	0.432674
657.714746	0.433284
658.056753	0.430513
658.398708	0.434192
658.740612	0.434927
659.082465	0.431643
659.424266	0.432423
659.766016	0.431494
660.107715	0.434316
660.449362	0.433246
660.790958	0.433924
661.132503	0.434502
661.473996	0.432276
661.815438	0.432846
662.156829	0.433078
662.498168	0.434044
662.839456	0.434854
663.180693	0.432626
663.521879	0.433120
663.863013	0.433943
664.204097	0.432711
664.545129	0.429387
664.886110	0.429869
665.227040	0.426913
665.567918	0.429054
665.908746	0.427517
666.249522	0.427548
666.590248	0.427572
666.930922	0.426362
667.271545	0.425097
667.612118	0.425408
667.952639	0.427161
668.293109	0.425417
668.633528	0.428719
668.973896	0.427931
669.314213	0.428539
669.654480	0.430435
669.994695	0.430898
670.334859	0.431825
670.674973	0.431547
671.015035	0.431855
671.355047	0.431612
671.695008	0.433078
672.034918	0.434796
672.374777	0.433919
672.714585	0.435120
673.054342	0.435537
673.394049	0.435603
673.733705	0.432774
674.073310	0.433973
674.412864	0.437329
674.752368	0.437816
675.091820	0.437655
675.431223	0.442031
675.770574	0.442130
676.109875	0.445343
676.449125	0.444930
676.788324	0.447237
677.127473	0.452845
677.466571	0.452755
677.805619	0.454084
678.144616	0.455533
678.483562	0.457032
678.822458	0.459987
679.161303	0.460644
679.500098	0.460495
679.838842	0.462734
680.177535	0.462564
680.516179	0.460291
680.854771	0.459236
681.193314	0.453464
681.531805	0.444646
681.870247	0.432965
682.208638	0.425491
682.546978	0.424077
682.885268	0.426043
683.223508	0.432217
683.561697	0.435943
683.899836	0.439000
684.237925	0.442526
684.575963	0.444755
684.913951	0.447614
685.251889	0.444250
685.589776	0.445499
685.927614	0.448140
686.265401	0.442396
686.603137	0.443902
686.940824	0.437475
687.278460	0.436030
687.616046	0.435388
687.953582	0.429942
688.291068	0.431122
688.628504	0.427501
688.965889	0.429576
689.303224	0.433743
689.640510	0.437502
689.977745	0.443503
690.314930	0.450766
690.652065	0.455741
690.989150	0.463162
691.326185	0.469927
691.663170	0.474778
692.000105	0.481571
692.336990	0.488924
692.673825	0.491182
693.010610	0.498301
693.347345	0.503211
693.684030	0.505351
694.020665	0.509801
694.357251	0.518818
694.693786	0.518162
695.030272	0.522668
695.366707	0.525696
695.703093	0.529440
696.039429	0.526941
696.375716	0.528964
696.711952	0.531368
697.048139	0.533307
697.384276	0.535217
697.720363	0.533887
698.056400	0.533209
698.392388	0.538604
698.728326	0.541829
699.064214	0.544400
699.400053	0.545191
699.735842	0.548328
700.071581	0.551307
700.407270	0.554510
700.742910	0.556996
701.078501	0.563522
701.414042	0.564164
701.749533	0.566794
702.084974	0.575370
702.420366	0.567380
702.755709	0.575601
703.091002	0.583166
703.426246	0.576609
703.761440	0.582130
704.096584	0.587410
704.431679	0.584436
704.766725	0.586473
705.101721	0.588337
705.436668	0.584138
705.771565	0.591368
706.106413	0.588155
706.441212	0.583391
706.775961	0.582084
707.110661	0.585110
707.445311	0.581448
707.779913	0.578118
708.114465	0.577329
708.448967	0.573270
708.783421	0.565597
709.117825	0.560232
709.452180	0.560134
709.786485	0.554581
710.120742	0.544078
710.454949	0.546246
710.789107	0.538190
711.123216	0.528846
711.457275	0.530993
711.791286	0.521103
712.125247	0.520662
712.459159	0.530004
712.793023	0.523629
713.126837	0.528214
713.460602	0.528368
713.794318	0.537440
714.127985	0.536512
714.461602	0.546410
714.795171	0.549531
715.128691	0.558095
715.462162	0.564674
715.795584	0.571307
716.128957	0.573906
716.462281	0.580278
716.795556	0.583782
717.128782	0.588244
717.461960	0.598549
717.795088	0.596885
718.128167	0.602383
718.461198	0.612775
718.794180	0.612457
719.127113	0.614952
719.459997	0.619267
719.792833	0.624710
720.125619	0.626338
720.458357	0.632090
720.791046	0.631791
721.123686	0.634809
721.456278	0.641810
721.788821	0.639835
722.121315	0.642896
722.453761	0.648172
722.786158	0.646278
723.118506	0.642161
723.450805	0.650565
723.783056	0.645913
724.115259	0.643967
724.447412	0.643137
724.779518	0.643755
725.111574	0.643427
725.443582	0.638905
725.775542	0.641004
726.107453	0.633047
726.439315	0.633085
726.771129	0.631331
727.102895	0.624457
727.434612	0.617828
727.766281	0.615762
728.097901	0.614467
728.429473	0.615177
728.760996	0.612977
729.092471	0.613158
729.423897	0.616921
729.755276	0.616160
730.086606	0.616859
730.417887	0.610798
730.749120	0.601447
731.080305	0.591523
731.411442	0.588408
731.742530	0.593331
732.073570	0.591645
732.404562	0.585221
732.735506	0.585110
733.066401	0.590627
733.397249	0.600117
733.728048	0.611139
734.058798	0.623473
734.389501	0.634156
734.720156	0.643552
735.050762	0.652570
735.381320	0.653061
735.711831	0.663105
736.042293	0.667134
736.372707	0.663470
736.703073	0.667829
737.033391	0.669832
737.363661	0.666681
737.693883	0.662089
738.024056	0.661053
738.354182	0.661471
738.684260	0.650375
739.014290	0.645988
739.344272	0.648137
739.674207	0.641018
740.004093	0.639412
740.333931	0.640394
740.663722	0.640669
740.993464	0.640845
741.323159	0.645276
741.652806	0.650569
741.982405	0.655407
742.311956	0.659126
742.641460	0.661460
742.970915	0.665349
743.300323	0.673446
743.629683	0.679717
743.958996	0.681452
744.288260	0.686410
744.617477	0.692738
744.946647	0.693768
745.275768	0.699007
745.604842	0.699103
745.933869	0.708192
746.262847	0.709416
746.591778	0.702465
746.920662	0.709630
747.249498	0.715033
747.578286	0.706450
747.907027	0.703126
748.235720	0.703486
748.564365	0.697738
748.892963	0.697755
749.221514	0.700855
749.550017	0.706127
749.878473	0.706285
750.206881	0.712249
750.535242	0.714546
750.863555	0.713403
751.191821	0.714428
751.520039	0.718014
751.848210	0.722429
752.176334	0.715069
752.504411	0.714094
752.832440	0.721778
753.160421	0.726499
753.488356	0.724281
753.816243	0.722044
754.144082	0.730863
754.471875	0.733701
754.799620	0.729839
755.127318	0.730795
755.454969	0.730201
755.782572	0.729742
756.110129	0.735020
756.437638	0.736947
756.765100	0.733611
757.092515	0.732837
757.419882	0.730112
757.747203	0.736202
758.074477	0.735055
758.401703	0.732206
758.728882	0.727671
759.056014	0.726899
759.383099	0.725197
759.710138	0.726309
760.037129	0.723471
760.364073	0.716927
760.690970	0.720145
761.017820	0.725442
761.344623	0.720510
761.671379	0.711318
761.998088	0.700012
762.324751	0.677533
762.651366	0.634609
762.977935	0.567235
763.304456	0.515191
763.630931	0.506077
763.957359	0.545508
764.283740	0.589946
764.610074	0.617562
764.936362	0.648441
765.262602	0.675895
765.588796	0.696567
765.914943	0.715910
766.241044	0.732538
766.567097	0.739696
766.893104	0.749683
767.219064	0.755637
767.544978	0.762584
767.870845	0.775652
768.196665	0.780337
768.522438	0.777178
768.848165	0.779409
769.173846	0.787941
769.499479	0.791480
769.825066	0.795574
770.150607	0.800963
770.476101	0.795873
770.801548	0.797368
771.126949	0.809026
771.452303	0.812300
771.777611	0.812042
772.102872	0.810539
772.428087	0.816369
772.753256	0.819838
773.078378	0.821854
773.403453	0.831407
773.728482	0.834621
774.053465	0.828591
774.378401	0.832165
774.703291	0.839732
775.028135	0.840334
775.352932	0.842008
775.677683	0.844202
776.002388	0.845053
776.327046	0.843763
776.651658	0.848009
776.976224	0.850782
777.300743	0.851737
777.625216	0.852346
777.949643	0.854057
778.274024	0.855123
778.598359	0.857043
778.922647	0.855292
779.246889	0.855715
779.571086	0.860813
779.895236	0.862427
780.219339	0.859748
780.543397	0.856328
780.867409	0.855252
781.191374	0.857562
781.515294	0.857944
781.839167	0.857158
782.162995	0.860638
782.486776	0.857599
782.810511	0.858472
783.134201	0.862469
783.457844	0.859797
783.781441	0.862423
784.104993	0.868787
784.428498	0.869403
784.751958	0.865278
785.075372	0.867086
785.398739	0.870899
785.722061	0.867820
786.045337	0.863067
786.368568	0.866987
786.691752	0.870661
787.014891	0.855450
787.337983	0.847890
787.661030	0.838403
787.984031	0.821574
788.306987	0.808551
788.629897	0.811225
788.952760	0.815158
789.275579	0.819323
789.598351	0.834663
789.921078	0.848049
790.243759	0.850784
790.566395	0.855158
790.888984	0.861913
791.211529	0.867428
791.534027	0.870312
791.856480	0.872201
792.178888	0.877623
792.501249	0.880987
792.823566	0.880480
793.145836	0.881131
793.468062	0.883434
793.790241	0.883441
794.112375	0.881371
794.434464	0.876938
794.756507	0.875891
795.078505	0.877355
795.400457	0.870898
795.722364	0.858951
796.044226	0.851082
796.366042	0.850637
796.687812	0.853886
797.009538	0.849739
797.331218	0.853495
797.652852	0.857307
797.974442	0.861977
798.295986	0.863516
798.617484	0.864937
798.938938	0.870262
799.260346	0.873944
799.581709	0.875874
799.903026	0.878377
800.224299	0.879656
800.545526	0.883438
800.866708	0.886810
801.187845	0.890597
801.508936	0.890886
801.829983	0.888162
802.150984	0.890087
802.471940	0.895839
802.792851	0.895976
803.113717	0.896877
803.434538	0.895275
803.755314	0.897425
804.076045	0.898483
804.396731	0.898576
804.717372	0.898507
805.037967	0.900409
805.358518	0.898619
805.679024	0.895980
805.999485	0.896636
806.319901	0.896178
806.640272	0.896946
806.960598	0.896108
807.280879	0.892463
807.601115	0.890804
807.921306	0.894552
808.241453	0.894842
808.561554	0.893338
808.881611	0.892846
809.201623	0.893888
809.521590	0.894091
809.841513	0.895458
810.161390	0.895027
810.481223	0.897009
810.801011	0.900688
811.120755	0.900757
811.440453	0.900799
811.760107	0.899559
812.079716	0.898833
812.399281	0.901858
812.718801	0.905126
813.038276	0.905902
813.357707	0.905791
813.677093	0.902353
813.996434	0.905575
814.315731	0.907629
814.634983	0.908341
814.954191	0.907160
815.273354	0.903842
815.592473	0.899885
815.911547	0.900555
816.230577	0.898327
816.549562	0.894221
816.868502	0.895548
817.187399	0.890757
817.506250	0.886372
817.825058	0.888113
818.143821	0.885042
818.462539	0.880125
818.781213	0.871540
819.099843	0.860171
819.418429	0.844539
819.736970	0.826290
820.055466	0.806926
820.373919	0.780293
820.692327	0.747693
821.010691	0.712012
821.329011	0.633759
821.647286	0.516660
821.965517	0.402250
822.283704	0.359193
822.601847	0.359557
822.919945	0.395829
823.237999	0.429713
823.556010	0.477780
823.873976	0.533981
824.191897	0.585668
824.509775	0.628490
824.827609	0.674731
825.145398	0.697130
825.463144	0.700281
825.780845	0.683762
826.098502	0.664366
826.416116	0.617863
826.733685	0.572861
827.051210	0.564042
827.368692	0.578962
827.686129	0.616705
828.003522	0.671053
828.320872	0.718344
828.638177	0.762948
828.955439	0.795426
829.272656	0.818041
829.589830	0.835085
829.906960	0.852552
830.224046	0.864252
830.541088	0.875685
830.858086	0.879305
831.175041	0.885480
831.491952	0.884910
831.808819	0.882092
832.125642	0.875525
832.442421	0.860086
832.759157	0.836715
833.075849	0.790192
833.392497	0.727315
833.709101	0.685266
834.025662	0.694659
834.342179	0.726732
834.658653	0.765725
834.975083	0.802847
835.291469	0.828878
835.607811	0.851777
835.924110	0.868915
836.240366	0.885675
836.556578	0.899632
836.872746	0.907665
837.188871	0.914531
837.504952	0.918397
837.820990	0.922155
838.136984	0.926123
838.452935	0.928632
838.768842	0.930156
839.084706	0.923440
839.400526	0.898736
839.716303	0.856642
840.032037	0.835037
840.347727	0.837546
840.663373	0.856326
840.978977	0.878088
841.294537	0.901884
841.610054	0.916420
841.925527	0.925564
842.240957	0.931991
842.556344	0.938996
842.871687	0.943870
843.186987	0.949499
843.502244	0.948497
843.817458	0.951148
844.132629	0.954523
844.447756	0.959828
844.762840	0.960691
845.077881	0.959602
845.392879	0.959367
845.707833	0.961963
846.022745	0.963804
846.337613	0.965412
846.652438	0.965994
846.967221	0.964320
847.281960	0.964352
847.596656	0.967991
847.911309	0.966820
848.225919	0.966467
848.540485	0.967541
848.855009	0.967826
849.169490	0.966751
849.483928	0.968013
849.798323	0.968854
850.112675	0.969748
850.426984	0.967862
850.741251	0.969341
851.055474	0.969484
851.369654	0.967097
851.683792	0.969481
851.997887	0.969747
852.311938	0.970575
852.625947	0.970065
852.939914	0.967383
853.253837	0.969153
853.567718	0.970363
853.881555	0.970342
854.195350	0.967939
854.509103	0.969346
854.822812	0.969576
855.136479	0.969212
855.450103	0.969365
855.763685	0.967519
856.077224	0.968679
856.390720	0.970575
856.704173	0.969720
857.017584	0.967429
857.330953	0.965905
857.644278	0.967900
857.957561	0.967410
858.270802	0.967979
858.584000	0.967355
858.897155	0.966406
859.210268	0.966615
859.523339	0.967173
859.836367	0.969198
860.149352	0.970483
860.462295	0.967921
860.775195	0.969131
861.088054	0.968561
861.400869	0.968889
861.713642	0.970007
862.026373	0.970247
862.339062	0.970497
862.651708	0.966661
862.964312	0.967142
863.276873	0.968816
863.589392	0.968474
863.901869	0.965853
864.214303	0.964176
864.526696	0.964367
864.839045	0.962534
865.151353	0.961164
865.463619	0.961922
865.775842	0.961507
866.088023	0.961155
866.400162	0.961730
866.712258	0.961092
867.024313	0.962301
867.336325	0.962745
867.648296	0.962460
867.960224	0.961893
868.272110	0.961372
868.583954	0.963795
868.895755	0.963615
869.207515	0.961866
869.519233	0.959360
869.830909	0.961065
870.142542	0.961526
870.454134	0.959778
870.765684	0.959243
871.077191	0.957419
871.388657	0.958330
871.700081	0.957080
872.011463	0.957619
872.322803	0.957265
872.634101	0.955509
872.945357	0.954040
873.256571	0.951134
873.567744	0.951553
873.878874	0.952608
874.189963	0.950380
874.501010	0.950528
874.812015	0.948930
875.122979	0.950903
875.433900	0.952135
875.744780	0.952986
876.055618	0.950214
876.366415	0.949242
876.677169	0.949362
876.987882	0.949933
877.298554	0.950270
877.609183	0.946278
877.919771	0.943919
878.230317	0.940684
878.540822	0.939756
878.851285	0.932755
879.161707	0.924972
879.472087	0.912268
879.782425	0.896486
880.092722	0.862026
880.402977	0.807651
880.713191	0.745232
881.023363	0.685156
881.333494	0.650045
881.643583	0.622301
881.953631	0.622802
882.263637	0.650248
882.573602	0.691089
882.883526	0.716458
883.193408	0.741324
883.503248	0.764822
883.813048	0.792973
884.122806	0.821986
884.432522	0.846285
884.742197	0.867178
885.051831	0.878150
885.361424	0.889052
885.670975	0.900612
885.980485	0.911214
886.289954	0.917626
886.599382	0.922192
886.908768	0.927285
887.218113	0.932512
887.527417	0.937608
887.836680	0.939229
888.145901	0.942383
888.455082	0.944110
888.764221	0.948530
889.073319	0.950935
889.382376	0.951693
889.691392	0.952813
890.000366	0.951195
890.309300	0.952584
890.618193	0.952135
890.927044	0.950661
891.235855	0.950235
891.544625	0.950795
891.853353	0.950275
892.162041	0.948030
892.470687	0.941185
892.779293	0.936040
893.087858	0.932478
893.396381	0.924281
893.704864	0.909984
894.013306	0.886417
894.321707	0.858727
894.630068	0.842708
894.938387	0.838810
895.246665	0.840712
895.554903	0.852354
895.863100	0.866219
896.171256	0.883982
896.479371	0.903142
896.787446	0.916767
897.095480	0.922469
897.403473	0.926484
897.711425	0.930385
898.019336	0.937748
898.327207	0.941504
898.635038	0.944516
898.942827	0.944189
899.250576	0.946827
899.558284	0.951251
899.865952	0.952201
900.173579	0.954836
900.481165	0.954562
900.788711	0.958367
901.096216	0.960684
901.403681	0.960010
901.711105	0.961543
902.018489	0.962784
902.325832	0.960564
902.633135	0.961555
902.940397	0.954007
903.247619	0.942369
903.554800	0.915275
903.861941	0.873500
904.169041	0.837494
904.476101	0.820386
904.783121	0.820852
905.090100	0.837862
905.397039	0.859508
905.703938	0.882670
906.010796	0.901672
906.317614	0.920768
906.624391	0.931739
906.931129	0.942808
907.237826	0.949631
907.544483	0.958111
907.851099	0.961846
908.157675	0.967260
908.464211	0.968541
908.770707	0.971440
909.077163	0.974462
909.383578	0.973903
909.689954	0.975545
909.996289	0.974773
910.302584	0.976005
910.608839	0.978014
910.915054	0.977124
911.221229	0.977169
911.527363	0.976654
911.833458	0.976639
912.139513	0.977208
912.445527	0.973684
912.751502	0.974385
913.057436	0.970863
913.363331	0.969524
913.669186	0.965558
913.975000	0.959004
914.280775	0.953415
914.586510	0.946702
914.892205	0.932018
915.197859	0.911076
915.503475	0.882167
915.809050	0.861717
916.114585	0.855787
916.420081	0.852728
916.725536	0.849705
917.030952	0.859231
917.336328	0.871643
917.641665	0.887507
917.946961	0.903503
918.252218	0.915639
918.557435	0.924393
918.862612	0.933568
919.167750	0.939989
919.472848	0.944946
919.777906	0.951275
920.082925	0.956375
920.387904	0.960127
920.692843	0.961507
920.997743	0.962914
921.302603	0.966826
921.607423	0.968811
921.912204	0.970659
922.216946	0.970079
922.521647	0.972933
922.826310	0.974562
923.130932	0.976321
923.435516	0.976801
923.740059	0.979956
924.044564	0.977961
924.349028	0.979060
924.653454	0.982151
924.957840	0.984865
925.262186	0.983549
925.566493	0.984539
925.870761	0.983945
926.174989	0.985818
926.479178	0.987648
926.783328	0.988629
927.087438	0.988623
927.391509	0.986585
927.695541	0.989877
927.999533	0.988688
928.303486	0.989279
928.607400	0.992204
928.911275	0.989196
929.215110	0.990179
929.518906	0.991763
929.822663	0.989420
930.126381	0.991428
930.430060	0.989886
930.733699	0.990589
931.037299	0.988331
931.340861	0.990248
931.644383	0.989693
931.947866	0.988409
932.251309	0.990694
932.554714	0.990115
932.858080	0.990455
933.161407	0.989741
933.464694	0.990634
933.767943	0.989270
934.071153	0.990474
934.374323	0.991332
934.677455	0.991332
934.980548	0.992396
935.283602	0.990020
935.586617	0.991081
935.889593	0.990437
936.192530	0.990080
936.495428	0.990242
936.798287	0.990201
937.101108	0.989532
937.403890	0.987742
937.706632	0.988892
938.009336	0.987038
938.312002	0.985476
938.614628	0.983063
938.917216	0.983288
939.219765	0.979964
939.522275	0.982252
939.824747	0.982684
940.127179	0.983042
940.429573	0.984278
940.731929	0.982972
941.034246	0.984682
941.336524	0.984437
941.638763	0.986011
941.940964	0.986452
942.243126	0.986016
942.545250	0.987544
942.847335	0.988312
943.149381	0.988039
943.451389	0.987296
943.753359	0.987682
944.055290	0.989757
944.357182	0.988505
944.659036	0.989087
944.960851	0.988866
945.262628	0.989564
945.564367	0.990137
945.866067	0.989626
946.167729	0.989657
946.469352	0.989036
946.770937	0.988913
947.072484	0.990468
947.373992	0.989182
947.675462	0.990710
947.976893	0.989726
948.278286	0.990364
948.579641	0.991657
948.880958	0.990695
949.182236	0.990696
949.483476	0.990982
949.784678	0.990081
950.085841	0.991357
950.386967	0.990899
950.688054	0.990663
950.989103	0.991093
951.290114	0.989181
951.591087	0.989257
951.892021	0.989632
952.192917	0.988578
952.493776	0.986969
952.794596	0.986896
953.095378	0.987571
953.396122	0.987104
953.696828	0.987829
953.997496	0.989690
954.298126	0.989994
954.598718	0.990658
954.899272	0.991557
955.199788	0.990009
955.500266	0.992258
955.800706	0.991821
956.101108	0.992574
956.401472	0.992965
956.701798	0.993015
957.002087	0.993902
957.302337	0.993691
957.602550	0.994656
957.902724	0.993656
958.202861	0.995287
958.502960	0.995162
958.803022	0.993686
959.103045	0.996025
959.403031	0.994781
959.702979	0.995671
960.002889	0.995646
960.302762	0.994067
960.602596	0.996184
960.902393	0.995645
961.202153	0.996546
961.501875	0.996593
961.801559	0.994947
962.101205	0.995985
962.400814	0.996488
962.700385	0.996768
962.999918	0.995345
963.299414	0.998000
963.598873	0.996706
963.898293	0.995600
964.197677	0.995435
964.497022	0.996151
964.796331	0.997468
965.095601	0.996378
965.394835	0.996917
965.694030	0.996172
965.993189	0.996698
966.292309	0.996153
966.591393	0.998066
966.890439	0.996998
967.189447	0.996929
967.488419	0.997771
967.787353	0.995899
968.086249	0.996881
968.385108	0.997415
968.683930	0.996838
968.982714	0.997969
969.281462	0.997812
969.580172	0.996821
969.878844	0.996870
970.177480	0.997312
970.476078	0.996609
970.774639	0.997581
971.073162	0.997496
971.371649	0.996306
971.670098	0.996305
971.968510	0.998610
972.266885	0.995592
972.565223	0.995789
972.863524	0.997120
973.161788	0.996968
973.460014	0.997740
973.758204	0.995223
974.056356	0.996548
974.354471	0.994808
974.652550	0.996241
974.950591	0.996875
975.248595	0.995822
975.546563	0.996833
975.844493	0.998058
976.142386	0.995915
976.440243	0.996654
976.738062	0.996582
977.035845	0.998266
977.333590	0.997459
977.631299	0.996804
977.928971	0.996037
978.226606	0.996712
978.524204	0.995704
978.821765	0.998072
979.119290	0.996888
979.416777	0.996209
979.714228	0.996738
980.011642	0.996261
980.309020	0.997851
980.606360	0.996888
980.903664	0.998707
981.200931	0.996671
981.498162	0.994953
981.795356	0.994334
982.092513	0.993718
982.389633	0.994012
982.686717	0.992007
982.983764	0.991155
983.280775	0.990305
983.577749	0.990701
983.874686	0.992848
984.171587	0.991220
984.468451	0.994356
984.765279	0.994595
985.062070	0.994723
985.358824	0.994266
985.655543	0.994026
985.952224	0.995920
986.248869	0.995950
986.545478	0.996246
986.842050	0.998582
987.138586	0.994970
987.435086	0.996556
987.731549	0.998429
988.027975	0.997013
988.324366	0.998149
988.620719	0.997316
988.917037	0.996602
989.213318	0.997281
989.509563	0.999315
989.805772	0.997203
990.101944	0.998705
990.398080	0.997259
990.694180	0.997660
990.990244	0.997401
991.286271	0.997279
991.582262	0.998098
991.878217	0.998306
992.174136	0.998683
992.470019	0.998167
992.765865	0.997408
993.061676	0.997980
993.357450	0.998014
993.653188	0.997040
993.948890	0.997715
994.244556	0.997846
994.540186	0.997554
994.835780	0.996658
995.131337	0.998037
995.426859	0.996774
995.722345	0.998487
996.017795	0.995782
996.313208	0.996565
996.608586	0.995882
996.903928	0.997279
997.199234	0.995979
997.494504	0.997270
997.789738	0.995351
998.084936	0.997102
998.380099	0.997723
998.675225	0.997578
998.970316	0.998126
999.265371	0.998651
999.560390	0.998397
999.855373	0.998915
1000.150320	0.998355
1000.445232	0.999012
1000.740108	0.997751
1001.034948	0.997792
1001.329752	0.998199
1001.624521	0.998145
1001.919254	0.997458
1002.213951	0.998113
1002.508613	0.998785
1002.803239	0.999215
1003.097829	0.998875
1003.392384	0.999001
1003.686903	0.997948
1003.981386	0.998935
1004.275834	0.999870
1004.570246	0.999072
1004.864623	0.998380
1005.158964	0.999819
1005.453270	0.998567
1005.747540	0.997416
1006.041775	0.998910
1006.335974	1.000910
1006.630138	0.998202
1006.924266	0.998983
1007.218359	1.001337
1007.512416	0.999221
1007.806438	1.000009
1008.100425	0.998965
1008.394376	0.998458
1008.688292	0.998527
1008.982172	0.999818
1009.276017	0.998826
1009.569827	0.999270
1009.863602	0.999265
1010.157341	0.999057
1010.451045	0.998724
1010.744714	0.999266
1011.038347	0.999017
1011.331945	0.999368
1011.625508	0.997345
1011.919036	0.998979
1012.212528	0.998763
1012.505986	0.998334
1012.799408	0.998416
1013.092795	0.998966
1013.386147	0.998086
1013.679464	0.999940
1013.972745	0.998908
1014.265992	0.997422
1014.559204	0.998436
1014.852380	0.999121
1015.145521	0.998460
1015.438628	0.998361
1015.731699	0.998525
1016.024736	1.000138
1016.317737	0.998812
1016.610703	0.998994
1016.903635	1.001039
1017.196531	0.999513
1017.489393	0.999847
1017.782219	0.998205
1018.075011	0.998699
1018.367768	0.999569
1018.660490	0.998976
1018.953177	0.998976
1019.245829	0.998976
