Dividing Wavelength (nm)	Counts (n)	Blue Motor Position (mm): 0.000000	Red Motor Position (mm): 35.000000	
326.493990	0.999373
326.888308	0.999373
327.282561	0.999373
327.676750	0.999494
328.070874	0.999141
328.464933	1.000052
328.858929	0.998738
329.252859	1.000539
329.646726	0.999266
330.040528	1.000633
330.434265	0.999092
330.827938	0.999692
331.221547	0.999828
331.615091	0.999656
332.008571	0.998807
332.401986	1.000623
332.795338	1.000446
333.188625	0.998383
333.581847	1.000419
333.975006	0.998380
334.368100	0.999068
334.761129	1.000550
335.154095	1.000090
335.546996	0.998013
335.939833	0.995890
336.332606	0.995411
336.725315	0.995844
337.117960	0.998828
337.510540	0.996235
337.903056	0.995519
338.295508	0.995183
338.687896	0.995612
339.080220	0.996010
339.472480	0.995588
339.864676	0.996769
340.256807	0.997152
340.648875	0.997142
341.040879	0.997698
341.432818	0.995506
341.824694	0.995886
342.216506	0.997185
342.608253	0.995856
342.999937	0.995901
343.391557	0.996913
343.783113	0.995619
344.174605	0.997650
344.566033	0.995803
344.957397	0.995809
345.348697	0.995295
345.739934	0.996413
346.131106	0.996759
346.522215	0.995483
346.913260	0.996586
347.304241	0.996127
347.695159	0.996352
348.086012	0.995732
348.476802	0.996158
348.867528	0.996644
349.258191	0.994253
349.648789	0.997218
350.039324	0.995979
350.429796	0.997172
350.820203	0.995101
351.210548	0.996522
351.600828	0.996003
351.991045	0.996944
352.381198	0.995383
352.771288	0.997239
353.161314	0.995562
353.551276	0.996868
353.941175	0.996127
354.331010	0.997543
354.720782	0.997376
355.110490	0.996860
355.500135	0.996574
355.889717	0.996309
356.279235	0.996008
356.668689	0.995519
357.058080	0.994624
357.447408	0.997655
357.836672	0.996965
358.225873	0.996687
358.615010	0.996850
359.004084	0.997924
359.393095	0.996663
359.782043	0.996480
360.170927	0.997158
360.559748	0.996860
360.948505	0.995056
361.337199	0.996705
361.725830	0.996674
362.114398	0.995537
362.502903	0.996780
362.891344	0.997759
363.279722	0.996146
363.668037	0.997426
364.056289	0.996188
364.444478	0.996798
364.832603	0.996039
365.220665	0.996047
365.608665	0.996020
365.996601	0.996316
366.384474	0.995907
366.772284	0.997591
367.160031	0.995472
367.547715	0.995327
367.935336	0.997146
368.322893	0.996278
368.710388	0.995477
369.097820	0.997813
369.485189	0.996674
369.872495	0.995749
370.259738	0.994516
370.646918	0.997074
371.034035	0.998101
371.421090	0.996456
371.808081	0.996386
372.195010	0.997233
372.581875	0.996231
372.968678	0.996311
373.355418	0.995487
373.742096	0.996428
374.128710	0.997849
374.515262	0.996642
374.901751	0.997163
375.288177	0.995756
375.674540	0.996713
376.060841	0.996422
376.447079	0.996681
376.833254	0.996225
377.219367	0.997332
377.605417	0.996313
377.991404	0.996670
378.377329	0.995237
378.763191	0.996283
379.148991	0.996969
379.534727	0.996764
379.920402	0.996510
380.306013	0.996878
380.691563	0.997959
381.077049	0.995975
381.462474	0.998008
381.847835	0.998139
382.233134	0.997197
382.618371	0.996444
383.003545	0.997366
383.388657	0.996655
383.773706	0.997880
384.158693	0.998117
384.543618	0.997307
384.928480	0.998448
385.313280	0.997450
385.698017	0.997976
386.082692	0.997118
386.467305	0.996897
386.851856	0.997544
387.236344	0.997561
387.620770	0.996595
388.005133	0.997855
388.389435	0.998170
388.773674	0.997596
389.157851	0.997969
389.541965	0.997232
389.926018	0.996828
390.310008	0.998229
390.693936	0.997108
391.077802	0.996998
391.461606	0.997998
391.845348	0.998035
392.229027	0.999279
392.612645	0.998076
392.996200	0.998542
393.379694	0.997167
393.763125	0.998278
394.146494	0.998184
394.529801	0.996824
394.913047	0.997836
395.296230	0.997958
395.679351	0.998188
396.062410	0.997544
396.445408	0.998423
396.828343	0.996873
397.211217	0.998069
397.594028	0.998833
397.976778	0.998099
398.359466	0.997971
398.742092	0.996974
399.124656	0.997561
399.507158	0.997285
399.889598	0.997976
400.271977	0.998670
400.654294	0.998746
401.036549	0.998568
401.418742	0.998024
401.800874	0.996781
402.182944	0.997308
402.564952	0.997065
402.946898	0.998530
403.328783	0.998258
403.710606	0.998034
404.092367	0.996771
404.474067	0.998326
404.855705	0.997717
405.237282	0.998157
405.618797	0.998417
406.000250	0.997131
406.381642	0.997923
406.762972	0.997808
407.144240	0.998479
407.525447	0.997630
407.906593	0.997809
408.287677	0.997975
408.668700	0.998602
409.049661	0.995869
409.430560	0.998419
409.811399	0.997658
410.192176	0.997977
410.572891	0.997529
410.953545	0.997940
411.334138	0.996816
411.714669	0.998574
412.095139	0.997992
412.475547	0.998802
412.855894	0.998216
413.236180	0.997865
413.616405	0.998086
413.996568	0.998667
414.376670	0.998282
414.756711	0.997686
415.136691	0.998341
415.516609	0.997827
415.896466	0.998232
416.276262	0.997470
416.655997	0.998603
417.035670	0.997888
417.415283	0.997880
417.794834	0.997609
418.174324	0.998038
418.553753	0.998210
418.933121	0.998261
419.312428	0.998212
419.691674	0.997947
420.070859	0.998588
420.449983	0.998403
420.829045	0.998033
421.208047	0.998798
421.586988	0.999331
421.965867	0.998066
422.344686	0.999533
422.723444	0.997908
423.102141	0.998232
423.480777	0.998237
423.859352	0.997660
424.237866	0.997462
424.616319	0.998306
424.994712	0.998069
425.373044	0.998140
425.751314	0.998843
426.129524	0.997936
426.507673	0.998734
426.885762	0.999329
427.263789	0.998635
427.641756	0.998858
428.019662	0.999002
428.397508	0.997475
428.775292	0.997716
429.153016	0.997775
429.530679	0.998555
429.908282	0.998776
430.285824	0.997708
430.663305	0.997621
431.040726	0.997747
431.418086	0.999281
431.795385	0.999372
432.172624	0.997452
432.549802	0.998548
432.926920	0.998666
433.303977	0.998111
433.680974	0.998949
434.057910	0.997452
434.434786	0.998630
434.811601	0.998687
435.188355	0.997831
435.565050	0.997895
435.941683	0.998947
436.318257	0.999318
436.694770	0.997727
437.071222	0.998769
437.447614	0.998831
437.823946	0.997742
438.200218	0.998210
438.576429	0.998476
438.952580	0.998523
439.328670	0.997862
439.704700	0.998569
440.080670	0.998853
440.456580	0.998039
440.832429	0.998520
441.208218	0.998874
441.583947	0.998452
441.959616	0.999636
442.335224	0.998343
442.710773	0.998608
443.086261	0.998183
443.461689	0.998458
443.837057	0.997915
444.212365	0.998430
444.587612	0.998106
444.962800	0.998426
445.337927	0.998235
445.712995	0.998629
446.088002	0.999136
446.462949	0.998393
446.837837	0.998018
447.212664	0.998994
447.587431	0.998728
447.962139	0.998964
448.336786	0.998796
448.711374	0.998828
449.085901	0.997780
449.460369	0.999081
449.834776	0.998502
450.209124	0.998668
450.583412	0.998444
450.957640	0.998149
451.331808	0.998312
451.705917	0.998043
452.079965	0.997294
452.453954	0.998292
452.827883	0.997978
453.201752	0.998634
453.575562	0.999014
453.949311	0.998692
454.323001	0.998385
454.696632	0.997632
455.070202	0.998677
455.443713	0.998152
455.817164	0.999113
456.190556	0.998458
456.563888	0.997919
456.937160	0.999180
457.310373	0.998426
457.683526	0.998685
458.056619	0.998350
458.429653	0.999554
458.802628	0.998228
459.175542	0.997673
459.548398	0.998464
459.921194	0.998424
460.293930	0.998516
460.666607	0.998341
461.039224	0.997550
461.411782	0.998896
461.784280	0.998415
462.156719	0.999202
462.529099	0.998959
462.901419	0.998273
463.273680	0.998140
463.645882	0.998195
464.018024	0.998739
464.390106	0.998892
464.762130	0.999493
465.134094	0.998966
465.505999	1.000051
465.877845	0.999405
466.249631	0.998999
466.621358	0.999033
466.993026	0.998377
467.364634	0.998834
467.736184	0.999002
468.107674	0.998359
468.479105	0.998122
468.850477	0.998846
469.221790	0.998169
469.593043	0.998447
469.964238	0.998828
470.335373	0.997883
470.706449	0.997779
471.077467	0.998808
471.448425	0.998914
471.819324	0.999218
472.190164	0.998763
472.560945	0.998465
472.931667	0.998289
473.302330	0.998137
473.672934	0.998654
474.043479	0.998767
474.413965	0.998333
474.784393	0.998711
475.154761	0.998322
475.525070	0.998148
475.895321	0.999723
476.265513	0.998783
476.635645	0.998685
477.005719	0.998378
477.375734	0.997803
477.745691	0.998413
478.115588	0.998951
478.485427	0.998524
478.855207	0.998555
479.224928	0.999146
479.594591	0.998668
479.964194	0.998993
480.333739	0.998445
480.703226	0.999004
481.072653	0.999105
481.442022	0.999312
481.811333	0.998062
482.180584	0.998753
482.549777	0.998551
482.918912	0.998251
483.287988	0.998485
483.657005	0.998430
484.025964	0.999059
484.394864	0.999400
484.763706	0.999432
485.132489	0.998349
485.501213	0.998537
485.869879	0.998686
486.238487	0.998729
486.607036	0.998972
486.975527	0.997444
487.343959	0.998240
487.712333	0.997793
488.080648	0.998716
488.448905	0.998237
488.817104	0.998647
489.185244	0.999125
489.553326	0.998646
489.921350	0.998160
490.289315	0.998255
490.657222	0.998814
491.025070	0.998574
491.392861	0.998882
491.760593	0.999047
492.128267	0.998330
492.495883	0.997596
492.863440	0.998495
493.230939	0.998228
493.598380	0.998195
493.965763	0.997860
494.333088	0.997520
494.700354	0.997933
495.067563	0.998303
495.434713	0.997479
495.801805	0.998868
496.168839	0.997865
496.535815	0.997196
496.902733	0.997630
497.269593	0.997106
497.636395	0.997979
498.003139	0.996887
498.369825	0.998332
498.736453	0.997580
499.103023	0.996697
499.469535	0.997500
499.835989	0.996845
500.202385	0.997150
500.568723	0.997343
500.935003	0.997011
501.301226	0.996596
501.667390	0.996781
502.033497	0.997038
502.399546	0.996655
502.765537	0.995763
503.131470	0.996297
503.497345	0.995029
503.863163	0.996079
504.228923	0.995434
504.594625	0.995555
504.960269	0.995121
505.325856	0.995221
505.691385	0.994084
506.056856	0.993535
506.422270	0.993593
506.787625	0.993302
507.152924	0.992438
507.518164	0.991901
507.883347	0.992009
508.248472	0.991353
508.613540	0.991501
508.978550	0.990789
509.343503	0.990063
509.708398	0.989965
510.073236	0.989050
510.438016	0.988657
510.802738	0.987896
511.167403	0.986910
511.532010	0.987026
511.896561	0.986133
512.261053	0.986488
512.625488	0.984268
512.989866	0.983058
513.354186	0.981993
513.718449	0.981670
514.082655	0.980976
514.446803	0.980253
514.810894	0.978901
515.174927	0.977707
515.538904	0.976612
515.902822	0.974909
516.266684	0.975251
516.630488	0.974300
516.994235	0.971751
517.357925	0.970198
517.721558	0.969547
518.085133	0.967877
518.448651	0.967945
518.812112	0.965906
519.175516	0.964185
519.538863	0.962731
519.902152	0.960315
520.265385	0.958487
520.628560	0.957045
520.991678	0.955376
521.354739	0.954788
521.717743	0.952284
522.080690	0.951050
522.443580	0.947920
522.806413	0.946194
523.169189	0.943707
523.531908	0.941806
523.894569	0.939903
524.257174	0.938420
524.619722	0.935239
524.982213	0.934328
525.344647	0.930255
525.707025	0.928899
526.069345	0.925566
526.431608	0.922499
526.793815	0.920610
527.155964	0.918354
527.518057	0.915733
527.880093	0.912663
528.242072	0.910327
528.603995	0.906427
528.965860	0.904270
529.327669	0.900442
529.689421	0.897820
530.051117	0.895931
530.412755	0.891149
530.774337	0.888932
531.135862	0.884652
531.497331	0.881730
531.858743	0.878852
532.220098	0.874642
532.581396	0.871958
532.942638	0.868454
533.303824	0.865086
533.664953	0.860838
534.026025	0.856702
534.387040	0.852990
534.747999	0.849375
535.108902	0.845744
535.469748	0.842650
535.830537	0.837939
536.191270	0.833799
536.551947	0.829772
536.912567	0.825636
537.273131	0.823066
537.633638	0.818131
537.994089	0.813433
538.354483	0.809868
538.714821	0.805293
539.075103	0.801502
539.435328	0.796615
539.795497	0.794111
540.155609	0.788156
540.515665	0.784298
540.875665	0.781343
541.235609	0.775697
541.595496	0.771365
541.955328	0.765019
542.315102	0.762620
542.674821	0.758481
543.034483	0.753600
543.394090	0.748903
543.753640	0.745101
544.113134	0.737383
544.472571	0.735306
544.831953	0.728319
545.191278	0.725147
545.550548	0.721082
545.909761	0.714618
546.268918	0.709225
546.628019	0.704809
546.987064	0.699980
547.346053	0.696845
547.704986	0.690272
548.063863	0.686075
548.422684	0.682420
548.781449	0.677569
549.140158	0.671646
549.498811	0.668162
549.857408	0.665050
550.215949	0.656768
550.574434	0.654125
550.932864	0.647708
551.291237	0.643657
551.649555	0.637431
552.007817	0.633372
552.366022	0.629708
552.724173	0.624887
553.082267	0.621403
553.440305	0.613281
553.798288	0.613056
554.156215	0.604712
554.514086	0.601104
554.871902	0.598068
555.229661	0.592846
555.587365	0.589479
555.945014	0.587100
556.302606	0.578814
556.660143	0.577449
557.017625	0.568984
557.375050	0.566549
557.732421	0.560215
558.089735	0.556566
558.446994	0.552436
558.804197	0.547570
559.161345	0.542044
559.518437	0.541675
559.875474	0.534089
560.232455	0.529438
560.589381	0.526990
560.946251	0.519761
561.303065	0.516348
561.659825	0.512059
562.016528	0.508731
562.373177	0.507121
562.729770	0.499618
563.086307	0.497399
563.442789	0.492870
563.799216	0.489086
564.155587	0.484691
564.511904	0.480022
564.868164	0.476898
565.224370	0.473282
565.580520	0.469456
565.936615	0.467266
566.292654	0.464196
566.648638	0.459041
567.004567	0.455555
567.360441	0.452638
567.716260	0.449929
568.072023	0.445299
568.427732	0.441549
568.783385	0.441437
569.138982	0.435372
569.494525	0.431517
569.850013	0.430759
570.205445	0.425848
570.560823	0.425156
570.916145	0.423094
571.271412	0.418590
571.626625	0.415945
571.981782	0.413535
572.336884	0.410796
572.691931	0.408400
573.046923	0.405149
573.401860	0.403756
573.756743	0.401792
574.111570	0.398199
574.466342	0.395859
574.821059	0.392413
575.175722	0.391847
575.530330	0.388539
575.884882	0.386329
576.239380	0.385122
576.593823	0.382655
576.948211	0.379561
577.302544	0.380543
577.656823	0.377010
578.011047	0.374690
578.365216	0.373063
578.719330	0.372825
579.073389	0.369752
579.427394	0.369053
579.781344	0.367848
580.135239	0.366243
580.489080	0.364192
580.842866	0.364381
581.196597	0.362249
581.550273	0.359169
581.903895	0.357972
582.257463	0.354762
582.610975	0.356116
582.964434	0.353674
583.317837	0.353708
583.671186	0.352435
584.024481	0.350361
584.377721	0.351238
584.730906	0.350107
585.084037	0.347654
585.437113	0.347913
585.790135	0.345772
586.143103	0.346772
586.496016	0.346806
586.848874	0.342636
587.201679	0.341587
587.554428	0.343228
587.907124	0.340899
588.259765	0.340184
588.612352	0.339340
588.964884	0.341999
589.317362	0.340413
589.669786	0.338949
590.022155	0.336363
590.374470	0.334885
590.726731	0.335320
591.078937	0.338321
591.431090	0.333830
591.783188	0.336682
592.135232	0.335713
592.487222	0.334930
592.839157	0.332178
593.191038	0.333722
593.542866	0.334223
593.894639	0.336928
594.246358	0.333922
594.598022	0.332737
594.949633	0.334718
595.301190	0.334953
595.652692	0.333236
596.004141	0.328703
596.355535	0.335336
596.706876	0.335418
597.058162	0.336988
597.409395	0.333620
597.760573	0.330593
598.111698	0.333041
598.462768	0.332525
598.813785	0.333629
599.164748	0.333968
599.515657	0.333860
599.866511	0.336551
600.217312	0.331663
600.568060	0.335841
600.918753	0.331582
601.269392	0.332433
601.619978	0.335015
601.970510	0.332589
602.320988	0.332248
602.671412	0.329383
603.021783	0.331367
603.372100	0.332106
603.722363	0.331745
604.072572	0.331825
604.422728	0.331608
604.772830	0.333461
605.122878	0.332544
605.472872	0.332246
605.822813	0.330717
606.172701	0.332809
606.522534	0.329985
606.872314	0.329905
607.222041	0.330486
607.571714	0.328492
607.921333	0.329442
608.270899	0.328771
608.620411	0.325001
608.969870	0.329047
609.319276	0.328895
609.668627	0.328434
610.017926	0.326550
610.367171	0.325349
610.716362	0.325622
611.065500	0.325485
611.414585	0.324218
611.763616	0.324764
612.112594	0.324929
612.461518	0.324396
612.810389	0.321766
613.159207	0.323944
613.507971	0.325515
613.856682	0.321283
614.205340	0.322977
614.553945	0.319280
614.902496	0.323408
615.250994	0.321084
615.599439	0.321833
615.947830	0.321037
616.296169	0.322155
616.644454	0.321271
616.992686	0.321796
617.340864	0.319174
617.688990	0.322812
618.037063	0.319526
618.385082	0.321216
618.733048	0.317662
619.080961	0.320139
619.428821	0.319173
619.776628	0.318963
620.124382	0.321017
620.472083	0.321225
620.819731	0.320395
621.167326	0.323990
621.514868	0.323725
621.862357	0.327646
622.209793	0.327478
622.557176	0.329458
622.904506	0.330667
623.251783	0.332817
623.599007	0.335146
623.946179	0.334645
624.293297	0.336922
624.640363	0.339891
624.987376	0.340371
625.334336	0.343300
625.681243	0.345001
626.028097	0.345900
626.374899	0.346877
626.721647	0.347150
627.068343	0.350158
627.414987	0.351168
627.761577	0.353312
628.108115	0.351632
628.454600	0.356547
628.801032	0.353836
629.147412	0.355888
629.493739	0.356746
629.840014	0.359278
630.186236	0.357171
630.532405	0.362407
630.878521	0.359936
631.224585	0.362259
631.570597	0.365311
631.916556	0.363856
632.262462	0.363878
632.608316	0.366099
632.954117	0.366762
633.299866	0.367802
633.645562	0.368115
633.991206	0.372469
634.336797	0.374550
634.682336	0.377448
635.027823	0.378585
635.373257	0.379764
635.718639	0.383256
636.063968	0.382123
636.409245	0.388186
636.754470	0.388262
637.099642	0.390604
637.444762	0.394325
637.789829	0.393197
638.134845	0.396493
638.479808	0.397282
638.824719	0.397708
639.169577	0.401462
639.514383	0.400594
639.859137	0.403899
640.203839	0.404091
640.548489	0.404785
640.893086	0.406523
641.237632	0.407921
641.582125	0.405797
641.926566	0.407521
642.270955	0.408003
642.615292	0.408181
642.959576	0.406811
643.303809	0.408081
643.647990	0.407487
643.992118	0.407828
644.336195	0.411567
644.680219	0.409496
645.024192	0.410148
645.368112	0.404124
645.711981	0.403175
646.055797	0.398380
646.399562	0.400717
646.743274	0.392875
647.086935	0.389997
647.430544	0.390242
647.774101	0.389232
648.117606	0.388678
648.461059	0.389349
648.804460	0.391341
649.147810	0.396534
649.491108	0.398790
649.834354	0.400189
650.177548	0.405452
650.520690	0.410591
650.863781	0.412190
651.206820	0.411344
651.549807	0.415969
651.892742	0.419436
652.235626	0.419416
652.578458	0.420480
652.921238	0.426187
653.263967	0.424263
653.606644	0.428497
653.949269	0.427979
654.291843	0.431643
654.634365	0.428357
654.976836	0.431457
655.319255	0.431989
655.661622	0.433408
656.003938	0.433348
656.346203	0.436273
656.688416	0.433866
657.030577	0.437601
657.372687	0.439382
657.714746	0.440658
658.056753	0.437409
658.398708	0.440875
658.740612	0.442604
659.082465	0.438847
659.424266	0.439310
659.766016	0.438051
660.107715	0.440860
660.449362	0.439496
660.790958	0.440269
661.132503	0.441315
661.473996	0.439037
661.815438	0.439923
662.156829	0.439758
662.498168	0.439953
662.839456	0.442165
663.180693	0.439515
663.521879	0.439838
663.863013	0.440746
664.204097	0.439186
664.545129	0.435904
664.886110	0.436620
665.227040	0.434102
665.567918	0.436568
665.908746	0.434523
666.249522	0.433610
666.590248	0.434834
666.930922	0.433064
667.271545	0.431874
667.612118	0.432274
667.952639	0.434190
668.293109	0.432782
668.633528	0.435269
668.973896	0.435044
669.314213	0.435879
669.654480	0.437104
669.994695	0.437480
670.334859	0.438730
670.674973	0.438600
671.015035	0.438925
671.355047	0.439095
671.695008	0.439858
672.034918	0.441666
672.374777	0.440910
672.714585	0.442003
673.054342	0.442000
673.394049	0.442305
673.733705	0.440128
674.073310	0.440888
674.412864	0.444003
674.752368	0.444330
675.091820	0.443918
675.431223	0.448761
675.770574	0.448980
676.109875	0.451608
676.449125	0.451909
676.788324	0.454176
677.127473	0.459381
677.466571	0.459145
677.805619	0.460760
678.144616	0.462081
678.483562	0.464157
678.822458	0.466310
679.161303	0.467708
679.500098	0.467620
679.838842	0.469307
680.177535	0.468471
680.516179	0.467381
680.854771	0.467067
681.193314	0.460361
681.531805	0.451244
681.870247	0.439429
682.208638	0.432377
682.546978	0.431177
682.885268	0.433251
683.223508	0.439465
683.561697	0.442876
683.899836	0.445655
684.237925	0.449254
684.575963	0.451469
684.913951	0.454696
685.251889	0.450384
685.589776	0.452043
685.927614	0.454986
686.265401	0.449569
686.603137	0.450947
686.940824	0.444383
687.278460	0.442941
687.616046	0.442275
687.953582	0.437078
688.291068	0.438561
688.628504	0.434273
688.965889	0.436429
689.303224	0.440780
689.640510	0.444229
689.977745	0.450365
690.314930	0.457651
690.652065	0.462261
690.989150	0.470152
691.326185	0.476454
691.663170	0.481062
692.000105	0.488436
692.336990	0.494735
692.673825	0.497597
693.010610	0.504482
693.347345	0.510238
693.684030	0.511393
694.020665	0.516124
694.357251	0.524744
694.693786	0.524095
695.030272	0.528875
695.366707	0.532059
695.703093	0.535712
696.039429	0.533465
696.375716	0.535029
696.711952	0.538125
697.048139	0.539703
697.384276	0.541779
697.720363	0.540058
698.056400	0.538850
698.392388	0.544644
698.728326	0.547823
699.064214	0.550772
699.400053	0.551187
699.735842	0.555317
700.071581	0.557230
700.407270	0.560825
700.742910	0.562506
701.078501	0.569197
701.414042	0.569565
701.749533	0.572964
702.084974	0.581801
702.420366	0.574083
702.755709	0.581773
703.091002	0.588997
703.426246	0.582739
703.761440	0.588932
704.096584	0.594468
704.431679	0.590456
704.766725	0.592158
705.101721	0.593427
705.436668	0.590034
705.771565	0.596981
706.106413	0.593809
706.441212	0.589163
706.775961	0.587627
707.110661	0.590598
707.445311	0.586798
707.779913	0.584475
708.114465	0.582544
708.448967	0.579562
708.783421	0.571739
709.117825	0.566386
709.452180	0.566236
709.786485	0.560412
710.120742	0.549972
710.454949	0.552762
710.789107	0.544268
711.123216	0.535378
711.457275	0.537029
711.791286	0.528295
712.125247	0.526775
712.459159	0.537439
712.793023	0.530632
713.126837	0.533958
713.460602	0.534828
713.794318	0.544528
714.127985	0.542542
714.461602	0.553332
714.795171	0.556410
715.128691	0.564029
715.462162	0.571414
715.795584	0.577085
716.128957	0.579792
716.462281	0.586949
716.795556	0.589867
717.128782	0.595195
717.461960	0.604487
717.795088	0.602523
718.128167	0.609226
718.461198	0.617640
718.794180	0.618155
719.127113	0.621679
719.459997	0.624695
719.792833	0.630422
720.125619	0.631681
720.458357	0.637728
720.791046	0.637799
721.123686	0.640738
721.456278	0.648203
721.788821	0.644894
722.121315	0.649255
722.453761	0.653133
722.786158	0.651162
723.118506	0.647845
723.450805	0.656662
723.783056	0.651962
724.115259	0.648339
724.447412	0.649216
724.779518	0.650046
725.111574	0.648892
725.443582	0.644609
725.775542	0.645850
726.107453	0.639107
726.439315	0.638900
726.771129	0.637091
727.102895	0.629932
727.434612	0.623363
727.766281	0.621900
728.097901	0.621048
728.429473	0.620628
728.760996	0.619575
729.092471	0.618806
729.423897	0.622568
729.755276	0.621358
730.086606	0.621744
730.417887	0.616420
730.749120	0.607789
731.080305	0.597922
731.411442	0.594065
731.742530	0.599141
732.073570	0.598908
732.404562	0.590649
732.735506	0.592202
733.066401	0.596963
733.397249	0.606004
733.728048	0.617420
734.058798	0.630128
734.389501	0.639617
734.720156	0.649900
735.050762	0.657541
735.381320	0.658685
735.711831	0.668287
736.042293	0.673307
736.372707	0.667773
736.703073	0.672928
737.033391	0.675863
737.363661	0.672320
737.693883	0.667431
738.024056	0.666402
738.354182	0.666559
738.684260	0.656760
739.014290	0.652765
739.344272	0.653233
739.674207	0.646878
740.004093	0.645816
740.333931	0.646660
740.663722	0.646983
740.993464	0.646708
741.323159	0.651056
741.652806	0.655657
741.982405	0.660547
742.311956	0.664922
742.641460	0.668105
742.970915	0.671572
743.300323	0.678676
743.629683	0.685265
743.958996	0.686776
744.288260	0.691383
744.617477	0.697226
744.946647	0.698258
745.275768	0.704453
745.604842	0.703204
745.933869	0.714409
746.262847	0.714631
746.591778	0.708744
746.920662	0.714664
747.249498	0.721404
747.578286	0.711160
747.907027	0.708053
748.235720	0.708712
748.564365	0.704160
748.892963	0.703703
749.221514	0.706452
749.550017	0.711409
749.878473	0.710868
750.206881	0.717176
750.535242	0.719305
750.863555	0.718819
751.191821	0.719338
751.520039	0.723210
751.848210	0.728137
752.176334	0.719550
752.504411	0.719087
752.832440	0.728047
753.160421	0.731441
753.488356	0.728773
753.816243	0.727063
754.144082	0.735446
754.471875	0.739166
754.799620	0.735188
755.127318	0.735607
755.454969	0.735948
755.782572	0.734890
756.110129	0.740151
756.437638	0.742836
756.765100	0.739290
757.092515	0.736953
757.419882	0.735848
757.747203	0.741857
758.074477	0.740923
758.401703	0.737771
758.728882	0.732323
759.056014	0.732312
759.383099	0.731226
759.710138	0.731704
760.037129	0.728283
760.364073	0.722381
760.690970	0.724677
761.017820	0.730243
761.344623	0.727189
761.671379	0.716616
761.998088	0.704744
762.324751	0.683012
762.651366	0.641716
762.977935	0.575865
763.304456	0.524133
763.630931	0.514994
763.957359	0.553045
764.283740	0.597868
764.610074	0.624724
764.936362	0.655359
765.262602	0.681349
765.588796	0.702457
765.914943	0.720957
766.241044	0.737476
766.567097	0.744988
766.893104	0.753789
767.219064	0.761272
767.544978	0.767090
767.870845	0.780309
768.196665	0.783816
768.522438	0.782052
768.848165	0.782583
769.173846	0.793056
769.499479	0.796847
769.825066	0.800038
770.150607	0.805727
770.476101	0.800813
770.801548	0.802390
771.126949	0.812728
771.452303	0.817272
771.777611	0.815694
772.102872	0.814138
772.428087	0.820649
772.753256	0.824318
773.078378	0.826376
773.403453	0.834494
773.728482	0.838658
774.053465	0.832032
774.378401	0.836168
774.703291	0.844329
775.028135	0.844668
775.352932	0.845118
775.677683	0.848905
776.002388	0.848630
776.327046	0.848279
776.651658	0.851789
776.976224	0.853829
777.300743	0.855804
777.625216	0.856611
777.949643	0.858872
778.274024	0.858292
778.598359	0.860985
778.922647	0.859821
779.246889	0.859184
779.571086	0.863871
779.895236	0.865394
780.219339	0.863387
780.543397	0.860102
780.867409	0.859032
781.191374	0.861148
781.515294	0.862208
781.839167	0.860645
782.162995	0.864869
782.486776	0.861532
782.810511	0.862547
783.134201	0.865781
783.457844	0.864264
783.781441	0.866082
784.104993	0.872487
784.428498	0.872855
784.751958	0.868684
785.075372	0.871462
785.398739	0.875413
785.722061	0.870353
786.045337	0.866351
786.368568	0.871243
786.691752	0.874774
787.014891	0.859244
787.337983	0.850861
787.661030	0.844454
787.984031	0.826657
788.306987	0.813706
788.629897	0.815746
788.952760	0.820452
789.275579	0.823092
789.598351	0.838273
789.921078	0.851602
790.243759	0.854121
790.566395	0.858546
790.888984	0.866128
791.211529	0.870270
791.534027	0.874562
791.856480	0.876172
792.178888	0.880939
792.501249	0.883746
792.823566	0.885058
793.145836	0.884813
793.468062	0.887544
793.790241	0.886991
794.112375	0.885313
794.434464	0.879614
794.756507	0.879828
795.078505	0.879771
795.400457	0.874254
795.722364	0.862125
796.044226	0.855306
796.366042	0.853862
796.687812	0.858028
797.009538	0.853453
797.331218	0.856348
797.652852	0.862046
797.974442	0.865909
798.295986	0.866946
798.617484	0.868839
798.938938	0.873221
799.260346	0.878343
799.581709	0.880192
799.903026	0.882798
800.224299	0.882812
800.545526	0.886696
800.866708	0.890069
801.187845	0.894830
801.508936	0.893665
801.829983	0.891608
802.150984	0.894396
802.471940	0.899846
802.792851	0.899447
803.113717	0.899489
803.434538	0.897214
803.755314	0.900283
804.076045	0.902478
804.396731	0.901928
804.717372	0.901430
805.037967	0.903840
805.358518	0.900994
805.679024	0.898948
805.999485	0.898822
806.319901	0.898618
806.640272	0.899655
806.960598	0.899468
807.280879	0.895458
807.601115	0.894112
807.921306	0.898191
808.241453	0.898435
808.561554	0.895719
808.881611	0.895112
809.201623	0.897779
809.521590	0.898303
809.841513	0.899764
810.161390	0.897985
810.481223	0.899771
810.801011	0.902222
811.120755	0.905821
811.440453	0.903616
811.760107	0.902473
812.079716	0.902853
812.399281	0.905461
812.718801	0.908614
813.038276	0.909600
813.357707	0.908679
813.677093	0.905630
813.996434	0.908967
814.315731	0.910683
814.634983	0.911412
814.954191	0.909959
815.273354	0.906552
815.592473	0.902828
815.911547	0.903980
816.230577	0.900612
816.549562	0.898571
816.868502	0.898869
817.187399	0.895613
817.506250	0.890398
817.825058	0.891710
818.143821	0.889283
818.462539	0.883732
818.781213	0.875770
819.099843	0.863993
819.418429	0.850078
819.736970	0.833137
820.055466	0.814003
820.373919	0.788516
820.692327	0.756262
821.010691	0.722332
821.329011	0.646832
821.647286	0.533875
821.965517	0.421473
822.283704	0.379169
822.601847	0.380862
822.919945	0.416229
823.237999	0.449226
823.556010	0.494851
823.873976	0.549940
824.191897	0.599245
824.509775	0.640897
824.827609	0.685727
825.145398	0.708649
825.463144	0.711267
825.780845	0.694205
826.098502	0.675912
826.416116	0.630601
826.733685	0.588014
827.051210	0.579917
827.368692	0.594197
827.686129	0.630062
828.003522	0.683377
828.320872	0.729013
828.638177	0.771743
828.955439	0.804146
829.272656	0.825515
829.589830	0.843377
829.906960	0.858318
830.224046	0.869835
830.541088	0.880101
830.858086	0.884663
831.175041	0.890239
831.491952	0.889170
831.808819	0.885981
832.125642	0.879742
832.442421	0.865479
832.759157	0.844786
833.075849	0.799225
833.392497	0.735963
833.709101	0.695394
834.025662	0.705918
834.342179	0.736370
834.658653	0.775835
834.975083	0.810662
835.291469	0.836414
835.607811	0.858239
835.924110	0.873449
836.240366	0.890505
836.556578	0.903805
836.872746	0.911439
837.188871	0.916741
837.504952	0.922412
837.820990	0.925243
838.136984	0.928992
838.452935	0.931780
838.768842	0.933396
839.084706	0.927442
839.400526	0.901525
839.716303	0.861516
840.032037	0.840201
840.347727	0.844823
840.663373	0.862409
840.978977	0.883513
841.294537	0.905169
841.610054	0.920618
841.925527	0.927679
842.240957	0.934921
842.556344	0.940533
842.871687	0.948270
843.186987	0.951736
843.502244	0.952319
843.817458	0.954232
844.132629	0.957284
844.447756	0.961549
844.762840	0.962783
845.077881	0.960813
845.392879	0.961207
845.707833	0.964561
846.022745	0.967008
846.337613	0.966939
846.652438	0.967306
846.967221	0.966439
847.281960	0.966298
847.596656	0.968264
847.911309	0.965523
848.225919	0.968929
848.540485	0.970391
848.855009	0.970614
849.169490	0.969221
849.483928	0.969771
849.798323	0.969503
850.112675	0.970365
850.426984	0.970717
850.741251	0.971394
851.055474	0.972014
851.369654	0.969540
851.683792	0.971745
851.997887	0.971996
852.311938	0.971569
852.625947	0.970777
852.939914	0.968718
853.253837	0.970034
853.567718	0.972189
853.881555	0.972181
854.195350	0.970388
854.509103	0.970673
854.822812	0.971121
855.136479	0.970605
855.450103	0.971838
855.763685	0.969145
856.077224	0.970282
856.390720	0.972002
856.704173	0.971301
857.017584	0.970370
857.330953	0.967378
857.644278	0.969957
857.957561	0.970108
858.270802	0.968483
858.584000	0.969062
858.897155	0.967126
859.210268	0.968585
859.523339	0.969162
859.836367	0.971509
860.149352	0.971968
860.462295	0.969523
860.775195	0.969888
861.088054	0.971602
861.400869	0.971205
861.713642	0.971276
862.026373	0.971389
862.339062	0.971559
862.651708	0.969509
862.964312	0.968166
863.276873	0.970868
863.589392	0.970403
863.901869	0.968443
864.214303	0.966619
864.526696	0.965129
864.839045	0.964775
865.151353	0.963208
865.463619	0.963530
865.775842	0.964447
866.088023	0.963070
866.400162	0.962008
866.712258	0.963268
867.024313	0.962840
867.336325	0.964947
867.648296	0.965357
867.960224	0.963136
868.272110	0.962844
868.583954	0.965147
868.895755	0.965738
869.207515	0.962410
869.519233	0.960567
869.830909	0.962157
870.142542	0.963766
870.454134	0.963417
870.765684	0.961618
871.077191	0.959363
871.388657	0.961256
871.700081	0.960129
872.011463	0.960038
872.322803	0.959649
872.634101	0.958616
872.945357	0.955440
873.256571	0.955369
873.567744	0.954673
873.878874	0.954633
874.189963	0.954450
874.501010	0.952974
874.812015	0.951910
875.122979	0.952770
875.433900	0.955389
875.744780	0.956268
876.055618	0.953075
876.366415	0.952255
876.677169	0.952732
876.987882	0.954469
877.298554	0.952978
877.609183	0.948991
877.919771	0.948182
878.230317	0.944930
878.540822	0.943398
878.851285	0.938701
879.161707	0.930166
879.472087	0.919918
879.782425	0.903263
880.092722	0.870130
880.402977	0.820224
880.713191	0.761717
881.023363	0.704749
881.333494	0.672170
881.643583	0.644950
881.953631	0.644173
882.263637	0.672803
882.573602	0.711536
882.883526	0.736319
883.193408	0.758535
883.503248	0.780152
883.813048	0.806757
884.122806	0.834708
884.432522	0.857895
884.742197	0.876492
885.051831	0.887378
885.361424	0.896611
885.670975	0.908161
885.980485	0.917806
886.289954	0.923330
886.599382	0.929549
886.908768	0.930845
887.218113	0.937936
887.527417	0.942407
887.836680	0.944421
888.145901	0.947167
888.455082	0.947527
888.764221	0.952576
889.073319	0.955381
889.382376	0.955255
889.691392	0.955169
890.000366	0.954736
890.309300	0.956505
890.618193	0.955312
890.927044	0.953478
891.235855	0.953792
891.544625	0.954287
891.853353	0.954269
892.162041	0.951626
892.470687	0.945524
892.779293	0.940103
893.087858	0.937751
893.396381	0.929150
893.704864	0.916981
894.013306	0.894612
894.321707	0.868513
894.630068	0.854599
894.938387	0.852242
895.246665	0.852519
895.554903	0.864177
895.863100	0.876013
896.171256	0.893439
896.479371	0.911397
896.787446	0.924442
897.095480	0.929454
897.403473	0.932538
897.711425	0.935946
898.019336	0.943244
898.327207	0.945874
898.635038	0.947606
898.942827	0.948233
899.250576	0.950871
899.558284	0.955435
899.865952	0.955083
900.173579	0.958045
900.481165	0.957583
900.788711	0.962319
901.096216	0.963710
901.403681	0.963561
901.711105	0.965144
902.018489	0.965819
902.325832	0.964045
902.633135	0.964230
902.940397	0.957897
903.247619	0.948012
903.554800	0.922668
903.861941	0.884469
904.169041	0.851316
904.476101	0.835163
904.783121	0.836332
905.090100	0.851618
905.397039	0.871261
905.703938	0.892333
906.010796	0.910665
906.317614	0.927677
906.624391	0.937566
906.931129	0.947302
907.237826	0.953836
907.544483	0.961483
907.851099	0.965451
908.157675	0.970376
908.464211	0.972128
908.770707	0.974265
909.077163	0.974282
909.383578	0.976400
909.689954	0.976762
909.996289	0.977085
910.302584	0.979043
910.608839	0.980965
910.915054	0.979785
911.221229	0.979290
911.527363	0.977457
911.833458	0.979037
912.139513	0.978539
912.445527	0.976933
912.751502	0.975106
913.057436	0.974029
913.363331	0.971609
913.669186	0.968900
913.975000	0.962671
914.280775	0.958261
914.586510	0.952946
914.892205	0.939638
915.197859	0.919872
915.503475	0.893855
915.809050	0.875172
916.114585	0.870509
916.420081	0.868484
916.725536	0.865049
917.030952	0.871897
917.336328	0.884743
917.641665	0.898828
917.946961	0.913182
918.252218	0.924675
918.557435	0.932190
918.862612	0.940619
919.167750	0.945932
919.472848	0.949587
919.777906	0.956418
920.082925	0.960927
920.387904	0.965413
920.692843	0.965445
920.997743	0.966006
921.302603	0.968915
921.607423	0.971785
921.912204	0.973764
922.216946	0.974041
922.521647	0.973997
922.826310	0.976957
923.130932	0.979001
923.435516	0.980043
923.740059	0.981420
924.044564	0.979455
924.349028	0.981755
924.653454	0.984382
924.957840	0.985614
925.262186	0.986329
925.566493	0.984927
925.870761	0.986379
926.174989	0.986356
926.479178	0.989353
926.783328	0.987873
927.087438	0.989910
927.391509	0.989041
927.695541	0.992477
927.999533	0.991455
928.303486	0.990598
928.607400	0.993285
928.911275	0.991096
929.215110	0.992031
929.518906	0.991761
929.822663	0.990116
930.126381	0.991780
930.430060	0.991044
930.733699	0.991391
931.037299	0.991235
931.340861	0.990924
931.644383	0.990085
931.947866	0.990085
932.251309	0.991540
932.554714	0.990402
932.858080	0.991178
933.161407	0.989919
933.464694	0.992218
933.767943	0.989809
934.071153	0.991763
934.374323	0.993102
934.677455	0.991817
934.980548	0.992537
935.283602	0.991295
935.586617	0.991040
935.889593	0.991636
936.192530	0.992260
936.495428	0.990973
936.798287	0.990924
937.101108	0.992260
937.403890	0.989648
937.706632	0.989768
938.009336	0.987546
938.312002	0.986793
938.614628	0.985215
938.917216	0.984299
939.219765	0.983742
939.522275	0.984944
939.824747	0.985402
940.127179	0.985001
940.429573	0.986256
940.731929	0.985317
941.034246	0.985672
941.336524	0.987028
941.638763	0.987058
941.940964	0.987624
942.243126	0.987736
942.545250	0.988956
942.847335	0.989937
943.149381	0.988843
943.451389	0.989456
943.753359	0.989767
944.055290	0.992357
944.357182	0.990788
944.659036	0.989712
944.960851	0.989523
945.262628	0.990913
945.564367	0.991681
945.866067	0.990154
946.167729	0.991205
946.469352	0.990312
946.770937	0.989712
947.072484	0.991295
947.373992	0.992123
947.675462	0.991342
947.976893	0.991093
948.278286	0.990875
948.579641	0.992920
948.880958	0.991844
949.182236	0.991545
949.483476	0.992878
949.784678	0.992087
950.085841	0.991499
950.386967	0.991698
950.688054	0.991684
950.989103	0.992242
951.290114	0.989451
951.591087	0.989993
951.892021	0.989663
952.192917	0.990263
952.493776	0.989080
952.794596	0.989787
953.095378	0.988110
953.396122	0.989203
953.696828	0.987300
953.997496	0.990885
954.298126	0.991315
954.598718	0.991347
954.899272	0.992759
955.199788	0.991377
955.500266	0.993075
955.800706	0.993084
956.101108	0.994877
956.401472	0.993585
956.701798	0.993580
957.002087	0.993051
957.302337	0.994729
957.602550	0.995767
957.902724	0.995715
958.202861	0.995299
958.502960	0.996762
958.803022	0.994341
959.103045	0.996587
959.403031	0.995577
959.702979	0.995326
960.002889	0.996033
960.302762	0.994310
960.602596	0.996034
960.902393	0.994748
961.202153	0.997394
961.501875	0.996638
961.801559	0.995893
962.101205	0.995623
962.400814	0.996760
962.700385	0.998019
962.999918	0.997284
963.299414	0.996861
963.598873	0.996008
963.898293	0.996601
964.197677	0.996306
964.497022	0.996657
964.796331	0.997375
965.095601	0.996768
965.394835	0.995593
965.694030	0.996960
965.993189	0.997486
966.292309	0.996713
966.591393	0.996866
966.890439	0.996893
967.189447	0.996400
967.488419	0.998460
967.787353	0.996149
968.086249	0.997050
968.385108	0.997128
968.683930	0.997682
968.982714	0.997433
969.281462	0.997951
969.580172	0.996222
969.878844	0.996667
970.177480	0.997511
970.476078	0.996866
970.774639	0.997508
971.073162	0.997508
971.371649	0.995898
971.670098	0.995894
971.968510	0.997763
972.266885	0.994971
972.565223	0.996898
972.863524	0.995554
973.161788	0.997109
973.460014	0.997918
973.758204	0.995578
974.056356	0.996528
974.354471	0.993867
974.652550	0.997543
974.950591	0.996446
975.248595	0.997101
975.546563	0.997965
975.844493	0.997516
976.142386	0.997032
976.440243	0.997463
976.738062	0.996955
977.035845	0.997689
977.333590	0.996782
977.631299	0.999091
977.928971	0.995599
978.226606	0.996617
978.524204	0.995581
978.821765	0.999394
979.119290	0.997497
979.416777	0.997330
979.714228	0.998000
980.011642	0.995680
980.309020	0.997700
980.606360	0.997510
980.903664	0.997912
981.200931	0.995892
981.498162	0.994577
981.795356	0.995632
982.092513	0.994289
982.389633	0.995403
982.686717	0.991802
982.983764	0.992274
983.280775	0.991520
983.577749	0.990726
983.874686	0.992518
984.171587	0.992200
984.468451	0.994736
984.765279	0.995614
985.062070	0.994879
985.358824	0.994941
985.655543	0.995565
985.952224	0.995362
986.248869	0.996728
986.545478	0.996742
986.842050	0.998961
987.138586	0.996503
987.435086	0.997499
987.731549	0.998235
988.027975	0.998124
988.324366	0.997530
988.620719	0.997383
988.917037	0.995170
989.213318	0.997817
989.509563	0.998267
989.805772	0.998039
990.101944	0.999290
990.398080	0.998664
990.694180	0.997915
990.990244	0.997390
991.286271	0.998406
991.582262	0.998055
991.878217	0.998340
992.174136	0.998591
992.470019	0.999021
992.765865	0.998294
993.061676	0.997663
993.357450	0.998711
993.653188	0.996893
993.948890	0.998678
994.244556	0.997778
994.540186	0.997752
994.835780	0.995854
995.131337	0.998397
995.426859	0.997864
995.722345	0.998150
996.017795	0.996715
996.313208	0.996443
996.608586	0.995128
996.903928	0.996533
997.199234	0.995712
997.494504	0.996677
997.789738	0.996553
998.084936	0.996327
998.380099	0.998397
998.675225	0.997521
998.970316	0.998354
999.265371	0.998772
999.560390	0.998408
999.855373	0.999357
1000.150320	0.997553
1000.445232	0.998255
1000.740108	0.998354
1001.034948	0.998635
1001.329752	0.998456
1001.624521	0.998405
1001.919254	0.998472
1002.213951	0.998539
1002.508613	0.997913
1002.803239	0.999406
1003.097829	0.997861
1003.392384	0.999515
1003.686903	0.997407
1003.981386	0.999139
1004.275834	0.999469
1004.570246	0.998823
1004.864623	0.998375
1005.158964	1.000129
1005.453270	0.998997
1005.747540	0.997475
1006.041775	0.998505
1006.335974	0.999400
1006.630138	0.998387
1006.924266	0.999219
1007.218359	1.001791
1007.512416	0.999340
1007.806438	0.998894
1008.100425	0.999683
1008.394376	0.999130
1008.688292	0.998239
1008.982172	1.000977
1009.276017	0.997298
1009.569827	0.999254
1009.863602	0.998603
1010.157341	0.999255
1010.451045	0.998744
1010.744714	0.998969
1011.038347	0.999582
1011.331945	0.998686
1011.625508	0.998111
1011.919036	0.998696
1012.212528	0.998935
1012.505986	0.997595
1012.799408	0.998712
1013.092795	0.998712
1013.386147	0.998948
1013.679464	0.999176
1013.972745	0.997890
1014.265992	0.997141
1014.559204	0.998850
1014.852380	0.999098
1015.145521	0.998537
1015.438628	0.998566
1015.731699	0.999465
1016.024736	0.999235
1016.317737	0.998194
1016.610703	0.998979
1016.903635	1.000513
1017.196531	0.998215
1017.489393	0.999411
1017.782219	0.998646
1018.075011	0.999635
1018.367768	0.998930
1018.660490	0.999548
1018.953177	0.999548
1019.245829	0.999548
