Dividing Wavelength (nm)	Counts (n)	Blue Motor Position (mm): 0.000000	Red Motor Position (mm): 11.400000	
326.493990	1.000239
326.888308	1.000239
327.282561	1.000239
327.676750	0.999764
328.070874	0.999965
328.464933	0.999966
328.858929	0.998796
329.252859	1.000456
329.646726	0.999000
330.040528	0.999547
330.434265	0.999825
330.827938	1.002445
331.221547	1.001591
331.615091	0.999375
332.008571	0.999856
332.401986	1.000795
332.795338	1.001018
333.188625	0.998563
333.581847	0.999985
333.975006	0.999011
334.368100	0.998746
334.761129	1.000112
335.154095	1.001559
335.546996	0.997766
335.939833	0.992622
336.332606	0.992669
336.725315	0.993924
337.117960	0.994591
337.510540	0.993411
337.903056	0.993824
338.295508	0.993157
338.687896	0.992976
339.080220	0.995327
339.472480	0.994891
339.864676	0.993802
340.256807	0.995070
340.648875	0.994504
341.040879	0.993138
341.432818	0.994330
341.824694	0.993037
342.216506	0.995270
342.608253	0.994090
342.999937	0.993362
343.391557	0.994166
343.783113	0.993378
344.174605	0.994170
344.566033	0.993701
344.957397	0.992991
345.348697	0.993466
345.739934	0.993317
346.131106	0.992550
346.522215	0.993029
346.913260	0.993633
347.304241	0.993833
347.695159	0.992230
348.086012	0.992270
348.476802	0.993457
348.867528	0.994165
349.258191	0.991788
349.648789	0.994013
350.039324	0.993472
350.429796	0.993432
350.820203	0.994140
351.210548	0.994299
351.600828	0.993833
351.991045	0.994013
352.381198	0.992994
352.771288	0.992819
353.161314	0.993535
353.551276	0.993995
353.941175	0.993557
354.331010	0.992584
354.720782	0.993678
355.110490	0.992787
355.500135	0.993371
355.889717	0.992868
356.279235	0.993380
356.668689	0.993776
357.058080	0.993923
357.447408	0.993559
357.836672	0.993379
358.225873	0.994580
358.615010	0.993625
359.004084	0.994240
359.393095	0.994060
359.782043	0.994193
360.170927	0.994162
360.559748	0.994331
360.948505	0.992611
361.337199	0.993058
361.725830	0.992927
362.114398	0.993299
362.502903	0.993946
362.891344	0.994839
363.279722	0.993334
363.668037	0.994158
364.056289	0.993606
364.444478	0.994933
364.832603	0.993350
365.220665	0.992215
365.608665	0.993712
365.996601	0.992127
366.384474	0.992163
366.772284	0.992979
367.160031	0.992930
367.547715	0.992425
367.935336	0.993013
368.322893	0.992792
368.710388	0.991157
369.097820	0.992493
369.485189	0.992393
369.872495	0.991980
370.259738	0.990423
370.646918	0.993651
371.034035	0.992333
371.421090	0.991451
371.808081	0.991966
372.195010	0.993957
372.581875	0.992384
372.968678	0.992802
373.355418	0.991788
373.742096	0.991608
374.128710	0.992694
374.515262	0.992155
374.901751	0.993119
375.288177	0.993184
375.674540	0.992573
376.060841	0.991057
376.447079	0.992620
376.833254	0.991758
377.219367	0.992334
377.605417	0.993039
377.991404	0.991872
378.377329	0.991059
378.763191	0.991365
379.148991	0.993165
379.534727	0.991811
379.920402	0.991620
380.306013	0.992771
380.691563	0.993528
381.077049	0.991409
381.462474	0.993053
381.847835	0.991132
382.233134	0.990283
382.618371	0.991077
383.003545	0.989257
383.388657	0.989069
383.773706	0.988901
384.158693	0.987040
384.543618	0.985287
384.928480	0.983163
385.313280	0.979544
385.698017	0.977914
386.082692	0.973918
386.467305	0.971187
386.851856	0.966538
387.236344	0.962496
387.620770	0.956971
388.005133	0.954039
388.389435	0.949144
388.773674	0.942792
389.157851	0.937456
389.541965	0.931544
389.926018	0.927240
390.310008	0.920342
390.693936	0.912220
391.077802	0.904900
391.461606	0.898799
391.845348	0.888225
392.229027	0.883046
392.612645	0.873183
392.996200	0.863307
393.379694	0.852594
393.763125	0.840700
394.146494	0.835121
394.529801	0.822003
394.913047	0.810587
395.296230	0.805152
395.679351	0.792083
396.062410	0.781422
396.445408	0.775896
396.828343	0.763964
397.211217	0.753337
397.594028	0.752942
397.976778	0.738241
398.359466	0.728575
398.742092	0.717191
399.124656	0.719060
399.507158	0.703184
399.889598	0.694928
400.271977	0.680391
400.654294	0.677890
401.036549	0.670528
401.418742	0.667802
401.800874	0.649771
402.182944	0.642368
402.564952	0.629749
402.946898	0.626742
403.328783	0.622194
403.710606	0.627512
404.092367	0.600921
404.474067	0.601932
404.855705	0.596429
405.237282	0.602169
405.618797	0.586103
406.000250	0.578446
406.381642	0.568323
406.762972	0.569798
407.144240	0.566385
407.525447	0.564120
407.906593	0.555471
408.287677	0.548500
408.668700	0.555044
409.049661	0.547069
409.430560	0.542262
409.811399	0.549043
410.192176	0.530135
410.572891	0.536070
410.953545	0.524305
411.334138	0.536614
411.714669	0.529484
412.095139	0.540389
412.475547	0.524623
412.855894	0.525609
413.236180	0.525036
413.616405	0.530027
413.996568	0.520503
414.376670	0.526369
414.756711	0.530861
415.136691	0.528113
415.516609	0.519048
415.896466	0.515348
416.276262	0.511230
416.655997	0.513043
417.035670	0.494410
417.415283	0.485902
417.794834	0.490548
418.174324	0.495692
418.553753	0.505174
418.933121	0.487676
419.312428	0.480726
419.691674	0.486002
420.070859	0.475039
420.449983	0.483394
420.829045	0.472788
421.208047	0.481209
421.586988	0.475552
421.965867	0.473462
422.344686	0.462525
422.723444	0.475556
423.102141	0.491922
423.480777	0.464840
423.859352	0.485147
424.237866	0.462145
424.616319	0.462937
424.994712	0.453641
425.373044	0.464173
425.751314	0.452341
426.129524	0.468859
426.507673	0.452949
426.885762	0.446280
427.263789	0.452278
427.641756	0.461095
428.019662	0.451609
428.397508	0.450632
428.775292	0.454577
429.153016	0.447256
429.530679	0.453617
429.908282	0.446430
430.285824	0.456596
430.663305	0.434901
431.040726	0.456326
431.418086	0.456274
431.795385	0.447705
432.172624	0.445982
432.549802	0.447281
432.926920	0.446162
433.303977	0.444956
433.680974	0.442786
434.057910	0.440998
434.434786	0.440448
434.811601	0.443488
435.188355	0.425216
435.565050	0.434587
435.941683	0.435859
436.318257	0.420849
436.694770	0.421043
437.071222	0.419819
437.447614	0.424003
437.823946	0.429954
438.200218	0.419895
438.576429	0.429350
438.952580	0.422302
439.328670	0.418876
439.704700	0.425401
440.080670	0.426897
440.456580	0.407901
440.832429	0.415872
441.208218	0.426960
441.583947	0.415773
441.959616	0.415868
442.335224	0.420488
442.710773	0.411737
443.086261	0.409548
443.461689	0.424209
443.837057	0.413336
444.212365	0.403282
444.587612	0.409976
444.962800	0.400120
445.337927	0.401611
445.712995	0.428017
446.088002	0.390248
446.462949	0.400851
446.837837	0.405021
447.212664	0.394236
447.587431	0.385779
447.962139	0.356345
448.336786	0.315721
448.711374	0.326071
449.085901	0.370118
449.460369	0.374224
449.834776	0.377546
450.209124	0.357267
450.583412	0.350050
450.957640	0.342582
451.331808	0.354040
451.705917	0.377287
452.079965	0.381760
452.453954	0.369951
452.827883	0.376893
453.201752	0.371950
453.575562	0.383205
453.949311	0.371648
454.323001	0.377558
454.696632	0.373358
455.070202	0.366383
455.443713	0.357881
455.817164	0.353198
456.190556	0.348986
456.563888	0.345555
456.937160	0.343491
457.310373	0.360775
457.683526	0.358932
458.056619	0.365040
458.429653	0.365714
458.802628	0.369091
459.175542	0.363064
459.548398	0.345872
459.921194	0.338357
460.293930	0.338226
460.666607	0.315841
461.039224	0.304288
461.411782	0.299853
461.784280	0.299072
462.156719	0.303619
462.529099	0.307845
462.901419	0.323564
463.273680	0.328328
463.645882	0.327797
464.018024	0.333741
464.390106	0.326559
464.762130	0.311371
465.134094	0.294230
465.505999	0.263504
465.877845	0.233836
466.249631	0.221064
466.621358	0.228318
466.993026	0.242243
467.364634	0.248557
467.736184	0.257275
468.107674	0.266177
468.479105	0.264870
468.850477	0.271589
469.221790	0.278736
469.593043	0.289083
469.964238	0.293652
470.335373	0.292642
470.706449	0.291175
471.077467	0.291688
471.448425	0.253983
471.819324	0.229439
472.190164	0.228849
472.560945	0.257487
472.931667	0.279759
473.302330	0.283729
473.672934	0.296173
474.043479	0.284004
474.413965	0.285713
474.784393	0.289356
475.154761	0.284433
475.525070	0.281413
475.895321	0.287097
476.265513	0.281491
476.635645	0.276712
477.005719	0.276695
477.375734	0.272935
477.745691	0.266480
478.115588	0.262946
478.485427	0.256451
478.855207	0.243362
479.224928	0.225936
479.594591	0.213946
479.964194	0.217565
480.333739	0.218588
480.703226	0.220268
481.072653	0.218764
481.442022	0.214335
481.811333	0.210898
482.180584	0.214398
482.549777	0.219441
482.918912	0.222790
483.287988	0.222466
483.657005	0.222197
484.025964	0.228463
484.394864	0.225819
484.763706	0.226572
485.132489	0.231644
485.501213	0.232246
485.869879	0.230720
486.238487	0.233926
486.607036	0.231653
486.975527	0.236497
487.343959	0.232322
487.712333	0.231437
488.080648	0.232841
488.448905	0.231908
488.817104	0.233302
489.185244	0.227854
489.553326	0.224883
489.921350	0.214498
490.289315	0.196998
490.657222	0.192106
491.025070	0.193501
491.392861	0.195318
491.760593	0.200959
492.128267	0.206647
492.495883	0.212245
492.863440	0.218180
493.230939	0.224766
493.598380	0.226016
493.965763	0.228287
494.333088	0.230756
494.700354	0.231974
495.067563	0.231167
495.434713	0.234152
495.801805	0.232238
496.168839	0.233597
496.535815	0.234777
496.902733	0.234956
497.269593	0.236372
497.636395	0.234343
498.003139	0.234659
498.369825	0.237768
498.736453	0.234058
499.103023	0.235760
499.469535	0.234740
499.835989	0.235314
500.202385	0.236346
500.568723	0.239440
500.935003	0.234625
501.301226	0.238979
501.667390	0.233228
502.033497	0.231278
502.399546	0.234476
502.765537	0.235954
503.131470	0.234279
503.497345	0.230623
503.863163	0.239376
504.228923	0.232503
504.594625	0.231264
504.960269	0.236482
505.325856	0.231574
505.691385	0.236045
506.056856	0.232729
506.422270	0.232266
506.787625	0.234869
507.152924	0.232172
507.518164	0.232710
507.883347	0.234215
508.248472	0.235913
508.613540	0.231034
508.978550	0.233550
509.343503	0.233981
509.708398	0.232070
510.073236	0.229380
510.438016	0.229377
510.802738	0.230172
511.167403	0.229320
511.532010	0.231382
511.896561	0.226468
512.261053	0.225584
512.625488	0.227557
512.989866	0.227795
513.354186	0.228124
513.718449	0.229985
514.082655	0.226150
514.446803	0.228474
514.810894	0.226012
515.174927	0.228975
515.538904	0.228154
515.902822	0.225035
516.266684	0.227250
516.630488	0.228700
516.994235	0.227554
517.357925	0.226220
517.721558	0.224625
518.085133	0.224136
518.448651	0.224145
518.812112	0.226447
519.175516	0.225982
519.538863	0.223819
519.902152	0.225345
520.265385	0.222235
520.628560	0.223827
520.991678	0.224123
521.354739	0.223115
521.717743	0.224386
522.080690	0.224911
522.443580	0.222396
522.806413	0.223366
523.169189	0.222432
523.531908	0.221182
523.894569	0.224992
524.257174	0.224895
524.619722	0.222576
524.982213	0.223804
525.344647	0.222526
525.707025	0.223256
526.069345	0.221744
526.431608	0.223464
526.793815	0.221100
527.155964	0.225158
527.518057	0.224536
527.880093	0.225566
528.242072	0.223813
528.603995	0.225949
528.965860	0.227542
529.327669	0.226319
529.689421	0.227257
530.051117	0.228199
530.412755	0.225521
530.774337	0.228206
531.135862	0.228414
531.497331	0.227666
531.858743	0.230666
532.220098	0.227415
532.581396	0.230005
532.942638	0.230280
533.303824	0.231548
533.664953	0.230996
534.026025	0.232664
534.387040	0.230530
534.747999	0.230763
535.108902	0.229642
535.469748	0.234631
535.830537	0.232566
536.191270	0.233223
536.551947	0.232522
536.912567	0.232224
537.273131	0.234266
537.633638	0.234007
537.994089	0.234429
538.354483	0.235682
538.714821	0.232712
539.075103	0.232304
539.435328	0.233219
539.795497	0.237053
540.155609	0.233502
540.515665	0.231793
540.875665	0.237309
541.235609	0.235801
541.595496	0.235909
541.955328	0.232673
542.315102	0.235174
542.674821	0.236258
543.034483	0.236195
543.394090	0.235890
543.753640	0.237946
544.113134	0.233052
544.472571	0.236293
544.831953	0.233083
545.191278	0.237200
545.550548	0.236569
545.909761	0.233402
546.268918	0.234095
546.628019	0.232315
546.987064	0.235098
547.346053	0.237267
547.704986	0.234817
548.063863	0.235197
548.422684	0.235440
548.781449	0.237289
549.140158	0.234811
549.498811	0.237948
549.857408	0.240773
550.215949	0.235602
550.574434	0.238562
550.932864	0.236663
551.291237	0.235106
551.649555	0.236640
552.007817	0.236432
552.366022	0.237324
552.724173	0.237529
553.082267	0.237829
553.440305	0.234695
553.798288	0.239080
554.156215	0.235769
554.514086	0.236325
554.871902	0.239481
555.229661	0.238688
555.587365	0.239245
555.945014	0.241803
556.302606	0.238807
556.660143	0.240995
557.017625	0.237491
557.375050	0.240140
557.732421	0.236934
558.089735	0.239122
558.446994	0.239070
558.804197	0.238291
559.161345	0.238435
559.518437	0.241640
559.875474	0.239312
560.232455	0.238866
560.589381	0.240088
560.946251	0.240383
561.303065	0.237740
561.659825	0.239408
562.016528	0.240758
562.373177	0.243373
562.729770	0.241044
563.086307	0.242824
563.442789	0.240744
563.799216	0.243443
564.155587	0.242470
564.511904	0.243056
564.868164	0.243454
565.224370	0.243401
565.580520	0.245131
565.936615	0.244888
566.292654	0.247916
566.648638	0.244749
567.004567	0.245823
567.360441	0.246495
567.716260	0.248447
568.072023	0.246180
568.427732	0.247050
568.783385	0.249215
569.138982	0.247234
569.494525	0.247246
569.850013	0.249858
570.205445	0.248365
570.560823	0.250581
570.916145	0.252938
571.271412	0.251021
571.626625	0.252713
571.981782	0.253180
572.336884	0.254192
572.691931	0.253487
573.046923	0.254923
573.401860	0.256126
573.756743	0.257560
574.111570	0.256894
574.466342	0.257121
574.821059	0.256407
575.175722	0.259052
575.530330	0.259004
575.884882	0.259141
576.239380	0.260920
576.593823	0.261685
576.948211	0.261148
577.302544	0.264521
577.656823	0.264228
578.011047	0.264281
578.365216	0.264332
578.719330	0.266648
579.073389	0.266784
579.427394	0.267974
579.781344	0.268761
580.135239	0.270138
580.489080	0.269791
580.842866	0.272778
581.196597	0.272391
581.550273	0.271472
581.903895	0.272158
582.257463	0.270314
582.610975	0.274033
582.964434	0.273132
583.317837	0.275913
583.671186	0.276089
584.024481	0.275908
584.377721	0.278728
584.730906	0.279329
585.084037	0.278544
585.437113	0.280327
585.790135	0.279820
586.143103	0.282731
586.496016	0.283715
586.848874	0.281165
587.201679	0.281876
587.554428	0.285228
587.907124	0.284239
588.259765	0.284410
588.612352	0.285311
588.964884	0.289005
589.317362	0.288884
589.669786	0.288471
590.022155	0.287124
590.374470	0.286303
590.726731	0.288692
591.078937	0.293119
591.431090	0.289414
591.783188	0.293665
592.135232	0.294181
592.487222	0.294359
592.839157	0.292069
593.191038	0.294576
593.542866	0.296440
593.894639	0.300172
594.246358	0.297821
594.598022	0.297351
594.949633	0.301489
595.301190	0.301684
595.652692	0.300958
596.004141	0.297387
596.355535	0.305103
596.706876	0.305673
597.058162	0.308321
597.409395	0.305650
597.760573	0.303165
598.111698	0.306380
598.462768	0.306667
598.813785	0.308421
599.164748	0.309292
599.515657	0.309584
599.866511	0.313155
600.217312	0.308198
600.568060	0.313803
600.918753	0.310108
601.269392	0.310942
601.619978	0.314625
601.970510	0.312127
602.320988	0.312218
602.671412	0.309949
603.021783	0.312338
603.372100	0.313825
603.722363	0.313312
604.072572	0.314074
604.422728	0.313845
604.772830	0.316256
605.122878	0.315565
605.472872	0.316310
605.822813	0.314571
606.172701	0.317338
606.522534	0.314575
606.872314	0.314745
607.222041	0.315556
607.571714	0.313465
607.921333	0.314939
608.270899	0.314976
608.620411	0.311685
608.969870	0.315312
609.319276	0.315460
609.668627	0.315556
610.017926	0.313792
610.367171	0.312494
610.716362	0.313126
611.065500	0.313559
611.414585	0.312266
611.763616	0.312898
612.112594	0.313205
612.461518	0.312896
612.810389	0.310525
613.159207	0.312887
613.507971	0.314334
613.856682	0.310121
614.205340	0.312058
614.553945	0.308365
614.902496	0.312468
615.250994	0.310368
615.599439	0.311353
615.947830	0.310374
616.296169	0.311310
616.644454	0.311189
616.992686	0.311358
617.340864	0.308954
617.688990	0.312833
618.037063	0.309072
618.385082	0.311066
618.733048	0.308273
619.080961	0.310478
619.428821	0.309742
619.776628	0.309319
620.124382	0.311123
620.472083	0.311585
620.819731	0.310723
621.167326	0.314809
621.514868	0.314165
621.862357	0.318751
622.209793	0.318197
622.557176	0.320708
622.904506	0.321898
623.251783	0.323976
623.599007	0.326206
623.946179	0.326323
624.293297	0.327988
624.640363	0.331818
624.987376	0.332538
625.334336	0.334819
625.681243	0.337034
626.028097	0.337744
626.374899	0.338662
626.721647	0.338911
627.068343	0.342593
627.414987	0.343457
627.761577	0.345067
628.108115	0.343656
628.454600	0.348757
628.801032	0.346528
629.147412	0.348279
629.493739	0.348724
629.840014	0.351745
630.186236	0.349443
630.532405	0.354706
630.878521	0.352522
631.224585	0.354138
631.570597	0.357953
631.916556	0.356708
632.262462	0.356897
632.608316	0.358657
632.954117	0.359357
633.299866	0.360210
633.645562	0.360932
633.991206	0.365170
634.336797	0.367842
634.682336	0.370094
635.027823	0.371823
635.373257	0.372338
635.718639	0.375896
636.063968	0.375129
636.409245	0.381324
636.754470	0.381380
637.099642	0.383898
637.444762	0.386933
637.789829	0.386753
638.134845	0.390056
638.479808	0.390524
638.824719	0.390472
639.169577	0.394300
639.514383	0.393120
639.859137	0.397826
640.203839	0.397451
640.548489	0.398031
640.893086	0.399776
641.237632	0.401370
641.582125	0.399735
641.926566	0.400739
642.270955	0.401153
642.615292	0.402004
642.959576	0.400772
643.303809	0.401437
643.647990	0.400662
643.992118	0.401469
644.336195	0.405256
644.680219	0.403029
645.024192	0.404085
645.368112	0.397166
645.711981	0.396021
646.055797	0.391551
646.399562	0.394389
646.743274	0.386234
647.086935	0.383997
647.430544	0.383907
647.774101	0.382843
648.117606	0.382254
648.461059	0.382721
648.804460	0.385125
649.147810	0.390741
649.491108	0.392102
649.834354	0.393099
650.177548	0.398887
650.520690	0.404344
650.863781	0.405877
651.206820	0.404781
651.549807	0.409555
651.892742	0.413346
652.235626	0.412890
652.578458	0.413561
652.921238	0.420602
653.263967	0.417958
653.606644	0.422066
653.949269	0.421712
654.291843	0.425720
654.634365	0.422189
654.976836	0.425376
655.319255	0.425624
655.661622	0.426873
656.003938	0.427309
656.346203	0.429805
656.688416	0.428194
657.030577	0.431307
657.372687	0.432982
657.714746	0.434438
658.056753	0.431270
658.398708	0.435051
658.740612	0.436070
659.082465	0.432155
659.424266	0.432802
659.766016	0.432220
660.107715	0.435227
660.449362	0.434100
660.790958	0.434236
661.132503	0.434679
661.473996	0.432831
661.815438	0.433944
662.156829	0.433766
662.498168	0.434396
662.839456	0.435708
663.180693	0.433734
663.521879	0.433498
663.863013	0.434663
664.204097	0.433414
664.545129	0.430032
664.886110	0.430156
665.227040	0.427428
665.567918	0.430512
665.908746	0.428578
666.249522	0.428295
666.590248	0.428999
666.930922	0.427259
667.271545	0.425970
667.612118	0.426052
667.952639	0.427561
668.293109	0.426492
668.633528	0.429730
668.973896	0.429448
669.314213	0.429699
669.654480	0.431251
669.994695	0.431629
670.334859	0.432091
670.674973	0.432512
671.015035	0.432536
671.355047	0.432740
671.695008	0.433779
672.034918	0.435941
672.374777	0.434847
672.714585	0.435887
673.054342	0.436240
673.394049	0.436093
673.733705	0.433358
674.073310	0.434982
674.412864	0.437916
674.752368	0.438645
675.091820	0.438623
675.431223	0.443262
675.770574	0.443054
676.109875	0.446302
676.449125	0.446016
676.788324	0.448191
677.127473	0.453538
677.466571	0.453292
677.805619	0.454822
678.144616	0.456031
678.483562	0.457643
678.822458	0.460413
679.161303	0.461323
679.500098	0.461641
679.838842	0.463305
680.177535	0.462921
680.516179	0.461521
680.854771	0.460877
681.193314	0.454161
681.531805	0.445715
681.870247	0.433607
682.208638	0.426198
682.546978	0.424945
682.885268	0.427142
683.223508	0.433193
683.561697	0.437306
683.899836	0.439104
684.237925	0.442733
684.575963	0.445699
684.913951	0.448767
685.251889	0.444648
685.589776	0.446352
685.927614	0.449301
686.265401	0.443132
686.603137	0.444519
686.940824	0.438923
687.278460	0.436722
687.616046	0.435879
687.953582	0.431362
688.291068	0.432460
688.628504	0.428461
688.965889	0.430168
689.303224	0.434366
689.640510	0.438224
689.977745	0.444692
690.314930	0.452246
690.652065	0.456667
690.989150	0.464177
691.326185	0.470555
691.663170	0.474612
692.000105	0.482267
692.336990	0.489088
692.673825	0.492058
693.010610	0.499101
693.347345	0.504039
693.684030	0.506052
694.020665	0.510551
694.357251	0.518703
694.693786	0.519450
695.030272	0.523279
695.366707	0.526452
695.703093	0.529739
696.039429	0.527767
696.375716	0.529338
696.711952	0.532017
697.048139	0.534352
697.384276	0.536287
697.720363	0.533872
698.056400	0.533631
698.392388	0.538984
698.728326	0.542342
699.064214	0.544665
699.400053	0.545945
699.735842	0.549540
700.071581	0.552345
700.407270	0.555191
700.742910	0.557548
701.078501	0.563781
701.414042	0.564297
701.749533	0.567630
702.084974	0.576170
702.420366	0.568073
702.755709	0.576028
703.091002	0.583723
703.426246	0.577764
703.761440	0.583546
704.096584	0.588186
704.431679	0.585081
704.766725	0.586694
705.101721	0.588693
705.436668	0.584696
705.771565	0.592295
706.106413	0.588209
706.441212	0.584037
706.775961	0.582358
707.110661	0.585535
707.445311	0.582263
707.779913	0.578858
708.114465	0.577659
708.448967	0.574413
708.783421	0.565737
709.117825	0.560885
709.452180	0.560136
709.786485	0.554931
710.120742	0.545071
710.454949	0.546111
710.789107	0.538735
711.123216	0.529662
711.457275	0.531515
711.791286	0.521809
712.125247	0.520861
712.459159	0.531556
712.793023	0.524427
713.126837	0.528523
713.460602	0.528970
713.794318	0.538153
714.127985	0.537131
714.461602	0.547662
714.795171	0.550062
715.128691	0.559048
715.462162	0.565570
715.795584	0.571109
716.128957	0.574430
716.462281	0.580691
716.795556	0.584354
717.128782	0.588803
717.461960	0.599161
717.795088	0.597917
718.128167	0.604159
718.461198	0.613153
718.794180	0.613353
719.127113	0.615755
719.459997	0.619472
719.792833	0.625340
720.125619	0.625975
720.458357	0.632644
720.791046	0.632065
721.123686	0.635571
721.456278	0.643084
721.788821	0.639969
722.121315	0.644789
722.453761	0.648535
722.786158	0.646240
723.118506	0.642829
723.450805	0.650077
723.783056	0.646344
724.115259	0.643687
724.447412	0.643156
724.779518	0.645239
725.111574	0.643731
725.443582	0.639174
725.775542	0.641836
726.107453	0.633549
726.439315	0.633029
726.771129	0.632140
727.102895	0.625080
727.434612	0.618320
727.766281	0.616436
728.097901	0.615426
728.429473	0.614883
728.760996	0.613749
729.092471	0.613614
729.423897	0.617384
729.755276	0.616856
730.086606	0.617212
730.417887	0.610847
730.749120	0.601601
731.080305	0.592783
731.411442	0.588684
731.742530	0.593868
732.073570	0.592716
732.404562	0.584445
732.735506	0.586468
733.066401	0.590360
733.397249	0.600563
733.728048	0.611396
734.058798	0.624218
734.389501	0.634844
734.720156	0.644722
735.050762	0.652184
735.381320	0.653697
735.711831	0.663671
736.042293	0.668085
736.372707	0.663791
736.703073	0.667832
737.033391	0.670720
737.363661	0.667618
737.693883	0.662700
738.024056	0.661803
738.354182	0.661485
738.684260	0.650292
739.014290	0.647654
739.344272	0.648290
739.674207	0.641604
740.004093	0.640888
740.333931	0.640857
740.663722	0.640993
740.993464	0.642371
741.323159	0.645320
741.652806	0.650554
741.982405	0.655717
742.311956	0.659663
742.641460	0.662139
742.970915	0.666806
743.300323	0.673771
743.629683	0.680187
743.958996	0.681870
744.288260	0.685686
744.617477	0.692867
744.946647	0.693569
745.275768	0.698671
745.604842	0.698976
745.933869	0.708430
746.262847	0.709716
746.591778	0.703686
746.920662	0.709526
747.249498	0.715818
747.578286	0.706927
747.907027	0.702624
748.235720	0.703211
748.564365	0.697591
748.892963	0.698956
749.221514	0.701531
749.550017	0.706259
749.878473	0.706281
750.206881	0.712413
750.535242	0.714264
750.863555	0.714037
751.191821	0.714598
751.520039	0.718531
751.848210	0.722705
752.176334	0.715621
752.504411	0.714374
752.832440	0.722922
753.160421	0.726014
753.488356	0.725358
753.816243	0.721228
754.144082	0.730721
754.471875	0.734001
754.799620	0.730063
755.127318	0.730519
755.454969	0.730601
755.782572	0.730170
756.110129	0.735108
756.437638	0.738416
756.765100	0.734132
757.092515	0.733139
757.419882	0.730897
757.747203	0.737254
758.074477	0.735649
758.401703	0.732854
758.728882	0.728256
759.056014	0.726649
759.383099	0.725426
759.710138	0.726349
760.037129	0.723767
760.364073	0.717985
760.690970	0.719386
761.017820	0.726077
761.344623	0.721270
761.671379	0.712414
761.998088	0.700638
762.324751	0.677242
762.651366	0.635992
762.977935	0.568198
763.304456	0.516378
763.630931	0.506867
763.957359	0.545736
764.283740	0.590233
764.610074	0.617487
764.936362	0.648985
765.262602	0.675828
765.588796	0.697377
765.914943	0.715028
766.241044	0.733275
766.567097	0.740220
766.893104	0.749346
767.219064	0.755641
767.544978	0.762257
767.870845	0.776171
768.196665	0.779680
768.522438	0.777529
768.848165	0.778884
769.173846	0.788228
769.499479	0.792983
769.825066	0.795097
770.150607	0.801120
770.476101	0.796762
770.801548	0.797356
771.126949	0.808966
771.452303	0.812487
771.777611	0.811221
772.102872	0.811856
772.428087	0.816992
772.753256	0.819708
773.078378	0.821895
773.403453	0.830700
773.728482	0.835110
774.053465	0.827797
774.378401	0.831839
774.703291	0.840813
775.028135	0.841079
775.352932	0.842746
775.677683	0.845000
776.002388	0.846453
776.327046	0.844452
776.651658	0.847278
776.976224	0.851256
777.300743	0.851631
777.625216	0.853771
777.949643	0.854747
778.274024	0.855961
778.598359	0.857043
778.922647	0.856225
779.246889	0.856434
779.571086	0.859965
779.895236	0.863624
780.219339	0.859708
780.543397	0.856967
780.867409	0.855292
781.191374	0.857844
781.515294	0.859058
781.839167	0.858434
782.162995	0.861427
782.486776	0.857787
782.810511	0.858949
783.134201	0.862539
783.457844	0.859993
783.781441	0.863673
784.104993	0.869560
784.428498	0.869420
784.751958	0.864476
785.075372	0.867667
785.398739	0.871410
785.722061	0.867007
786.045337	0.863844
786.368568	0.868274
786.691752	0.870661
787.014891	0.855037
787.337983	0.847505
787.661030	0.839582
787.984031	0.821767
788.306987	0.808966
788.629897	0.811553
788.952760	0.816376
789.275579	0.819530
789.598351	0.835269
789.921078	0.847423
790.243759	0.849820
790.566395	0.854967
790.888984	0.862463
791.211529	0.867226
791.534027	0.871339
791.856480	0.872604
792.178888	0.878206
792.501249	0.880557
792.823566	0.881563
793.145836	0.881315
793.468062	0.883238
793.790241	0.883462
794.112375	0.882131
794.434464	0.876871
794.756507	0.877249
795.078505	0.875468
795.400457	0.870671
795.722364	0.858772
796.044226	0.851114
796.366042	0.850464
796.687812	0.853711
797.009538	0.850717
797.331218	0.853551
797.652852	0.858586
797.974442	0.863126
798.295986	0.862515
798.617484	0.864854
798.938938	0.870427
799.260346	0.874200
799.581709	0.876780
799.903026	0.878975
800.224299	0.879010
800.545526	0.883484
800.866708	0.888638
801.187845	0.891486
801.508936	0.892495
801.829983	0.889372
802.150984	0.892001
802.471940	0.895888
802.792851	0.895825
803.113717	0.897672
803.434538	0.895592
803.755314	0.897392
804.076045	0.899867
804.396731	0.899915
804.717372	0.898621
805.037967	0.900711
805.358518	0.898685
805.679024	0.895742
805.999485	0.894810
806.319901	0.896411
806.640272	0.897258
806.960598	0.894498
807.280879	0.892759
807.601115	0.892010
807.921306	0.894748
808.241453	0.894626
808.561554	0.892645
808.881611	0.892382
809.201623	0.894979
809.521590	0.895565
809.841513	0.896388
810.161390	0.895400
810.481223	0.897144
810.801011	0.900122
811.120755	0.901655
811.440453	0.901080
811.760107	0.898624
812.079716	0.898819
812.399281	0.903312
812.718801	0.906106
813.038276	0.905855
813.357707	0.905318
813.677093	0.902490
813.996434	0.906528
814.315731	0.906862
814.634983	0.908650
814.954191	0.906513
815.273354	0.904569
815.592473	0.900041
815.911547	0.899618
816.230577	0.897423
816.549562	0.895043
816.868502	0.895332
817.187399	0.893312
817.506250	0.886998
817.825058	0.887877
818.143821	0.885447
818.462539	0.879428
818.781213	0.871996
819.099843	0.859498
819.418429	0.844781
819.736970	0.827195
820.055466	0.806913
820.373919	0.783172
820.692327	0.747793
821.010691	0.713759
821.329011	0.634752
821.647286	0.518470
821.965517	0.404547
822.283704	0.361232
822.601847	0.362117
822.919945	0.398097
823.237999	0.432693
823.556010	0.479299
823.873976	0.535739
824.191897	0.587220
824.509775	0.629480
824.827609	0.675017
825.145398	0.698263
825.463144	0.701003
825.780845	0.684482
826.098502	0.665441
826.416116	0.619236
826.733685	0.574883
827.051210	0.565912
827.368692	0.580997
827.686129	0.618669
828.003522	0.671849
828.320872	0.719378
828.638177	0.764545
828.955439	0.797444
829.272656	0.819738
829.589830	0.836763
829.906960	0.853172
830.224046	0.865164
830.541088	0.875685
830.858086	0.880953
831.175041	0.885774
831.491952	0.884596
831.808819	0.881786
832.125642	0.874499
832.442421	0.859514
832.759157	0.837505
833.075849	0.791854
833.392497	0.727401
833.709101	0.686582
834.025662	0.695499
834.342179	0.726970
834.658653	0.767048
834.975083	0.803880
835.291469	0.828706
835.607811	0.853498
835.924110	0.869821
836.240366	0.885906
836.556578	0.900334
836.872746	0.907326
837.188871	0.914154
837.504952	0.919236
837.820990	0.922520
838.136984	0.925871
838.452935	0.929606
838.768842	0.930642
839.084706	0.923080
839.400526	0.897928
839.716303	0.857882
840.032037	0.833738
840.347727	0.838749
840.663373	0.856122
840.978977	0.878305
841.294537	0.900906
841.610054	0.916348
841.925527	0.925825
842.240957	0.932038
842.556344	0.938764
842.871687	0.944640
843.186987	0.949585
843.502244	0.949651
843.817458	0.951511
844.132629	0.953554
844.447756	0.960160
844.762840	0.961067
845.077881	0.959699
845.392879	0.958611
845.707833	0.961125
846.022745	0.964761
846.337613	0.963695
846.652438	0.966115
846.967221	0.964228
847.281960	0.964360
847.596656	0.966383
847.911309	0.964921
848.225919	0.966655
848.540485	0.968242
848.855009	0.967179
849.169490	0.968566
849.483928	0.967571
849.798323	0.969245
850.112675	0.969100
850.426984	0.969567
850.741251	0.969545
851.055474	0.969580
851.369654	0.967974
851.683792	0.969216
851.997887	0.969661
852.311938	0.969380
852.625947	0.969785
852.939914	0.967773
853.253837	0.968513
853.567718	0.970212
853.881555	0.970538
854.195350	0.967590
854.509103	0.969529
854.822812	0.970160
855.136479	0.968601
855.450103	0.969514
855.763685	0.968440
856.077224	0.967942
856.390720	0.969360
856.704173	0.970257
857.017584	0.967661
857.330953	0.966479
857.644278	0.967790
857.957561	0.968271
858.270802	0.968456
858.584000	0.968035
858.897155	0.965503
859.210268	0.967702
859.523339	0.967771
859.836367	0.970146
860.149352	0.969825
860.462295	0.968646
860.775195	0.969487
861.088054	0.968460
861.400869	0.969147
861.713642	0.969799
862.026373	0.969763
862.339062	0.970424
862.651708	0.967165
862.964312	0.967474
863.276873	0.968702
863.589392	0.968450
863.901869	0.965127
864.214303	0.964954
864.526696	0.964104
864.839045	0.962107
865.151353	0.959881
865.463619	0.961406
865.775842	0.961711
866.088023	0.961393
866.400162	0.962338
866.712258	0.962867
867.024313	0.961919
867.336325	0.962811
867.648296	0.963186
867.960224	0.960947
868.272110	0.960441
868.583954	0.963203
868.895755	0.963172
869.207515	0.960243
869.519233	0.958237
869.830909	0.959781
870.142542	0.961188
870.454134	0.961642
870.765684	0.960006
871.077191	0.956756
871.388657	0.958495
871.700081	0.955885
872.011463	0.957942
872.322803	0.956666
872.634101	0.956644
872.945357	0.953934
873.256571	0.951018
873.567744	0.950751
873.878874	0.953646
874.189963	0.951304
874.501010	0.950955
874.812015	0.948875
875.122979	0.950450
875.433900	0.952504
875.744780	0.952474
876.055618	0.948829
876.366415	0.949348
876.677169	0.949036
876.987882	0.950672
877.298554	0.949417
877.609183	0.945533
877.919771	0.943735
878.230317	0.942611
878.540822	0.939836
878.851285	0.932913
879.161707	0.926031
879.472087	0.912803
879.782425	0.895560
880.092722	0.862785
880.402977	0.809110
880.713191	0.747197
881.023363	0.686672
881.333494	0.652353
881.643583	0.624228
881.953631	0.624751
882.263637	0.653113
882.573602	0.691879
882.883526	0.718310
883.193408	0.742870
883.503248	0.766198
883.813048	0.794284
884.122806	0.823205
884.432522	0.847714
884.742197	0.866218
885.051831	0.878607
885.361424	0.888659
885.670975	0.901084
885.980485	0.911824
886.289954	0.917851
886.599382	0.922960
886.908768	0.926027
887.218113	0.932643
887.527417	0.937854
887.836680	0.940393
888.145901	0.942688
888.455082	0.944609
888.764221	0.950553
889.073319	0.951907
889.382376	0.952133
889.691392	0.952187
890.000366	0.951782
890.309300	0.952014
890.618193	0.951174
890.927044	0.950166
891.235855	0.950216
891.544625	0.949254
891.853353	0.951375
892.162041	0.947198
892.470687	0.941867
892.779293	0.936383
893.087858	0.932041
893.396381	0.924789
893.704864	0.910222
894.013306	0.887388
894.321707	0.859190
894.630068	0.844900
894.938387	0.839304
895.246665	0.841222
895.554903	0.854251
895.863100	0.866690
896.171256	0.884086
896.479371	0.903790
896.787446	0.917703
897.095480	0.922288
897.403473	0.926080
897.711425	0.930866
898.019336	0.938485
898.327207	0.941556
898.635038	0.942874
898.942827	0.943958
899.250576	0.946325
899.558284	0.951282
899.865952	0.952016
900.173579	0.952892
900.481165	0.954928
900.788711	0.958556
901.096216	0.960766
901.403681	0.959627
901.711105	0.962395
902.018489	0.962183
902.325832	0.961646
902.633135	0.960935
902.940397	0.953424
903.247619	0.942339
903.554800	0.916288
903.861941	0.875393
904.169041	0.839230
904.476101	0.821373
904.783121	0.821547
905.090100	0.839149
905.397039	0.861264
905.703938	0.883172
906.010796	0.903596
906.317614	0.921325
906.624391	0.932399
906.931129	0.942638
907.237826	0.950586
907.544483	0.959097
907.851099	0.962624
908.157675	0.967965
908.464211	0.968780
908.770707	0.971751
909.077163	0.972995
909.383578	0.974316
909.689954	0.974015
909.996289	0.974871
910.302584	0.978144
910.608839	0.979550
910.915054	0.977538
911.221229	0.977314
911.527363	0.975679
911.833458	0.976295
912.139513	0.976500
912.445527	0.974559
912.751502	0.972944
913.057436	0.971712
913.363331	0.968668
913.669186	0.965081
913.975000	0.960071
914.280775	0.954496
914.586510	0.946848
914.892205	0.934155
915.197859	0.911317
915.503475	0.883601
915.809050	0.864679
916.114585	0.857054
916.420081	0.854741
916.725536	0.849967
917.030952	0.859883
917.336328	0.872962
917.641665	0.889151
917.946961	0.904477
918.252218	0.916699
918.557435	0.925773
918.862612	0.934771
919.167750	0.940462
919.472848	0.944695
919.777906	0.950500
920.082925	0.956648
920.387904	0.959386
920.692843	0.962199
920.997743	0.962277
921.302603	0.965436
921.607423	0.968721
921.912204	0.971399
922.216946	0.971226
922.521647	0.971671
922.826310	0.974107
923.130932	0.976335
923.435516	0.978786
923.740059	0.978231
924.044564	0.977888
924.349028	0.979250
924.653454	0.982132
924.957840	0.984315
925.262186	0.984202
925.566493	0.982756
925.870761	0.984751
926.174989	0.985785
926.479178	0.988360
926.783328	0.987459
927.087438	0.986881
927.391509	0.987368
927.695541	0.989775
927.999533	0.988592
928.303486	0.989045
928.607400	0.991115
928.911275	0.988543
929.215110	0.990145
929.518906	0.990811
929.822663	0.989914
930.126381	0.991534
930.430060	0.990709
930.733699	0.989923
931.037299	0.989048
931.340861	0.990678
931.644383	0.990621
931.947866	0.989802
932.251309	0.990433
932.554714	0.991043
932.858080	0.989909
933.161407	0.990311
933.464694	0.990404
933.767943	0.989762
934.071153	0.990931
934.374323	0.991278
934.677455	0.990799
934.980548	0.991118
935.283602	0.990375
935.586617	0.990654
935.889593	0.991581
936.192530	0.991205
936.495428	0.990118
936.798287	0.991074
937.101108	0.989457
937.403890	0.988877
937.706632	0.986182
938.009336	0.985774
938.312002	0.985507
938.614628	0.983955
938.917216	0.983418
939.219765	0.981237
939.522275	0.982556
939.824747	0.982468
940.127179	0.983165
940.429573	0.983530
940.731929	0.982691
941.034246	0.985246
941.336524	0.984255
941.638763	0.986250
941.940964	0.985892
942.243126	0.985699
942.545250	0.986014
942.847335	0.988115
943.149381	0.986495
943.451389	0.987095
943.753359	0.987728
944.055290	0.990572
944.357182	0.988680
944.659036	0.988147
944.960851	0.989548
945.262628	0.988636
945.564367	0.990867
945.866067	0.989597
946.167729	0.990293
946.469352	0.989154
946.770937	0.987665
947.072484	0.991326
947.373992	0.988803
947.675462	0.989377
947.976893	0.988094
948.278286	0.990038
948.579641	0.991162
948.880958	0.990471
949.182236	0.990746
949.483476	0.989970
949.784678	0.989962
950.085841	0.990304
950.386967	0.990146
950.688054	0.990245
950.989103	0.991500
951.290114	0.988723
951.591087	0.989351
951.892021	0.988588
952.192917	0.988229
952.493776	0.986920
952.794596	0.988015
953.095378	0.987262
953.396122	0.987619
953.696828	0.987148
953.997496	0.989079
954.298126	0.990655
954.598718	0.990554
954.899272	0.990847
955.199788	0.990956
955.500266	0.990131
955.800706	0.992762
956.101108	0.992417
956.401472	0.992804
956.701798	0.993632
957.002087	0.993421
957.302337	0.995227
957.602550	0.994643
957.902724	0.993985
958.202861	0.995319
958.502960	0.995468
958.803022	0.993980
959.103045	0.996287
959.403031	0.994969
959.702979	0.994294
960.002889	0.996063
960.302762	0.995277
960.602596	0.994790
960.902393	0.993625
961.202153	0.996148
961.501875	0.996672
961.801559	0.995299
962.101205	0.996090
962.400814	0.996853
962.700385	0.995569
962.999918	0.996050
963.299414	0.995169
963.598873	0.995958
963.898293	0.995381
964.197677	0.996133
964.497022	0.995953
964.796331	0.996814
965.095601	0.996110
965.394835	0.997180
965.694030	0.996606
965.993189	0.996233
966.292309	0.996190
966.591393	0.997821
966.890439	0.997450
967.189447	0.996208
967.488419	0.996863
967.787353	0.996277
968.086249	0.995989
968.385108	0.996530
968.683930	0.996300
968.982714	0.997105
969.281462	0.997398
969.580172	0.996448
969.878844	0.997072
970.177480	0.995738
970.476078	0.996517
970.774639	0.996264
971.073162	0.997896
971.371649	0.996385
971.670098	0.996937
971.968510	0.997466
972.266885	0.994822
972.565223	0.996642
972.863524	0.995457
973.161788	0.995488
973.460014	0.997066
973.758204	0.995940
974.056356	0.995159
974.354471	0.994115
974.652550	0.996732
974.950591	0.994626
975.248595	0.995725
975.546563	0.995595
975.844493	0.997784
976.142386	0.995973
976.440243	0.998375
976.738062	0.997365
977.035845	0.997267
977.333590	0.996056
977.631299	0.998036
977.928971	0.996038
978.226606	0.996855
978.524204	0.995944
978.821765	0.998249
979.119290	0.996977
979.416777	0.997271
979.714228	0.997270
980.011642	0.996417
980.309020	0.997424
980.606360	0.996544
980.903664	0.998558
981.200931	0.995974
981.498162	0.994973
981.795356	0.993858
982.092513	0.994121
982.389633	0.994549
982.686717	0.990896
982.983764	0.991063
983.280775	0.990054
983.577749	0.990403
983.874686	0.991731
984.171587	0.990974
984.468451	0.993381
984.765279	0.994267
985.062070	0.993258
985.358824	0.995168
985.655543	0.994034
985.952224	0.995834
986.248869	0.996010
986.545478	0.997024
986.842050	0.997396
987.138586	0.995569
987.435086	0.996558
987.731549	0.997752
988.027975	0.997103
988.324366	0.996218
988.620719	0.997557
988.917037	0.997363
989.213318	0.997736
989.509563	0.998565
989.805772	0.999186
990.101944	0.997776
990.398080	0.997467
990.694180	0.997936
990.990244	0.997163
991.286271	0.998622
991.582262	0.997240
991.878217	0.998030
992.174136	0.999241
992.470019	0.997784
992.765865	0.997632
993.061676	0.997280
993.357450	0.996998
993.653188	0.996369
993.948890	0.996329
994.244556	0.998783
994.540186	0.998227
994.835780	0.995479
995.131337	0.997154
995.426859	0.996373
995.722345	0.996523
996.017795	0.995671
996.313208	0.996400
996.608586	0.995032
996.903928	0.996413
997.199234	0.995932
997.494504	0.997064
997.789738	0.996008
998.084936	0.997417
998.380099	0.998321
998.675225	0.996210
998.970316	0.998034
999.265371	0.998482
999.560390	0.997295
999.855373	0.999378
1000.150320	0.997950
1000.445232	0.998132
1000.740108	0.997096
1001.034948	0.998404
1001.329752	0.998264
1001.624521	0.998310
1001.919254	0.998955
1002.213951	0.998250
1002.508613	0.998268
1002.803239	0.999402
1003.097829	0.997756
1003.392384	0.999194
1003.686903	0.998039
1003.981386	0.999381
1004.275834	0.997785
1004.570246	0.999005
1004.864623	0.998206
1005.158964	0.999896
1005.453270	0.998038
1005.747540	0.997390
1006.041775	0.997398
1006.335974	1.000329
1006.630138	0.998661
1006.924266	0.999620
1007.218359	0.999758
1007.512416	0.999595
1007.806438	0.998861
1008.100425	0.998544
1008.394376	0.998106
1008.688292	0.998503
1008.982172	1.000360
1009.276017	0.999435
1009.569827	0.998279
1009.863602	0.998185
1010.157341	0.999597
1010.451045	0.999370
1010.744714	0.999566
1011.038347	0.999243
1011.331945	0.999117
1011.625508	0.996578
1011.919036	0.999450
1012.212528	0.998245
1012.505986	0.998144
1012.799408	0.998133
1013.092795	0.999285
1013.386147	0.999109
1013.679464	0.999615
1013.972745	0.998037
1014.265992	0.997962
1014.559204	0.999340
1014.852380	0.998877
1015.145521	0.999641
1015.438628	0.999461
1015.731699	0.998921
1016.024736	0.998904
1016.317737	0.998554
1016.610703	0.998941
1016.903635	0.998821
1017.196531	0.998843
1017.489393	0.998835
1017.782219	0.998838
1018.075011	0.997680
1018.367768	0.998770
1018.660490	0.999931
1018.953177	0.999931
1019.245829	0.999931
