Dividing Wavelength (nm)	Counts (n)	Blue Motor Position (mm): 0.000000	Red Motor Position (mm): 34.200000	
326.493990	1.000894
326.888308	1.000894
327.282561	1.000894
327.676750	0.998909
328.070874	0.999441
328.464933	1.000498
328.858929	1.000458
329.252859	0.999648
329.646726	0.999068
330.040528	1.000178
330.434265	0.999610
330.827938	1.000855
331.221547	1.001029
331.615091	0.999611
332.008571	1.000346
332.401986	0.999562
332.795338	1.000321
333.188625	0.998690
333.581847	1.000664
333.975006	1.000123
334.368100	0.999495
334.761129	0.999286
335.154095	1.000386
335.546996	0.998766
335.939833	0.996198
336.332606	0.996175
336.725315	0.997037
337.117960	0.997231
337.510540	0.996601
337.903056	0.997812
338.295508	0.995682
338.687896	0.996740
339.080220	0.997140
339.472480	0.995727
339.864676	0.995130
340.256807	0.996652
340.648875	0.998489
341.040879	0.998506
341.432818	0.996897
341.824694	0.996008
342.216506	0.997128
342.608253	0.997041
342.999937	0.996523
343.391557	0.997145
343.783113	0.996357
344.174605	0.997193
344.566033	0.998196
344.957397	0.995923
345.348697	0.996217
345.739934	0.996440
346.131106	0.996465
346.522215	0.996702
346.913260	0.996579
347.304241	0.995425
347.695159	0.996932
348.086012	0.996194
348.476802	0.997515
348.867528	0.996818
349.258191	0.996134
349.648789	0.996177
350.039324	0.996042
350.429796	0.997914
350.820203	0.996051
351.210548	0.997279
351.600828	0.995594
351.991045	0.996722
352.381198	0.994868
352.771288	0.997368
353.161314	0.997363
353.551276	0.997882
353.941175	0.997016
354.331010	0.995575
354.720782	0.998108
355.110490	0.996494
355.500135	0.998305
355.889717	0.996003
356.279235	0.996837
356.668689	0.995883
357.058080	0.997844
357.447408	0.997090
357.836672	0.997406
358.225873	0.996258
358.615010	0.996753
359.004084	0.997439
359.393095	0.996955
359.782043	0.996990
360.170927	0.997542
360.559748	0.997687
360.948505	0.996374
361.337199	0.996024
361.725830	0.997459
362.114398	0.997096
362.502903	0.996699
362.891344	0.997063
363.279722	0.996539
363.668037	0.996792
364.056289	0.996489
364.444478	0.998069
364.832603	0.997063
365.220665	0.996190
365.608665	0.995771
365.996601	0.996220
366.384474	0.997222
366.772284	0.997100
367.160031	0.996416
367.547715	0.996391
367.935336	0.996859
368.322893	0.996572
368.710388	0.996038
369.097820	0.996401
369.485189	0.996686
369.872495	0.995176
370.259738	0.995061
370.646918	0.997744
371.034035	0.998204
371.421090	0.997431
371.808081	0.996579
372.195010	0.997765
372.581875	0.997207
372.968678	0.996389
373.355418	0.996094
373.742096	0.996663
374.128710	0.998527
374.515262	0.996304
374.901751	0.997252
375.288177	0.996418
375.674540	0.996599
376.060841	0.996132
376.447079	0.997512
376.833254	0.998078
377.219367	0.997568
377.605417	0.997105
377.991404	0.996595
378.377329	0.995879
378.763191	0.997259
379.148991	0.998762
379.534727	0.997697
379.920402	0.997871
380.306013	0.997602
380.691563	0.997068
381.077049	0.997076
381.462474	0.997007
381.847835	0.998689
382.233134	0.997575
382.618371	0.998732
383.003545	0.997741
383.388657	0.996399
383.773706	0.998093
384.158693	0.998360
384.543618	0.997259
384.928480	0.998591
385.313280	0.998165
385.698017	0.998105
386.082692	0.999224
386.467305	0.998986
386.851856	0.997696
387.236344	0.997510
387.620770	0.996862
388.005133	0.998340
388.389435	0.999510
388.773674	0.998634
389.157851	0.998757
389.541965	0.997399
389.926018	0.997485
390.310008	0.999236
390.693936	0.999176
391.077802	0.998226
391.461606	0.998558
391.845348	0.998299
392.229027	0.998965
392.612645	0.998617
392.996200	1.000544
393.379694	0.998352
393.763125	0.998786
394.146494	0.999356
394.529801	0.998853
394.913047	0.998688
395.296230	0.998664
395.679351	0.998643
396.062410	0.997841
396.445408	1.000019
396.828343	0.998794
397.211217	0.998623
397.594028	0.999792
397.976778	0.998942
398.359466	0.999111
398.742092	0.998645
399.124656	0.998336
399.507158	0.998406
399.889598	0.998855
400.271977	0.999143
400.654294	0.999559
401.036549	1.000146
401.418742	0.999275
401.800874	0.997994
402.182944	0.999388
402.564952	0.997804
402.946898	0.999963
403.328783	0.999767
403.710606	0.999035
404.092367	0.998986
404.474067	1.000068
404.855705	0.998423
405.237282	0.998883
405.618797	0.999475
406.000250	0.998595
406.381642	0.999927
406.762972	0.999136
407.144240	0.999531
407.525447	0.999495
407.906593	0.999516
408.287677	0.999898
408.668700	0.999205
409.049661	0.998417
409.430560	0.999378
409.811399	0.999864
410.192176	0.999623
410.572891	0.999791
410.953545	0.998867
411.334138	0.997667
411.714669	0.999550
412.095139	0.998932
412.475547	0.999996
412.855894	1.000049
413.236180	1.000217
413.616405	0.999717
413.996568	0.999901
414.376670	0.999256
414.756711	0.999069
415.136691	0.999518
415.516609	0.998954
415.896466	0.998913
416.276262	0.997990
416.655997	0.999421
417.035670	0.999484
417.415283	0.999805
417.794834	0.999182
418.174324	0.999121
418.553753	1.000127
418.933121	0.999508
419.312428	0.999700
419.691674	0.999680
420.070859	0.999575
420.449983	0.999991
420.829045	0.999876
421.208047	0.999676
421.586988	1.000055
421.965867	0.999377
422.344686	1.000578
422.723444	0.999236
423.102141	0.999428
423.480777	0.999432
423.859352	0.999244
424.237866	0.998930
424.616319	0.999417
424.994712	1.000110
425.373044	1.000319
425.751314	1.000168
426.129524	0.999908
426.507673	1.000214
426.885762	0.999290
427.263789	1.000012
427.641756	1.000081
428.019662	1.000396
428.397508	0.999969
428.775292	0.999158
429.153016	0.999555
429.530679	0.999855
429.908282	1.000711
430.285824	0.999729
430.663305	1.000502
431.040726	0.998807
431.418086	1.000943
431.795385	1.000239
432.172624	0.999535
432.549802	1.000683
432.926920	1.000137
433.303977	1.000053
433.680974	0.999722
434.057910	0.999499
434.434786	1.000447
434.811601	0.999803
435.188355	0.999911
435.565050	0.999785
435.941683	1.000037
436.318257	1.000201
436.694770	0.998767
437.071222	1.001034
437.447614	1.000262
437.823946	1.000225
438.200218	1.000346
438.576429	0.999756
438.952580	1.000277
439.328670	0.999587
439.704700	1.000509
440.080670	1.000385
440.456580	0.999947
440.832429	0.998517
441.208218	1.000177
441.583947	1.000273
441.959616	0.999825
442.335224	0.999706
442.710773	1.000491
443.086261	1.000436
443.461689	1.000208
443.837057	1.000204
444.212365	1.000202
444.587612	0.999675
444.962800	1.000000
445.337927	0.999755
445.712995	1.000292
446.088002	1.000756
446.462949	1.000756
446.837837	1.000617
447.212664	1.000650
447.587431	1.000319
447.962139	1.000186
448.336786	1.000412
448.711374	1.000448
449.085901	0.999748
449.460369	1.000811
449.834776	0.999818
450.209124	1.001204
450.583412	1.000430
450.957640	1.000614
451.331808	1.000047
451.705917	0.999525
452.079965	0.999314
452.453954	1.000491
452.827883	0.999797
453.201752	1.000011
453.575562	1.000517
453.949311	1.000473
454.323001	0.999926
454.696632	1.000323
455.070202	0.999850
455.443713	1.000195
455.817164	1.000768
456.190556	1.000506
456.563888	1.000200
456.937160	1.000644
457.310373	1.000050
457.683526	1.000831
458.056619	0.999962
458.429653	1.000374
458.802628	0.999256
459.175542	0.999986
459.548398	1.000632
459.921194	0.999869
460.293930	1.000029
460.666607	1.000297
461.039224	0.999914
461.411782	1.000247
461.784280	0.999736
462.156719	1.000809
462.529099	1.000642
462.901419	1.000346
463.273680	0.999775
463.645882	1.000371
464.018024	1.000671
464.390106	1.000509
464.762130	1.001059
465.134094	1.000441
465.505999	1.000397
465.877845	1.000334
466.249631	1.000673
466.621358	1.000250
466.993026	1.000066
467.364634	1.000219
467.736184	1.001025
468.107674	1.000953
468.479105	1.000141
468.850477	1.001028
469.221790	1.000503
469.593043	1.000917
469.964238	1.001255
470.335373	1.000555
470.706449	1.000605
471.077467	1.000553
471.448425	1.000829
471.819324	1.001567
472.190164	1.000205
472.560945	1.000833
472.931667	1.000675
473.302330	1.000135
473.672934	1.000669
474.043479	1.000889
474.413965	1.000443
474.784393	1.001167
475.154761	1.000735
475.525070	0.999906
475.895321	1.001037
476.265513	1.000697
476.635645	1.000403
477.005719	1.000939
477.375734	1.000279
477.745691	1.000837
478.115588	1.000872
478.485427	1.001242
478.855207	0.999602
479.224928	1.000809
479.594591	1.001020
479.964194	1.000991
480.333739	1.000622
480.703226	1.001061
481.072653	1.001228
481.442022	1.001331
481.811333	1.000686
482.180584	1.001078
482.549777	1.000290
482.918912	1.000730
483.287988	1.000085
483.657005	1.000666
484.025964	1.000741
484.394864	1.000589
484.763706	1.000822
485.132489	1.000956
485.501213	1.000438
485.869879	1.000334
486.238487	1.000896
486.607036	1.001121
486.975527	1.000015
487.343959	1.000116
487.712333	0.999631
488.080648	1.000541
488.448905	1.000804
488.817104	1.000645
489.185244	1.000924
489.553326	1.000593
489.921350	0.999734
490.289315	1.000078
490.657222	0.999928
491.025070	0.999687
491.392861	1.000540
491.760593	1.000303
492.128267	1.000393
492.495883	0.999673
492.863440	1.000474
493.230939	0.999863
493.598380	0.999046
493.965763	0.998875
494.333088	0.999602
494.700354	0.998128
495.067563	0.998746
495.434713	0.997671
495.801805	0.998893
496.168839	0.998138
496.535815	0.997946
496.902733	0.997115
497.269593	0.997272
497.636395	0.997046
498.003139	0.996526
498.369825	0.997061
498.736453	0.995655
499.103023	0.995348
499.469535	0.995113
499.835989	0.995131
500.202385	0.994625
500.568723	0.993870
500.935003	0.993828
501.301226	0.992682
501.667390	0.991590
502.033497	0.991789
502.399546	0.991681
502.765537	0.989300
503.131470	0.989983
503.497345	0.988314
503.863163	0.988928
504.228923	0.987533
504.594625	0.986403
504.960269	0.986047
505.325856	0.984712
505.691385	0.984041
506.056856	0.982966
506.422270	0.981327
506.787625	0.980655
507.152924	0.979344
507.518164	0.978352
507.883347	0.977721
508.248472	0.976557
508.613540	0.975132
508.978550	0.973372
509.343503	0.971903
509.708398	0.970687
510.073236	0.969154
510.438016	0.968620
510.802738	0.966233
511.167403	0.964827
511.532010	0.962794
511.896561	0.961005
512.261053	0.960796
512.625488	0.957685
512.989866	0.955889
513.354186	0.953395
513.718449	0.951509
514.082655	0.948927
514.446803	0.947583
514.810894	0.944978
515.174927	0.942355
515.538904	0.940064
515.902822	0.937043
516.266684	0.935900
516.630488	0.933119
516.994235	0.929802
517.357925	0.926412
517.721558	0.924418
518.085133	0.920599
518.448651	0.919427
518.812112	0.916124
519.175516	0.911852
519.538863	0.908934
519.902152	0.905833
520.265385	0.901349
520.628560	0.899525
520.991678	0.895759
521.354739	0.892904
521.717743	0.889785
522.080690	0.886892
522.443580	0.881689
522.806413	0.878330
523.169189	0.874549
523.531908	0.869772
523.894569	0.866982
524.257174	0.863065
524.619722	0.858502
524.982213	0.855619
525.344647	0.850333
525.707025	0.846784
526.069345	0.842106
526.431608	0.837787
526.793815	0.833668
527.155964	0.830050
527.518057	0.825428
527.880093	0.821465
528.242072	0.816959
528.603995	0.811408
528.965860	0.808780
529.327669	0.803385
529.689421	0.798381
530.051117	0.794582
530.412755	0.787874
530.774337	0.784866
531.135862	0.779213
531.497331	0.775812
531.858743	0.770463
532.220098	0.764501
532.581396	0.760834
532.942638	0.756633
533.303824	0.751174
533.664953	0.745778
534.026025	0.740991
534.387040	0.734865
534.747999	0.730961
535.108902	0.725005
535.469748	0.722030
535.830537	0.716075
536.191270	0.710632
536.551947	0.704822
536.912567	0.700098
537.273131	0.696399
537.633638	0.690101
537.994089	0.685073
538.354483	0.680343
538.714821	0.675064
539.075103	0.669465
539.435328	0.664032
539.795497	0.661610
540.155609	0.653472
540.515665	0.648938
540.875665	0.646055
541.235609	0.639381
541.595496	0.634851
541.955328	0.626622
542.315102	0.623966
542.674821	0.619390
543.034483	0.614212
543.394090	0.609148
543.753640	0.605304
544.113134	0.597246
544.472571	0.594382
544.831953	0.586694
545.191278	0.583807
545.550548	0.578993
545.909761	0.572029
546.268918	0.567069
546.628019	0.561721
546.987064	0.557420
547.346053	0.555063
547.704986	0.547712
548.063863	0.543605
548.422684	0.539837
548.781449	0.535150
549.140158	0.528770
549.498811	0.525620
549.857408	0.523913
550.215949	0.514555
550.574434	0.512562
550.932864	0.505871
551.291237	0.501808
551.649555	0.496935
552.007817	0.492704
552.366022	0.489471
552.724173	0.485228
553.082267	0.481428
553.440305	0.473319
553.798288	0.473602
554.156215	0.466054
554.514086	0.462490
554.871902	0.461011
555.229661	0.455872
555.587365	0.452852
555.945014	0.451474
556.302606	0.443659
556.660143	0.443027
557.017625	0.435590
557.375050	0.434009
557.732421	0.427387
558.089735	0.425286
558.446994	0.422115
558.804197	0.417677
559.161345	0.414214
559.518437	0.413687
559.875474	0.407055
560.232455	0.403569
560.589381	0.401557
560.946251	0.396345
561.303065	0.392785
561.659825	0.389661
562.016528	0.388167
562.373177	0.388067
562.729770	0.381231
563.086307	0.380276
563.442789	0.375785
563.799216	0.373917
564.155587	0.370421
564.511904	0.368048
564.868164	0.365302
565.224370	0.362599
565.580520	0.360829
565.936615	0.358990
566.292654	0.358118
566.648638	0.353567
567.004567	0.351366
567.360441	0.349426
567.716260	0.348726
568.072023	0.344267
568.427732	0.342283
568.783385	0.343253
569.138982	0.338219
569.494525	0.335885
569.850013	0.336803
570.205445	0.332507
570.560823	0.333627
570.916145	0.332826
571.271412	0.329182
571.626625	0.328214
571.981782	0.326761
572.336884	0.325674
572.691931	0.324099
573.046923	0.322721
573.401860	0.322401
573.756743	0.322084
574.111570	0.319270
574.466342	0.318500
574.821059	0.315920
575.175722	0.316567
575.530330	0.314887
575.884882	0.313562
576.239380	0.314061
576.593823	0.313038
576.948211	0.311009
577.302544	0.313134
577.656823	0.310861
578.011047	0.309881
578.365216	0.309237
578.719330	0.310014
579.073389	0.308810
579.427394	0.308958
579.781344	0.308401
580.135239	0.308566
580.489080	0.307492
580.842866	0.309025
581.196597	0.307628
581.550273	0.305825
581.903895	0.305855
582.257463	0.303725
582.610975	0.305709
582.964434	0.304215
583.317837	0.305953
583.671186	0.305849
584.024481	0.304911
584.377721	0.306585
584.730906	0.306680
585.084037	0.304547
585.437113	0.305998
585.790135	0.304459
586.143103	0.306773
586.496016	0.307560
586.848874	0.304275
587.201679	0.304403
587.554428	0.307224
587.907124	0.305137
588.259765	0.305594
588.612352	0.305385
588.964884	0.309194
589.317362	0.307888
589.669786	0.307443
590.022155	0.305595
590.374470	0.304591
590.726731	0.306446
591.078937	0.310567
591.431090	0.306223
591.783188	0.309898
592.135232	0.310141
592.487222	0.310172
592.839157	0.307777
593.191038	0.310030
593.542866	0.311252
593.894639	0.314571
594.246358	0.312008
594.598022	0.311629
594.949633	0.314408
595.301190	0.315060
595.652692	0.314165
596.004141	0.310244
596.355535	0.317677
596.706876	0.317869
597.058162	0.320274
597.409395	0.317694
597.760573	0.315038
598.111698	0.317769
598.462768	0.318369
598.813785	0.319373
599.164748	0.320357
599.515657	0.320727
599.866511	0.323745
600.217312	0.319143
600.568060	0.324400
600.918753	0.320366
601.269392	0.321107
601.619978	0.324363
601.970510	0.322218
602.320988	0.321967
602.671412	0.319791
603.021783	0.321995
603.372100	0.323196
603.722363	0.322895
604.072572	0.323887
604.422728	0.323636
604.772830	0.325385
605.122878	0.324922
605.472872	0.325194
605.822813	0.323401
606.172701	0.325955
606.522534	0.323405
606.872314	0.323521
607.222041	0.324369
607.571714	0.322595
607.921333	0.323676
608.270899	0.323323
608.620411	0.320049
608.969870	0.323619
609.319276	0.323995
609.668627	0.323641
610.017926	0.322455
610.367171	0.320742
610.716362	0.321064
611.065500	0.321440
611.414585	0.320273
611.763616	0.320874
612.112594	0.321577
612.461518	0.320434
612.810389	0.318140
613.159207	0.320479
613.507971	0.322224
613.856682	0.318098
614.205340	0.319368
614.553945	0.316271
614.902496	0.320364
615.250994	0.318024
615.599439	0.319120
615.947830	0.318176
616.296169	0.319287
616.644454	0.318443
616.992686	0.318737
617.340864	0.316294
617.688990	0.319721
618.037063	0.317180
618.385082	0.318568
618.733048	0.315573
619.080961	0.317871
619.428821	0.317242
619.776628	0.316653
620.124382	0.318736
620.472083	0.318983
620.819731	0.318545
621.167326	0.321726
621.514868	0.321674
621.862357	0.326054
622.209793	0.325774
622.557176	0.327844
622.904506	0.329148
623.251783	0.331455
623.599007	0.333168
623.946179	0.333111
624.293297	0.335121
624.640363	0.338728
624.987376	0.339055
625.334336	0.341951
625.681243	0.343826
626.028097	0.344599
626.374899	0.345561
626.721647	0.345944
627.068343	0.349158
627.414987	0.349951
627.761577	0.352272
628.108115	0.350507
628.454600	0.355695
628.801032	0.352691
629.147412	0.354659
629.493739	0.355173
629.840014	0.358457
630.186236	0.355616
630.532405	0.361594
630.878521	0.358646
631.224585	0.360947
631.570597	0.364709
631.916556	0.363297
632.262462	0.363215
632.608316	0.365304
632.954117	0.366132
633.299866	0.367299
633.645562	0.367188
633.991206	0.371712
634.336797	0.374719
634.682336	0.376192
635.027823	0.378383
635.373257	0.378730
635.718639	0.382491
636.063968	0.381491
636.409245	0.387465
636.754470	0.387603
637.099642	0.390119
637.444762	0.393475
637.789829	0.392783
638.134845	0.396104
638.479808	0.397278
638.824719	0.396509
639.169577	0.400851
639.514383	0.399445
639.859137	0.403818
640.203839	0.403733
640.548489	0.404018
640.893086	0.405266
641.237632	0.407034
641.582125	0.405532
641.926566	0.407119
642.270955	0.407242
642.615292	0.408079
642.959576	0.406849
643.303809	0.407425
643.647990	0.406984
643.992118	0.407188
644.336195	0.411036
644.680219	0.409520
645.024192	0.410102
645.368112	0.403502
645.711981	0.402473
646.055797	0.398252
646.399562	0.400195
646.743274	0.392447
647.086935	0.389787
647.430544	0.390244
647.774101	0.388882
648.117606	0.388839
648.461059	0.388999
648.804460	0.391595
649.147810	0.396483
649.491108	0.398601
649.834354	0.399688
650.177548	0.405287
650.520690	0.410577
650.863781	0.411983
651.206820	0.411239
651.549807	0.415695
651.892742	0.419625
652.235626	0.419208
652.578458	0.420273
652.921238	0.426283
653.263967	0.424217
653.606644	0.427729
653.949269	0.428214
654.291843	0.431529
654.634365	0.428302
654.976836	0.431300
655.319255	0.432055
655.661622	0.433421
656.003938	0.433352
656.346203	0.436144
656.688416	0.433779
657.030577	0.437391
657.372687	0.439548
657.714746	0.440407
658.056753	0.437376
658.398708	0.440868
658.740612	0.441865
659.082465	0.437731
659.424266	0.438735
659.766016	0.438005
660.107715	0.440332
660.449362	0.439443
660.790958	0.440192
661.132503	0.440937
661.473996	0.438309
661.815438	0.439285
662.156829	0.439774
662.498168	0.440729
662.839456	0.441991
663.180693	0.439516
663.521879	0.439738
663.863013	0.440637
664.204097	0.438957
664.545129	0.435971
664.886110	0.436229
665.227040	0.433732
665.567918	0.436031
665.908746	0.434081
666.249522	0.433504
666.590248	0.434621
666.930922	0.433243
667.271545	0.432175
667.612118	0.432080
667.952639	0.433564
668.293109	0.432094
668.633528	0.435354
668.973896	0.435358
669.314213	0.435732
669.654480	0.436726
669.994695	0.437579
670.334859	0.438414
670.674973	0.438408
671.015035	0.438355
671.355047	0.438322
671.695008	0.440086
672.034918	0.441026
672.374777	0.440673
672.714585	0.441991
673.054342	0.441428
673.394049	0.442012
673.733705	0.439339
674.073310	0.440441
674.412864	0.443711
674.752368	0.444557
675.091820	0.444361
675.431223	0.449072
675.770574	0.448767
676.109875	0.452080
676.449125	0.451542
676.788324	0.454617
677.127473	0.459695
677.466571	0.459417
677.805619	0.460513
678.144616	0.461678
678.483562	0.463772
678.822458	0.466149
679.161303	0.467364
679.500098	0.467521
679.838842	0.469278
680.177535	0.468844
680.516179	0.466940
680.854771	0.466613
681.193314	0.459780
681.531805	0.451119
681.870247	0.439987
682.208638	0.431795
682.546978	0.430891
682.885268	0.433030
683.223508	0.439469
683.561697	0.442771
683.899836	0.445280
684.237925	0.448926
684.575963	0.451405
684.913951	0.454927
685.251889	0.450790
685.589776	0.452551
685.927614	0.454417
686.265401	0.448568
686.603137	0.450402
686.940824	0.444174
687.278460	0.443020
687.616046	0.441703
687.953582	0.437460
688.291068	0.438671
688.628504	0.434004
688.965889	0.436765
689.303224	0.440443
689.640510	0.444299
689.977745	0.450222
690.314930	0.457834
690.652065	0.462329
690.989150	0.470038
691.326185	0.476422
691.663170	0.480667
692.000105	0.488532
692.336990	0.494794
692.673825	0.497606
693.010610	0.504644
693.347345	0.510400
693.684030	0.511157
694.020665	0.516494
694.357251	0.524914
694.693786	0.524643
695.030272	0.528843
695.366707	0.532275
695.703093	0.535732
696.039429	0.533309
696.375716	0.534724
696.711952	0.537765
697.048139	0.539957
697.384276	0.542037
697.720363	0.539763
698.056400	0.539175
698.392388	0.544531
698.728326	0.548086
699.064214	0.550308
699.400053	0.550593
699.735842	0.554810
700.071581	0.557726
700.407270	0.560423
700.742910	0.562488
701.078501	0.569396
701.414042	0.569931
701.749533	0.571999
702.084974	0.581690
702.420366	0.573403
702.755709	0.581599
703.091002	0.588980
703.426246	0.582506
703.761440	0.588792
704.096584	0.593266
704.431679	0.590317
704.766725	0.592502
705.101721	0.593918
705.436668	0.589765
705.771565	0.596770
706.106413	0.594152
706.441212	0.589421
706.775961	0.587524
707.110661	0.590979
707.445311	0.586966
707.779913	0.584394
708.114465	0.583164
708.448967	0.579622
708.783421	0.571390
709.117825	0.565890
709.452180	0.566355
709.786485	0.560130
710.120742	0.549924
710.454949	0.552504
710.789107	0.544172
711.123216	0.535534
711.457275	0.536860
711.791286	0.527365
712.125247	0.526526
712.459159	0.537622
712.793023	0.530548
713.126837	0.534105
713.460602	0.534584
713.794318	0.544615
714.127985	0.542599
714.461602	0.552937
714.795171	0.555873
715.128691	0.563618
715.462162	0.571058
715.795584	0.576440
716.128957	0.579987
716.462281	0.586385
716.795556	0.590504
717.128782	0.595396
717.461960	0.604578
717.795088	0.602924
718.128167	0.608690
718.461198	0.617628
718.794180	0.617951
719.127113	0.620203
719.459997	0.624776
719.792833	0.631043
720.125619	0.632221
720.458357	0.637774
720.791046	0.637247
721.123686	0.640739
721.456278	0.647820
721.788821	0.645455
722.121315	0.649583
722.453761	0.653810
722.786158	0.651481
723.118506	0.648213
723.450805	0.655775
723.783056	0.651479
724.115259	0.648623
724.447412	0.649095
724.779518	0.650498
725.111574	0.648815
725.443582	0.644170
725.775542	0.647031
726.107453	0.638334
726.439315	0.637949
726.771129	0.637239
727.102895	0.630712
727.434612	0.623479
727.766281	0.621515
728.097901	0.620618
728.429473	0.620893
728.760996	0.619080
729.092471	0.619178
729.423897	0.622701
729.755276	0.622089
730.086606	0.621750
730.417887	0.616398
730.749120	0.607018
731.080305	0.597642
731.411442	0.594698
731.742530	0.599446
732.073570	0.598310
732.404562	0.590705
732.735506	0.592332
733.066401	0.596830
733.397249	0.606138
733.728048	0.617037
734.058798	0.629651
734.389501	0.640143
734.720156	0.649938
735.050762	0.658377
735.381320	0.658381
735.711831	0.668974
736.042293	0.673020
736.372707	0.667754
736.703073	0.672873
737.033391	0.675422
737.363661	0.672419
737.693883	0.667585
738.024056	0.666406
738.354182	0.667138
738.684260	0.656666
739.014290	0.652524
739.344272	0.653819
739.674207	0.647286
740.004093	0.646393
740.333931	0.646625
740.663722	0.647040
740.993464	0.646647
741.323159	0.651430
741.652806	0.655755
741.982405	0.660602
742.311956	0.664796
742.641460	0.667373
742.970915	0.671423
743.300323	0.678818
743.629683	0.685427
743.958996	0.686519
744.288260	0.690999
744.617477	0.696727
744.946647	0.699035
745.275768	0.704585
745.604842	0.704168
745.933869	0.713534
746.262847	0.714401
746.591778	0.708203
746.920662	0.713654
747.249498	0.720974
747.578286	0.711029
747.907027	0.707953
748.235720	0.708765
748.564365	0.703647
748.892963	0.703047
749.221514	0.706419
749.550017	0.711884
749.878473	0.711227
750.206881	0.717615
750.535242	0.719179
750.863555	0.718312
751.191821	0.719411
751.520039	0.722877
751.848210	0.728145
752.176334	0.719791
752.504411	0.719268
752.832440	0.727318
753.160421	0.731433
753.488356	0.728801
753.816243	0.727618
754.144082	0.735505
754.471875	0.739288
754.799620	0.734095
755.127318	0.735826
755.454969	0.735566
755.782572	0.734610
756.110129	0.740072
756.437638	0.742264
756.765100	0.738434
757.092515	0.737721
757.419882	0.735892
757.747203	0.741263
758.074477	0.740772
758.401703	0.737823
758.728882	0.733371
759.056014	0.731140
759.383099	0.731561
759.710138	0.732595
760.037129	0.729611
760.364073	0.722318
760.690970	0.724748
761.017820	0.730516
761.344623	0.726226
761.671379	0.717581
761.998088	0.705578
762.324751	0.683887
762.651366	0.642361
762.977935	0.575697
763.304456	0.523934
763.630931	0.515003
763.957359	0.552637
764.283740	0.597316
764.610074	0.624050
764.936362	0.654664
765.262602	0.681912
765.588796	0.703067
765.914943	0.720871
766.241044	0.737724
766.567097	0.745289
766.893104	0.754269
767.219064	0.762103
767.544978	0.767445
767.870845	0.780819
768.196665	0.783624
768.522438	0.782317
768.848165	0.784610
769.173846	0.792243
769.499479	0.797162
769.825066	0.800651
770.150607	0.805774
770.476101	0.799498
770.801548	0.801438
771.126949	0.814021
771.452303	0.816579
771.777611	0.816275
772.102872	0.816133
772.428087	0.821274
772.753256	0.823806
773.078378	0.825058
773.403453	0.834676
773.728482	0.838983
774.053465	0.832914
774.378401	0.836445
774.703291	0.844015
775.028135	0.843308
775.352932	0.845725
775.677683	0.847189
776.002388	0.849162
776.327046	0.848208
776.651658	0.851649
776.976224	0.854543
777.300743	0.855428
777.625216	0.857725
777.949643	0.859268
778.274024	0.859575
778.598359	0.860773
778.922647	0.859983
779.246889	0.859172
779.571086	0.864625
779.895236	0.866467
780.219339	0.862732
780.543397	0.860646
780.867409	0.859148
781.191374	0.861824
781.515294	0.862174
781.839167	0.860492
782.162995	0.865183
782.486776	0.861993
782.810511	0.862288
783.134201	0.865981
783.457844	0.863400
783.781441	0.865698
784.104993	0.872460
784.428498	0.874041
784.751958	0.868096
785.075372	0.871095
785.398739	0.874980
785.722061	0.871062
786.045337	0.865972
786.368568	0.871558
786.691752	0.874422
787.014891	0.858773
787.337983	0.851880
787.661030	0.843749
787.984031	0.826465
788.306987	0.813566
788.629897	0.815226
788.952760	0.818541
789.275579	0.823396
789.598351	0.838780
789.921078	0.851827
790.243759	0.853672
790.566395	0.859067
790.888984	0.866014
791.211529	0.871014
791.534027	0.874510
791.856480	0.875918
792.178888	0.881938
792.501249	0.883740
792.823566	0.885684
793.145836	0.884238
793.468062	0.886895
793.790241	0.887822
794.112375	0.884246
794.434464	0.880520
794.756507	0.880480
795.078505	0.879009
795.400457	0.874409
795.722364	0.862522
796.044226	0.855904
796.366042	0.854756
796.687812	0.857408
797.009538	0.853613
797.331218	0.856876
797.652852	0.861976
797.974442	0.866912
798.295986	0.865867
798.617484	0.868849
798.938938	0.873564
799.260346	0.877426
799.581709	0.879819
799.903026	0.882045
800.224299	0.882550
800.545526	0.885827
800.866708	0.890800
801.187845	0.894925
801.508936	0.893750
801.829983	0.892503
802.150984	0.894426
802.471940	0.899476
802.792851	0.898483
803.113717	0.900706
803.434538	0.897983
803.755314	0.900466
804.076045	0.901374
804.396731	0.902604
804.717372	0.901693
805.037967	0.904002
805.358518	0.901313
805.679024	0.899062
805.999485	0.898089
806.319901	0.899311
806.640272	0.899764
806.960598	0.898027
807.280879	0.895633
807.601115	0.894436
807.921306	0.898300
808.241453	0.898381
808.561554	0.895856
808.881611	0.896385
809.201623	0.897329
809.521590	0.898255
809.841513	0.899512
810.161390	0.897489
810.481223	0.899523
810.801011	0.903924
811.120755	0.904535
811.440453	0.903245
811.760107	0.902714
812.079716	0.902439
812.399281	0.905611
812.718801	0.908419
813.038276	0.909661
813.357707	0.908578
813.677093	0.906429
813.996434	0.909433
814.315731	0.911526
814.634983	0.912058
814.954191	0.910086
815.273354	0.907263
815.592473	0.903483
815.911547	0.904199
816.230577	0.900700
816.549562	0.898720
816.868502	0.898931
817.187399	0.895781
817.506250	0.890386
817.825058	0.893726
818.143821	0.888755
818.462539	0.884003
818.781213	0.876420
819.099843	0.864425
819.418429	0.849743
819.736970	0.833675
820.055466	0.813312
820.373919	0.787876
820.692327	0.755882
821.010691	0.722624
821.329011	0.646619
821.647286	0.534067
821.965517	0.420996
822.283704	0.379104
822.601847	0.380940
822.919945	0.416308
823.237999	0.448421
823.556010	0.494464
823.873976	0.549639
824.191897	0.599053
824.509775	0.641562
824.827609	0.686205
825.145398	0.708654
825.463144	0.711290
825.780845	0.694067
826.098502	0.675123
826.416116	0.630059
826.733685	0.587240
827.051210	0.579278
827.368692	0.593584
827.686129	0.629360
828.003522	0.682244
828.320872	0.729175
828.638177	0.771949
828.955439	0.804716
829.272656	0.825796
829.589830	0.843364
829.906960	0.857670
830.224046	0.869464
830.541088	0.880386
830.858086	0.884075
831.175041	0.890078
831.491952	0.890198
831.808819	0.887251
832.125642	0.880021
832.442421	0.865034
832.759157	0.844489
833.075849	0.798927
833.392497	0.736734
833.709101	0.696037
834.025662	0.705530
834.342179	0.737372
834.658653	0.774476
834.975083	0.810988
835.291469	0.836996
835.607811	0.857274
835.924110	0.874490
836.240366	0.889659
836.556578	0.905028
836.872746	0.911248
837.188871	0.917409
837.504952	0.922328
837.820990	0.927022
838.136984	0.929083
838.452935	0.932207
838.768842	0.934026
839.084706	0.927250
839.400526	0.901841
839.716303	0.862896
840.032037	0.840489
840.347727	0.843842
840.663373	0.862108
840.978977	0.882853
841.294537	0.905779
841.610054	0.919978
841.925527	0.928538
842.240957	0.934473
842.556344	0.941993
842.871687	0.946407
843.186987	0.951446
843.502244	0.951846
843.817458	0.952344
844.132629	0.957562
844.447756	0.961670
844.762840	0.962310
845.077881	0.960756
845.392879	0.961084
845.707833	0.964250
846.022745	0.966151
846.337613	0.967008
846.652438	0.967635
846.967221	0.965191
847.281960	0.967392
847.596656	0.969480
847.911309	0.967161
848.225919	0.968782
848.540485	0.969764
848.855009	0.970249
849.169490	0.970818
849.483928	0.971049
849.798323	0.970339
850.112675	0.970651
850.426984	0.970771
850.741251	0.970277
851.055474	0.971220
851.369654	0.969672
851.683792	0.970511
851.997887	0.971801
852.311938	0.971755
852.625947	0.970405
852.939914	0.969988
853.253837	0.971025
853.567718	0.972838
853.881555	0.971469
854.195350	0.970149
854.509103	0.971232
854.822812	0.971491
855.136479	0.971806
855.450103	0.970564
855.763685	0.970457
856.077224	0.969163
856.390720	0.972307
856.704173	0.971408
857.017584	0.969802
857.330953	0.967512
857.644278	0.969676
857.957561	0.970449
858.270802	0.969388
858.584000	0.970332
858.897155	0.968161
859.210268	0.969253
859.523339	0.969254
859.836367	0.972123
860.149352	0.972062
860.462295	0.970714
860.775195	0.970745
861.088054	0.969449
861.400869	0.970688
861.713642	0.972145
862.026373	0.971624
862.339062	0.971009
862.651708	0.968665
862.964312	0.969148
863.276873	0.970717
863.589392	0.968851
863.901869	0.967887
864.214303	0.965697
864.526696	0.965689
864.839045	0.965618
865.151353	0.964169
865.463619	0.963848
865.775842	0.964245
866.088023	0.963149
866.400162	0.964385
866.712258	0.963367
867.024313	0.963790
867.336325	0.965899
867.648296	0.965575
867.960224	0.963904
868.272110	0.963874
868.583954	0.965572
868.895755	0.965621
869.207515	0.963666
869.519233	0.961294
869.830909	0.962879
870.142542	0.964143
870.454134	0.964144
870.765684	0.961561
871.077191	0.959595
871.388657	0.960569
871.700081	0.959522
872.011463	0.959778
872.322803	0.959729
872.634101	0.958975
872.945357	0.955455
873.256571	0.955219
873.567744	0.955980
873.878874	0.956642
874.189963	0.954383
874.501010	0.954321
874.812015	0.951896
875.122979	0.953933
875.433900	0.955121
875.744780	0.956052
876.055618	0.953848
876.366415	0.952822
876.677169	0.952882
876.987882	0.953724
877.298554	0.952639
877.609183	0.949953
877.919771	0.948283
878.230317	0.945665
878.540822	0.943694
878.851285	0.938852
879.161707	0.930415
879.472087	0.919496
879.782425	0.904158
880.092722	0.871012
880.402977	0.820454
880.713191	0.761273
881.023363	0.705073
881.333494	0.672167
881.643583	0.644453
881.953631	0.643325
882.263637	0.672315
882.573602	0.710799
882.883526	0.735599
883.193408	0.758241
883.503248	0.780832
883.813048	0.806582
884.122806	0.835318
884.432522	0.858517
884.742197	0.876380
885.051831	0.886720
885.361424	0.896686
885.670975	0.907884
885.980485	0.917528
886.289954	0.923140
886.599382	0.928536
886.908768	0.931248
887.218113	0.937697
887.527417	0.942072
887.836680	0.943847
888.145901	0.947017
888.455082	0.949017
888.764221	0.953076
889.073319	0.955552
889.382376	0.955525
889.691392	0.955337
890.000366	0.955228
890.309300	0.956720
890.618193	0.955403
890.927044	0.952925
891.235855	0.954290
891.544625	0.954203
891.853353	0.955592
892.162041	0.951474
892.470687	0.945906
892.779293	0.941615
893.087858	0.937704
893.396381	0.930571
893.704864	0.917414
894.013306	0.894532
894.321707	0.869029
894.630068	0.855669
894.938387	0.851419
895.246665	0.851159
895.554903	0.864258
895.863100	0.875947
896.171256	0.892730
896.479371	0.910891
896.787446	0.923480
897.095480	0.929153
897.403473	0.931700
897.711425	0.936131
898.019336	0.943344
898.327207	0.945203
898.635038	0.948863
898.942827	0.948077
899.250576	0.951165
899.558284	0.954166
899.865952	0.956941
900.173579	0.957591
900.481165	0.958666
900.788711	0.961721
901.096216	0.963484
901.403681	0.964208
901.711105	0.965293
902.018489	0.965434
902.325832	0.965118
902.633135	0.964113
902.940397	0.958530
903.247619	0.946829
903.554800	0.923401
903.861941	0.884218
904.169041	0.851751
904.476101	0.836077
904.783121	0.835539
905.090100	0.851990
905.397039	0.871719
905.703938	0.893212
906.010796	0.911891
906.317614	0.927882
906.624391	0.938495
906.931129	0.946675
907.237826	0.954374
907.544483	0.962634
907.851099	0.965211
908.157675	0.970356
908.464211	0.971395
908.770707	0.974570
909.077163	0.976329
909.383578	0.977601
909.689954	0.977478
909.996289	0.977635
910.302584	0.977506
910.608839	0.982007
910.915054	0.981915
911.221229	0.978562
911.527363	0.978639
911.833458	0.979969
912.139513	0.979323
912.445527	0.977315
912.751502	0.976702
913.057436	0.973577
913.363331	0.971720
913.669186	0.967979
913.975000	0.965373
914.280775	0.957577
914.586510	0.952201
914.892205	0.940431
915.197859	0.918727
915.503475	0.894232
915.809050	0.874022
916.114585	0.870162
916.420081	0.868233
916.725536	0.864686
917.030952	0.871575
917.336328	0.883798
917.641665	0.899079
917.946961	0.913672
918.252218	0.925009
918.557435	0.932553
918.862612	0.941080
919.167750	0.947109
919.472848	0.951173
919.777906	0.955747
920.082925	0.961372
920.387904	0.964147
920.692843	0.965830
920.997743	0.967378
921.302603	0.970239
921.607423	0.971402
921.912204	0.973551
922.216946	0.975345
922.521647	0.975267
922.826310	0.976711
923.130932	0.978309
923.435516	0.979603
923.740059	0.981242
924.044564	0.979636
924.349028	0.982525
924.653454	0.984426
924.957840	0.986001
925.262186	0.985951
925.566493	0.985318
925.870761	0.985913
926.174989	0.987386
926.479178	0.989441
926.783328	0.989363
927.087438	0.990465
927.391509	0.987943
927.695541	0.991648
927.999533	0.990544
928.303486	0.991177
928.607400	0.992225
928.911275	0.990858
929.215110	0.992921
929.518906	0.991138
929.822663	0.990716
930.126381	0.992617
930.430060	0.991568
930.733699	0.991300
931.037299	0.990576
931.340861	0.992126
931.644383	0.991822
931.947866	0.990365
932.251309	0.990944
932.554714	0.991605
932.858080	0.991400
933.161407	0.991164
933.464694	0.992036
933.767943	0.990310
934.071153	0.992993
934.374323	0.992811
934.677455	0.993348
934.980548	0.992672
935.283602	0.992913
935.586617	0.991949
935.889593	0.991868
936.192530	0.991587
936.495428	0.992935
936.798287	0.992127
937.101108	0.991344
937.403890	0.989023
937.706632	0.990038
938.009336	0.988209
938.312002	0.988374
938.614628	0.985308
938.917216	0.985583
939.219765	0.983274
939.522275	0.984957
939.824747	0.984588
940.127179	0.984276
940.429573	0.984738
940.731929	0.985338
941.034246	0.985823
941.336524	0.986943
941.638763	0.988049
941.940964	0.989355
942.243126	0.987453
942.545250	0.988618
942.847335	0.989493
943.149381	0.989458
943.451389	0.989039
943.753359	0.990598
944.055290	0.992063
944.357182	0.990430
944.659036	0.990471
944.960851	0.990385
945.262628	0.990403
945.564367	0.991441
945.866067	0.990912
946.167729	0.991398
946.469352	0.990678
946.770937	0.989837
947.072484	0.992935
947.373992	0.991699
947.675462	0.991100
947.976893	0.990960
948.278286	0.992590
948.579641	0.992561
948.880958	0.992413
949.182236	0.992688
949.483476	0.992136
949.784678	0.991175
950.085841	0.992756
950.386967	0.992278
950.688054	0.993175
950.989103	0.992431
951.290114	0.990256
951.591087	0.991174
951.892021	0.990736
952.192917	0.990565
952.493776	0.989825
952.794596	0.988144
953.095378	0.989230
953.396122	0.989371
953.696828	0.988117
953.997496	0.990885
954.298126	0.992285
954.598718	0.992643
954.899272	0.992445
955.199788	0.991172
955.500266	0.992401
955.800706	0.994272
956.101108	0.992949
956.401472	0.994087
956.701798	0.994839
957.002087	0.992888
957.302337	0.994379
957.602550	0.993663
957.902724	0.995583
958.202861	0.995521
958.502960	0.994931
958.803022	0.995458
959.103045	0.998139
959.403031	0.996527
959.702979	0.996365
960.002889	0.995793
960.302762	0.995793
960.602596	0.996925
960.902393	0.996169
961.202153	0.996441
961.501875	0.997063
961.801559	0.995443
962.101205	0.996062
962.400814	0.997178
962.700385	0.997952
962.999918	0.997190
963.299414	0.996954
963.598873	0.996789
963.898293	0.995989
964.197677	0.996244
964.497022	0.997504
964.796331	0.998706
965.095601	0.997851
965.394835	0.997016
965.694030	0.997447
965.993189	0.997867
966.292309	0.997146
966.591393	0.998234
966.890439	0.997944
967.189447	0.995989
967.488419	0.997234
967.787353	0.996697
968.086249	0.996649
968.385108	0.997617
968.683930	0.997699
968.982714	0.998078
969.281462	0.998296
969.580172	0.997062
969.878844	0.997950
970.177480	0.998015
970.476078	0.997501
970.774639	0.997904
971.073162	0.998316
971.371649	0.995918
971.670098	0.997312
971.968510	0.997768
972.266885	0.995297
972.565223	0.997999
972.863524	0.996740
973.161788	0.997823
973.460014	0.998436
973.758204	0.997275
974.056356	0.997180
974.354471	0.994692
974.652550	0.995652
974.950591	0.995566
975.248595	0.997987
975.546563	0.996789
975.844493	0.998380
976.142386	0.998841
976.440243	0.999090
976.738062	0.998912
977.035845	0.998415
977.333590	0.997848
977.631299	0.998640
977.928971	0.997809
978.226606	0.996731
978.524204	0.996577
978.821765	0.998908
979.119290	0.996488
979.416777	0.996283
979.714228	0.997820
980.011642	0.996248
980.309020	0.998222
980.606360	0.997587
980.903664	0.998802
981.200931	0.996423
981.498162	0.996738
981.795356	0.994819
982.092513	0.994574
982.389633	0.995656
982.686717	0.992782
982.983764	0.992703
983.280775	0.991745
983.577749	0.991198
983.874686	0.992816
984.171587	0.993524
984.468451	0.995092
984.765279	0.996779
985.062070	0.994616
985.358824	0.995675
985.655543	0.996083
985.952224	0.996204
986.248869	0.996808
986.545478	0.997630
986.842050	0.998436
987.138586	0.996667
987.435086	0.998180
987.731549	0.999643
988.027975	0.997749
988.324366	0.997623
988.620719	0.997486
988.917037	0.997458
989.213318	0.997864
989.509563	0.999482
989.805772	0.998433
990.101944	0.998569
990.398080	0.997646
990.694180	0.998275
990.990244	0.997795
991.286271	0.999334
991.582262	0.997843
991.878217	0.998105
992.174136	0.998192
992.470019	0.999267
992.765865	0.997599
993.061676	0.997249
993.357450	0.998641
993.653188	0.996342
993.948890	0.996711
994.244556	0.998322
994.540186	0.997392
994.835780	0.996941
995.131337	0.998352
995.426859	0.996680
995.722345	0.998400
996.017795	0.996950
996.313208	0.996346
996.608586	0.996440
996.903928	0.996963
997.199234	0.996068
997.494504	0.998417
997.789738	0.995651
998.084936	0.997776
998.380099	0.997757
998.675225	0.997831
998.970316	0.998449
999.265371	0.998993
999.560390	0.998135
999.855373	1.000091
1000.150320	0.998929
1000.445232	0.998381
1000.740108	0.996730
1001.034948	0.998840
1001.329752	0.998603
1001.624521	0.999122
1001.919254	0.998784
1002.213951	0.998136
1002.508613	0.998402
1002.803239	0.999770
1003.097829	0.998826
1003.392384	0.999021
1003.686903	0.998471
1003.981386	0.998266
1004.275834	0.998410
1004.570246	0.998778
1004.864623	0.999397
1005.158964	0.999696
1005.453270	0.999390
1005.747540	0.998005
1006.041775	0.998034
1006.335974	0.998856
1006.630138	0.999896
1006.924266	0.999381
1007.218359	0.998841
1007.512416	0.998405
1007.806438	1.000029
1008.100425	0.999307
1008.394376	0.999332
1008.688292	0.999144
1008.982172	1.000506
1009.276017	1.000136
1009.569827	0.998654
1009.863602	0.999504
1010.157341	0.999679
1010.451045	0.998647
1010.744714	0.999004
1011.038347	0.999573
1011.331945	0.999494
1011.625508	0.997253
1011.919036	0.998627
1012.212528	0.999164
1012.505986	0.998036
1012.799408	0.999517
1013.092795	0.999928
1013.386147	0.999159
1013.679464	0.998564
1013.972745	0.999528
1014.265992	0.998007
1014.559204	0.998916
1014.852380	0.999280
1015.145521	0.998680
1015.438628	0.999067
1015.731699	0.998651
1016.024736	0.998667
1016.317737	0.999471
1016.610703	0.998344
1016.903635	1.000604
1017.196531	0.999420
1017.489393	0.999758
1017.782219	0.998793
1018.075011	0.997985
1018.367768	0.999939
1018.660490	0.999756
1018.953177	0.999756
1019.245829	0.999756
