Dividing Wavelength (nm)	Counts (n)	Blue Motor Position (mm): 0.000000	Red Motor Position (mm): 14.800000	
326.493990	1.000978
326.888308	1.000978
327.282561	1.000978
327.676750	0.999881
328.070874	1.000079
328.464933	1.000367
328.858929	0.999527
329.252859	0.999392
329.646726	1.000007
330.040528	1.000908
330.434265	0.999698
330.827938	1.001553
331.221547	1.001479
331.615091	1.001278
332.008571	1.001555
332.401986	1.000357
332.795338	1.001144
333.188625	0.998834
333.581847	1.000971
333.975006	0.999753
334.368100	1.000416
334.761129	0.999874
335.154095	1.000928
335.546996	1.000342
335.939833	0.994616
336.332606	0.993512
336.725315	0.994302
337.117960	0.995433
337.510540	0.993626
337.903056	0.995046
338.295508	0.993177
338.687896	0.995394
339.080220	0.995597
339.472480	0.994551
339.864676	0.994356
340.256807	0.995581
340.648875	0.995135
341.040879	0.994822
341.432818	0.994242
341.824694	0.994476
342.216506	0.993985
342.608253	0.993757
342.999937	0.994086
343.391557	0.995102
343.783113	0.995060
344.174605	0.994743
344.566033	0.994872
344.957397	0.993600
345.348697	0.994605
345.739934	0.993968
346.131106	0.993784
346.522215	0.993940
346.913260	0.994066
347.304241	0.994466
347.695159	0.994282
348.086012	0.993172
348.476802	0.994739
348.867528	0.994479
349.258191	0.993866
349.648789	0.994353
350.039324	0.993240
350.429796	0.994632
350.820203	0.995097
351.210548	0.994773
351.600828	0.993736
351.991045	0.992958
352.381198	0.992970
352.771288	0.993636
353.161314	0.994143
353.551276	0.994789
353.941175	0.994444
354.331010	0.994036
354.720782	0.994513
355.110490	0.994129
355.500135	0.994256
355.889717	0.994484
356.279235	0.994136
356.668689	0.993852
357.058080	0.993814
357.447408	0.994546
357.836672	0.994724
358.225873	0.995555
358.615010	0.993954
359.004084	0.995281
359.393095	0.994661
359.782043	0.994469
360.170927	0.995358
360.559748	0.995168
360.948505	0.993518
361.337199	0.994148
361.725830	0.994452
362.114398	0.993741
362.502903	0.995294
362.891344	0.994670
363.279722	0.993235
363.668037	0.995087
364.056289	0.993817
364.444478	0.994407
364.832603	0.994095
365.220665	0.993616
365.608665	0.992699
365.996601	0.994346
366.384474	0.993431
366.772284	0.994549
367.160031	0.992611
367.547715	0.994472
367.935336	0.994544
368.322893	0.993535
368.710388	0.993253
369.097820	0.994189
369.485189	0.993896
369.872495	0.992246
370.259738	0.991598
370.646918	0.994774
371.034035	0.994272
371.421090	0.993836
371.808081	0.993436
372.195010	0.993698
372.581875	0.993126
372.968678	0.993154
373.355418	0.993847
373.742096	0.993449
374.128710	0.995130
374.515262	0.993952
374.901751	0.993711
375.288177	0.994487
375.674540	0.994116
376.060841	0.993005
376.447079	0.994069
376.833254	0.993780
377.219367	0.993477
377.605417	0.994183
377.991404	0.995383
378.377329	0.993436
378.763191	0.993660
379.148991	0.994659
379.534727	0.995556
379.920402	0.994285
380.306013	0.993648
380.691563	0.994924
381.077049	0.993158
381.462474	0.993698
381.847835	0.994125
382.233134	0.993488
382.618371	0.994399
383.003545	0.994411
383.388657	0.993677
383.773706	0.995123
384.158693	0.994903
384.543618	0.992858
384.928480	0.994998
385.313280	0.993631
385.698017	0.994555
386.082692	0.993883
386.467305	0.993478
386.851856	0.993154
387.236344	0.993578
387.620770	0.992118
388.005133	0.993780
388.389435	0.993750
388.773674	0.993414
389.157851	0.993624
389.541965	0.993998
389.926018	0.992980
390.310008	0.994957
390.693936	0.993719
391.077802	0.993520
391.461606	0.992696
391.845348	0.992310
392.229027	0.992516
392.612645	0.990946
392.996200	0.990498
393.379694	0.989933
393.763125	0.988745
394.146494	0.988385
394.529801	0.985020
394.913047	0.983157
395.296230	0.980528
395.679351	0.978062
396.062410	0.975301
396.445408	0.972813
396.828343	0.968184
397.211217	0.963673
397.594028	0.961975
397.976778	0.956314
398.359466	0.951471
398.742092	0.945394
399.124656	0.941999
399.507158	0.936070
399.889598	0.930220
400.271977	0.922903
400.654294	0.917807
401.036549	0.910877
401.418742	0.905670
401.800874	0.895306
402.182944	0.887197
402.564952	0.877397
402.946898	0.870712
403.328783	0.863823
403.710606	0.858556
404.092367	0.842171
404.474067	0.835533
404.855705	0.826724
405.237282	0.822883
405.618797	0.807875
406.000250	0.796818
406.381642	0.784874
406.762972	0.777396
407.144240	0.769176
407.525447	0.759605
407.906593	0.747534
408.287677	0.735103
408.668700	0.731842
409.049661	0.718537
409.430560	0.708173
409.811399	0.704365
410.192176	0.684548
410.572891	0.681329
410.953545	0.665032
411.334138	0.666131
411.714669	0.654840
412.095139	0.655477
412.475547	0.635950
412.855894	0.630187
413.236180	0.622896
413.616405	0.620120
413.996568	0.606628
414.376670	0.605526
414.756711	0.604032
415.136691	0.596178
415.516609	0.583554
415.896466	0.575044
416.276262	0.566460
416.655997	0.564583
417.035670	0.543296
417.415283	0.531458
417.794834	0.533027
418.174324	0.533577
418.553753	0.539008
418.933121	0.518672
419.312428	0.509899
419.691674	0.512437
420.070859	0.498532
420.449983	0.504104
420.829045	0.491857
421.208047	0.498233
421.586988	0.490479
421.965867	0.487803
422.344686	0.474841
422.723444	0.485892
423.102141	0.500675
423.480777	0.474016
423.859352	0.492900
424.237866	0.469234
424.616319	0.469707
424.994712	0.459724
425.373044	0.469500
425.751314	0.457439
426.129524	0.473260
426.507673	0.456310
426.885762	0.449949
427.263789	0.454267
427.641756	0.464394
428.019662	0.453532
428.397508	0.453337
428.775292	0.456928
429.153016	0.449389
429.530679	0.455178
429.908282	0.448406
430.285824	0.458293
430.663305	0.436725
431.040726	0.457486
431.418086	0.457881
431.795385	0.449485
432.172624	0.448011
432.549802	0.448823
432.926920	0.447565
433.303977	0.446369
433.680974	0.443424
434.057910	0.442429
434.434786	0.441411
434.811601	0.443875
435.188355	0.426633
435.565050	0.435564
435.941683	0.437314
436.318257	0.421544
436.694770	0.422236
437.071222	0.420550
437.447614	0.424666
437.823946	0.431556
438.200218	0.420814
438.576429	0.430409
438.952580	0.423250
439.328670	0.420226
439.704700	0.426288
440.080670	0.428101
440.456580	0.408997
440.832429	0.416849
441.208218	0.427877
441.583947	0.416777
441.959616	0.416683
442.335224	0.421241
442.710773	0.412222
443.086261	0.410143
443.461689	0.424595
443.837057	0.413755
444.212365	0.404005
444.587612	0.410992
444.962800	0.401062
445.337927	0.402574
445.712995	0.428853
446.088002	0.390986
446.462949	0.401183
446.837837	0.406004
447.212664	0.394963
447.587431	0.386784
447.962139	0.357406
448.336786	0.316554
448.711374	0.326942
449.085901	0.370699
449.460369	0.375186
449.834776	0.378317
450.209124	0.357943
450.583412	0.350669
450.957640	0.343779
451.331808	0.354610
451.705917	0.377970
452.079965	0.382642
452.453954	0.370795
452.827883	0.377691
453.201752	0.372357
453.575562	0.384453
453.949311	0.372689
454.323001	0.378518
454.696632	0.374693
455.070202	0.367329
455.443713	0.358876
455.817164	0.353968
456.190556	0.349614
456.563888	0.346610
456.937160	0.343934
457.310373	0.361156
457.683526	0.359984
458.056619	0.365415
458.429653	0.366649
458.802628	0.369469
459.175542	0.363895
459.548398	0.346594
459.921194	0.339624
460.293930	0.339104
460.666607	0.316817
461.039224	0.304951
461.411782	0.300439
461.784280	0.299880
462.156719	0.304189
462.529099	0.308765
462.901419	0.324775
463.273680	0.329181
463.645882	0.328742
464.018024	0.334460
464.390106	0.327556
464.762130	0.312208
465.134094	0.295415
465.505999	0.264323
465.877845	0.234943
466.249631	0.222256
466.621358	0.229580
466.993026	0.243491
467.364634	0.249450
467.736184	0.258247
468.107674	0.266771
468.479105	0.266061
468.850477	0.272852
469.221790	0.279631
469.593043	0.289926
469.964238	0.294768
470.335373	0.293777
470.706449	0.292163
471.077467	0.292909
471.448425	0.254956
471.819324	0.230902
472.190164	0.230072
472.560945	0.258979
472.931667	0.281153
473.302330	0.284898
473.672934	0.296956
474.043479	0.285198
474.413965	0.287220
474.784393	0.290563
475.154761	0.285593
475.525070	0.282780
475.895321	0.288524
476.265513	0.282744
476.635645	0.277861
477.005719	0.277714
477.375734	0.274278
477.745691	0.267788
478.115588	0.264476
478.485427	0.257779
478.855207	0.244670
479.224928	0.227364
479.594591	0.215329
479.964194	0.218797
480.333739	0.219956
480.703226	0.221259
481.072653	0.219884
481.442022	0.215665
481.811333	0.211959
482.180584	0.215741
482.549777	0.220807
482.918912	0.224244
483.287988	0.223857
483.657005	0.223460
484.025964	0.229865
484.394864	0.227271
484.763706	0.227785
485.132489	0.232987
485.501213	0.233818
485.869879	0.231791
486.238487	0.235358
486.607036	0.233016
486.975527	0.237591
487.343959	0.233558
487.712333	0.232681
488.080648	0.233775
488.448905	0.233079
488.817104	0.234154
489.185244	0.228776
489.553326	0.225762
489.921350	0.215692
490.289315	0.198242
490.657222	0.193160
491.025070	0.194526
491.392861	0.196567
491.760593	0.202015
492.128267	0.207950
492.495883	0.213416
492.863440	0.219545
493.230939	0.225804
493.598380	0.227243
493.965763	0.229277
494.333088	0.231554
494.700354	0.233135
495.067563	0.232094
495.434713	0.235551
495.801805	0.233398
496.168839	0.234853
496.535815	0.235987
496.902733	0.236347
497.269593	0.237731
497.636395	0.235793
498.003139	0.235971
498.369825	0.238667
498.736453	0.235290
499.103023	0.236429
499.469535	0.235854
499.835989	0.236633
500.202385	0.237241
500.568723	0.240584
500.935003	0.235724
501.301226	0.239808
501.667390	0.234274
502.033497	0.232610
502.399546	0.235255
502.765537	0.237168
503.131470	0.235542
503.497345	0.231793
503.863163	0.240440
504.228923	0.233388
504.594625	0.232173
504.960269	0.237657
505.325856	0.233039
505.691385	0.237456
506.056856	0.234036
506.422270	0.233478
506.787625	0.235866
507.152924	0.233270
507.518164	0.233538
507.883347	0.235617
508.248472	0.237197
508.613540	0.232323
508.978550	0.234612
509.343503	0.235226
509.708398	0.232723
510.073236	0.230726
510.438016	0.230422
510.802738	0.231176
511.167403	0.230632
511.532010	0.232239
511.896561	0.227775
512.261053	0.226424
512.625488	0.228650
512.989866	0.228864
513.354186	0.229192
513.718449	0.231047
514.082655	0.227272
514.446803	0.229602
514.810894	0.227183
515.174927	0.230090
515.538904	0.229380
515.902822	0.226215
516.266684	0.228716
516.630488	0.230011
516.994235	0.228444
517.357925	0.227372
517.721558	0.225590
518.085133	0.225146
518.448651	0.225270
518.812112	0.227500
519.175516	0.227019
519.538863	0.224926
519.902152	0.226468
520.265385	0.223303
520.628560	0.224992
520.991678	0.225410
521.354739	0.224175
521.717743	0.225486
522.080690	0.226010
522.443580	0.223349
522.806413	0.224129
523.169189	0.223382
523.531908	0.222434
523.894569	0.225871
524.257174	0.226165
524.619722	0.223539
524.982213	0.224768
525.344647	0.223622
525.707025	0.224492
526.069345	0.222566
526.431608	0.224478
526.793815	0.222294
527.155964	0.226228
527.518057	0.225277
527.880093	0.226292
528.242072	0.224803
528.603995	0.226911
528.965860	0.228848
529.327669	0.227442
529.689421	0.228405
530.051117	0.229181
530.412755	0.226592
530.774337	0.229143
531.135862	0.229531
531.497331	0.228805
531.858743	0.231715
532.220098	0.228449
532.581396	0.231114
532.942638	0.231300
533.303824	0.232455
533.664953	0.232129
534.026025	0.233800
534.387040	0.231636
534.747999	0.231655
535.108902	0.230775
535.469748	0.235636
535.830537	0.233526
536.191270	0.234075
536.551947	0.233342
536.912567	0.233612
537.273131	0.235339
537.633638	0.235322
537.994089	0.235892
538.354483	0.236744
538.714821	0.233728
539.075103	0.233391
539.435328	0.234240
539.795497	0.237958
540.155609	0.234620
540.515665	0.232626
540.875665	0.238362
541.235609	0.237068
541.595496	0.236866
541.955328	0.233515
542.315102	0.236360
542.674821	0.237224
543.034483	0.237467
543.394090	0.237089
543.753640	0.239039
544.113134	0.233733
544.472571	0.237255
544.831953	0.233988
545.191278	0.238045
545.550548	0.237678
545.909761	0.234302
546.268918	0.235166
546.628019	0.233540
546.987064	0.236197
547.346053	0.238090
547.704986	0.236052
548.063863	0.236280
548.422684	0.236213
548.781449	0.238426
549.140158	0.235910
549.498811	0.238413
549.857408	0.241875
550.215949	0.236760
550.574434	0.239873
550.932864	0.237617
551.291237	0.236383
551.649555	0.237521
552.007817	0.237308
552.366022	0.238270
552.724173	0.238556
553.082267	0.238766
553.440305	0.235614
553.798288	0.240427
554.156215	0.237019
554.514086	0.237199
554.871902	0.240775
555.229661	0.239346
555.587365	0.240180
555.945014	0.242844
556.302606	0.239818
556.660143	0.241867
557.017625	0.238584
557.375050	0.241173
557.732421	0.237865
558.089735	0.239963
558.446994	0.240073
558.804197	0.239240
559.161345	0.239031
559.518437	0.242624
559.875474	0.240193
560.232455	0.239793
560.589381	0.241229
560.946251	0.240764
561.303065	0.238629
561.659825	0.240307
562.016528	0.241440
562.373177	0.244331
562.729770	0.241555
563.086307	0.243729
563.442789	0.241575
563.799216	0.243993
564.155587	0.243133
564.511904	0.244193
564.868164	0.244450
565.224370	0.244124
565.580520	0.246144
565.936615	0.245869
566.292654	0.248703
566.648638	0.245817
567.004567	0.246976
567.360441	0.247410
567.716260	0.249209
568.072023	0.247162
568.427732	0.247629
568.783385	0.250341
569.138982	0.248410
569.494525	0.248284
569.850013	0.251206
570.205445	0.249421
570.560823	0.252221
570.916145	0.254030
571.271412	0.252111
571.626625	0.253733
571.981782	0.254065
572.336884	0.254904
572.691931	0.254722
573.046923	0.255722
573.401860	0.257049
573.756743	0.258746
574.111570	0.257783
574.466342	0.257973
574.821059	0.257166
575.175722	0.260248
575.530330	0.259857
575.884882	0.260101
576.239380	0.262558
576.593823	0.262366
576.948211	0.261839
577.302544	0.265476
577.656823	0.265132
578.011047	0.265213
578.365216	0.265634
578.719330	0.267778
579.073389	0.267702
579.427394	0.268651
579.781344	0.269542
580.135239	0.271017
580.489080	0.270815
580.842866	0.273601
581.196597	0.273538
581.550273	0.272471
581.903895	0.273127
582.257463	0.271472
582.610975	0.274661
582.964434	0.273964
583.317837	0.276520
583.671186	0.276942
584.024481	0.277070
584.377721	0.279182
584.730906	0.280048
585.084037	0.279157
585.437113	0.280985
585.790135	0.280514
586.143103	0.283386
586.496016	0.284875
586.848874	0.282239
587.201679	0.282679
587.554428	0.285868
587.907124	0.285307
588.259765	0.285739
588.612352	0.285943
588.964884	0.289787
589.317362	0.289558
589.669786	0.289376
590.022155	0.287847
590.374470	0.287391
590.726731	0.289434
591.078937	0.294272
591.431090	0.290470
591.783188	0.294443
592.135232	0.295174
592.487222	0.294907
592.839157	0.293062
593.191038	0.295624
593.542866	0.297741
593.894639	0.301083
594.246358	0.298733
594.598022	0.298256
594.949633	0.302085
595.301190	0.302865
595.652692	0.301605
596.004141	0.298076
596.355535	0.306725
596.706876	0.306816
597.058162	0.309174
597.409395	0.306316
597.760573	0.304399
598.111698	0.307531
598.462768	0.307857
598.813785	0.308993
599.164748	0.310878
599.515657	0.310838
599.866511	0.313939
600.217312	0.309188
600.568060	0.314954
600.918753	0.311076
601.269392	0.312163
601.619978	0.315009
601.970510	0.313123
602.320988	0.312812
602.671412	0.310664
603.021783	0.313231
603.372100	0.314585
603.722363	0.314262
604.072572	0.314822
604.422728	0.314687
604.772830	0.316956
605.122878	0.316569
605.472872	0.316841
605.822813	0.315142
606.172701	0.317952
606.522534	0.315275
606.872314	0.315521
607.222041	0.316502
607.571714	0.314589
607.921333	0.315929
608.270899	0.315617
608.620411	0.312653
608.969870	0.316669
609.319276	0.316486
609.668627	0.316567
610.017926	0.314746
610.367171	0.313552
610.716362	0.314169
611.065500	0.314453
611.414585	0.313027
611.763616	0.313741
612.112594	0.313996
612.461518	0.313502
612.810389	0.311155
613.159207	0.313783
613.507971	0.315734
613.856682	0.311300
614.205340	0.312405
614.553945	0.309557
614.902496	0.313749
615.250994	0.311390
615.599439	0.312262
615.947830	0.311770
616.296169	0.312698
616.644454	0.312032
616.992686	0.312361
617.340864	0.309776
617.688990	0.313834
618.037063	0.309888
618.385082	0.311809
618.733048	0.308750
619.080961	0.311175
619.428821	0.310533
619.776628	0.309997
620.124382	0.312493
620.472083	0.312988
620.819731	0.311734
621.167326	0.315481
621.514868	0.315660
621.862357	0.319841
622.209793	0.318924
622.557176	0.321721
622.904506	0.322388
623.251783	0.325025
623.599007	0.327234
623.946179	0.326709
624.293297	0.328539
624.640363	0.332905
624.987376	0.333485
625.334336	0.335861
625.681243	0.338114
626.028097	0.338274
626.374899	0.339913
626.721647	0.339757
627.068343	0.343297
627.414987	0.344038
627.761577	0.346511
628.108115	0.344496
628.454600	0.349626
628.801032	0.346776
629.147412	0.349351
629.493739	0.349585
629.840014	0.352632
630.186236	0.350232
630.532405	0.355432
630.878521	0.352891
631.224585	0.355432
631.570597	0.359308
631.916556	0.357245
632.262462	0.357309
632.608316	0.359702
632.954117	0.360476
633.299866	0.361137
633.645562	0.361612
633.991206	0.365704
634.336797	0.368870
634.682336	0.371176
635.027823	0.372887
635.373257	0.373709
635.718639	0.377300
636.063968	0.376205
636.409245	0.382151
636.754470	0.382268
637.099642	0.385105
637.444762	0.388066
637.789829	0.387386
638.134845	0.390530
638.479808	0.391841
638.824719	0.391317
639.169577	0.395516
639.514383	0.394079
639.859137	0.398834
640.203839	0.398656
640.548489	0.398817
640.893086	0.400178
641.237632	0.402181
641.582125	0.400287
641.926566	0.401700
642.270955	0.401973
642.615292	0.402286
642.959576	0.401489
643.303809	0.402058
643.647990	0.401823
643.992118	0.401827
644.336195	0.405968
644.680219	0.404032
645.024192	0.404940
645.368112	0.398275
645.711981	0.397517
646.055797	0.392948
646.399562	0.394813
646.743274	0.386965
647.086935	0.384454
647.430544	0.384512
647.774101	0.383537
648.117606	0.383241
648.461059	0.383729
648.804460	0.385738
649.147810	0.390932
649.491108	0.393356
649.834354	0.394616
650.177548	0.399645
650.520690	0.405311
650.863781	0.407037
651.206820	0.405896
651.549807	0.410631
651.892742	0.414563
652.235626	0.414168
652.578458	0.415118
652.921238	0.420993
653.263967	0.418453
653.606644	0.422806
653.949269	0.422225
654.291843	0.426149
654.634365	0.422926
654.976836	0.426301
655.319255	0.426845
655.661622	0.428500
656.003938	0.428150
656.346203	0.431212
656.688416	0.428687
657.030577	0.432203
657.372687	0.434337
657.714746	0.435157
658.056753	0.432445
658.398708	0.436436
658.740612	0.437032
659.082465	0.433119
659.424266	0.434504
659.766016	0.433708
660.107715	0.435816
660.449362	0.434471
660.790958	0.435555
661.132503	0.435506
661.473996	0.433992
661.815438	0.434549
662.156829	0.434429
662.498168	0.435366
662.839456	0.436967
663.180693	0.434403
663.521879	0.435199
663.863013	0.435701
664.204097	0.434559
664.545129	0.430799
664.886110	0.431864
665.227040	0.428546
665.567918	0.430800
665.908746	0.428988
666.249522	0.429100
666.590248	0.429306
666.930922	0.428363
667.271545	0.426448
667.612118	0.427112
667.952639	0.428614
668.293109	0.427800
668.633528	0.430311
668.973896	0.429855
669.314213	0.430802
669.654480	0.432169
669.994695	0.432333
670.334859	0.433363
670.674973	0.433548
671.015035	0.433394
671.355047	0.433226
671.695008	0.434217
672.034918	0.436680
672.374777	0.436353
672.714585	0.436994
673.054342	0.436688
673.394049	0.436862
673.733705	0.434514
674.073310	0.435160
674.412864	0.438817
674.752368	0.439513
675.091820	0.439523
675.431223	0.443824
675.770574	0.443795
676.109875	0.447058
676.449125	0.447225
676.788324	0.449079
677.127473	0.454353
677.466571	0.454461
677.805619	0.455782
678.144616	0.456970
678.483562	0.458388
678.822458	0.461631
679.161303	0.462127
679.500098	0.462888
679.838842	0.464541
680.177535	0.463788
680.516179	0.462357
680.854771	0.461946
681.193314	0.455108
681.531805	0.445931
681.870247	0.434577
682.208638	0.427201
682.546978	0.426134
682.885268	0.427864
683.223508	0.434203
683.561697	0.437813
683.899836	0.440326
684.237925	0.444115
684.575963	0.446117
684.913951	0.449923
685.251889	0.445432
685.589776	0.447405
685.927614	0.449262
686.265401	0.443886
686.603137	0.445529
686.940824	0.439404
687.278460	0.437820
687.616046	0.437134
687.953582	0.431512
688.291068	0.433146
688.628504	0.429388
688.965889	0.431556
689.303224	0.435638
689.640510	0.439484
689.977745	0.444420
690.314930	0.453479
690.652065	0.457237
690.989150	0.465004
691.326185	0.471762
691.663170	0.476099
692.000105	0.483439
692.336990	0.490429
692.673825	0.492435
693.010610	0.499757
693.347345	0.505316
693.684030	0.506710
694.020665	0.511277
694.357251	0.519760
694.693786	0.520306
695.030272	0.524381
695.366707	0.527686
695.703093	0.530855
696.039429	0.528444
696.375716	0.529718
696.711952	0.532917
697.048139	0.534963
697.384276	0.537138
697.720363	0.535912
698.056400	0.534888
698.392388	0.540184
698.728326	0.543541
699.064214	0.545496
699.400053	0.546888
699.735842	0.550190
700.071581	0.553199
700.407270	0.556639
700.742910	0.558186
701.078501	0.564769
701.414042	0.565397
701.749533	0.568358
702.084974	0.577596
702.420366	0.569352
702.755709	0.577285
703.091002	0.584324
703.426246	0.577984
703.761440	0.584252
704.096584	0.589414
704.431679	0.585556
704.766725	0.588238
705.101721	0.589747
705.436668	0.586175
705.771565	0.592600
706.106413	0.589696
706.441212	0.584599
706.775961	0.583666
707.110661	0.586379
707.445311	0.583138
707.779913	0.579708
708.114465	0.579022
708.448967	0.574705
708.783421	0.567014
709.117825	0.561802
709.452180	0.562428
709.786485	0.555426
710.120742	0.545198
710.454949	0.547637
710.789107	0.539480
711.123216	0.530749
711.457275	0.532738
711.791286	0.523073
712.125247	0.521836
712.459159	0.532996
712.793023	0.525604
713.126837	0.529070
713.460602	0.530151
713.794318	0.539130
714.127985	0.537803
714.461602	0.548341
714.795171	0.551760
715.128691	0.559157
715.462162	0.566717
715.795584	0.572021
716.128957	0.575525
716.462281	0.581302
716.795556	0.585263
717.128782	0.590317
717.461960	0.600673
717.795088	0.598593
718.128167	0.604631
718.461198	0.612997
718.794180	0.613811
719.127113	0.616324
719.459997	0.620073
719.792833	0.626192
720.125619	0.627788
720.458357	0.633700
720.791046	0.633163
721.123686	0.637253
721.456278	0.643923
721.788821	0.640442
722.121315	0.644982
722.453761	0.649683
722.786158	0.645926
723.118506	0.644044
723.450805	0.651601
723.783056	0.646743
724.115259	0.644407
724.447412	0.644410
724.779518	0.646319
725.111574	0.644295
725.443582	0.640262
725.775542	0.642166
726.107453	0.634686
726.439315	0.634032
726.771129	0.633204
727.102895	0.625966
727.434612	0.618981
727.766281	0.616621
728.097901	0.615888
728.429473	0.616089
728.760996	0.614609
729.092471	0.614819
729.423897	0.617536
729.755276	0.617128
730.086606	0.617208
730.417887	0.611982
730.749120	0.602675
731.080305	0.592944
731.411442	0.589844
731.742530	0.594771
732.073570	0.593675
732.404562	0.586317
732.735506	0.587388
733.066401	0.592684
733.397249	0.601423
733.728048	0.612653
734.058798	0.625252
734.389501	0.635593
734.720156	0.646011
735.050762	0.653954
735.381320	0.654981
735.711831	0.664252
736.042293	0.668814
736.372707	0.664975
736.703073	0.669051
737.033391	0.671612
737.363661	0.667703
737.693883	0.663816
738.024056	0.662636
738.354182	0.662622
738.684260	0.651712
739.014290	0.647762
739.344272	0.648892
739.674207	0.642205
740.004093	0.642374
740.333931	0.641717
740.663722	0.642140
740.993464	0.642432
741.323159	0.645957
741.652806	0.651851
741.982405	0.656478
742.311956	0.661150
742.641460	0.663243
742.970915	0.667262
743.300323	0.674711
743.629683	0.681341
743.958996	0.683476
744.288260	0.687520
744.617477	0.693726
744.946647	0.695070
745.275768	0.700567
745.604842	0.700283
745.933869	0.710229
746.262847	0.709908
746.591778	0.703551
746.920662	0.710578
747.249498	0.716409
747.578286	0.707890
747.907027	0.703542
748.235720	0.705254
748.564365	0.699620
748.892963	0.699996
749.221514	0.702804
749.550017	0.706869
749.878473	0.707348
750.206881	0.714018
750.535242	0.715481
750.863555	0.715031
751.191821	0.716325
751.520039	0.718991
751.848210	0.723744
752.176334	0.716216
752.504411	0.715994
752.832440	0.723536
753.160421	0.727247
753.488356	0.725840
753.816243	0.723311
754.144082	0.731486
754.471875	0.734660
754.799620	0.730479
755.127318	0.732057
755.454969	0.731817
755.782572	0.731691
756.110129	0.735476
756.437638	0.737854
756.765100	0.736009
757.092515	0.733321
757.419882	0.731354
757.747203	0.737907
758.074477	0.736766
758.401703	0.733720
758.728882	0.729520
759.056014	0.728410
759.383099	0.727471
759.710138	0.727941
760.037129	0.725020
760.364073	0.717842
760.690970	0.721105
761.017820	0.726682
761.344623	0.721774
761.671379	0.713769
761.998088	0.701607
762.324751	0.679244
762.651366	0.636388
762.977935	0.569840
763.304456	0.517566
763.630931	0.508313
763.957359	0.547019
764.283740	0.591590
764.610074	0.619269
764.936362	0.650451
765.262602	0.677092
765.588796	0.698139
765.914943	0.716118
766.241044	0.734670
766.567097	0.740940
766.893104	0.750610
767.219064	0.757737
767.544978	0.763400
767.870845	0.776066
768.196665	0.780394
768.522438	0.778589
768.848165	0.779913
769.173846	0.789696
769.499479	0.793864
769.825066	0.796943
770.150607	0.802781
770.476101	0.797503
770.801548	0.798606
771.126949	0.809578
771.452303	0.813605
771.777611	0.813289
772.102872	0.811660
772.428087	0.817338
772.753256	0.820311
773.078378	0.822329
773.403453	0.831913
773.728482	0.836179
774.053465	0.829701
774.378401	0.833725
774.703291	0.841194
775.028135	0.840653
775.352932	0.842888
775.677683	0.845940
776.002388	0.845895
776.327046	0.844628
776.651658	0.848648
776.976224	0.851622
777.300743	0.852776
777.625216	0.855563
777.949643	0.857117
778.274024	0.856548
778.598359	0.858099
778.922647	0.856091
779.246889	0.857882
779.571086	0.861432
779.895236	0.863936
780.219339	0.861189
780.543397	0.857858
780.867409	0.856186
781.191374	0.858965
781.515294	0.858804
781.839167	0.858442
782.162995	0.862507
782.486776	0.859713
782.810511	0.859182
783.134201	0.864099
783.457844	0.860855
783.781441	0.863898
784.104993	0.869069
784.428498	0.870063
784.751958	0.865747
785.075372	0.868323
785.398739	0.872388
785.722061	0.868464
786.045337	0.863628
786.368568	0.868899
786.691752	0.871745
787.014891	0.856548
787.337983	0.847650
787.661030	0.840654
787.984031	0.822995
788.306987	0.809525
788.629897	0.812703
788.952760	0.816704
789.275579	0.820088
789.598351	0.835663
789.921078	0.848728
790.243759	0.851436
790.566395	0.855693
790.888984	0.864065
791.211529	0.867701
791.534027	0.871232
791.856480	0.873381
792.178888	0.878830
792.501249	0.882016
792.823566	0.883568
793.145836	0.881851
793.468062	0.884656
793.790241	0.883896
794.112375	0.882951
794.434464	0.877951
794.756507	0.877636
795.078505	0.877468
795.400457	0.871393
795.722364	0.860282
796.044226	0.852730
796.366042	0.851429
796.687812	0.855103
797.009538	0.851402
797.331218	0.854492
797.652852	0.858612
797.974442	0.864494
798.295986	0.863595
798.617484	0.865948
798.938938	0.870874
799.260346	0.874759
799.581709	0.877186
799.903026	0.879907
800.224299	0.879536
800.545526	0.884384
800.866708	0.888519
801.187845	0.891472
801.508936	0.891221
801.829983	0.890493
802.150984	0.892568
802.471940	0.897577
802.792851	0.897084
803.113717	0.897464
803.434538	0.896485
803.755314	0.897713
804.076045	0.899767
804.396731	0.900407
804.717372	0.899858
805.037967	0.900996
805.358518	0.899079
805.679024	0.896267
805.999485	0.895976
806.319901	0.897225
806.640272	0.898398
806.960598	0.896031
807.280879	0.893064
807.601115	0.892599
807.921306	0.895494
808.241453	0.895454
808.561554	0.893521
808.881611	0.894052
809.201623	0.895968
809.521590	0.895621
809.841513	0.896729
810.161390	0.895820
810.481223	0.896445
810.801011	0.900485
811.120755	0.902258
811.440453	0.900926
811.760107	0.900552
812.079716	0.899778
812.399281	0.903317
812.718801	0.906842
813.038276	0.906966
813.357707	0.907408
813.677093	0.903362
813.996434	0.907418
814.315731	0.908277
814.634983	0.909552
814.954191	0.907641
815.273354	0.905302
815.592473	0.900799
815.911547	0.900397
816.230577	0.899044
816.549562	0.896105
816.868502	0.896734
817.187399	0.892905
817.506250	0.886243
817.825058	0.888854
818.143821	0.885685
818.462539	0.880759
818.781213	0.872701
819.099843	0.861800
819.418429	0.845582
819.736970	0.828547
820.055466	0.808226
820.373919	0.783240
820.692327	0.750343
821.010691	0.715457
821.329011	0.637228
821.647286	0.520800
821.965517	0.406881
822.283704	0.364174
822.601847	0.365401
822.919945	0.400932
823.237999	0.435091
823.556010	0.482518
823.873976	0.538062
824.191897	0.588739
824.509775	0.632548
824.827609	0.677044
825.145398	0.700549
825.463144	0.703215
825.780845	0.685430
826.098502	0.667507
826.416116	0.620313
826.733685	0.577077
827.051210	0.568025
827.368692	0.583426
827.686129	0.620547
828.003522	0.673984
828.320872	0.721159
828.638177	0.765300
828.955439	0.798707
829.272656	0.820559
829.589830	0.838082
829.906960	0.853967
830.224046	0.865707
830.541088	0.876822
830.858086	0.880551
831.175041	0.887385
831.491952	0.885421
831.808819	0.883098
832.125642	0.877163
832.442421	0.860700
832.759157	0.839087
833.075849	0.792274
833.392497	0.729473
833.709101	0.688204
834.025662	0.697734
834.342179	0.728149
834.658653	0.768914
834.975083	0.804584
835.291469	0.831737
835.607811	0.853464
835.924110	0.869808
836.240366	0.887468
836.556578	0.901729
836.872746	0.908457
837.188871	0.913661
837.504952	0.919343
837.820990	0.923396
838.136984	0.927299
838.452935	0.929472
838.768842	0.931215
839.084706	0.925120
839.400526	0.898429
839.716303	0.857569
840.032037	0.835296
840.347727	0.839192
840.663373	0.858385
840.978977	0.879342
841.294537	0.902289
841.610054	0.917960
841.925527	0.925859
842.240957	0.933318
842.556344	0.940064
842.871687	0.945044
843.186987	0.950509
843.502244	0.950060
843.817458	0.952924
844.132629	0.956196
844.447756	0.960645
844.762840	0.960248
845.077881	0.960020
845.392879	0.958703
845.707833	0.962517
846.022745	0.964380
846.337613	0.965079
846.652438	0.966287
846.967221	0.964529
847.281960	0.965834
847.596656	0.967951
847.911309	0.966198
848.225919	0.967138
848.540485	0.969780
848.855009	0.969702
849.169490	0.968497
849.483928	0.968480
849.798323	0.969461
850.112675	0.969900
850.426984	0.968779
850.741251	0.970115
851.055474	0.970256
851.369654	0.967213
851.683792	0.970139
851.997887	0.970576
852.311938	0.970172
852.625947	0.970102
852.939914	0.967613
853.253837	0.969815
853.567718	0.970344
853.881555	0.970513
854.195350	0.968079
854.509103	0.970355
854.822812	0.970904
855.136479	0.969377
855.450103	0.970129
855.763685	0.967290
856.077224	0.969751
856.390720	0.969827
856.704173	0.970458
857.017584	0.967820
857.330953	0.967499
857.644278	0.968737
857.957561	0.967277
858.270802	0.968272
858.584000	0.967635
858.897155	0.967461
859.210268	0.967729
859.523339	0.968213
859.836367	0.971636
860.149352	0.971546
860.462295	0.969068
860.775195	0.970619
861.088054	0.969760
861.400869	0.969931
861.713642	0.970865
862.026373	0.971073
862.339062	0.970727
862.651708	0.967847
862.964312	0.969953
863.276873	0.969592
863.589392	0.968084
863.901869	0.966768
864.214303	0.965130
864.526696	0.964239
864.839045	0.964497
865.151353	0.961415
865.463619	0.962580
865.775842	0.963110
866.088023	0.962867
866.400162	0.962272
866.712258	0.963002
867.024313	0.963447
867.336325	0.964060
867.648296	0.963903
867.960224	0.962480
868.272110	0.961736
868.583954	0.964255
868.895755	0.964125
869.207515	0.962282
869.519233	0.958790
869.830909	0.960419
870.142542	0.961511
870.454134	0.962844
870.765684	0.961037
871.077191	0.957390
871.388657	0.958739
871.700081	0.957239
872.011463	0.959270
872.322803	0.957780
872.634101	0.957082
872.945357	0.954571
873.256571	0.953334
873.567744	0.951836
873.878874	0.953762
874.189963	0.951511
874.501010	0.950324
874.812015	0.949276
875.122979	0.951178
875.433900	0.953310
875.744780	0.953329
876.055618	0.951831
876.366415	0.949679
876.677169	0.950240
876.987882	0.951750
877.298554	0.951022
877.609183	0.947190
877.919771	0.945899
878.230317	0.942744
878.540822	0.941359
878.851285	0.935211
879.161707	0.926688
879.472087	0.914766
879.782425	0.899291
880.092722	0.863837
880.402977	0.810688
880.713191	0.750125
881.023363	0.690287
881.333494	0.656065
881.643583	0.628421
881.953631	0.628243
882.263637	0.656946
882.573602	0.695518
882.883526	0.722417
883.193408	0.745654
883.503248	0.769056
883.813048	0.795815
884.122806	0.825352
884.432522	0.849601
884.742197	0.869894
885.051831	0.879212
885.361424	0.890148
885.670975	0.902967
885.980485	0.913050
886.289954	0.919233
886.599382	0.925025
886.908768	0.928713
887.218113	0.934206
887.527417	0.939036
887.836680	0.941502
888.145901	0.942548
888.455082	0.945977
888.764221	0.950886
889.073319	0.952270
889.382376	0.953440
889.691392	0.952858
890.000366	0.952818
890.309300	0.953414
890.618193	0.953333
890.927044	0.951221
891.235855	0.952080
891.544625	0.949965
891.853353	0.952176
892.162041	0.948252
892.470687	0.941592
892.779293	0.937898
893.087858	0.933013
893.396381	0.925798
893.704864	0.912403
894.013306	0.888782
894.321707	0.862161
894.630068	0.846881
894.938387	0.841973
895.246665	0.843050
895.554903	0.856013
895.863100	0.868724
896.171256	0.886215
896.479371	0.906557
896.787446	0.917780
897.095480	0.925130
897.403473	0.928093
897.711425	0.932089
898.019336	0.940130
898.327207	0.942044
898.635038	0.944297
898.942827	0.944903
899.250576	0.947962
899.558284	0.951946
899.865952	0.953663
900.173579	0.955179
900.481165	0.955911
900.788711	0.960567
901.096216	0.961192
901.403681	0.961691
901.711105	0.963482
902.018489	0.964379
902.325832	0.961436
902.633135	0.961175
902.940397	0.955517
903.247619	0.943282
903.554800	0.918340
903.861941	0.877546
904.169041	0.841717
904.476101	0.823453
904.783121	0.824926
905.090100	0.841217
905.397039	0.864111
905.703938	0.885805
906.010796	0.905227
906.317614	0.921372
906.624391	0.935469
906.931129	0.943862
907.237826	0.952363
907.544483	0.959553
907.851099	0.962740
908.157675	0.968143
908.464211	0.970641
908.770707	0.973105
909.077163	0.976214
909.383578	0.974582
909.689954	0.975196
909.996289	0.975550
910.302584	0.977690
910.608839	0.979994
910.915054	0.978305
911.221229	0.978195
911.527363	0.976831
911.833458	0.977652
912.139513	0.977309
912.445527	0.975219
912.751502	0.974038
913.057436	0.972497
913.363331	0.969240
913.669186	0.967027
913.975000	0.961005
914.280775	0.955199
914.586510	0.947144
914.892205	0.934850
915.197859	0.913286
915.503475	0.885516
915.809050	0.865676
916.114585	0.859161
916.420081	0.857293
916.725536	0.852819
917.030952	0.862677
917.336328	0.876400
917.641665	0.891056
917.946961	0.906148
918.252218	0.918828
918.557435	0.927354
918.862612	0.936059
919.167750	0.942337
919.472848	0.946804
919.777906	0.953059
920.082925	0.959061
920.387904	0.961977
920.692843	0.962618
920.997743	0.962669
921.302603	0.966740
921.607423	0.970120
921.912204	0.970766
922.216946	0.971272
922.521647	0.973827
922.826310	0.974953
923.130932	0.977317
923.435516	0.977955
923.740059	0.980665
924.044564	0.979105
924.349028	0.981509
924.653454	0.982409
924.957840	0.984604
925.262186	0.984065
925.566493	0.983862
925.870761	0.984857
926.174989	0.986083
926.479178	0.989712
926.783328	0.988677
927.087438	0.989047
927.391509	0.987913
927.695541	0.991420
927.999533	0.988925
928.303486	0.989559
928.607400	0.992015
928.911275	0.991288
929.215110	0.990415
929.518906	0.991916
929.822663	0.989165
930.126381	0.991578
930.430060	0.990383
930.733699	0.990732
931.037299	0.989188
931.340861	0.990997
931.644383	0.990381
931.947866	0.989724
932.251309	0.991234
932.554714	0.991202
932.858080	0.991196
933.161407	0.989374
933.464694	0.991936
933.767943	0.989326
934.071153	0.991147
934.374323	0.991643
934.677455	0.992384
934.980548	0.991435
935.283602	0.991669
935.586617	0.992010
935.889593	0.990710
936.192530	0.991176
936.495428	0.990895
936.798287	0.991780
937.101108	0.991234
937.403890	0.988751
937.706632	0.989313
938.009336	0.986802
938.312002	0.985300
938.614628	0.984484
938.917216	0.983488
939.219765	0.981692
939.522275	0.983121
939.824747	0.982319
940.127179	0.982451
940.429573	0.984110
940.731929	0.983555
941.034246	0.985170
941.336524	0.984617
941.638763	0.986162
941.940964	0.985844
942.243126	0.986894
942.545250	0.987494
942.847335	0.988075
943.149381	0.988031
943.451389	0.988935
943.753359	0.988273
944.055290	0.990620
944.357182	0.989923
944.659036	0.988456
944.960851	0.989210
945.262628	0.990107
945.564367	0.991002
945.866067	0.991027
946.167729	0.990186
946.469352	0.991216
946.770937	0.988374
947.072484	0.991426
947.373992	0.989739
947.675462	0.990872
947.976893	0.991300
948.278286	0.991501
948.579641	0.990404
948.880958	0.991114
949.182236	0.992058
949.483476	0.991214
949.784678	0.990568
950.085841	0.992283
950.386967	0.990988
950.688054	0.990852
950.989103	0.990686
951.290114	0.989085
951.591087	0.990134
951.892021	0.989789
952.192917	0.989231
952.493776	0.987630
952.794596	0.988572
953.095378	0.988004
953.396122	0.987498
953.696828	0.988085
953.997496	0.989670
954.298126	0.990956
954.598718	0.990835
954.899272	0.990643
955.199788	0.990904
955.500266	0.991392
955.800706	0.993337
956.101108	0.994104
956.401472	0.994048
956.701798	0.994558
957.002087	0.993675
957.302337	0.993543
957.602550	0.995167
957.902724	0.995328
958.202861	0.996649
958.502960	0.996061
958.803022	0.994548
959.103045	0.995948
959.403031	0.996375
959.702979	0.995712
960.002889	0.995932
960.302762	0.994751
960.602596	0.997058
960.902393	0.995659
961.202153	0.997492
961.501875	0.996992
961.801559	0.996556
962.101205	0.995714
962.400814	0.995641
962.700385	0.995684
962.999918	0.996604
963.299414	0.997180
963.598873	0.996861
963.898293	0.996160
964.197677	0.996386
964.497022	0.996780
964.796331	0.997186
965.095601	0.997298
965.394835	0.996655
965.694030	0.997635
965.993189	0.998611
966.292309	0.996723
966.591393	0.998266
966.890439	0.997450
967.189447	0.997884
967.488419	0.997652
967.787353	0.996129
968.086249	0.997155
968.385108	0.996986
968.683930	0.996718
968.982714	0.998632
969.281462	0.997354
969.580172	0.996947
969.878844	0.998242
970.177480	0.997357
970.476078	0.997639
970.774639	0.996524
971.073162	0.996701
971.371649	0.996706
971.670098	0.995935
971.968510	0.997071
972.266885	0.997320
972.565223	0.996296
972.863524	0.996717
973.161788	0.996588
973.460014	0.998964
973.758204	0.995905
974.056356	0.996914
974.354471	0.994352
974.652550	0.997320
974.950591	0.995521
975.248595	0.996496
975.546563	0.995788
975.844493	0.998909
976.142386	0.997256
976.440243	0.998385
976.738062	0.997390
977.035845	0.998397
977.333590	0.997333
977.631299	0.998144
977.928971	0.996485
978.226606	0.996692
978.524204	0.995652
978.821765	0.997847
979.119290	0.997116
979.416777	0.996246
979.714228	0.997336
980.011642	0.996370
980.309020	0.997398
980.606360	0.997228
980.903664	0.998964
981.200931	0.996749
981.498162	0.996127
981.795356	0.996380
982.092513	0.994511
982.389633	0.994635
982.686717	0.992847
982.983764	0.991118
983.280775	0.990728
983.577749	0.991123
983.874686	0.991647
984.171587	0.991629
984.468451	0.994553
984.765279	0.995048
985.062070	0.994588
985.358824	0.996603
985.655543	0.993862
985.952224	0.996866
986.248869	0.997433
986.545478	0.997888
986.842050	0.998909
987.138586	0.995662
987.435086	0.998377
987.731549	0.998612
988.027975	0.998692
988.324366	0.998378
988.620719	0.998025
988.917037	0.996754
989.213318	0.998775
989.509563	0.998844
989.805772	0.999575
990.101944	0.997996
990.398080	0.997089
990.694180	0.998958
990.990244	0.997771
991.286271	0.997929
991.582262	0.998891
991.878217	0.999932
992.174136	0.998822
992.470019	0.999101
992.765865	0.998304
993.061676	0.998406
993.357450	0.997678
993.653188	0.996231
993.948890	0.998272
994.244556	0.997262
994.540186	0.998360
994.835780	0.995965
995.131337	0.997982
995.426859	0.997090
995.722345	0.997813
996.017795	0.996615
996.313208	0.995513
996.608586	0.995370
996.903928	0.996300
997.199234	0.996319
997.494504	0.996122
997.789738	0.997546
998.084936	0.996659
998.380099	0.997754
998.675225	0.997052
998.970316	0.999375
999.265371	0.999452
999.560390	0.998501
999.855373	0.998216
1000.150320	0.998340
1000.445232	0.998616
1000.740108	0.999059
1001.034948	0.999452
1001.329752	0.998518
1001.624521	0.999368
1001.919254	0.998893
1002.213951	0.998693
1002.508613	0.997861
1002.803239	0.999760
1003.097829	0.999981
1003.392384	0.999079
1003.686903	0.997448
1003.981386	1.000187
1004.275834	0.999585
1004.570246	0.999449
1004.864623	0.998911
1005.158964	0.999640
1005.453270	0.999704
1005.747540	0.997354
1006.041775	0.998492
1006.335974	1.000019
1006.630138	1.000472
1006.924266	0.999451
1007.218359	1.000417
1007.512416	0.998944
1007.806438	0.999616
1008.100425	0.998938
1008.394376	0.999282
1008.688292	1.000122
1008.982172	1.000354
1009.276017	0.999112
1009.569827	0.998856
1009.863602	0.998298
1010.157341	0.999373
1010.451045	1.000659
1010.744714	0.998668
1011.038347	0.999604
1011.331945	0.999492
1011.625508	0.998229
1011.919036	0.999378
1012.212528	0.999548
1012.505986	0.998942
1012.799408	0.999260
1013.092795	1.000516
1013.386147	0.999563
1013.679464	0.999682
1013.972745	0.998713
1014.265992	0.997656
1014.559204	0.998470
1014.852380	0.998543
1015.145521	0.998394
1015.438628	0.999539
1015.731699	0.999405
1016.024736	0.999478
1016.317737	0.998776
1016.610703	1.000044
1016.903635	0.999985
1017.196531	0.998610
1017.489393	0.999501
1017.782219	0.998635
1018.075011	0.998812
1018.367768	0.999602
1018.660490	0.999268
1018.953177	0.999268
1019.245829	0.999268
