Dividing Wavelength (nm)	Counts (n)	Blue Motor Position (mm): 0.000000	Red Motor Position (mm): 35.900000	
326.493990	1.000676
326.888308	1.000676
327.282561	1.000676
327.676750	0.999024
328.070874	0.998816
328.464933	0.999641
328.858929	0.997965
329.252859	0.999609
329.646726	0.999111
330.040528	0.999952
330.434265	0.999089
330.827938	1.000662
331.221547	1.000886
331.615091	1.000011
332.008571	1.000268
332.401986	1.000493
332.795338	0.999511
333.188625	0.998553
333.581847	0.999607
333.975006	1.000087
334.368100	1.000165
334.761129	0.999382
335.154095	1.000442
335.546996	0.998938
335.939833	0.994185
336.332606	0.995268
336.725315	0.998002
337.117960	0.999010
337.510540	0.997276
337.903056	0.996484
338.295508	0.996813
338.687896	0.997444
339.080220	0.997494
339.472480	0.996807
339.864676	0.997078
340.256807	0.996220
340.648875	0.997708
341.040879	0.997776
341.432818	0.996799
341.824694	0.997387
342.216506	0.997808
342.608253	0.997203
342.999937	0.996535
343.391557	0.996899
343.783113	0.996601
344.174605	0.997375
344.566033	0.997553
344.957397	0.996152
345.348697	0.995492
345.739934	0.995964
346.131106	0.995860
346.522215	0.996207
346.913260	0.996380
347.304241	0.996719
347.695159	0.996145
348.086012	0.996169
348.476802	0.996257
348.867528	0.995985
349.258191	0.994521
349.648789	0.997566
350.039324	0.997283
350.429796	0.998012
350.820203	0.996630
351.210548	0.996777
351.600828	0.997266
351.991045	0.996361
352.381198	0.996131
352.771288	0.995619
353.161314	0.995831
353.551276	0.997356
353.941175	0.996876
354.331010	0.997265
354.720782	0.996746
355.110490	0.997163
355.500135	0.997015
355.889717	0.997246
356.279235	0.997187
356.668689	0.996296
357.058080	0.997113
357.447408	0.997917
357.836672	0.996956
358.225873	0.997729
358.615010	0.997103
359.004084	0.997335
359.393095	0.997504
359.782043	0.997387
360.170927	0.997783
360.559748	0.997328
360.948505	0.995886
361.337199	0.996974
361.725830	0.997232
362.114398	0.997557
362.502903	0.997542
362.891344	0.998328
363.279722	0.996766
363.668037	0.996611
364.056289	0.996670
364.444478	0.997316
364.832603	0.997419
365.220665	0.996043
365.608665	0.996927
365.996601	0.996410
366.384474	0.995877
366.772284	0.996548
367.160031	0.996806
367.547715	0.995474
367.935336	0.996438
368.322893	0.996893
368.710388	0.995665
369.097820	0.997964
369.485189	0.996901
369.872495	0.995958
370.259738	0.995316
370.646918	0.998627
371.034035	0.997030
371.421090	0.997278
371.808081	0.997230
372.195010	0.996716
372.581875	0.997620
372.968678	0.996785
373.355418	0.996372
373.742096	0.996276
374.128710	0.997742
374.515262	0.997142
374.901751	0.997204
375.288177	0.996999
375.674540	0.998047
376.060841	0.997014
376.447079	0.997357
376.833254	0.998315
377.219367	0.998117
377.605417	0.997047
377.991404	0.997660
378.377329	0.997213
378.763191	0.996641
379.148991	0.999239
379.534727	0.997956
379.920402	0.997736
380.306013	0.998451
380.691563	0.998312
381.077049	0.997223
381.462474	0.997841
381.847835	0.998017
382.233134	0.998341
382.618371	0.997145
383.003545	0.998519
383.388657	0.997446
383.773706	0.998133
384.158693	0.998508
384.543618	0.998222
384.928480	0.998029
385.313280	0.997708
385.698017	0.999029
386.082692	0.998532
386.467305	0.998140
386.851856	0.998698
387.236344	0.997984
387.620770	0.997378
388.005133	0.998988
388.389435	0.999155
388.773674	0.997217
389.157851	0.998699
389.541965	0.999383
389.926018	0.997546
390.310008	0.999720
390.693936	0.998340
391.077802	0.999004
391.461606	0.997927
391.845348	0.998273
392.229027	1.000080
392.612645	0.998990
392.996200	0.999418
393.379694	0.998583
393.763125	0.999265
394.146494	0.998764
394.529801	0.997676
394.913047	0.999306
395.296230	0.998739
395.679351	0.999436
396.062410	0.998450
396.445408	0.998844
396.828343	0.999391
397.211217	0.998779
397.594028	0.999228
397.976778	0.998697
398.359466	0.998631
398.742092	0.998033
399.124656	0.997488
399.507158	0.998640
399.889598	0.999199
400.271977	0.998711
400.654294	0.999802
401.036549	0.999151
401.418742	0.999653
401.800874	0.997749
402.182944	0.999402
402.564952	0.998349
402.946898	0.999479
403.328783	0.999197
403.710606	0.998373
404.092367	0.999709
404.474067	0.999925
404.855705	0.998572
405.237282	0.999198
405.618797	0.999183
406.000250	0.998671
406.381642	0.999777
406.762972	0.998918
407.144240	1.000328
407.525447	0.999361
407.906593	0.999642
408.287677	0.999724
408.668700	0.999342
409.049661	0.998114
409.430560	0.999765
409.811399	0.998851
410.192176	0.998355
410.572891	0.999596
410.953545	0.999679
411.334138	0.998284
411.714669	0.999394
412.095139	0.999284
412.475547	0.999655
412.855894	0.998858
413.236180	0.999640
413.616405	0.999658
413.996568	1.000477
414.376670	0.998479
414.756711	0.999314
415.136691	0.999380
415.516609	0.999482
415.896466	0.999257
416.276262	0.998216
416.655997	0.999454
417.035670	0.999125
417.415283	0.999559
417.794834	0.999778
418.174324	0.999361
418.553753	0.999821
418.933121	0.999322
419.312428	0.999643
419.691674	0.999445
420.070859	0.999426
420.449983	0.999461
420.829045	0.999810
421.208047	1.000425
421.586988	1.000523
421.965867	0.999266
422.344686	1.000600
422.723444	0.999586
423.102141	1.000373
423.480777	1.000051
423.859352	0.998988
424.237866	0.998833
424.616319	0.999670
424.994712	1.000234
425.373044	1.000424
425.751314	0.999213
426.129524	0.999982
426.507673	1.000927
426.885762	1.000287
427.263789	1.000081
427.641756	1.000368
428.019662	1.000408
428.397508	0.999131
428.775292	0.999020
429.153016	0.999862
429.530679	1.000918
429.908282	1.000075
430.285824	0.999367
430.663305	0.999685
431.040726	1.000176
431.418086	1.001052
431.795385	1.000441
432.172624	0.998920
432.549802	1.000010
432.926920	0.999551
433.303977	0.999399
433.680974	1.001086
434.057910	0.999852
434.434786	1.000523
434.811601	0.999601
435.188355	0.999618
435.565050	0.999627
435.941683	0.999670
436.318257	1.001205
436.694770	0.999882
437.071222	1.000124
437.447614	0.999680
437.823946	1.000495
438.200218	1.000061
438.576429	0.999706
438.952580	1.000760
439.328670	1.000362
439.704700	0.999692
440.080670	1.000217
440.456580	0.999806
440.832429	0.998394
441.208218	0.999656
441.583947	1.000742
441.959616	1.000534
442.335224	1.000111
442.710773	1.000721
443.086261	0.999977
443.461689	1.000279
443.837057	0.999964
444.212365	1.000901
444.587612	0.999541
444.962800	1.000112
445.337927	0.999948
445.712995	1.000236
446.088002	0.999953
446.462949	1.000707
446.837837	1.000768
447.212664	1.000588
447.587431	1.000066
447.962139	1.000009
448.336786	1.000181
448.711374	1.000208
449.085901	1.000085
449.460369	1.000335
449.834776	0.999590
450.209124	0.999860
450.583412	0.999594
450.957640	1.000202
451.331808	0.999872
451.705917	0.999552
452.079965	0.999713
452.453954	1.000608
452.827883	1.000147
453.201752	1.000605
453.575562	1.000968
453.949311	1.000164
454.323001	1.000434
454.696632	0.999900
455.070202	1.000399
455.443713	0.999926
455.817164	1.000749
456.190556	1.000063
456.563888	1.000269
456.937160	1.000463
457.310373	0.999895
457.683526	1.000291
458.056619	0.999931
458.429653	1.000058
458.802628	0.999649
459.175542	0.999653
459.548398	1.000842
459.921194	0.999780
460.293930	0.999801
460.666607	0.999698
461.039224	0.998755
461.411782	1.000169
461.784280	1.000256
462.156719	1.000778
462.529099	1.000719
462.901419	1.000538
463.273680	0.999932
463.645882	0.999962
464.018024	1.000308
464.390106	0.999654
464.762130	1.001118
465.134094	0.999505
465.505999	1.000374
465.877845	0.999994
466.249631	1.000477
466.621358	1.000812
466.993026	1.000746
467.364634	1.000668
467.736184	1.000879
468.107674	1.000590
468.479105	1.000051
468.850477	1.000412
469.221790	1.000754
469.593043	1.001107
469.964238	1.001423
470.335373	1.000516
470.706449	1.000541
471.077467	1.001274
471.448425	1.000746
471.819324	1.001011
472.190164	1.000318
472.560945	1.000909
472.931667	1.000597
473.302330	1.000481
473.672934	1.000743
474.043479	0.999986
474.413965	1.000342
474.784393	1.001224
475.154761	1.000322
475.525070	0.999773
475.895321	1.001170
476.265513	1.000439
476.635645	1.000494
477.005719	1.000569
477.375734	1.000308
477.745691	1.000617
478.115588	1.000767
478.485427	1.000958
478.855207	1.000350
479.224928	1.000133
479.594591	1.000291
479.964194	1.000816
480.333739	1.000648
480.703226	1.000669
481.072653	1.001203
481.442022	1.001230
481.811333	0.999795
482.180584	1.000695
482.549777	1.000134
482.918912	1.000220
483.287988	1.000934
483.657005	1.001137
484.025964	1.001304
484.394864	1.000616
484.763706	1.001059
485.132489	1.001060
485.501213	1.000536
485.869879	1.000870
486.238487	1.001155
486.607036	1.001280
486.975527	0.999832
487.343959	1.000474
487.712333	1.000583
488.080648	1.000331
488.448905	1.000815
488.817104	1.000931
489.185244	1.000487
489.553326	1.000915
489.921350	1.000015
490.289315	1.000422
490.657222	1.001027
491.025070	1.000229
491.392861	1.000876
491.760593	1.000741
492.128267	1.000590
492.495883	1.000677
492.863440	1.000783
493.230939	1.000578
493.598380	1.000656
493.965763	1.000564
494.333088	1.001441
494.700354	1.000764
495.067563	1.000445
495.434713	1.000042
495.801805	1.001426
496.168839	1.000950
496.535815	1.000491
496.902733	1.000135
497.269593	0.999399
497.636395	1.000163
498.003139	1.000169
498.369825	1.000484
498.736453	0.999959
499.103023	0.999336
499.469535	1.000116
499.835989	0.999715
500.202385	1.000455
500.568723	1.000238
500.935003	1.000729
501.301226	0.999892
501.667390	0.999815
502.033497	1.000410
502.399546	1.000052
502.765537	0.999453
503.131470	0.999492
503.497345	0.999585
503.863163	1.000317
504.228923	1.000392
504.594625	0.999927
504.960269	1.000443
505.325856	0.999950
505.691385	0.999077
506.056856	0.999045
506.422270	0.999496
506.787625	0.999421
507.152924	0.999567
507.518164	0.999158
507.883347	0.999340
508.248472	0.998460
508.613540	0.999195
508.978550	0.999036
509.343503	0.998184
509.708398	0.999034
510.073236	0.998737
510.438016	0.999007
510.802738	0.999091
511.167403	0.998314
511.532010	0.998124
511.896561	0.997709
512.261053	0.998780
512.625488	0.997604
512.989866	0.997138
513.354186	0.996758
513.718449	0.996816
514.082655	0.996624
514.446803	0.996581
514.810894	0.996431
515.174927	0.995687
515.538904	0.995280
515.902822	0.995018
516.266684	0.995119
516.630488	0.995493
516.994235	0.993885
517.357925	0.992954
517.721558	0.993175
518.085133	0.992081
518.448651	0.993225
518.812112	0.992073
519.175516	0.991435
519.538863	0.991282
519.902152	0.989935
520.265385	0.989253
520.628560	0.988823
520.991678	0.988621
521.354739	0.988207
521.717743	0.987010
522.080690	0.987094
522.443580	0.985502
522.806413	0.984644
523.169189	0.984155
523.531908	0.982591
523.894569	0.982222
524.257174	0.982446
524.619722	0.981035
524.982213	0.980120
525.344647	0.978653
525.707025	0.977575
526.069345	0.976577
526.431608	0.975524
526.793815	0.974806
527.155964	0.972836
527.518057	0.972712
527.880093	0.971322
528.242072	0.969849
528.603995	0.967797
528.965860	0.967825
529.327669	0.965936
529.689421	0.964150
530.051117	0.963598
530.412755	0.961268
530.774337	0.960019
531.135862	0.958319
531.497331	0.956867
531.858743	0.955063
532.220098	0.953650
532.581396	0.951900
532.942638	0.949892
533.303824	0.948690
533.664953	0.945790
534.026025	0.944660
534.387040	0.942060
534.747999	0.940640
535.108902	0.938395
535.469748	0.936095
535.830537	0.933693
536.191270	0.931517
536.551947	0.928610
536.912567	0.926694
537.273131	0.925436
537.633638	0.921669
537.994089	0.919696
538.354483	0.916851
538.714821	0.914611
539.075103	0.911605
539.435328	0.909182
539.795497	0.907211
540.155609	0.903244
540.515665	0.900352
540.875665	0.897864
541.235609	0.895442
541.595496	0.891790
541.955328	0.887847
542.315102	0.885968
542.674821	0.882651
543.034483	0.879501
543.394090	0.876239
543.753640	0.873259
544.113134	0.868810
544.472571	0.866803
544.831953	0.861707
545.191278	0.858944
545.550548	0.856654
545.909761	0.851863
546.268918	0.848491
546.628019	0.844432
546.987064	0.840569
547.346053	0.838435
547.704986	0.833099
548.063863	0.829882
548.422684	0.827616
548.781449	0.823502
549.140158	0.818385
549.498811	0.815307
549.857408	0.812845
550.215949	0.806669
550.574434	0.803741
550.932864	0.798239
551.291237	0.795790
551.649555	0.790990
552.007817	0.787644
552.366022	0.783853
552.724173	0.780371
553.082267	0.776778
553.440305	0.769245
553.798288	0.769421
554.156215	0.762141
554.514086	0.758102
554.871902	0.755355
555.229661	0.751060
555.587365	0.746896
555.945014	0.744078
556.302606	0.737327
556.660143	0.735375
557.017625	0.728143
557.375050	0.725301
557.732421	0.720006
558.089735	0.715938
558.446994	0.712331
558.804197	0.707422
559.161345	0.702778
559.518437	0.700968
559.875474	0.693887
560.232455	0.689574
560.589381	0.686033
560.946251	0.679747
561.303065	0.676490
561.659825	0.671545
562.016528	0.668018
562.373177	0.666147
562.729770	0.658864
563.086307	0.656456
563.442789	0.652081
563.799216	0.646583
564.155587	0.642532
564.511904	0.638096
564.868164	0.634315
565.224370	0.630347
565.580520	0.625100
565.936615	0.623014
566.292654	0.618301
566.648638	0.613721
567.004567	0.608535
567.360441	0.605806
567.716260	0.601706
568.072023	0.597232
568.427732	0.591930
568.783385	0.591086
569.138982	0.584034
569.494525	0.580227
569.850013	0.577769
570.205445	0.571684
570.560823	0.570373
570.916145	0.566641
571.271412	0.561277
571.626625	0.557821
571.981782	0.554213
572.336884	0.550568
572.691931	0.547444
573.046923	0.542907
573.401860	0.540512
573.756743	0.537172
574.111570	0.532771
574.466342	0.530169
574.821059	0.525169
575.175722	0.523011
575.530330	0.518766
575.884882	0.515687
576.239380	0.513486
576.593823	0.509617
576.948211	0.505023
577.302544	0.504584
577.656823	0.499890
578.011047	0.496944
578.365216	0.494136
578.719330	0.492003
579.073389	0.487581
579.427394	0.485893
579.781344	0.483263
580.135239	0.480522
580.489080	0.477599
580.842866	0.475537
581.196597	0.472292
581.550273	0.468592
581.903895	0.465625
582.257463	0.461412
582.610975	0.460239
582.964434	0.457786
583.317837	0.456173
583.671186	0.453567
584.024481	0.450365
584.377721	0.449165
584.730906	0.446716
585.084037	0.443369
585.437113	0.441919
585.790135	0.437780
586.143103	0.437770
586.496016	0.436634
586.848874	0.431194
587.201679	0.429337
587.554428	0.429028
587.907124	0.425380
588.259765	0.423867
588.612352	0.421314
588.964884	0.422840
589.317362	0.419738
589.669786	0.416911
590.022155	0.414122
590.374470	0.410382
590.726731	0.410259
591.078937	0.411721
591.431090	0.405628
591.783188	0.407518
592.135232	0.405029
592.487222	0.403770
592.839157	0.399526
593.191038	0.398967
593.542866	0.398690
593.894639	0.399821
594.246358	0.396187
594.598022	0.393314
594.949633	0.394670
595.301190	0.393162
595.652692	0.390397
596.004141	0.384792
596.355535	0.390832
596.706876	0.389245
597.058162	0.389708
597.409395	0.385523
597.760573	0.381706
598.111698	0.382887
598.462768	0.381857
598.813785	0.381180
599.164748	0.380397
599.515657	0.379416
599.866511	0.380674
600.217312	0.374668
600.568060	0.378542
600.918753	0.373409
601.269392	0.373130
601.619978	0.374827
601.970510	0.371398
602.320988	0.370334
602.671412	0.366659
603.021783	0.368246
603.372100	0.368057
603.722363	0.366097
604.072572	0.365979
604.422728	0.364643
604.772830	0.365355
605.122878	0.364080
605.472872	0.363161
605.822813	0.360458
606.172701	0.362212
606.522534	0.358407
606.872314	0.358022
607.222041	0.357637
607.571714	0.354639
607.921333	0.355388
608.270899	0.354109
608.620411	0.350031
608.969870	0.353053
609.319276	0.352318
609.668627	0.351017
610.017926	0.349140
610.367171	0.346751
610.716362	0.346806
611.065500	0.345957
611.414585	0.344420
611.763616	0.344762
612.112594	0.344269
612.461518	0.342936
612.810389	0.340179
613.159207	0.341525
613.507971	0.342964
613.856682	0.338037
614.205340	0.339309
614.553945	0.335599
614.902496	0.338932
615.250994	0.336254
615.599439	0.336863
615.947830	0.335530
616.296169	0.336091
616.644454	0.335107
616.992686	0.335201
617.340864	0.332788
617.688990	0.335480
618.037063	0.331850
618.385082	0.333178
618.733048	0.329927
619.080961	0.331658
619.428821	0.330883
619.776628	0.330283
620.124382	0.331554
620.472083	0.331546
620.819731	0.330550
621.167326	0.333996
621.514868	0.333138
621.862357	0.336981
622.209793	0.336444
622.557176	0.337793
622.904506	0.338267
623.251783	0.340623
623.599007	0.342516
623.946179	0.341661
624.293297	0.343534
624.640363	0.346878
624.987376	0.347112
625.334336	0.349594
625.681243	0.351122
626.028097	0.351753
626.374899	0.353077
626.721647	0.352441
627.068343	0.355651
627.414987	0.356421
627.761577	0.358273
628.108115	0.356257
628.454600	0.361524
628.801032	0.358619
629.147412	0.360604
629.493739	0.360822
629.840014	0.363828
630.186236	0.361117
630.532405	0.366419
630.878521	0.364073
631.224585	0.365899
631.570597	0.369351
631.916556	0.367929
632.262462	0.367723
632.608316	0.369732
632.954117	0.370508
633.299866	0.370827
633.645562	0.371707
633.991206	0.375412
634.336797	0.378614
634.682336	0.380901
635.027823	0.382110
635.373257	0.382464
635.718639	0.385726
636.063968	0.384972
636.409245	0.390852
636.754470	0.391237
637.099642	0.393382
637.444762	0.396517
637.789829	0.395529
638.134845	0.398819
638.479808	0.399806
638.824719	0.399746
639.169577	0.403414
639.514383	0.402400
639.859137	0.406686
640.203839	0.406522
640.548489	0.406645
640.893086	0.408021
641.237632	0.409120
641.582125	0.408019
641.926566	0.409271
642.270955	0.409259
642.615292	0.410093
642.959576	0.408873
643.303809	0.409207
643.647990	0.408830
643.992118	0.409252
644.336195	0.413234
644.680219	0.411166
645.024192	0.412292
645.368112	0.405309
645.711981	0.404509
646.055797	0.399437
646.399562	0.402455
646.743274	0.394403
647.086935	0.391605
647.430544	0.391717
647.774101	0.390354
648.117606	0.390041
648.461059	0.390393
648.804460	0.392544
649.147810	0.398462
649.491108	0.400069
649.834354	0.401419
650.177548	0.406372
650.520690	0.411601
650.863781	0.413327
651.206820	0.412131
651.549807	0.417203
651.892742	0.420760
652.235626	0.419851
652.578458	0.421282
652.921238	0.427381
653.263967	0.424836
653.606644	0.428895
653.949269	0.428609
654.291843	0.432573
654.634365	0.429530
654.976836	0.432759
655.319255	0.432466
655.661622	0.434742
656.003938	0.434337
656.346203	0.437077
656.688416	0.435291
657.030577	0.438366
657.372687	0.440200
657.714746	0.440683
658.056753	0.438184
658.398708	0.441538
658.740612	0.442938
659.082465	0.439594
659.424266	0.439421
659.766016	0.439282
660.107715	0.441602
660.449362	0.440956
660.790958	0.440952
661.132503	0.441880
661.473996	0.439726
661.815438	0.440314
662.156829	0.440641
662.498168	0.440614
662.839456	0.442652
663.180693	0.440531
663.521879	0.440729
663.863013	0.441309
664.204097	0.439905
664.545129	0.437078
664.886110	0.436760
665.227040	0.434220
665.567918	0.436925
665.908746	0.434844
666.249522	0.434690
666.590248	0.435214
666.930922	0.433145
667.271545	0.432742
667.612118	0.433110
667.952639	0.434647
668.293109	0.433317
668.633528	0.435927
668.973896	0.435741
669.314213	0.436091
669.654480	0.437507
669.994695	0.438293
670.334859	0.439276
670.674973	0.439566
671.015035	0.439293
671.355047	0.439134
671.695008	0.440191
672.034918	0.441854
672.374777	0.441376
672.714585	0.442384
673.054342	0.442334
673.394049	0.442831
673.733705	0.440153
674.073310	0.441150
674.412864	0.444369
674.752368	0.445373
675.091820	0.444923
675.431223	0.449260
675.770574	0.449489
676.109875	0.452695
676.449125	0.452171
676.788324	0.454523
677.127473	0.460049
677.466571	0.460029
677.805619	0.461478
678.144616	0.462307
678.483562	0.463984
678.822458	0.466460
679.161303	0.467770
679.500098	0.468090
679.838842	0.469563
680.177535	0.469017
680.516179	0.467655
680.854771	0.467097
681.193314	0.460110
681.531805	0.451695
681.870247	0.440223
682.208638	0.432638
682.546978	0.431691
682.885268	0.433132
683.223508	0.439584
683.561697	0.443053
683.899836	0.446430
684.237925	0.449215
684.575963	0.451451
684.913951	0.455159
685.251889	0.450717
685.589776	0.453037
685.927614	0.455318
686.265401	0.449980
686.603137	0.450972
686.940824	0.444648
687.278460	0.443281
687.616046	0.442524
687.953582	0.437350
688.291068	0.438629
688.628504	0.434379
688.965889	0.437046
689.303224	0.440949
689.640510	0.444453
689.977745	0.450626
690.314930	0.458005
690.652065	0.462668
690.989150	0.470277
691.326185	0.476917
691.663170	0.481344
692.000105	0.488573
692.336990	0.495387
692.673825	0.498231
693.010610	0.504713
693.347345	0.510037
693.684030	0.511749
694.020665	0.515962
694.357251	0.525278
694.693786	0.524991
695.030272	0.528934
695.366707	0.532440
695.703093	0.535507
696.039429	0.533564
696.375716	0.535553
696.711952	0.538106
697.048139	0.540417
697.384276	0.542119
697.720363	0.540237
698.056400	0.539205
698.392388	0.545317
698.728326	0.547743
699.064214	0.551500
699.400053	0.551494
699.735842	0.555007
700.071581	0.557606
700.407270	0.560581
700.742910	0.563768
701.078501	0.569567
701.414042	0.570098
701.749533	0.572963
702.084974	0.581776
702.420366	0.573827
702.755709	0.581371
703.091002	0.589313
703.426246	0.582851
703.761440	0.588499
704.096584	0.592970
704.431679	0.590317
704.766725	0.592634
705.101721	0.594229
705.436668	0.590538
705.771565	0.597388
706.106413	0.594268
706.441212	0.589344
706.775961	0.588074
707.110661	0.591522
707.445311	0.587590
707.779913	0.584438
708.114465	0.583043
708.448967	0.579845
708.783421	0.572208
709.117825	0.566532
709.452180	0.566277
709.786485	0.560251
710.120742	0.550120
710.454949	0.552270
710.789107	0.544466
711.123216	0.536232
711.457275	0.537386
711.791286	0.527622
712.125247	0.526978
712.459159	0.538005
712.793023	0.530909
713.126837	0.534992
713.460602	0.534539
713.794318	0.544632
714.127985	0.543029
714.461602	0.553096
714.795171	0.556443
715.128691	0.564365
715.462162	0.571442
715.795584	0.577076
716.128957	0.579754
716.462281	0.586287
716.795556	0.590133
717.128782	0.595157
717.461960	0.604944
717.795088	0.603137
718.128167	0.609170
718.461198	0.618197
718.794180	0.618331
719.127113	0.621474
719.459997	0.624990
719.792833	0.631384
720.125619	0.632773
720.458357	0.638123
720.791046	0.637931
721.123686	0.640520
721.456278	0.647669
721.788821	0.645083
722.121315	0.648741
722.453761	0.654341
722.786158	0.651355
723.118506	0.648532
723.450805	0.655571
723.783056	0.651770
724.115259	0.648677
724.447412	0.649201
724.779518	0.650059
725.111574	0.648673
725.443582	0.644642
725.775542	0.646208
726.107453	0.639133
726.439315	0.638618
726.771129	0.637332
727.102895	0.631023
727.434612	0.623513
727.766281	0.621308
728.097901	0.620787
728.429473	0.621146
728.760996	0.619789
729.092471	0.619169
729.423897	0.622923
729.755276	0.622377
730.086606	0.622391
730.417887	0.616810
730.749120	0.607306
731.080305	0.597894
731.411442	0.594681
731.742530	0.599855
732.073570	0.598499
732.404562	0.591033
732.735506	0.591828
733.066401	0.596877
733.397249	0.606295
733.728048	0.617106
734.058798	0.630065
734.389501	0.640911
734.720156	0.649832
735.050762	0.658862
735.381320	0.659038
735.711831	0.668295
736.042293	0.672913
736.372707	0.669031
736.703073	0.673918
737.033391	0.675916
737.363661	0.672489
737.693883	0.668021
738.024056	0.667627
738.354182	0.667656
738.684260	0.656098
739.014290	0.652941
739.344272	0.653428
739.674207	0.646744
740.004093	0.646778
740.333931	0.647569
740.663722	0.646597
740.993464	0.647530
741.323159	0.650949
741.652806	0.656644
741.982405	0.661298
742.311956	0.665604
742.641460	0.667255
742.970915	0.671572
743.300323	0.678714
743.629683	0.685072
743.958996	0.687114
744.288260	0.692573
744.617477	0.697577
744.946647	0.699216
745.275768	0.705112
745.604842	0.704572
745.933869	0.714650
746.262847	0.714842
746.591778	0.707969
746.920662	0.714367
747.249498	0.720745
747.578286	0.711969
747.907027	0.707533
748.235720	0.709546
748.564365	0.703752
748.892963	0.703092
749.221514	0.706040
749.550017	0.711709
749.878473	0.711053
750.206881	0.717824
750.535242	0.719352
750.863555	0.718745
751.191821	0.720171
751.520039	0.723732
751.848210	0.728267
752.176334	0.720723
752.504411	0.719882
752.832440	0.727121
753.160421	0.732077
753.488356	0.729566
753.816243	0.727138
754.144082	0.735248
754.471875	0.739185
754.799620	0.734364
755.127318	0.736065
755.454969	0.735533
755.782572	0.735307
756.110129	0.740639
756.437638	0.742578
756.765100	0.739582
757.092515	0.737061
757.419882	0.736722
757.747203	0.741773
758.074477	0.741478
758.401703	0.738171
758.728882	0.733433
759.056014	0.731889
759.383099	0.731319
759.710138	0.732488
760.037129	0.728576
760.364073	0.722712
760.690970	0.724857
761.017820	0.731157
761.344623	0.726677
761.671379	0.717481
761.998088	0.705707
762.324751	0.682713
762.651366	0.642464
762.977935	0.576636
763.304456	0.524143
763.630931	0.515130
763.957359	0.553715
764.283740	0.597495
764.610074	0.624754
764.936362	0.655188
765.262602	0.681787
765.588796	0.703020
765.914943	0.720832
766.241044	0.738210
766.567097	0.745179
766.893104	0.754330
767.219064	0.761072
767.544978	0.766869
767.870845	0.780948
768.196665	0.784475
768.522438	0.782334
768.848165	0.784328
769.173846	0.792529
769.499479	0.796417
769.825066	0.800495
770.150607	0.805468
770.476101	0.800656
770.801548	0.801785
771.126949	0.812462
771.452303	0.817590
771.777611	0.816535
772.102872	0.816168
772.428087	0.820093
772.753256	0.824207
773.078378	0.825744
773.403453	0.834062
773.728482	0.838676
774.053465	0.833020
774.378401	0.836835
774.703291	0.844134
775.028135	0.843351
775.352932	0.845312
775.677683	0.848288
776.002388	0.848188
776.327046	0.847589
776.651658	0.852246
776.976224	0.854226
777.300743	0.855067
777.625216	0.857791
777.949643	0.858651
778.274024	0.858910
778.598359	0.860780
778.922647	0.859960
779.246889	0.860374
779.571086	0.865271
779.895236	0.866123
780.219339	0.863936
780.543397	0.859839
780.867409	0.859242
781.191374	0.861757
781.515294	0.862634
781.839167	0.861569
782.162995	0.865240
782.486776	0.862834
782.810511	0.862323
783.134201	0.866175
783.457844	0.863022
783.781441	0.866254
784.104993	0.872635
784.428498	0.873968
784.751958	0.868578
785.075372	0.871014
785.398739	0.874843
785.722061	0.871507
786.045337	0.865919
786.368568	0.871733
786.691752	0.874718
787.014891	0.859603
787.337983	0.851204
787.661030	0.843305
787.984031	0.825658
788.306987	0.813520
788.629897	0.815675
788.952760	0.820010
789.275579	0.824104
789.598351	0.839330
789.921078	0.852461
790.243759	0.853655
790.566395	0.858892
790.888984	0.866740
791.211529	0.870584
791.534027	0.874414
791.856480	0.876471
792.178888	0.881026
792.501249	0.884649
792.823566	0.884187
793.145836	0.884638
793.468062	0.887723
793.790241	0.886119
794.112375	0.884454
794.434464	0.880631
794.756507	0.880878
795.078505	0.880219
795.400457	0.875651
795.722364	0.863175
796.044226	0.856074
796.366042	0.855634
796.687812	0.858199
797.009538	0.853702
797.331218	0.856404
797.652852	0.862608
797.974442	0.867177
798.295986	0.866992
798.617484	0.868865
798.938938	0.872793
799.260346	0.878568
799.581709	0.880620
799.903026	0.882013
800.224299	0.884343
800.545526	0.886820
800.866708	0.892304
801.187845	0.893244
801.508936	0.894642
801.829983	0.892749
802.150984	0.894938
802.471940	0.899015
802.792851	0.899885
803.113717	0.899231
803.434538	0.897869
803.755314	0.899657
804.076045	0.901699
804.396731	0.901402
804.717372	0.901872
805.037967	0.903925
805.358518	0.901212
805.679024	0.899441
805.999485	0.899594
806.319901	0.899582
806.640272	0.900252
806.960598	0.899478
807.280879	0.896706
807.601115	0.894749
807.921306	0.899085
808.241453	0.898794
808.561554	0.895482
808.881611	0.896105
809.201623	0.898376
809.521590	0.898086
809.841513	0.899615
810.161390	0.898953
810.481223	0.900072
810.801011	0.903056
811.120755	0.905278
811.440453	0.904046
811.760107	0.902144
812.079716	0.902493
812.399281	0.905394
812.718801	0.908572
813.038276	0.909606
813.357707	0.909284
813.677093	0.905948
813.996434	0.909962
814.315731	0.911608
814.634983	0.911394
814.954191	0.909649
815.273354	0.908005
815.592473	0.903013
815.911547	0.903517
816.230577	0.901298
816.549562	0.898574
816.868502	0.899876
817.187399	0.895406
817.506250	0.890427
817.825058	0.892878
818.143821	0.889695
818.462539	0.884327
818.781213	0.876315
819.099843	0.864567
819.418429	0.849674
819.736970	0.833814
820.055466	0.813510
820.373919	0.787671
820.692327	0.756297
821.010691	0.722074
821.329011	0.646736
821.647286	0.534520
821.965517	0.421428
822.283704	0.379669
822.601847	0.381971
822.919945	0.417262
823.237999	0.449414
823.556010	0.496020
823.873976	0.550839
824.191897	0.599899
824.509775	0.642436
824.827609	0.686669
825.145398	0.708341
825.463144	0.711029
825.780845	0.694163
826.098502	0.676520
826.416116	0.630615
826.733685	0.588227
827.051210	0.579700
827.368692	0.594383
827.686129	0.630874
828.003522	0.682897
828.320872	0.729723
828.638177	0.772312
828.955439	0.804672
829.272656	0.825760
829.589830	0.842892
829.906960	0.858418
830.224046	0.869890
830.541088	0.880100
830.858086	0.885172
831.175041	0.891846
831.491952	0.889230
831.808819	0.886617
832.125642	0.880725
832.442421	0.865913
832.759157	0.845005
833.075849	0.799445
833.392497	0.737264
833.709101	0.695871
834.025662	0.705550
834.342179	0.736855
834.658653	0.775876
834.975083	0.810364
835.291469	0.836491
835.607811	0.857613
835.924110	0.873517
836.240366	0.890181
836.556578	0.904840
836.872746	0.911787
837.188871	0.917392
837.504952	0.921822
837.820990	0.926291
838.136984	0.928770
838.452935	0.932584
838.768842	0.933481
839.084706	0.927552
839.400526	0.902469
839.716303	0.862996
840.032037	0.840699
840.347727	0.843694
840.663373	0.861868
840.978977	0.883816
841.294537	0.905360
841.610054	0.921110
841.925527	0.927999
842.240957	0.935109
842.556344	0.942786
842.871687	0.947220
843.186987	0.951368
843.502244	0.952204
843.817458	0.953606
844.132629	0.956860
844.447756	0.960908
844.762840	0.963971
845.077881	0.961948
845.392879	0.960104
845.707833	0.963510
846.022745	0.965672
846.337613	0.966455
846.652438	0.967609
846.967221	0.965963
847.281960	0.967166
847.596656	0.970042
847.911309	0.967224
848.225919	0.968562
848.540485	0.969789
848.855009	0.970118
849.169490	0.969598
849.483928	0.971053
849.798323	0.970380
850.112675	0.971347
850.426984	0.970794
850.741251	0.972896
851.055474	0.971307
851.369654	0.969941
851.683792	0.970846
851.997887	0.971885
852.311938	0.971154
852.625947	0.971491
852.939914	0.969849
853.253837	0.970384
853.567718	0.971446
853.881555	0.972969
854.195350	0.969383
854.509103	0.971606
854.822812	0.971380
855.136479	0.971883
855.450103	0.971115
855.763685	0.968739
856.077224	0.970601
856.390720	0.971607
856.704173	0.971376
857.017584	0.970329
857.330953	0.968081
857.644278	0.969508
857.957561	0.969886
858.270802	0.969256
858.584000	0.968839
858.897155	0.968078
859.210268	0.968480
859.523339	0.970158
859.836367	0.972144
860.149352	0.972848
860.462295	0.970839
860.775195	0.971942
861.088054	0.970105
861.400869	0.970358
861.713642	0.972424
862.026373	0.971274
862.339062	0.971842
862.651708	0.968757
862.964312	0.969540
863.276873	0.970272
863.589392	0.969921
863.901869	0.969443
864.214303	0.967287
864.526696	0.966464
864.839045	0.965019
865.151353	0.963470
865.463619	0.964092
865.775842	0.964403
866.088023	0.964668
866.400162	0.964164
866.712258	0.964385
867.024313	0.963606
867.336325	0.965132
867.648296	0.965403
867.960224	0.965031
868.272110	0.962434
868.583954	0.965914
868.895755	0.966399
869.207515	0.963413
869.519233	0.960746
869.830909	0.962252
870.142542	0.965320
870.454134	0.963609
870.765684	0.963105
871.077191	0.959757
871.388657	0.959520
871.700081	0.960167
872.011463	0.959785
872.322803	0.960599
872.634101	0.958201
872.945357	0.956420
873.256571	0.955374
873.567744	0.954821
873.878874	0.956584
874.189963	0.954511
874.501010	0.953337
874.812015	0.951285
875.122979	0.953382
875.433900	0.956356
875.744780	0.956063
876.055618	0.953793
876.366415	0.952838
876.677169	0.952552
876.987882	0.954686
877.298554	0.953488
877.609183	0.951024
877.919771	0.948294
878.230317	0.945132
878.540822	0.943422
878.851285	0.937814
879.161707	0.930949
879.472087	0.918864
879.782425	0.902884
880.092722	0.870379
880.402977	0.820378
880.713191	0.762036
881.023363	0.705895
881.333494	0.673407
881.643583	0.645652
881.953631	0.644769
882.263637	0.673496
882.573602	0.711952
882.883526	0.736908
883.193408	0.758498
883.503248	0.780248
883.813048	0.806684
884.122806	0.835105
884.432522	0.858178
884.742197	0.876983
885.051831	0.886987
885.361424	0.896443
885.670975	0.908511
885.980485	0.917663
886.289954	0.924534
886.599382	0.927510
886.908768	0.932727
887.218113	0.937734
887.527417	0.941718
887.836680	0.945358
888.145901	0.947107
888.455082	0.949817
888.764221	0.953261
889.073319	0.955412
889.382376	0.955247
889.691392	0.956116
890.000366	0.955920
890.309300	0.956600
890.618193	0.955055
890.927044	0.953229
891.235855	0.953613
891.544625	0.954125
891.853353	0.954941
892.162041	0.952556
892.470687	0.946742
892.779293	0.941741
893.087858	0.937988
893.396381	0.930587
893.704864	0.917410
894.013306	0.894824
894.321707	0.868807
894.630068	0.856074
894.938387	0.851337
895.246665	0.852940
895.554903	0.864704
895.863100	0.876948
896.171256	0.891995
896.479371	0.912681
896.787446	0.923919
897.095480	0.929256
897.403473	0.932119
897.711425	0.936623
898.019336	0.943182
898.327207	0.945167
898.635038	0.948118
898.942827	0.948849
899.250576	0.951891
899.558284	0.954814
899.865952	0.957097
900.173579	0.957618
900.481165	0.958637
900.788711	0.962010
901.096216	0.964144
901.403681	0.963870
901.711105	0.965928
902.018489	0.966030
902.325832	0.964575
902.633135	0.964147
902.940397	0.958266
903.247619	0.947111
903.554800	0.922704
903.861941	0.884979
904.169041	0.851367
904.476101	0.835764
904.783121	0.836500
905.090100	0.852298
905.397039	0.872680
905.703938	0.892474
906.010796	0.911957
906.317614	0.928119
906.624391	0.938931
906.931129	0.948647
907.237826	0.954797
907.544483	0.961803
907.851099	0.965623
908.157675	0.970025
908.464211	0.972569
908.770707	0.974467
909.077163	0.975994
909.383578	0.975810
909.689954	0.976864
909.996289	0.977550
910.302584	0.979867
910.608839	0.981841
910.915054	0.980032
911.221229	0.979472
911.527363	0.979261
911.833458	0.978374
912.139513	0.978376
912.445527	0.977299
912.751502	0.975292
913.057436	0.974446
913.363331	0.972666
913.669186	0.968906
913.975000	0.963746
914.280775	0.958960
914.586510	0.952545
914.892205	0.939526
915.197859	0.920836
915.503475	0.893806
915.809050	0.875519
916.114585	0.871143
916.420081	0.868558
916.725536	0.865096
917.030952	0.873292
917.336328	0.884628
917.641665	0.899685
917.946961	0.913615
918.252218	0.925127
918.557435	0.933154
918.862612	0.940925
919.167750	0.946622
919.472848	0.951453
919.777906	0.956390
920.082925	0.961421
920.387904	0.965808
920.692843	0.966856
920.997743	0.966402
921.302603	0.971341
921.607423	0.971951
921.912204	0.973178
922.216946	0.975193
922.521647	0.976099
922.826310	0.976408
923.130932	0.979358
923.435516	0.980254
923.740059	0.981684
924.044564	0.979174
924.349028	0.981398
924.653454	0.983925
924.957840	0.985575
925.262186	0.985725
925.566493	0.985457
925.870761	0.985839
926.174989	0.986702
926.479178	0.991023
926.783328	0.989340
927.087438	0.988843
927.391509	0.988807
927.695541	0.989969
927.999533	0.990574
928.303486	0.990946
928.607400	0.992776
928.911275	0.990830
929.215110	0.991661
929.518906	0.992343
929.822663	0.990568
930.126381	0.991570
930.430060	0.991455
930.733699	0.991423
931.037299	0.990842
931.340861	0.991502
931.644383	0.990692
931.947866	0.990963
932.251309	0.991808
932.554714	0.991073
932.858080	0.991686
933.161407	0.989949
933.464694	0.993189
933.767943	0.991509
934.071153	0.991894
934.374323	0.993779
934.677455	0.992847
934.980548	0.993901
935.283602	0.991912
935.586617	0.992245
935.889593	0.991549
936.192530	0.991925
936.495428	0.991912
936.798287	0.992407
937.101108	0.992033
937.403890	0.990508
937.706632	0.990050
938.009336	0.988755
938.312002	0.987354
938.614628	0.986044
938.917216	0.985255
939.219765	0.984402
939.522275	0.984957
939.824747	0.984365
940.127179	0.984793
940.429573	0.984668
940.731929	0.986474
941.034246	0.986463
941.336524	0.986605
941.638763	0.986471
941.940964	0.988214
942.243126	0.988893
942.545250	0.988089
942.847335	0.989879
943.149381	0.988534
943.451389	0.989690
943.753359	0.988890
944.055290	0.991979
944.357182	0.990366
944.659036	0.989509
944.960851	0.990353
945.262628	0.990139
945.564367	0.990771
945.866067	0.990513
946.167729	0.991327
946.469352	0.990249
946.770937	0.989539
947.072484	0.991970
947.373992	0.991210
947.675462	0.991584
947.976893	0.991322
948.278286	0.992930
948.579641	0.993189
948.880958	0.991377
949.182236	0.992194
949.483476	0.992913
949.784678	0.990712
950.085841	0.993471
950.386967	0.990998
950.688054	0.991649
950.989103	0.991629
951.290114	0.990611
951.591087	0.990493
951.892021	0.990315
952.192917	0.990663
952.493776	0.989646
952.794596	0.990216
953.095378	0.988695
953.396122	0.989958
953.696828	0.988047
953.997496	0.990665
954.298126	0.991090
954.598718	0.990501
954.899272	0.992808
955.199788	0.991194
955.500266	0.992981
955.800706	0.993645
956.101108	0.994220
956.401472	0.994105
956.701798	0.994607
957.002087	0.994713
957.302337	0.994668
957.602550	0.995169
957.902724	0.995208
958.202861	0.996764
958.502960	0.996296
958.803022	0.993786
959.103045	0.996282
959.403031	0.996496
959.702979	0.995905
960.002889	0.996755
960.302762	0.995346
960.602596	0.997342
960.902393	0.996108
961.202153	0.998032
961.501875	0.996653
961.801559	0.996372
962.101205	0.996374
962.400814	0.996263
962.700385	0.996959
962.999918	0.997170
963.299414	0.997717
963.598873	0.996178
963.898293	0.996939
964.197677	0.995359
964.497022	0.997267
964.796331	0.997797
965.095601	0.997878
965.394835	0.996816
965.694030	0.996680
965.993189	0.996406
966.292309	0.997019
966.591393	0.997658
966.890439	0.998205
967.189447	0.997890
967.488419	0.997587
967.787353	0.997327
968.086249	0.997301
968.385108	0.997681
968.683930	0.997857
968.982714	0.998238
969.281462	0.998446
969.580172	0.996027
969.878844	0.997215
970.177480	0.996809
970.476078	0.997193
970.774639	0.997384
971.073162	0.998082
971.371649	0.996753
971.670098	0.996174
971.968510	0.997326
972.266885	0.994204
972.565223	0.996374
972.863524	0.996646
973.161788	0.996486
973.460014	0.998002
973.758204	0.996755
974.056356	0.995987
974.354471	0.995815
974.652550	0.997046
974.950591	0.997618
975.248595	0.996922
975.546563	0.997570
975.844493	0.997901
976.142386	0.997216
976.440243	0.997835
976.738062	0.997484
977.035845	0.998308
977.333590	0.996953
977.631299	0.998413
977.928971	0.997501
978.226606	0.996533
978.524204	0.996578
978.821765	0.998602
979.119290	0.997114
979.416777	0.996457
979.714228	0.997234
980.011642	0.995216
980.309020	0.998410
980.606360	0.996880
980.903664	0.998745
981.200931	0.996976
981.498162	0.994370
981.795356	0.996088
982.092513	0.995095
982.389633	0.995276
982.686717	0.992327
982.983764	0.992390
983.280775	0.990920
983.577749	0.991359
983.874686	0.991836
984.171587	0.991847
984.468451	0.995297
984.765279	0.994669
985.062070	0.994438
985.358824	0.995404
985.655543	0.994946
985.952224	0.996186
986.248869	0.997591
986.545478	0.997291
986.842050	0.998988
987.138586	0.995800
987.435086	0.997554
987.731549	0.999620
988.027975	0.997610
988.324366	0.997799
988.620719	0.998159
988.917037	0.995569
989.213318	0.997692
989.509563	0.998407
989.805772	0.998328
990.101944	0.999124
990.398080	0.996766
990.694180	0.998374
990.990244	0.997020
991.286271	0.997888
991.582262	0.998043
991.878217	0.997559
992.174136	0.998946
992.470019	0.999680
992.765865	0.998105
993.061676	0.998134
993.357450	0.997332
993.653188	0.997838
993.948890	0.997237
994.244556	0.997577
994.540186	0.997410
994.835780	0.997838
995.131337	0.997834
995.426859	0.997135
995.722345	0.998072
996.017795	0.996790
996.313208	0.995957
996.608586	0.995095
996.903928	0.997812
997.199234	0.995967
997.494504	0.997035
997.789738	0.996758
998.084936	0.996040
998.380099	0.997870
998.675225	0.997374
998.970316	0.997634
999.265371	0.998643
999.560390	0.997543
999.855373	0.999586
1000.150320	0.998150
1000.445232	0.998189
1000.740108	0.997480
1001.034948	0.998334
1001.329752	0.998899
1001.624521	0.998339
1001.919254	0.998125
1002.213951	0.998742
1002.508613	0.998472
1002.803239	0.998379
1003.097829	0.998672
1003.392384	0.999458
1003.686903	0.998320
1003.981386	0.999290
1004.275834	0.998700
1004.570246	0.999128
1004.864623	0.998972
1005.158964	0.999384
1005.453270	0.998995
1005.747540	0.996648
1006.041775	0.999284
1006.335974	0.998959
1006.630138	0.998515
1006.924266	0.999072
1007.218359	0.999771
1007.512416	0.998593
1007.806438	0.999969
1008.100425	1.000337
1008.394376	0.998872
1008.688292	0.998814
1008.982172	0.999652
1009.276017	0.999218
1009.569827	0.998768
1009.863602	0.998623
1010.157341	0.999760
1010.451045	0.998485
1010.744714	0.999966
1011.038347	0.998885
1011.331945	0.997910
1011.625508	0.998234
1011.919036	0.999021
1012.212528	0.998709
1012.505986	0.998911
1012.799408	0.999029
1013.092795	0.999038
1013.386147	0.999683
1013.679464	0.998457
1013.972745	0.997619
1014.265992	0.997764
1014.559204	0.999630
1014.852380	0.998916
1015.145521	0.999734
1015.438628	0.999307
1015.731699	0.998625
1016.024736	0.997795
1016.317737	0.998390
1016.610703	0.999072
1016.903635	0.999629
1017.196531	0.998142
1017.489393	1.000139
1017.782219	0.998859
1018.075011	0.998732
1018.367768	0.999284
1018.660490	0.999875
1018.953177	0.999875
1019.245829	0.999875
