Dividing Wavelength (nm)	Counts (n)	Blue Motor Position (mm): 0.000000	Red Motor Position (mm): 27.600000	
326.493990	1.000153
326.888308	1.000153
327.282561	1.000153
327.676750	1.000564
328.070874	0.999311
328.464933	0.998828
328.858929	0.998455
329.252859	0.999521
329.646726	0.999113
330.040528	0.999676
330.434265	0.998839
330.827938	1.000225
331.221547	0.999817
331.615091	0.999539
332.008571	0.999672
332.401986	0.999769
332.795338	0.999042
333.188625	0.998447
333.581847	1.000433
333.975006	0.998656
334.368100	0.998647
334.761129	0.999535
335.154095	1.001141
335.546996	0.998263
335.939833	0.994140
336.332606	0.994368
336.725315	0.995016
337.117960	0.995693
337.510540	0.993830
337.903056	0.995606
338.295508	0.994082
338.687896	0.994297
339.080220	0.994361
339.472480	0.995259
339.864676	0.994829
340.256807	0.995243
340.648875	0.995074
341.040879	0.994452
341.432818	0.994641
341.824694	0.994388
342.216506	0.995632
342.608253	0.995891
342.999937	0.994930
343.391557	0.994386
343.783113	0.994166
344.174605	0.994706
344.566033	0.995920
344.957397	0.994168
345.348697	0.994875
345.739934	0.994664
346.131106	0.995680
346.522215	0.994854
346.913260	0.994445
347.304241	0.994842
347.695159	0.994621
348.086012	0.993484
348.476802	0.994075
348.867528	0.995008
349.258191	0.992284
349.648789	0.995099
350.039324	0.994817
350.429796	0.995863
350.820203	0.995051
351.210548	0.994296
351.600828	0.994829
351.991045	0.994926
352.381198	0.993727
352.771288	0.995834
353.161314	0.994160
353.551276	0.994687
353.941175	0.995105
354.331010	0.994770
354.720782	0.994259
355.110490	0.994376
355.500135	0.995790
355.889717	0.994339
356.279235	0.994530
356.668689	0.993881
357.058080	0.993536
357.447408	0.995048
357.836672	0.995540
358.225873	0.995124
358.615010	0.994543
359.004084	0.994998
359.393095	0.995071
359.782043	0.995402
360.170927	0.996562
360.559748	0.994630
360.948505	0.993438
361.337199	0.994901
361.725830	0.993342
362.114398	0.994741
362.502903	0.994908
362.891344	0.996135
363.279722	0.994072
363.668037	0.995445
364.056289	0.994960
364.444478	0.996408
364.832603	0.994577
365.220665	0.994736
365.608665	0.994071
365.996601	0.995800
366.384474	0.994731
366.772284	0.994649
367.160031	0.993709
367.547715	0.994056
367.935336	0.994707
368.322893	0.994831
368.710388	0.993727
369.097820	0.994333
369.485189	0.994350
369.872495	0.994652
370.259738	0.994009
370.646918	0.995682
371.034035	0.994965
371.421090	0.995263
371.808081	0.993973
372.195010	0.994899
372.581875	0.994176
372.968678	0.994554
373.355418	0.995316
373.742096	0.994966
374.128710	0.996269
374.515262	0.995395
374.901751	0.995520
375.288177	0.995232
375.674540	0.995704
376.060841	0.995013
376.447079	0.995930
376.833254	0.995541
377.219367	0.995705
377.605417	0.995087
377.991404	0.995481
378.377329	0.995369
378.763191	0.995641
379.148991	0.995442
379.534727	0.996382
379.920402	0.995226
380.306013	0.996599
380.691563	0.997194
381.077049	0.995723
381.462474	0.996120
381.847835	0.995956
382.233134	0.996034
382.618371	0.996669
383.003545	0.995085
383.388657	0.995569
383.773706	0.996426
384.158693	0.996193
384.543618	0.995291
384.928480	0.997201
385.313280	0.996350
385.698017	0.997315
386.082692	0.996529
386.467305	0.996128
386.851856	0.995930
387.236344	0.996989
387.620770	0.995617
388.005133	0.996841
388.389435	0.997560
388.773674	0.996296
389.157851	0.997398
389.541965	0.997076
389.926018	0.996421
390.310008	0.997961
390.693936	0.996477
391.077802	0.996929
391.461606	0.996321
391.845348	0.997891
392.229027	0.998797
392.612645	0.997534
392.996200	0.997972
393.379694	0.997160
393.763125	0.998944
394.146494	0.998327
394.529801	0.996472
394.913047	0.997146
395.296230	0.996874
395.679351	0.997769
396.062410	0.996162
396.445408	0.996537
396.828343	0.998150
397.211217	0.997126
397.594028	0.997503
397.976778	0.996563
398.359466	0.997614
398.742092	0.996623
399.124656	0.996849
399.507158	0.997480
399.889598	0.996997
400.271977	0.998306
400.654294	0.998347
401.036549	0.998143
401.418742	0.997619
401.800874	0.996809
402.182944	0.996601
402.564952	0.997055
402.946898	0.998635
403.328783	0.997514
403.710606	0.996898
404.092367	0.998297
404.474067	0.998044
404.855705	0.997964
405.237282	0.997412
405.618797	0.997957
406.000250	0.997272
406.381642	0.997704
406.762972	0.998894
407.144240	0.998942
407.525447	0.998800
407.906593	0.997194
408.287677	0.997864
408.668700	0.998535
409.049661	0.997204
409.430560	0.998717
409.811399	0.997727
410.192176	0.997685
410.572891	0.997646
410.953545	0.998001
411.334138	0.996809
411.714669	0.997780
412.095139	0.997728
412.475547	0.997758
412.855894	0.998092
413.236180	0.997636
413.616405	0.998170
413.996568	0.998168
414.376670	0.997884
414.756711	0.997352
415.136691	0.997809
415.516609	0.997859
415.896466	0.997289
416.276262	0.996260
416.655997	0.998000
417.035670	0.997214
417.415283	0.998512
417.794834	0.997625
418.174324	0.998225
418.553753	0.998303
418.933121	0.998126
419.312428	0.997753
419.691674	0.998131
420.070859	0.997860
420.449983	0.998228
420.829045	0.997452
421.208047	0.999204
421.586988	0.999119
421.965867	0.998000
422.344686	0.999134
422.723444	0.998075
423.102141	0.997745
423.480777	0.998054
423.859352	0.997815
424.237866	0.996927
424.616319	0.997756
424.994712	0.998174
425.373044	0.998422
425.751314	0.998748
426.129524	0.998105
426.507673	0.998361
426.885762	0.999182
427.263789	0.998321
427.641756	0.997662
428.019662	0.998798
428.397508	0.997170
428.775292	0.997265
429.153016	0.998352
429.530679	0.998452
429.908282	0.999016
430.285824	0.998623
430.663305	0.997625
431.040726	0.997914
431.418086	0.999401
431.795385	0.998662
432.172624	0.997735
432.549802	0.998951
432.926920	0.997790
433.303977	0.998359
433.680974	0.998444
434.057910	0.998445
434.434786	0.998675
434.811601	0.997372
435.188355	0.997502
435.565050	0.997940
435.941683	0.997879
436.318257	0.998790
436.694770	0.998092
437.071222	0.998710
437.447614	0.998010
437.823946	0.998319
438.200218	0.998227
438.576429	0.998451
438.952580	0.998229
439.328670	0.997541
439.704700	0.997946
440.080670	0.998355
440.456580	0.997449
440.832429	0.997589
441.208218	0.997585
441.583947	0.998208
441.959616	0.998080
442.335224	0.996737
442.710773	0.997278
443.086261	0.997652
443.461689	0.996635
443.837057	0.996502
444.212365	0.997386
444.587612	0.996861
444.962800	0.996696
445.337927	0.996629
445.712995	0.996593
446.088002	0.996536
446.462949	0.996283
446.837837	0.995601
447.212664	0.995180
447.587431	0.994816
447.962139	0.994088
448.336786	0.993182
448.711374	0.993036
449.085901	0.992413
449.460369	0.991967
449.834776	0.991130
450.209124	0.990568
450.583412	0.989633
450.957640	0.988969
451.331808	0.987161
451.705917	0.986645
452.079965	0.985379
452.453954	0.984326
452.827883	0.982676
453.201752	0.982412
453.575562	0.981216
453.949311	0.979261
454.323001	0.977054
454.696632	0.975825
455.070202	0.973965
455.443713	0.971587
455.817164	0.969620
456.190556	0.967311
456.563888	0.964717
456.937160	0.963183
457.310373	0.961281
457.683526	0.959205
458.056619	0.956584
458.429653	0.954948
458.802628	0.951538
459.175542	0.949098
459.548398	0.943910
459.921194	0.939811
460.293930	0.935678
460.666607	0.927916
461.039224	0.922197
461.411782	0.919365
461.784280	0.914879
462.156719	0.913290
462.529099	0.908910
462.901419	0.906858
463.273680	0.904285
463.645882	0.900601
464.018024	0.895774
464.390106	0.889806
464.762130	0.882321
465.134094	0.871422
465.505999	0.858177
465.877845	0.843978
466.249631	0.837461
466.621358	0.834937
466.993026	0.833287
467.364634	0.829414
467.736184	0.825158
468.107674	0.819544
468.479105	0.811154
468.850477	0.808432
469.221790	0.801935
469.593043	0.798199
469.964238	0.792129
470.335373	0.784971
470.706449	0.776534
471.077467	0.770049
471.448425	0.748135
471.819324	0.733017
472.190164	0.725994
472.560945	0.729049
472.931667	0.728821
473.302330	0.722950
473.672934	0.720111
474.043479	0.707448
474.413965	0.700402
474.784393	0.692841
475.154761	0.683582
475.525070	0.673935
475.895321	0.669510
476.265513	0.658979
476.635645	0.649239
477.005719	0.640166
477.375734	0.630817
477.745691	0.619680
478.115588	0.609752
478.485427	0.597983
478.855207	0.583305
479.224928	0.564982
479.594591	0.551568
479.964194	0.545203
480.333739	0.537826
480.703226	0.528037
481.072653	0.520125
481.442022	0.509312
481.811333	0.499725
482.180584	0.494473
482.549777	0.489270
482.918912	0.484001
483.287988	0.476269
483.657005	0.469059
484.025964	0.466001
484.394864	0.455976
484.763706	0.449097
485.132489	0.446164
485.501213	0.439359
485.869879	0.431686
486.238487	0.426534
486.607036	0.419174
486.975527	0.415527
487.343959	0.406798
487.712333	0.399547
488.080648	0.394994
488.448905	0.387560
488.817104	0.383621
489.185244	0.373146
489.553326	0.365018
489.921350	0.352501
490.289315	0.332897
490.657222	0.324311
491.025070	0.320249
491.392861	0.316927
491.760593	0.316772
492.128267	0.315917
492.495883	0.315624
492.863440	0.316598
493.230939	0.317547
493.598380	0.314345
493.965763	0.312583
494.333088	0.311465
494.700354	0.308180
495.067563	0.304518
495.434713	0.303608
495.801805	0.298756
496.168839	0.297005
496.535815	0.294955
496.902733	0.292347
497.269593	0.290810
497.636395	0.286251
498.003139	0.283580
498.369825	0.284357
498.736453	0.278388
499.103023	0.277377
499.469535	0.274640
499.835989	0.273366
500.202385	0.272343
500.568723	0.273293
500.935003	0.267181
501.301226	0.269299
501.667390	0.262382
502.033497	0.259088
502.399546	0.260483
502.765537	0.260758
503.131470	0.257989
503.497345	0.253017
503.863163	0.260841
504.228923	0.252871
504.594625	0.250561
504.960269	0.254875
505.325856	0.249213
505.691385	0.252560
506.056856	0.248911
506.422270	0.247467
506.787625	0.249266
507.152924	0.246089
507.518164	0.245977
507.883347	0.247171
508.248472	0.248404
508.613540	0.242831
508.978550	0.244935
509.343503	0.244968
509.708398	0.242315
510.073236	0.239910
510.438016	0.239219
510.802738	0.240039
511.167403	0.238619
511.532010	0.240454
511.896561	0.235586
512.261053	0.234239
512.625488	0.235918
512.989866	0.236046
513.354186	0.236212
513.718449	0.237937
514.082655	0.234213
514.446803	0.236185
514.810894	0.233578
515.174927	0.236093
515.538904	0.235472
515.902822	0.232398
516.266684	0.234690
516.630488	0.235586
516.994235	0.233904
517.357925	0.232864
517.721558	0.231099
518.085133	0.230433
518.448651	0.230669
518.812112	0.232791
519.175516	0.232202
519.538863	0.229912
519.902152	0.231445
520.265385	0.227960
520.628560	0.229842
520.991678	0.230006
521.354739	0.229058
521.717743	0.230192
522.080690	0.230743
522.443580	0.227989
522.806413	0.228727
523.169189	0.228046
523.531908	0.226725
523.894569	0.230294
524.257174	0.230246
524.619722	0.228110
524.982213	0.228870
525.344647	0.227861
525.707025	0.228769
526.069345	0.226849
526.431608	0.228467
526.793815	0.226634
527.155964	0.230394
527.518057	0.229252
527.880093	0.230467
528.242072	0.229201
528.603995	0.231045
528.965860	0.232518
529.327669	0.231222
529.689421	0.232078
530.051117	0.233138
530.412755	0.230638
530.774337	0.233038
531.135862	0.233421
531.497331	0.232741
531.858743	0.235487
532.220098	0.232147
532.581396	0.234728
532.942638	0.235373
533.303824	0.236174
533.664953	0.236016
534.026025	0.237621
534.387040	0.235618
534.747999	0.235774
535.108902	0.234611
535.469748	0.239278
535.830537	0.237165
536.191270	0.237491
536.551947	0.237235
536.912567	0.237121
537.273131	0.238739
537.633638	0.239219
537.994089	0.239576
538.354483	0.240666
538.714821	0.237609
539.075103	0.237461
539.435328	0.237825
539.795497	0.241818
540.155609	0.238304
540.515665	0.236532
540.875665	0.242136
541.235609	0.240434
541.595496	0.240877
541.955328	0.237092
542.315102	0.240134
542.674821	0.240990
543.034483	0.240828
543.394090	0.240794
543.753640	0.242655
544.113134	0.237719
544.472571	0.240929
544.831953	0.237685
545.191278	0.241976
545.550548	0.241403
545.909761	0.237917
546.268918	0.238910
546.628019	0.237100
546.987064	0.239894
547.346053	0.241829
547.704986	0.239730
548.063863	0.239666
548.422684	0.240150
548.781449	0.241930
549.140158	0.239587
549.498811	0.242392
549.857408	0.245542
550.215949	0.240438
550.574434	0.243262
550.932864	0.241104
551.291237	0.239853
551.649555	0.241307
552.007817	0.241060
552.366022	0.241689
552.724173	0.242110
553.082267	0.242300
553.440305	0.239386
553.798288	0.243982
554.156215	0.240312
554.514086	0.240923
554.871902	0.244319
555.229661	0.243480
555.587365	0.243975
555.945014	0.246459
556.302606	0.243357
556.660143	0.245892
557.017625	0.242209
557.375050	0.244590
557.732421	0.241738
558.089735	0.243746
558.446994	0.243857
558.804197	0.242987
559.161345	0.242863
559.518437	0.246509
559.875474	0.243855
560.232455	0.243400
560.589381	0.244545
560.946251	0.244668
561.303065	0.242432
561.659825	0.243516
562.016528	0.245389
562.373177	0.248005
562.729770	0.245417
563.086307	0.247618
563.442789	0.245280
563.799216	0.248038
564.155587	0.247114
564.511904	0.248013
564.868164	0.248104
565.224370	0.247921
565.580520	0.249714
565.936615	0.249748
566.292654	0.252505
566.648638	0.249420
567.004567	0.250414
567.360441	0.251076
567.716260	0.252877
568.072023	0.250704
568.427732	0.251530
568.783385	0.253952
569.138982	0.252010
569.494525	0.251662
569.850013	0.254823
570.205445	0.253017
570.560823	0.255738
570.916145	0.257235
571.271412	0.255949
571.626625	0.256938
571.981782	0.257792
572.336884	0.258539
572.691931	0.258288
573.046923	0.259508
573.401860	0.260742
573.756743	0.262530
574.111570	0.261281
574.466342	0.261853
574.821059	0.260945
575.175722	0.263695
575.530330	0.263684
575.884882	0.264115
576.239380	0.265812
576.593823	0.266497
576.948211	0.265726
577.302544	0.269107
577.656823	0.268849
578.011047	0.268825
578.365216	0.269538
578.719330	0.271540
579.073389	0.271321
579.427394	0.272330
579.781344	0.273084
580.135239	0.275006
580.489080	0.274578
580.842866	0.277474
581.196597	0.277465
581.550273	0.275615
581.903895	0.276998
582.257463	0.275087
582.610975	0.278710
582.964434	0.277640
583.317837	0.280405
583.671186	0.280572
584.024481	0.280728
584.377721	0.283063
584.730906	0.283745
585.084037	0.283291
585.437113	0.284987
585.790135	0.284266
586.143103	0.287379
586.496016	0.288494
586.848874	0.285773
587.201679	0.286518
587.554428	0.290154
587.907124	0.288771
588.259765	0.289189
588.612352	0.289837
588.964884	0.293822
589.317362	0.293235
589.669786	0.293238
590.022155	0.291736
590.374470	0.291198
590.726731	0.293055
591.078937	0.297903
591.431090	0.294087
591.783188	0.297845
592.135232	0.298523
592.487222	0.298906
592.839157	0.297366
593.191038	0.299285
593.542866	0.300992
593.894639	0.304667
594.246358	0.302643
594.598022	0.302011
594.949633	0.306182
595.301190	0.306877
595.652692	0.305887
596.004141	0.301808
596.355535	0.309881
596.706876	0.310420
597.058162	0.313059
597.409395	0.310120
597.760573	0.308141
598.111698	0.311005
598.462768	0.311487
598.813785	0.313107
599.164748	0.314145
599.515657	0.314516
599.866511	0.317551
600.217312	0.312843
600.568060	0.318366
600.918753	0.314917
601.269392	0.315601
601.619978	0.319015
601.970510	0.316431
602.320988	0.316749
602.671412	0.314365
603.021783	0.317007
603.372100	0.318047
603.722363	0.318040
604.072572	0.318691
604.422728	0.318547
604.772830	0.320751
605.122878	0.320240
605.472872	0.320857
605.822813	0.318892
606.172701	0.322049
606.522534	0.319363
606.872314	0.319427
607.222041	0.320054
607.571714	0.318324
607.921333	0.319534
608.270899	0.319391
608.620411	0.316064
608.969870	0.320215
609.319276	0.319853
609.668627	0.320115
610.017926	0.318506
610.367171	0.316951
610.716362	0.317807
611.065500	0.318082
611.414585	0.316999
611.763616	0.317383
612.112594	0.317597
612.461518	0.316930
612.810389	0.314859
613.159207	0.317309
613.507971	0.319160
613.856682	0.314941
614.205340	0.316279
614.553945	0.313157
614.902496	0.317060
615.250994	0.314546
615.599439	0.315645
615.947830	0.315146
616.296169	0.316168
616.644454	0.315308
616.992686	0.315826
617.340864	0.313599
617.688990	0.317298
618.037063	0.314008
618.385082	0.316006
618.733048	0.312742
619.080961	0.315033
619.428821	0.314225
619.776628	0.314128
620.124382	0.316435
620.472083	0.316634
620.819731	0.315978
621.167326	0.319784
621.514868	0.319022
621.862357	0.323733
622.209793	0.323196
622.557176	0.324923
622.904506	0.326761
623.251783	0.328499
623.599007	0.330791
623.946179	0.330995
624.293297	0.332551
624.640363	0.335992
624.987376	0.336764
625.334336	0.339079
625.681243	0.341378
626.028097	0.342038
626.374899	0.343669
626.721647	0.343562
627.068343	0.346721
627.414987	0.348024
627.761577	0.350251
628.108115	0.348044
628.454600	0.353251
628.801032	0.350973
629.147412	0.352847
629.493739	0.352903
629.840014	0.356457
630.186236	0.353617
630.532405	0.359122
630.878521	0.356512
631.224585	0.358862
631.570597	0.362046
631.916556	0.360637
632.262462	0.361082
632.608316	0.363201
632.954117	0.363716
633.299866	0.364651
633.645562	0.365396
633.991206	0.369514
634.336797	0.372579
634.682336	0.374273
635.027823	0.376473
635.373257	0.376705
635.718639	0.380592
636.063968	0.379839
636.409245	0.385253
636.754470	0.385810
637.099642	0.387944
637.444762	0.391281
637.789829	0.390786
638.134845	0.393834
638.479808	0.395301
638.824719	0.394660
639.169577	0.398725
639.514383	0.397580
639.859137	0.401797
640.203839	0.402277
640.548489	0.402159
640.893086	0.403782
641.237632	0.405022
641.582125	0.403825
641.926566	0.405102
642.270955	0.405420
642.615292	0.405847
642.959576	0.404726
643.303809	0.405336
643.647990	0.404793
643.992118	0.405441
644.336195	0.409311
644.680219	0.407436
645.024192	0.408366
645.368112	0.402008
645.711981	0.400551
646.055797	0.396101
646.399562	0.398555
646.743274	0.390672
647.086935	0.388013
647.430544	0.387692
647.774101	0.387048
648.117606	0.386875
648.461059	0.387242
648.804460	0.389378
649.147810	0.394517
649.491108	0.396525
649.834354	0.398162
650.177548	0.403745
650.520690	0.408742
650.863781	0.410227
651.206820	0.409242
651.549807	0.414076
651.892742	0.417942
652.235626	0.417567
652.578458	0.418366
652.921238	0.424372
653.263967	0.422164
653.606644	0.426338
653.949269	0.425936
654.291843	0.429421
654.634365	0.426746
654.976836	0.429567
655.319255	0.429188
655.661622	0.431294
656.003938	0.431331
656.346203	0.434261
656.688416	0.432070
657.030577	0.435529
657.372687	0.437393
657.714746	0.438591
658.056753	0.435351
658.398708	0.439339
658.740612	0.440267
659.082465	0.436444
659.424266	0.437162
659.766016	0.436557
660.107715	0.438933
660.449362	0.438061
660.790958	0.438625
661.132503	0.439090
661.473996	0.436897
661.815438	0.437988
662.156829	0.438191
662.498168	0.438726
662.839456	0.440164
663.180693	0.437637
663.521879	0.438107
663.863013	0.438303
664.204097	0.437482
664.545129	0.433913
664.886110	0.434715
665.227040	0.431814
665.567918	0.434059
665.908746	0.432579
666.249522	0.431807
666.590248	0.433186
666.930922	0.431178
667.271545	0.430063
667.612118	0.430707
667.952639	0.431840
668.293109	0.430729
668.633528	0.433461
668.973896	0.433043
669.314213	0.433717
669.654480	0.435548
669.994695	0.435688
670.334859	0.436745
670.674973	0.436594
671.015035	0.436493
671.355047	0.436765
671.695008	0.438005
672.034918	0.439647
672.374777	0.438881
672.714585	0.440008
673.054342	0.439751
673.394049	0.440243
673.733705	0.437795
674.073310	0.438869
674.412864	0.442057
674.752368	0.442709
675.091820	0.442985
675.431223	0.447226
675.770574	0.446953
676.109875	0.450051
676.449125	0.450305
676.788324	0.451844
677.127473	0.457575
677.466571	0.457496
677.805619	0.459050
678.144616	0.460068
678.483562	0.462133
678.822458	0.464251
679.161303	0.465714
679.500098	0.465764
679.838842	0.467231
680.177535	0.467031
680.516179	0.465630
680.854771	0.464306
681.193314	0.458396
681.531805	0.449717
681.870247	0.437882
682.208638	0.430671
682.546978	0.429629
682.885268	0.431241
683.223508	0.437765
683.561697	0.441334
683.899836	0.443749
684.237925	0.447646
684.575963	0.449447
684.913951	0.452684
685.251889	0.448260
685.589776	0.450503
685.927614	0.452904
686.265401	0.447532
686.603137	0.448803
686.940824	0.442911
687.278460	0.441287
687.616046	0.439876
687.953582	0.435543
688.291068	0.436698
688.628504	0.432320
688.965889	0.434478
689.303224	0.438439
689.640510	0.442616
689.977745	0.448536
690.314930	0.456082
690.652065	0.460428
690.989150	0.468306
691.326185	0.474451
691.663170	0.479297
692.000105	0.486181
692.336990	0.493278
692.673825	0.495929
693.010610	0.502820
693.347345	0.508022
693.684030	0.509558
694.020665	0.513992
694.357251	0.523099
694.693786	0.522578
695.030272	0.526785
695.366707	0.530376
695.703093	0.533645
696.039429	0.531439
696.375716	0.533215
696.711952	0.535777
697.048139	0.538575
697.384276	0.539652
697.720363	0.538367
698.056400	0.537226
698.392388	0.542933
698.728326	0.545348
699.064214	0.548469
699.400053	0.549890
699.735842	0.553160
700.071581	0.556019
700.407270	0.558779
700.742910	0.560418
701.078501	0.567765
701.414042	0.568020
701.749533	0.571274
702.084974	0.579792
702.420366	0.572047
702.755709	0.580031
703.091002	0.586812
703.426246	0.581556
703.761440	0.586634
704.096584	0.591980
704.431679	0.588534
704.766725	0.590731
705.101721	0.591712
705.436668	0.588468
705.771565	0.595970
706.106413	0.592391
706.441212	0.587158
706.775961	0.585968
707.110661	0.588642
707.445311	0.585337
707.779913	0.582076
708.114465	0.580563
708.448967	0.577570
708.783421	0.568958
709.117825	0.564171
709.452180	0.564610
709.786485	0.558192
710.120742	0.548406
710.454949	0.550470
710.789107	0.542510
711.123216	0.534074
711.457275	0.535029
711.791286	0.526256
712.125247	0.524709
712.459159	0.535965
712.793023	0.528313
713.126837	0.532587
713.460602	0.533030
713.794318	0.541991
714.127985	0.541011
714.461602	0.551452
714.795171	0.554261
715.128691	0.562318
715.462162	0.569513
715.795584	0.574861
716.128957	0.577594
716.462281	0.584537
716.795556	0.588092
717.128782	0.593208
717.461960	0.602600
717.795088	0.600511
718.128167	0.606545
718.461198	0.615524
718.794180	0.616221
719.127113	0.619560
719.459997	0.622521
719.792833	0.628931
720.125619	0.630342
720.458357	0.636040
720.791046	0.635899
721.123686	0.639007
721.456278	0.646273
721.788821	0.643104
722.121315	0.647360
722.453761	0.651827
722.786158	0.649243
723.118506	0.645679
723.450805	0.654048
723.783056	0.649395
724.115259	0.646974
724.447412	0.646429
724.779518	0.648093
725.111574	0.646752
725.443582	0.642484
725.775542	0.644336
726.107453	0.636940
726.439315	0.637097
726.771129	0.635123
727.102895	0.628732
727.434612	0.621677
727.766281	0.619653
728.097901	0.618520
728.429473	0.618564
728.760996	0.616460
729.092471	0.616866
729.423897	0.621237
729.755276	0.620246
730.086606	0.620092
730.417887	0.615071
730.749120	0.605275
731.080305	0.595839
731.411442	0.592991
731.742530	0.597635
732.073570	0.596704
732.404562	0.588488
732.735506	0.590538
733.066401	0.595310
733.397249	0.603809
733.728048	0.615031
734.058798	0.627432
734.389501	0.638222
734.720156	0.648244
735.050762	0.655638
735.381320	0.657066
735.711831	0.666522
736.042293	0.670109
736.372707	0.666935
736.703073	0.672008
737.033391	0.674303
737.363661	0.670367
737.693883	0.665468
738.024056	0.664916
738.354182	0.665101
738.684260	0.654118
739.014290	0.650685
739.344272	0.651696
739.674207	0.644027
740.004093	0.644738
740.333931	0.645327
740.663722	0.644717
740.993464	0.644837
741.323159	0.649444
741.652806	0.654142
741.982405	0.658394
742.311956	0.663207
742.641460	0.665195
742.970915	0.668438
743.300323	0.676940
743.629683	0.682753
743.958996	0.684451
744.288260	0.689796
744.617477	0.695562
744.946647	0.696935
745.275768	0.701764
745.604842	0.702733
745.933869	0.711722
746.262847	0.712623
746.591778	0.706264
746.920662	0.711761
747.249498	0.719115
747.578286	0.709612
747.907027	0.706145
748.235720	0.706675
748.564365	0.701947
748.892963	0.702230
749.221514	0.704473
749.550017	0.709641
749.878473	0.708625
750.206881	0.714847
750.535242	0.717092
750.863555	0.716793
751.191821	0.717890
751.520039	0.720702
751.848210	0.725044
752.176334	0.718846
752.504411	0.717487
752.832440	0.725153
753.160421	0.729876
753.488356	0.727226
753.816243	0.725197
754.144082	0.733447
754.471875	0.736986
754.799620	0.731902
755.127318	0.734544
755.454969	0.733659
755.782572	0.733087
756.110129	0.738189
756.437638	0.740052
756.765100	0.738003
757.092515	0.734962
757.419882	0.733178
757.747203	0.739336
758.074477	0.738406
758.401703	0.735507
758.728882	0.730915
759.056014	0.730479
759.383099	0.728258
759.710138	0.730785
760.037129	0.726671
760.364073	0.720625
760.690970	0.723298
761.017820	0.727619
761.344623	0.724765
761.671379	0.715356
761.998088	0.704135
762.324751	0.681423
762.651366	0.640407
762.977935	0.573926
763.304456	0.521772
763.630931	0.512375
763.957359	0.550871
764.283740	0.595226
764.610074	0.622025
764.936362	0.652504
765.262602	0.679086
765.588796	0.700210
765.914943	0.719043
766.241044	0.736267
766.567097	0.742399
766.893104	0.752169
767.219064	0.758494
767.544978	0.765950
767.870845	0.778642
768.196665	0.782628
768.522438	0.780887
768.848165	0.781797
769.173846	0.791544
769.499479	0.794774
769.825066	0.798022
770.150607	0.804013
770.476101	0.798907
770.801548	0.800029
771.126949	0.811909
771.452303	0.815297
771.777611	0.813959
772.102872	0.813068
772.428087	0.818039
772.753256	0.821820
773.078378	0.823672
773.403453	0.833215
773.728482	0.836993
774.053465	0.831272
774.378401	0.834087
774.703291	0.842670
775.028135	0.841290
775.352932	0.843807
775.677683	0.846768
776.002388	0.846634
776.327046	0.846697
776.651658	0.849725
776.976224	0.854062
777.300743	0.853012
777.625216	0.856219
777.949643	0.857537
778.274024	0.856718
778.598359	0.859301
778.922647	0.858058
779.246889	0.858171
779.571086	0.863081
779.895236	0.864945
780.219339	0.860955
780.543397	0.859204
780.867409	0.857132
781.191374	0.859756
781.515294	0.860598
781.839167	0.859444
782.162995	0.862628
782.486776	0.860286
782.810511	0.861057
783.134201	0.864810
783.457844	0.862381
783.781441	0.865340
784.104993	0.870107
784.428498	0.870621
784.751958	0.866707
785.075372	0.868938
785.398739	0.873161
785.722061	0.869693
786.045337	0.864580
786.368568	0.868798
786.691752	0.872778
787.014891	0.856845
787.337983	0.848755
787.661030	0.841764
787.984031	0.824687
788.306987	0.811897
788.629897	0.814431
788.952760	0.818309
789.275579	0.822204
789.598351	0.837271
789.921078	0.851172
790.243759	0.852459
790.566395	0.857960
790.888984	0.864028
791.211529	0.869429
791.534027	0.872036
791.856480	0.874094
792.178888	0.879818
792.501249	0.882024
792.823566	0.884177
793.145836	0.883043
793.468062	0.885487
793.790241	0.885053
794.112375	0.883983
794.434464	0.878502
794.756507	0.877486
795.078505	0.878620
795.400457	0.873859
795.722364	0.860341
796.044226	0.853674
796.366042	0.851847
796.687812	0.855574
797.009538	0.851844
797.331218	0.855370
797.652852	0.860703
797.974442	0.865470
798.295986	0.865078
798.617484	0.867141
798.938938	0.871760
799.260346	0.876046
799.581709	0.878372
799.903026	0.881153
800.224299	0.881223
800.545526	0.884628
800.866708	0.889398
801.187845	0.893312
801.508936	0.892863
801.829983	0.890336
802.150984	0.893376
802.471940	0.898089
802.792851	0.896747
803.113717	0.898936
803.434538	0.897683
803.755314	0.899861
804.076045	0.901547
804.396731	0.899973
804.717372	0.900942
805.037967	0.901987
805.358518	0.898826
805.679024	0.897631
805.999485	0.897831
806.319901	0.898000
806.640272	0.898508
806.960598	0.898423
807.280879	0.894521
807.601115	0.893017
807.921306	0.895562
808.241453	0.896653
808.561554	0.894271
808.881611	0.895334
809.201623	0.896909
809.521590	0.897289
809.841513	0.897461
810.161390	0.896516
810.481223	0.898597
810.801011	0.901830
811.120755	0.903033
811.440453	0.902666
811.760107	0.900818
812.079716	0.900523
812.399281	0.903603
812.718801	0.907153
813.038276	0.907254
813.357707	0.906874
813.677093	0.904854
813.996434	0.907295
814.315731	0.908835
814.634983	0.909666
814.954191	0.908053
815.273354	0.906303
815.592473	0.901687
815.911547	0.901870
816.230577	0.899737
816.549562	0.896178
816.868502	0.897578
817.187399	0.894281
817.506250	0.888401
817.825058	0.891140
818.143821	0.887872
818.462539	0.882476
818.781213	0.873902
819.099843	0.862724
819.418429	0.847740
819.736970	0.831025
820.055466	0.811503
820.373919	0.785082
820.692327	0.752995
821.010691	0.719369
821.329011	0.643510
821.647286	0.529134
821.965517	0.416045
822.283704	0.372784
822.601847	0.375145
822.919945	0.411149
823.237999	0.443618
823.556010	0.489629
823.873976	0.545162
824.191897	0.594647
824.509775	0.636971
824.827609	0.682598
825.145398	0.705355
825.463144	0.707179
825.780845	0.690308
826.098502	0.671991
826.416116	0.625947
826.733685	0.583193
827.051210	0.574910
827.368692	0.589497
827.686129	0.626331
828.003522	0.678558
828.320872	0.725614
828.638177	0.768625
828.955439	0.801398
829.272656	0.823445
829.589830	0.840822
829.906960	0.856633
830.224046	0.867452
830.541088	0.878239
830.858086	0.882254
831.175041	0.889035
831.491952	0.887441
831.808819	0.884626
832.125642	0.879191
832.442421	0.863683
832.759157	0.841430
833.075849	0.796511
833.392497	0.733608
833.709101	0.691901
834.025662	0.702426
834.342179	0.733049
834.658653	0.772231
834.975083	0.807649
835.291469	0.834520
835.607811	0.856427
835.924110	0.871917
836.240366	0.887772
836.556578	0.902219
836.872746	0.908687
837.188871	0.916134
837.504952	0.920406
837.820990	0.925198
838.136984	0.928229
838.452935	0.930669
838.768842	0.931668
839.084706	0.926243
839.400526	0.899868
839.716303	0.860234
840.032037	0.838249
840.347727	0.842314
840.663373	0.859123
840.978977	0.880940
841.294537	0.903527
841.610054	0.919032
841.925527	0.927012
842.240957	0.932802
842.556344	0.941121
842.871687	0.946189
843.186987	0.950056
843.502244	0.951193
843.817458	0.952221
844.132629	0.955185
844.447756	0.959897
844.762840	0.961256
845.077881	0.959393
845.392879	0.960141
845.707833	0.963039
846.022745	0.964854
846.337613	0.965297
846.652438	0.965844
846.967221	0.964925
847.281960	0.964246
847.596656	0.967915
847.911309	0.966083
848.225919	0.967741
848.540485	0.969674
848.855009	0.968359
849.169490	0.968570
849.483928	0.968488
849.798323	0.969715
850.112675	0.970784
850.426984	0.969257
850.741251	0.970427
851.055474	0.969921
851.369654	0.967541
851.683792	0.969114
851.997887	0.969730
852.311938	0.971391
852.625947	0.969752
852.939914	0.968007
853.253837	0.969090
853.567718	0.971878
853.881555	0.971575
854.195350	0.968686
854.509103	0.969936
854.822812	0.970650
855.136479	0.969563
855.450103	0.969469
855.763685	0.967945
856.077224	0.969120
856.390720	0.971274
856.704173	0.970592
857.017584	0.967215
857.330953	0.966605
857.644278	0.968310
857.957561	0.968801
858.270802	0.969069
858.584000	0.968375
858.897155	0.967585
859.210268	0.967338
859.523339	0.968575
859.836367	0.969300
860.149352	0.971096
860.462295	0.969003
860.775195	0.970630
861.088054	0.969076
861.400869	0.968912
861.713642	0.970122
862.026373	0.970660
862.339062	0.971341
862.651708	0.968637
862.964312	0.967572
863.276873	0.968278
863.589392	0.968020
863.901869	0.967325
864.214303	0.965006
864.526696	0.964094
864.839045	0.963023
865.151353	0.960852
865.463619	0.963463
865.775842	0.962431
866.088023	0.961920
866.400162	0.962031
866.712258	0.962616
867.024313	0.962470
867.336325	0.963267
867.648296	0.963741
867.960224	0.962974
868.272110	0.961643
868.583954	0.964906
868.895755	0.963756
869.207515	0.961598
869.519233	0.960616
869.830909	0.961382
870.142542	0.963003
870.454134	0.961553
870.765684	0.961002
871.077191	0.957630
871.388657	0.959141
871.700081	0.958151
872.011463	0.958437
872.322803	0.958723
872.634101	0.956527
872.945357	0.954061
873.256571	0.953900
873.567744	0.953361
873.878874	0.954134
874.189963	0.952312
874.501010	0.951518
874.812015	0.949677
875.122979	0.951285
875.433900	0.953980
875.744780	0.954780
876.055618	0.951605
876.366415	0.950070
876.677169	0.950587
876.987882	0.951437
877.298554	0.951911
877.609183	0.948285
877.919771	0.945511
878.230317	0.942427
878.540822	0.941094
878.851285	0.936857
879.161707	0.928663
879.472087	0.916658
879.782425	0.900805
880.092722	0.867056
880.402977	0.815627
880.713191	0.756751
881.023363	0.698657
881.333494	0.665444
881.643583	0.637721
881.953631	0.636928
882.263637	0.665445
882.573602	0.705421
882.883526	0.730559
883.193408	0.752992
883.503248	0.774894
883.813048	0.802486
884.122806	0.830620
884.432522	0.854595
884.742197	0.873458
885.051831	0.883650
885.361424	0.892783
885.670975	0.905794
885.980485	0.914431
886.289954	0.921665
886.599382	0.925736
886.908768	0.928595
887.218113	0.935132
887.527417	0.940204
887.836680	0.943312
888.145901	0.943875
888.455082	0.946319
888.764221	0.950597
889.073319	0.953465
889.382376	0.952995
889.691392	0.953910
890.000366	0.953654
890.309300	0.953877
890.618193	0.954615
890.927044	0.952165
891.235855	0.951055
891.544625	0.951767
891.853353	0.952189
892.162041	0.949633
892.470687	0.944572
892.779293	0.938707
893.087858	0.934602
893.396381	0.928124
893.704864	0.915179
894.013306	0.891409
894.321707	0.865786
894.630068	0.850738
894.938387	0.846625
895.246665	0.847087
895.554903	0.859890
895.863100	0.872599
896.171256	0.889939
896.479371	0.908050
896.787446	0.920726
897.095480	0.927402
897.403473	0.929116
897.711425	0.933327
898.019336	0.941808
898.327207	0.943843
898.635038	0.944736
898.942827	0.945872
899.250576	0.948822
899.558284	0.953670
899.865952	0.955132
900.173579	0.955931
900.481165	0.956358
900.788711	0.959793
901.096216	0.961996
901.403681	0.962784
901.711105	0.963199
902.018489	0.964078
902.325832	0.963579
902.633135	0.962600
902.940397	0.956867
903.247619	0.944802
903.554800	0.920680
903.861941	0.881608
904.169041	0.846701
904.476101	0.830225
904.783121	0.831273
905.090100	0.847283
905.397039	0.867798
905.703938	0.888286
906.010796	0.907938
906.317614	0.924486
906.624391	0.936365
906.931129	0.944764
907.237826	0.952991
907.544483	0.959448
907.851099	0.962439
908.157675	0.967727
908.464211	0.970273
908.770707	0.972942
909.077163	0.976230
909.383578	0.974533
909.689954	0.975690
909.996289	0.976000
910.302584	0.978576
910.608839	0.980956
910.915054	0.978622
911.221229	0.978161
911.527363	0.976154
911.833458	0.976988
912.139513	0.977408
912.445527	0.975140
912.751502	0.974214
913.057436	0.972503
913.363331	0.971678
913.669186	0.967792
913.975000	0.962064
914.280775	0.956372
914.586510	0.950285
914.892205	0.937440
915.197859	0.915993
915.503475	0.888706
915.809050	0.870407
916.114585	0.864973
916.420081	0.863574
916.725536	0.859948
917.030952	0.866893
917.336328	0.879956
917.641665	0.894755
917.946961	0.909895
918.252218	0.920677
918.557435	0.928399
918.862612	0.937769
919.167750	0.944009
919.472848	0.947676
919.777906	0.953078
920.082925	0.957700
920.387904	0.962755
920.692843	0.962964
920.997743	0.965278
921.302603	0.967922
921.607423	0.970052
921.912204	0.972048
922.216946	0.972176
922.521647	0.974534
922.826310	0.975441
923.130932	0.977626
923.435516	0.977933
923.740059	0.980796
924.044564	0.978782
924.349028	0.981551
924.653454	0.983420
924.957840	0.985215
925.262186	0.984847
925.566493	0.983613
925.870761	0.985491
926.174989	0.986537
926.479178	0.988854
926.783328	0.988922
927.087438	0.988299
927.391509	0.988849
927.695541	0.990252
927.999533	0.989512
928.303486	0.989990
928.607400	0.991524
928.911275	0.989593
929.215110	0.989616
929.518906	0.990000
929.822663	0.988942
930.126381	0.990893
930.430060	0.990165
930.733699	0.990325
931.037299	0.989588
931.340861	0.991149
931.644383	0.990193
931.947866	0.989543
932.251309	0.989954
932.554714	0.990745
932.858080	0.990102
933.161407	0.989298
933.464694	0.991009
933.767943	0.990412
934.071153	0.990722
934.374323	0.991968
934.677455	0.990559
934.980548	0.992539
935.283602	0.991258
935.586617	0.991033
935.889593	0.990828
936.192530	0.991625
936.495428	0.989930
936.798287	0.990850
937.101108	0.991175
937.403890	0.988632
937.706632	0.989826
938.009336	0.987049
938.312002	0.985699
938.614628	0.984384
938.917216	0.984057
939.219765	0.982872
939.522275	0.983317
939.824747	0.984249
940.127179	0.983293
940.429573	0.985154
940.731929	0.984831
941.034246	0.984809
941.336524	0.986801
941.638763	0.986492
941.940964	0.986474
942.243126	0.987047
942.545250	0.986995
942.847335	0.987979
943.149381	0.989042
943.451389	0.988687
943.753359	0.987344
944.055290	0.990929
944.357182	0.989967
944.659036	0.988822
944.960851	0.988635
945.262628	0.989019
945.564367	0.991748
945.866067	0.990871
946.167729	0.991600
946.469352	0.990307
946.770937	0.988303
947.072484	0.990131
947.373992	0.989740
947.675462	0.990313
947.976893	0.990165
948.278286	0.990894
948.579641	0.992079
948.880958	0.990118
949.182236	0.990720
949.483476	0.991367
949.784678	0.990240
950.085841	0.990556
950.386967	0.990444
950.688054	0.990708
950.989103	0.990469
951.290114	0.989789
951.591087	0.989252
951.892021	0.988753
952.192917	0.988922
952.493776	0.989177
952.794596	0.988198
953.095378	0.987969
953.396122	0.988781
953.696828	0.988289
953.997496	0.989917
954.298126	0.990725
954.598718	0.989574
954.899272	0.991655
955.199788	0.990031
955.500266	0.991860
955.800706	0.994102
956.101108	0.992622
956.401472	0.994096
956.701798	0.993811
957.002087	0.992220
957.302337	0.994370
957.602550	0.994668
957.902724	0.994883
958.202861	0.994288
958.502960	0.995495
958.803022	0.994028
959.103045	0.996235
959.403031	0.994928
959.702979	0.996013
960.002889	0.995833
960.302762	0.994317
960.602596	0.994877
960.902393	0.994714
961.202153	0.997292
961.501875	0.995851
961.801559	0.995202
962.101205	0.995896
962.400814	0.995250
962.700385	0.995487
962.999918	0.996128
963.299414	0.996803
963.598873	0.994905
963.898293	0.995844
964.197677	0.995104
964.497022	0.996280
964.796331	0.997749
965.095601	0.996629
965.394835	0.995274
965.694030	0.996842
965.993189	0.996957
966.292309	0.996650
966.591393	0.997117
966.890439	0.996691
967.189447	0.996604
967.488419	0.997337
967.787353	0.996197
968.086249	0.995626
968.385108	0.996989
968.683930	0.996433
968.982714	0.997924
969.281462	0.997439
969.580172	0.995438
969.878844	0.995620
970.177480	0.995975
970.476078	0.996922
970.774639	0.997063
971.073162	0.997066
971.371649	0.997364
971.670098	0.995060
971.968510	0.997429
972.266885	0.996012
972.565223	0.996062
972.863524	0.995647
973.161788	0.995820
973.460014	0.997962
973.758204	0.995130
974.056356	0.997347
974.354471	0.993564
974.652550	0.995551
974.950591	0.996679
975.248595	0.996159
975.546563	0.996465
975.844493	0.997540
976.142386	0.996003
976.440243	0.996724
976.738062	0.996149
977.035845	0.997447
977.333590	0.997038
977.631299	0.997327
977.928971	0.996391
978.226606	0.995738
978.524204	0.996282
978.821765	0.997789
979.119290	0.997073
979.416777	0.995970
979.714228	0.996943
980.011642	0.995842
980.309020	0.997801
980.606360	0.996274
980.903664	0.997817
981.200931	0.994839
981.498162	0.993737
981.795356	0.994159
982.092513	0.993533
982.389633	0.994174
982.686717	0.989757
982.983764	0.992349
983.280775	0.990506
983.577749	0.991222
983.874686	0.991866
984.171587	0.991421
984.468451	0.994355
984.765279	0.994704
985.062070	0.994408
985.358824	0.994697
985.655543	0.995368
985.952224	0.995505
986.248869	0.997183
986.545478	0.997075
986.842050	0.997391
987.138586	0.995410
987.435086	0.997468
987.731549	0.998475
988.027975	0.997440
988.324366	0.997259
988.620719	0.996257
988.917037	0.997205
989.213318	0.996804
989.509563	0.997774
989.805772	0.997744
990.101944	0.998139
990.398080	0.996837
990.694180	0.997888
990.990244	0.997337
991.286271	0.998303
991.582262	0.998544
991.878217	0.997236
992.174136	0.997659
992.470019	0.997829
992.765865	0.997631
993.061676	0.997948
993.357450	0.996887
993.653188	0.996544
993.948890	0.996830
994.244556	0.997788
994.540186	0.997440
994.835780	0.995022
995.131337	0.996905
995.426859	0.995748
995.722345	0.996853
996.017795	0.996491
996.313208	0.995673
996.608586	0.996038
996.903928	0.997873
997.199234	0.996041
997.494504	0.995486
997.789738	0.996812
998.084936	0.994761
998.380099	0.997939
998.675225	0.996636
998.970316	0.998424
999.265371	0.998415
999.560390	0.996394
999.855373	0.999194
1000.150320	0.998158
1000.445232	0.998387
1000.740108	0.997180
1001.034948	0.997723
1001.329752	0.998749
1001.624521	0.997515
1001.919254	0.998398
1002.213951	0.998846
1002.508613	0.996857
1002.803239	0.998928
1003.097829	0.998397
1003.392384	0.999080
1003.686903	0.998529
1003.981386	0.999201
1004.275834	0.998971
1004.570246	0.998710
1004.864623	0.997984
1005.158964	0.999101
1005.453270	0.998296
1005.747540	0.997143
1006.041775	0.998153
1006.335974	0.998825
1006.630138	0.998632
1006.924266	0.999174
1007.218359	1.000117
1007.512416	0.998710
1007.806438	0.998922
1008.100425	0.999727
1008.394376	0.999346
1008.688292	0.997398
1008.982172	1.000381
1009.276017	0.999544
1009.569827	0.998093
1009.863602	0.998222
1010.157341	0.998053
1010.451045	0.999323
1010.744714	0.999148
1011.038347	0.997990
1011.331945	0.998961
1011.625508	0.996411
1011.919036	0.997601
1012.212528	0.997116
1012.505986	0.996955
1012.799408	0.997971
1013.092795	0.999370
1013.386147	0.998174
1013.679464	0.998272
1013.972745	0.997229
1014.265992	0.997034
1014.559204	0.998564
1014.852380	0.997503
1015.145521	0.997903
1015.438628	0.998185
1015.731699	0.998317
1016.024736	0.998337
1016.317737	0.998325
1016.610703	0.998134
1016.903635	0.998887
1017.196531	0.999174
1017.489393	0.999021
1017.782219	0.997746
1018.075011	0.999483
1018.367768	0.998406
1018.660490	0.999737
1018.953177	0.999737
1019.245829	0.999737
