Dividing Wavelength (nm)	Counts (n)	Blue Motor Position (mm): 0.000000	Red Motor Position (mm): 11.300000	
326.493990	1.001855
326.888308	1.001855
327.282561	1.001855
327.676750	1.000859
328.070874	0.999891
328.464933	1.000364
328.858929	0.998768
329.252859	0.999036
329.646726	1.000895
330.040528	1.000305
330.434265	0.997783
330.827938	1.000705
331.221547	1.000879
331.615091	0.999694
332.008571	1.001159
332.401986	1.000793
332.795338	1.000034
333.188625	0.998338
333.581847	1.000631
333.975006	0.998954
334.368100	0.999705
334.761129	1.000130
335.154095	1.000406
335.546996	0.997851
335.939833	0.992786
336.332606	0.992610
336.725315	0.993578
337.117960	0.994752
337.510540	0.992539
337.903056	0.994386
338.295508	0.992238
338.687896	0.994171
339.080220	0.993700
339.472480	0.994576
339.864676	0.993328
340.256807	0.993673
340.648875	0.994455
341.040879	0.994217
341.432818	0.993187
341.824694	0.993077
342.216506	0.994219
342.608253	0.994101
342.999937	0.993845
343.391557	0.994491
343.783113	0.993820
344.174605	0.993540
344.566033	0.994181
344.957397	0.993641
345.348697	0.993268
345.739934	0.994053
346.131106	0.994658
346.522215	0.993220
346.913260	0.994199
347.304241	0.993601
347.695159	0.994488
348.086012	0.992675
348.476802	0.993552
348.867528	0.993813
349.258191	0.993176
349.648789	0.992901
350.039324	0.993970
350.429796	0.993875
350.820203	0.994205
351.210548	0.994520
351.600828	0.992914
351.991045	0.993570
352.381198	0.993115
352.771288	0.993322
353.161314	0.992405
353.551276	0.993619
353.941175	0.993278
354.331010	0.993348
354.720782	0.993228
355.110490	0.993434
355.500135	0.993852
355.889717	0.993033
356.279235	0.993155
356.668689	0.993066
357.058080	0.994071
357.447408	0.994473
357.836672	0.994011
358.225873	0.994340
358.615010	0.994209
359.004084	0.995289
359.393095	0.994240
359.782043	0.992150
360.170927	0.993070
360.559748	0.994740
360.948505	0.993044
361.337199	0.993033
361.725830	0.992571
362.114398	0.993254
362.502903	0.993587
362.891344	0.994517
363.279722	0.993230
363.668037	0.993565
364.056289	0.993557
364.444478	0.994034
364.832603	0.993567
365.220665	0.992577
365.608665	0.993364
365.996601	0.992190
366.384474	0.993676
366.772284	0.992883
367.160031	0.992894
367.547715	0.992247
367.935336	0.993000
368.322893	0.992629
368.710388	0.993032
369.097820	0.992996
369.485189	0.992254
369.872495	0.991798
370.259738	0.991614
370.646918	0.993434
371.034035	0.992942
371.421090	0.992088
371.808081	0.991238
372.195010	0.991896
372.581875	0.992895
372.968678	0.992203
373.355418	0.991760
373.742096	0.991413
374.128710	0.993565
374.515262	0.993022
374.901751	0.993626
375.288177	0.993036
375.674540	0.993792
376.060841	0.992112
376.447079	0.992068
376.833254	0.992926
377.219367	0.993029
377.605417	0.992885
377.991404	0.992449
378.377329	0.991522
378.763191	0.992509
379.148991	0.992928
379.534727	0.992525
379.920402	0.992047
380.306013	0.991697
380.691563	0.992755
381.077049	0.991630
381.462474	0.992141
381.847835	0.992028
382.233134	0.990613
382.618371	0.989956
383.003545	0.989164
383.388657	0.987839
383.773706	0.987333
384.158693	0.985407
384.543618	0.983057
384.928480	0.980998
385.313280	0.977505
385.698017	0.976438
386.082692	0.972085
386.467305	0.968036
386.851856	0.964202
387.236344	0.960149
387.620770	0.953955
388.005133	0.950175
388.389435	0.945440
388.773674	0.938279
389.157851	0.933586
389.541965	0.927224
389.926018	0.922745
390.310008	0.914305
390.693936	0.907509
391.077802	0.899922
391.461606	0.892654
391.845348	0.882843
392.229027	0.876570
392.612645	0.867814
392.996200	0.856212
393.379694	0.845184
393.763125	0.834226
394.146494	0.828039
394.529801	0.814530
394.913047	0.803263
395.296230	0.797751
395.679351	0.784378
396.062410	0.773722
396.445408	0.768233
396.828343	0.756774
397.211217	0.745342
397.594028	0.746030
397.976778	0.731133
398.359466	0.721243
398.742092	0.710474
399.124656	0.712158
399.507158	0.696854
399.889598	0.687643
400.271977	0.674702
400.654294	0.672097
401.036549	0.664097
401.418742	0.662539
401.800874	0.644097
402.182944	0.636883
402.564952	0.623674
402.946898	0.621826
403.328783	0.617275
403.710606	0.624277
404.092367	0.597012
404.474067	0.597252
404.855705	0.593232
405.237282	0.599162
405.618797	0.582641
406.000250	0.575836
406.381642	0.564464
406.762972	0.566574
407.144240	0.564179
407.525447	0.562694
407.906593	0.552461
408.287677	0.546941
408.668700	0.554337
409.049661	0.546128
409.430560	0.541016
409.811399	0.548533
410.192176	0.529816
410.572891	0.535751
410.953545	0.523697
411.334138	0.536357
411.714669	0.528130
412.095139	0.539303
412.475547	0.524216
412.855894	0.525223
413.236180	0.524718
413.616405	0.529589
413.996568	0.520714
414.376670	0.526419
414.756711	0.530441
415.136691	0.527874
415.516609	0.518866
415.896466	0.515048
416.276262	0.511001
416.655997	0.512762
417.035670	0.493801
417.415283	0.486302
417.794834	0.490716
418.174324	0.495858
418.553753	0.505132
418.933121	0.486993
419.312428	0.480929
419.691674	0.486445
420.070859	0.475565
420.449983	0.483244
420.829045	0.472617
421.208047	0.481416
421.586988	0.475381
421.965867	0.474023
422.344686	0.462281
422.723444	0.474910
423.102141	0.491512
423.480777	0.464813
423.859352	0.484858
424.237866	0.462287
424.616319	0.463200
424.994712	0.454161
425.373044	0.464423
425.751314	0.452671
426.129524	0.468944
426.507673	0.453038
426.885762	0.446221
427.263789	0.451761
427.641756	0.461541
428.019662	0.452073
428.397508	0.450547
428.775292	0.454819
429.153016	0.446289
429.530679	0.453626
429.908282	0.446508
430.285824	0.456363
430.663305	0.434942
431.040726	0.455815
431.418086	0.456541
431.795385	0.447756
432.172624	0.446239
432.549802	0.446929
432.926920	0.446636
433.303977	0.445435
433.680974	0.442946
434.057910	0.441059
434.434786	0.441055
434.811601	0.442953
435.188355	0.425822
435.565050	0.434549
435.941683	0.436191
436.318257	0.421072
436.694770	0.421096
437.071222	0.419535
437.447614	0.423892
437.823946	0.430506
438.200218	0.419711
438.576429	0.429066
438.952580	0.422622
439.328670	0.419279
439.704700	0.425632
440.080670	0.426717
440.456580	0.407779
440.832429	0.415728
441.208218	0.426996
441.583947	0.415838
441.959616	0.415616
442.335224	0.420403
442.710773	0.411863
443.086261	0.409543
443.461689	0.423456
443.837057	0.413553
444.212365	0.403352
444.587612	0.410166
444.962800	0.399807
445.337927	0.401804
445.712995	0.427581
446.088002	0.390355
446.462949	0.400905
446.837837	0.404775
447.212664	0.393851
447.587431	0.385993
447.962139	0.356161
448.336786	0.315418
448.711374	0.325988
449.085901	0.370028
449.460369	0.374253
449.834776	0.377498
450.209124	0.357083
450.583412	0.349966
450.957640	0.342915
451.331808	0.354166
451.705917	0.377222
452.079965	0.381872
452.453954	0.370511
452.827883	0.376723
453.201752	0.371807
453.575562	0.383531
453.949311	0.371863
454.323001	0.377851
454.696632	0.373216
455.070202	0.366459
455.443713	0.358189
455.817164	0.352949
456.190556	0.349132
456.563888	0.345479
456.937160	0.343071
457.310373	0.360238
457.683526	0.358872
458.056619	0.365048
458.429653	0.365842
458.802628	0.369268
459.175542	0.363141
459.548398	0.345670
459.921194	0.338077
460.293930	0.338460
460.666607	0.315895
461.039224	0.304128
461.411782	0.300190
461.784280	0.299455
462.156719	0.303491
462.529099	0.307656
462.901419	0.323800
463.273680	0.327913
463.645882	0.328024
464.018024	0.333300
464.390106	0.326729
464.762130	0.311428
465.134094	0.294234
465.505999	0.263541
465.877845	0.234114
466.249631	0.221182
466.621358	0.228333
466.993026	0.241989
467.364634	0.248258
467.736184	0.257289
468.107674	0.266023
468.479105	0.264766
468.850477	0.271716
469.221790	0.278641
469.593043	0.288700
469.964238	0.293910
470.335373	0.292769
470.706449	0.291126
471.077467	0.291829
471.448425	0.253589
471.819324	0.229633
472.190164	0.228757
472.560945	0.257549
472.931667	0.279935
473.302330	0.283887
473.672934	0.295785
474.043479	0.284025
474.413965	0.285671
474.784393	0.289438
475.154761	0.284327
475.525070	0.281235
475.895321	0.287317
476.265513	0.281277
476.635645	0.276914
477.005719	0.276841
477.375734	0.273232
477.745691	0.266715
478.115588	0.262781
478.485427	0.256608
478.855207	0.243552
479.224928	0.225950
479.594591	0.214067
479.964194	0.217368
480.333739	0.218649
480.703226	0.220210
481.072653	0.218539
481.442022	0.214151
481.811333	0.210712
482.180584	0.214181
482.549777	0.219287
482.918912	0.223134
483.287988	0.222584
483.657005	0.222292
484.025964	0.228637
484.394864	0.226046
484.763706	0.226543
485.132489	0.231807
485.501213	0.232319
485.869879	0.230586
486.238487	0.233951
486.607036	0.231792
486.975527	0.236239
487.343959	0.232322
487.712333	0.231144
488.080648	0.232800
488.448905	0.231950
488.817104	0.233267
489.185244	0.227711
489.553326	0.224708
489.921350	0.214456
490.289315	0.197020
490.657222	0.192115
491.025070	0.193465
491.392861	0.195326
491.760593	0.201034
492.128267	0.206816
492.495883	0.212229
492.863440	0.218346
493.230939	0.224728
493.598380	0.225894
493.965763	0.228215
494.333088	0.230775
494.700354	0.232172
495.067563	0.230985
495.434713	0.234252
495.801805	0.232345
496.168839	0.233803
496.535815	0.234913
496.902733	0.234946
497.269593	0.236553
497.636395	0.234542
498.003139	0.234984
498.369825	0.237632
498.736453	0.234416
499.103023	0.235395
499.469535	0.235015
499.835989	0.235343
500.202385	0.236377
500.568723	0.239428
500.935003	0.234620
501.301226	0.238601
501.667390	0.233059
502.033497	0.231009
502.399546	0.234141
502.765537	0.236113
503.131470	0.234716
503.497345	0.230721
503.863163	0.239403
504.228923	0.232350
504.594625	0.231331
504.960269	0.236355
505.325856	0.231983
505.691385	0.235966
506.056856	0.232852
506.422270	0.232175
506.787625	0.234745
507.152924	0.232246
507.518164	0.232639
507.883347	0.234282
508.248472	0.236102
508.613540	0.231326
508.978550	0.233400
509.343503	0.233985
509.708398	0.231655
510.073236	0.229341
510.438016	0.229272
510.802738	0.230014
511.167403	0.229101
511.532010	0.231222
511.896561	0.226661
512.261053	0.225543
512.625488	0.227402
512.989866	0.227420
513.354186	0.228173
513.718449	0.230038
514.082655	0.226383
514.446803	0.228583
514.810894	0.225975
515.174927	0.228960
515.538904	0.228061
515.902822	0.225021
516.266684	0.227451
516.630488	0.228782
516.994235	0.227441
517.357925	0.226122
517.721558	0.224534
518.085133	0.224103
518.448651	0.224107
518.812112	0.226492
519.175516	0.226129
519.538863	0.223694
519.902152	0.225305
520.265385	0.222226
520.628560	0.224009
520.991678	0.224481
521.354739	0.222935
521.717743	0.224833
522.080690	0.224925
522.443580	0.222262
522.806413	0.223429
523.169189	0.222470
523.531908	0.221216
523.894569	0.225226
524.257174	0.224877
524.619722	0.222632
524.982213	0.223631
525.344647	0.222510
525.707025	0.223423
526.069345	0.221570
526.431608	0.223094
526.793815	0.221291
527.155964	0.225472
527.518057	0.224305
527.880093	0.225509
528.242072	0.223939
528.603995	0.225566
528.965860	0.227468
529.327669	0.226262
529.689421	0.227281
530.051117	0.228117
530.412755	0.225698
530.774337	0.228302
531.135862	0.228330
531.497331	0.227854
531.858743	0.230854
532.220098	0.227632
532.581396	0.229789
532.942638	0.230520
533.303824	0.231252
533.664953	0.231091
534.026025	0.232725
534.387040	0.230894
534.747999	0.230984
535.108902	0.229676
535.469748	0.234624
535.830537	0.232422
536.191270	0.232974
536.551947	0.232316
536.912567	0.232577
537.273131	0.234122
537.633638	0.234158
537.994089	0.235204
538.354483	0.235835
538.714821	0.232939
539.075103	0.232450
539.435328	0.233494
539.795497	0.237144
540.155609	0.233609
540.515665	0.231771
540.875665	0.237622
541.235609	0.235815
541.595496	0.236058
541.955328	0.232398
542.315102	0.235222
542.674821	0.236610
543.034483	0.236205
543.394090	0.236084
543.753640	0.237969
544.113134	0.232982
544.472571	0.235992
544.831953	0.233061
545.191278	0.237326
545.550548	0.236749
545.909761	0.233518
546.268918	0.234165
546.628019	0.232262
546.987064	0.235126
547.346053	0.236934
547.704986	0.234834
548.063863	0.235242
548.422684	0.235278
548.781449	0.237207
549.140158	0.234896
549.498811	0.237676
549.857408	0.240815
550.215949	0.235628
550.574434	0.238834
550.932864	0.236603
551.291237	0.235643
551.649555	0.236643
552.007817	0.236697
552.366022	0.237350
552.724173	0.237548
553.082267	0.237833
553.440305	0.234672
553.798288	0.239149
554.156215	0.235539
554.514086	0.236286
554.871902	0.239325
555.229661	0.238546
555.587365	0.238938
555.945014	0.241772
556.302606	0.238667
556.660143	0.241174
557.017625	0.237841
557.375050	0.240032
557.732421	0.237061
558.089735	0.238969
558.446994	0.239058
558.804197	0.238313
559.161345	0.238278
559.518437	0.241866
559.875474	0.239539
560.232455	0.238783
560.589381	0.239985
560.946251	0.240320
561.303065	0.237711
561.659825	0.239192
562.016528	0.240769
562.373177	0.243504
562.729770	0.240689
563.086307	0.243093
563.442789	0.240641
563.799216	0.243398
564.155587	0.242088
564.511904	0.243464
564.868164	0.243358
565.224370	0.243339
565.580520	0.245101
565.936615	0.244886
566.292654	0.247752
566.648638	0.244762
567.004567	0.245249
567.360441	0.246374
567.716260	0.248573
568.072023	0.246196
568.427732	0.247006
568.783385	0.249332
569.138982	0.247396
569.494525	0.247295
569.850013	0.250024
570.205445	0.248190
570.560823	0.251094
570.916145	0.253003
571.271412	0.251490
571.626625	0.252467
571.981782	0.253274
572.336884	0.254094
572.691931	0.253571
573.046923	0.254954
573.401860	0.256446
573.756743	0.257726
574.111570	0.256936
574.466342	0.257460
574.821059	0.256383
575.175722	0.259212
575.530330	0.258937
575.884882	0.259268
576.239380	0.260829
576.593823	0.262007
576.948211	0.260979
577.302544	0.264300
577.656823	0.264278
578.011047	0.264157
578.365216	0.265051
578.719330	0.266705
579.073389	0.266678
579.427394	0.268083
579.781344	0.268750
580.135239	0.270373
580.489080	0.269928
580.842866	0.272758
581.196597	0.272746
581.550273	0.271221
581.903895	0.272382
582.257463	0.270442
582.610975	0.273929
582.964434	0.272892
583.317837	0.275987
583.671186	0.276002
584.024481	0.276067
584.377721	0.278974
584.730906	0.278989
585.084037	0.278247
585.437113	0.280163
585.790135	0.279583
586.143103	0.282553
586.496016	0.283880
586.848874	0.281394
587.201679	0.281878
587.554428	0.285449
587.907124	0.284180
588.259765	0.284689
588.612352	0.285303
588.964884	0.289193
589.317362	0.288527
589.669786	0.288475
590.022155	0.287023
590.374470	0.286559
590.726731	0.288741
591.078937	0.293310
591.431090	0.289492
591.783188	0.293792
592.135232	0.294220
592.487222	0.293961
592.839157	0.292433
593.191038	0.294711
593.542866	0.296508
593.894639	0.299627
594.246358	0.298063
594.598022	0.297720
594.949633	0.301328
595.301190	0.302094
595.652692	0.301228
596.004141	0.297651
596.355535	0.305143
596.706876	0.305728
597.058162	0.308416
597.409395	0.305820
597.760573	0.303256
598.111698	0.306327
598.462768	0.306801
598.813785	0.308337
599.164748	0.309496
599.515657	0.309507
599.866511	0.313382
600.217312	0.308089
600.568060	0.313623
600.918753	0.310267
601.269392	0.311095
601.619978	0.314310
601.970510	0.312084
602.320988	0.312082
602.671412	0.309808
603.021783	0.312303
603.372100	0.313984
603.722363	0.313508
604.072572	0.314197
604.422728	0.314231
604.772830	0.316175
605.122878	0.315768
605.472872	0.316402
605.822813	0.314613
606.172701	0.317143
606.522534	0.314223
606.872314	0.315031
607.222041	0.315292
607.571714	0.313963
607.921333	0.315305
608.270899	0.314445
608.620411	0.311697
608.969870	0.315608
609.319276	0.315359
609.668627	0.315354
610.017926	0.313878
610.367171	0.312786
610.716362	0.313101
611.065500	0.313681
611.414585	0.312224
611.763616	0.312869
612.112594	0.313008
612.461518	0.312588
612.810389	0.310219
613.159207	0.313206
613.507971	0.314380
613.856682	0.310493
614.205340	0.312035
614.553945	0.308775
614.902496	0.312522
615.250994	0.310335
615.599439	0.311490
615.947830	0.310922
616.296169	0.311674
616.644454	0.310975
616.992686	0.311124
617.340864	0.308916
617.688990	0.313047
618.037063	0.309046
618.385082	0.311314
618.733048	0.308030
619.080961	0.310186
619.428821	0.310077
619.776628	0.309110
620.124382	0.311502
620.472083	0.311365
620.819731	0.310762
621.167326	0.314843
621.514868	0.314624
621.862357	0.319174
622.209793	0.318332
622.557176	0.320433
622.904506	0.321810
623.251783	0.323944
623.599007	0.326365
623.946179	0.325823
624.293297	0.328036
624.640363	0.332030
624.987376	0.332383
625.334336	0.335049
625.681243	0.337196
626.028097	0.337617
626.374899	0.338975
626.721647	0.339268
627.068343	0.342312
627.414987	0.343140
627.761577	0.345617
628.108115	0.343272
628.454600	0.349069
628.801032	0.346092
629.147412	0.348235
629.493739	0.348307
629.840014	0.351986
630.186236	0.348936
630.532405	0.354544
630.878521	0.352401
631.224585	0.354184
631.570597	0.358202
631.916556	0.356621
632.262462	0.356668
632.608316	0.358448
632.954117	0.359116
633.299866	0.360415
633.645562	0.360738
633.991206	0.365075
634.336797	0.368143
634.682336	0.370447
635.027823	0.371908
635.373257	0.372775
635.718639	0.376175
636.063968	0.375263
636.409245	0.381186
636.754470	0.381715
637.099642	0.384459
637.444762	0.387190
637.789829	0.386044
638.134845	0.389718
638.479808	0.390902
638.824719	0.390682
639.169577	0.394988
639.514383	0.393669
639.859137	0.398193
640.203839	0.397785
640.548489	0.398115
640.893086	0.399109
641.237632	0.400836
641.582125	0.399668
641.926566	0.401021
642.270955	0.400886
642.615292	0.401490
642.959576	0.401000
643.303809	0.401358
643.647990	0.400709
643.992118	0.401815
644.336195	0.404933
644.680219	0.403154
645.024192	0.404071
645.368112	0.398043
645.711981	0.396664
646.055797	0.391772
646.399562	0.394120
646.743274	0.386346
647.086935	0.383796
647.430544	0.383662
647.774101	0.382858
648.117606	0.382570
648.461059	0.382986
648.804460	0.385335
649.147810	0.390216
649.491108	0.392260
649.834354	0.393693
650.177548	0.398887
650.520690	0.404336
650.863781	0.405745
651.206820	0.404890
651.549807	0.410001
651.892742	0.413481
652.235626	0.413223
652.578458	0.413897
652.921238	0.419921
653.263967	0.417801
653.606644	0.421801
653.949269	0.421686
654.291843	0.425694
654.634365	0.421938
654.976836	0.425200
655.319255	0.425683
655.661622	0.427289
656.003938	0.427374
656.346203	0.430757
656.688416	0.428098
657.030577	0.431539
657.372687	0.433760
657.714746	0.434210
658.056753	0.431391
658.398708	0.434895
658.740612	0.436009
659.082465	0.432208
659.424266	0.433213
659.766016	0.432250
660.107715	0.435033
660.449362	0.433997
660.790958	0.434313
661.132503	0.435054
661.473996	0.432922
661.815438	0.433875
662.156829	0.433966
662.498168	0.434981
662.839456	0.435904
663.180693	0.433902
663.521879	0.434068
663.863013	0.434487
664.204097	0.433039
664.545129	0.430201
664.886110	0.430432
665.227040	0.427226
665.567918	0.430429
665.908746	0.428341
666.249522	0.427814
666.590248	0.428651
666.930922	0.427134
667.271545	0.426010
667.612118	0.426261
667.952639	0.427582
668.293109	0.426481
668.633528	0.429444
668.973896	0.429415
669.314213	0.429559
669.654480	0.431409
669.994695	0.431522
670.334859	0.431915
670.674973	0.432252
671.015035	0.432612
671.355047	0.432958
671.695008	0.434043
672.034918	0.435425
672.374777	0.434769
672.714585	0.436042
673.054342	0.436025
673.394049	0.436414
673.733705	0.434232
674.073310	0.435471
674.412864	0.438284
674.752368	0.438643
675.091820	0.438732
675.431223	0.442910
675.770574	0.443563
676.109875	0.445625
676.449125	0.445907
676.788324	0.448282
677.127473	0.453911
677.466571	0.453445
677.805619	0.455041
678.144616	0.456005
678.483562	0.457504
678.822458	0.460387
679.161303	0.461490
679.500098	0.462155
679.838842	0.463298
680.177535	0.463044
680.516179	0.461545
680.854771	0.460900
681.193314	0.453735
681.531805	0.445972
681.870247	0.433765
682.208638	0.426116
682.546978	0.425247
682.885268	0.426730
683.223508	0.433332
683.561697	0.436754
683.899836	0.439261
684.237925	0.443196
684.575963	0.445219
684.913951	0.448881
685.251889	0.444826
685.589776	0.446362
685.927614	0.448904
686.265401	0.443706
686.603137	0.444581
686.940824	0.437981
687.278460	0.436716
687.616046	0.435476
687.953582	0.430991
688.291068	0.432322
688.628504	0.428257
688.965889	0.430194
689.303224	0.434042
689.640510	0.438453
689.977745	0.444582
690.314930	0.452205
690.652065	0.456357
690.989150	0.464250
691.326185	0.470271
691.663170	0.475530
692.000105	0.482956
692.336990	0.489208
692.673825	0.492539
693.010610	0.498776
693.347345	0.504439
693.684030	0.506135
694.020665	0.510785
694.357251	0.519110
694.693786	0.518742
695.030272	0.523661
695.366707	0.527039
695.703093	0.529920
696.039429	0.528201
696.375716	0.529720
696.711952	0.532616
697.048139	0.534239
697.384276	0.536290
697.720363	0.533950
698.056400	0.534049
698.392388	0.539369
698.728326	0.541925
699.064214	0.544831
699.400053	0.545652
699.735842	0.548984
700.071581	0.552527
700.407270	0.555049
700.742910	0.557035
701.078501	0.564489
701.414042	0.564524
701.749533	0.567960
702.084974	0.576094
702.420366	0.568425
702.755709	0.576929
703.091002	0.583700
703.426246	0.577552
703.761440	0.583146
704.096584	0.588481
704.431679	0.585357
704.766725	0.587343
705.101721	0.589198
705.436668	0.584751
705.771565	0.592188
706.106413	0.589014
706.441212	0.583784
706.775961	0.583078
707.110661	0.585573
707.445311	0.581010
707.779913	0.578981
708.114465	0.577823
708.448967	0.573974
708.783421	0.566234
709.117825	0.560251
709.452180	0.561359
709.786485	0.554993
710.120742	0.544205
710.454949	0.546666
710.789107	0.539219
711.123216	0.529364
711.457275	0.532016
711.791286	0.522399
712.125247	0.520569
712.459159	0.531965
712.793023	0.524816
713.126837	0.528517
713.460602	0.529444
713.794318	0.538430
714.127985	0.537273
714.461602	0.547322
714.795171	0.550662
715.128691	0.558638
715.462162	0.565616
715.795584	0.571334
716.128957	0.574060
716.462281	0.580782
716.795556	0.584568
717.128782	0.589697
717.461960	0.599548
717.795088	0.597141
718.128167	0.604068
718.461198	0.612145
718.794180	0.612752
719.127113	0.615960
719.459997	0.618919
719.792833	0.625328
720.125619	0.626724
720.458357	0.632905
720.791046	0.632394
721.123686	0.635626
721.456278	0.642944
721.788821	0.640636
722.121315	0.643940
722.453761	0.648173
722.786158	0.646128
723.118506	0.642662
723.450805	0.650340
723.783056	0.646626
724.115259	0.643823
724.447412	0.643755
724.779518	0.644831
725.111574	0.643333
725.443582	0.639956
725.775542	0.641742
726.107453	0.633553
726.439315	0.634079
726.771129	0.631510
727.102895	0.624845
727.434612	0.618017
727.766281	0.616002
728.097901	0.615290
728.429473	0.614755
728.760996	0.613507
729.092471	0.613380
729.423897	0.617447
729.755276	0.616414
730.086606	0.616650
730.417887	0.610971
730.749120	0.602048
731.080305	0.593153
731.411442	0.588778
731.742530	0.594050
732.073570	0.592455
732.404562	0.584984
732.735506	0.586688
733.066401	0.591346
733.397249	0.600517
733.728048	0.612595
734.058798	0.624706
734.389501	0.635534
734.720156	0.644181
735.050762	0.652955
735.381320	0.653662
735.711831	0.663578
736.042293	0.667915
736.372707	0.663224
736.703073	0.669118
737.033391	0.670431
737.363661	0.667171
737.693883	0.662725
738.024056	0.661731
738.354182	0.661734
738.684260	0.651106
739.014290	0.647324
739.344272	0.647905
739.674207	0.642109
740.004093	0.641303
740.333931	0.640961
740.663722	0.641495
740.993464	0.641848
741.323159	0.645372
741.652806	0.650563
741.982405	0.655971
742.311956	0.660396
742.641460	0.662078
742.970915	0.666539
743.300323	0.673388
743.629683	0.680879
743.958996	0.682118
744.288260	0.686570
744.617477	0.692899
744.946647	0.693696
745.275768	0.699686
745.604842	0.699541
745.933869	0.708837
746.262847	0.709333
746.591778	0.702746
746.920662	0.709436
747.249498	0.714951
747.578286	0.706573
747.907027	0.703189
748.235720	0.703834
748.564365	0.699115
748.892963	0.698106
749.221514	0.700635
749.550017	0.706824
749.878473	0.706066
750.206881	0.713100
750.535242	0.714172
750.863555	0.714147
751.191821	0.714820
751.520039	0.718049
751.848210	0.722304
752.176334	0.715399
752.504411	0.714699
752.832440	0.722316
753.160421	0.726585
753.488356	0.724796
753.816243	0.722206
754.144082	0.731537
754.471875	0.733983
754.799620	0.729299
755.127318	0.731133
755.454969	0.731509
755.782572	0.730606
756.110129	0.735638
756.437638	0.737766
756.765100	0.733912
757.092515	0.732075
757.419882	0.730894
757.747203	0.736463
758.074477	0.735926
758.401703	0.733125
758.728882	0.728147
759.056014	0.727729
759.383099	0.725718
759.710138	0.727243
760.037129	0.724059
760.364073	0.717841
760.690970	0.719891
761.017820	0.726072
761.344623	0.721196
761.671379	0.712330
761.998088	0.700454
762.324751	0.678472
762.651366	0.635912
762.977935	0.568475
763.304456	0.516713
763.630931	0.506983
763.957359	0.545442
764.283740	0.590465
764.610074	0.617263
764.936362	0.649311
765.262602	0.676315
765.588796	0.697715
765.914943	0.715957
766.241044	0.733051
766.567097	0.740266
766.893104	0.749858
767.219064	0.756106
767.544978	0.763003
767.870845	0.775817
768.196665	0.779900
768.522438	0.778132
768.848165	0.779336
769.173846	0.787931
769.499479	0.792584
769.825066	0.795690
770.150607	0.801373
770.476101	0.796223
770.801548	0.797191
771.126949	0.809393
771.452303	0.812343
771.777611	0.812189
772.102872	0.810575
772.428087	0.817187
772.753256	0.820011
773.078378	0.822001
773.403453	0.830357
773.728482	0.834465
774.053465	0.829256
774.378401	0.831897
774.703291	0.840274
775.028135	0.840145
775.352932	0.841749
775.677683	0.844403
776.002388	0.845473
776.327046	0.844646
776.651658	0.847999
776.976224	0.851446
777.300743	0.851892
777.625216	0.854604
777.949643	0.855975
778.274024	0.855337
778.598359	0.857041
778.922647	0.856468
779.246889	0.856543
779.571086	0.861059
779.895236	0.863600
780.219339	0.859866
780.543397	0.857757
780.867409	0.855219
781.191374	0.858010
781.515294	0.858922
781.839167	0.857738
782.162995	0.861666
782.486776	0.858251
782.810511	0.859320
783.134201	0.862611
783.457844	0.860444
783.781441	0.862610
784.104993	0.869439
784.428498	0.869818
784.751958	0.865692
785.075372	0.867566
785.398739	0.872316
785.722061	0.867964
786.045337	0.863285
786.368568	0.867365
786.691752	0.870561
787.014891	0.855591
787.337983	0.847528
787.661030	0.840126
787.984031	0.821687
788.306987	0.808513
788.629897	0.812175
788.952760	0.815591
789.275579	0.820130
789.598351	0.834621
789.921078	0.847932
790.243759	0.850203
790.566395	0.855414
790.888984	0.861593
791.211529	0.867302
791.534027	0.870151
791.856480	0.873162
792.178888	0.878135
792.501249	0.881390
792.823566	0.882105
793.145836	0.881846
793.468062	0.884461
793.790241	0.883407
794.112375	0.882042
794.434464	0.876747
794.756507	0.876893
795.078505	0.877116
795.400457	0.870200
795.722364	0.859514
796.044226	0.852177
796.366042	0.851325
796.687812	0.853911
797.009538	0.850602
797.331218	0.852444
797.652852	0.859001
797.974442	0.862798
798.295986	0.864045
798.617484	0.865811
798.938938	0.869552
799.260346	0.874951
799.581709	0.877833
799.903026	0.878597
800.224299	0.879553
800.545526	0.883368
800.866708	0.887882
801.187845	0.890917
801.508936	0.890948
801.829983	0.889177
802.150984	0.891774
802.471940	0.896969
802.792851	0.895624
803.113717	0.897509
803.434538	0.895427
803.755314	0.897458
804.076045	0.899954
804.396731	0.899361
804.717372	0.898761
805.037967	0.899055
805.358518	0.898153
805.679024	0.895327
805.999485	0.896420
806.319901	0.896708
806.640272	0.898102
806.960598	0.895020
807.280879	0.892683
807.601115	0.890988
807.921306	0.895184
808.241453	0.895545
808.561554	0.892270
808.881611	0.893717
809.201623	0.895103
809.521590	0.895017
809.841513	0.895754
810.161390	0.895816
810.481223	0.897010
810.801011	0.900593
811.120755	0.901105
811.440453	0.900020
811.760107	0.899353
812.079716	0.899530
812.399281	0.902605
812.718801	0.905495
813.038276	0.905866
813.357707	0.905943
813.677093	0.902289
813.996434	0.905502
814.315731	0.907486
814.634983	0.908484
814.954191	0.907212
815.273354	0.904307
815.592473	0.900508
815.911547	0.900900
816.230577	0.898196
816.549562	0.894156
816.868502	0.895010
817.187399	0.892323
817.506250	0.887066
817.825058	0.889502
818.143821	0.884970
818.462539	0.879345
818.781213	0.871873
819.099843	0.860822
819.418429	0.845002
819.736970	0.827416
820.055466	0.808651
820.373919	0.781905
820.692327	0.749175
821.010691	0.714097
821.329011	0.635274
821.647286	0.518699
821.965517	0.404170
822.283704	0.361586
822.601847	0.362098
822.919945	0.398229
823.237999	0.431933
823.556010	0.479570
823.873976	0.535773
824.191897	0.586925
824.509775	0.629702
824.827609	0.675783
825.145398	0.698143
825.463144	0.700666
825.780845	0.684486
826.098502	0.665571
826.416116	0.619053
826.733685	0.574626
827.051210	0.564953
827.368692	0.580254
827.686129	0.619158
828.003522	0.672346
828.320872	0.719547
828.638177	0.764335
828.955439	0.796263
829.272656	0.819496
829.589830	0.836767
829.906960	0.852563
830.224046	0.864360
830.541088	0.876124
830.858086	0.880780
831.175041	0.885322
831.491952	0.885301
831.808819	0.882437
832.125642	0.875538
832.442421	0.860391
832.759157	0.837820
833.075849	0.791926
833.392497	0.726696
833.709101	0.687080
834.025662	0.695306
834.342179	0.727392
834.658653	0.766842
834.975083	0.803443
835.291469	0.829185
835.607811	0.852615
835.924110	0.869045
836.240366	0.885790
836.556578	0.899570
836.872746	0.908242
837.188871	0.913854
837.504952	0.918446
837.820990	0.922587
838.136984	0.926067
838.452935	0.928541
838.768842	0.930851
839.084706	0.924621
839.400526	0.897116
839.716303	0.856978
840.032037	0.834293
840.347727	0.837691
840.663373	0.856307
840.978977	0.877829
841.294537	0.900601
841.610054	0.918542
841.925527	0.925411
842.240957	0.931857
842.556344	0.938782
842.871687	0.945113
843.186987	0.949175
843.502244	0.949059
843.817458	0.951239
844.132629	0.955714
844.447756	0.958584
844.762840	0.960709
845.077881	0.959653
845.392879	0.959741
845.707833	0.962850
846.022745	0.963658
846.337613	0.963743
846.652438	0.966534
846.967221	0.963974
847.281960	0.964907
847.596656	0.965843
847.911309	0.965857
848.225919	0.966727
848.540485	0.967885
848.855009	0.968500
849.169490	0.968742
849.483928	0.968749
849.798323	0.968406
850.112675	0.969147
850.426984	0.968742
850.741251	0.968565
851.055474	0.969409
851.369654	0.967597
851.683792	0.969520
851.997887	0.969625
852.311938	0.969846
852.625947	0.969981
852.939914	0.967771
853.253837	0.968826
853.567718	0.971057
853.881555	0.970984
854.195350	0.967773
854.509103	0.968520
854.822812	0.970227
855.136479	0.969608
855.450103	0.970078
855.763685	0.967856
856.077224	0.967944
856.390720	0.970545
856.704173	0.970557
857.017584	0.968288
857.330953	0.965461
857.644278	0.967005
857.957561	0.968244
858.270802	0.967641
858.584000	0.967370
858.897155	0.965834
859.210268	0.966927
859.523339	0.967985
859.836367	0.969238
860.149352	0.971175
860.462295	0.967645
860.775195	0.969313
861.088054	0.969199
861.400869	0.969646
861.713642	0.970566
862.026373	0.970355
862.339062	0.970674
862.651708	0.968260
862.964312	0.967061
863.276873	0.968979
863.589392	0.967644
863.901869	0.965691
864.214303	0.964267
864.526696	0.963074
864.839045	0.962416
865.151353	0.960468
865.463619	0.960691
865.775842	0.961584
866.088023	0.961641
866.400162	0.960817
866.712258	0.961855
867.024313	0.963234
867.336325	0.963298
867.648296	0.963101
867.960224	0.961210
868.272110	0.961779
868.583954	0.963185
868.895755	0.963807
869.207515	0.961123
869.519233	0.958741
869.830909	0.961790
870.142542	0.962296
870.454134	0.962246
870.765684	0.960221
871.077191	0.957562
871.388657	0.959230
871.700081	0.957483
872.011463	0.957717
872.322803	0.957471
872.634101	0.956796
872.945357	0.954145
873.256571	0.952669
873.567744	0.951573
873.878874	0.952652
874.189963	0.951543
874.501010	0.949876
874.812015	0.948005
875.122979	0.950624
875.433900	0.952479
875.744780	0.952115
876.055618	0.950577
876.366415	0.949388
876.677169	0.948535
876.987882	0.950107
877.298554	0.951049
877.609183	0.947042
877.919771	0.944520
878.230317	0.941698
878.540822	0.940030
878.851285	0.934085
879.161707	0.925684
879.472087	0.913825
879.782425	0.896426
880.092722	0.862251
880.402977	0.808978
880.713191	0.747048
881.023363	0.686566
881.333494	0.652261
881.643583	0.624171
881.953631	0.624254
882.263637	0.653019
882.573602	0.692152
882.883526	0.718687
883.193408	0.743154
883.503248	0.766064
883.813048	0.793959
884.122806	0.823234
884.432522	0.847290
884.742197	0.866986
885.051831	0.879371
885.361424	0.887972
885.670975	0.900620
885.980485	0.912018
886.289954	0.918188
886.599382	0.923695
886.908768	0.925360
887.218113	0.932801
887.527417	0.938510
887.836680	0.940413
888.145901	0.942994
888.455082	0.945029
888.764221	0.949833
889.073319	0.951370
889.382376	0.951282
889.691392	0.951755
890.000366	0.951616
890.309300	0.953332
890.618193	0.951902
890.927044	0.949852
891.235855	0.950989
891.544625	0.950969
891.853353	0.950552
892.162041	0.947968
892.470687	0.942804
892.779293	0.936010
893.087858	0.932265
893.396381	0.924239
893.704864	0.910711
894.013306	0.886192
894.321707	0.860552
894.630068	0.843989
894.938387	0.839365
895.246665	0.841005
895.554903	0.854629
895.863100	0.866654
896.171256	0.884795
896.479371	0.903445
896.787446	0.916776
897.095480	0.922271
897.403473	0.926727
897.711425	0.930804
898.019336	0.937745
898.327207	0.940819
898.635038	0.943460
898.942827	0.944163
899.250576	0.948404
899.558284	0.950071
899.865952	0.953634
900.173579	0.953902
900.481165	0.955847
900.788711	0.958933
901.096216	0.960846
901.403681	0.960423
901.711105	0.961999
902.018489	0.962171
902.325832	0.960899
902.633135	0.960211
902.940397	0.953922
903.247619	0.941406
903.554800	0.917090
903.861941	0.876343
904.169041	0.839078
904.476101	0.821231
904.783121	0.821897
905.090100	0.839133
905.397039	0.861039
905.703938	0.883439
906.010796	0.903668
906.317614	0.920513
906.624391	0.932596
906.931129	0.942584
907.237826	0.950607
907.544483	0.959028
907.851099	0.961496
908.157675	0.967064
908.464211	0.969493
908.770707	0.972014
909.077163	0.973596
909.383578	0.973837
909.689954	0.975153
909.996289	0.974439
910.302584	0.977971
910.608839	0.978181
910.915054	0.977396
911.221229	0.977282
911.527363	0.976317
911.833458	0.976793
912.139513	0.976611
912.445527	0.975077
912.751502	0.973108
913.057436	0.970812
913.363331	0.969362
913.669186	0.965585
913.975000	0.959969
914.280775	0.953896
914.586510	0.946880
914.892205	0.933157
915.197859	0.910873
915.503475	0.882656
915.809050	0.864093
916.114585	0.857158
916.420081	0.853925
916.725536	0.851266
917.030952	0.859528
917.336328	0.872724
917.641665	0.888229
917.946961	0.904352
918.252218	0.916531
918.557435	0.925182
918.862612	0.933922
919.167750	0.939858
919.472848	0.944499
919.777906	0.951369
920.082925	0.956865
920.387904	0.960926
920.692843	0.961283
920.997743	0.962298
921.302603	0.965756
921.607423	0.968093
921.912204	0.970871
922.216946	0.971733
922.521647	0.971950
922.826310	0.973647
923.130932	0.975763
923.435516	0.977387
923.740059	0.979541
924.044564	0.978625
924.349028	0.979354
924.653454	0.982278
924.957840	0.985365
925.262186	0.983519
925.566493	0.984314
925.870761	0.984339
926.174989	0.985431
926.479178	0.987873
926.783328	0.988047
927.087438	0.987347
927.391509	0.987780
927.695541	0.988634
927.999533	0.989039
928.303486	0.989115
928.607400	0.990702
928.911275	0.989030
929.215110	0.990371
929.518906	0.990490
929.822663	0.989291
930.126381	0.989831
930.430060	0.989738
930.733699	0.988368
931.037299	0.988528
931.340861	0.989944
931.644383	0.989487
931.947866	0.988994
932.251309	0.989641
932.554714	0.991403
932.858080	0.990485
933.161407	0.989246
933.464694	0.990531
933.767943	0.988542
934.071153	0.991449
934.374323	0.991453
934.677455	0.991139
934.980548	0.991407
935.283602	0.990602
935.586617	0.990044
935.889593	0.990572
936.192530	0.990641
936.495428	0.991710
936.798287	0.989285
937.101108	0.989780
937.403890	0.988601
937.706632	0.988155
938.009336	0.986486
938.312002	0.986352
938.614628	0.984132
938.917216	0.983381
939.219765	0.981793
939.522275	0.982754
939.824747	0.982323
940.127179	0.982829
940.429573	0.983576
940.731929	0.983089
941.034246	0.984056
941.336524	0.985748
941.638763	0.985676
941.940964	0.986907
942.243126	0.986286
942.545250	0.988184
942.847335	0.987391
943.149381	0.988377
943.451389	0.988451
943.753359	0.986716
944.055290	0.989215
944.357182	0.989398
944.659036	0.988043
944.960851	0.989524
945.262628	0.989144
945.564367	0.990671
945.866067	0.989772
946.167729	0.989350
946.469352	0.989660
946.770937	0.987600
947.072484	0.990576
947.373992	0.989998
947.675462	0.989199
947.976893	0.990642
948.278286	0.990638
948.579641	0.991504
948.880958	0.990616
949.182236	0.991154
949.483476	0.991061
949.784678	0.989887
950.085841	0.991305
950.386967	0.991604
950.688054	0.990216
950.989103	0.991200
951.290114	0.989337
951.591087	0.990373
951.892021	0.990382
952.192917	0.988318
952.493776	0.988182
952.794596	0.988211
953.095378	0.988773
953.396122	0.987970
953.696828	0.986958
953.997496	0.989720
954.298126	0.988522
954.598718	0.989024
954.899272	0.990974
955.199788	0.989615
955.500266	0.991221
955.800706	0.993646
956.101108	0.991937
956.401472	0.993273
956.701798	0.994154
957.002087	0.992826
957.302337	0.992493
957.602550	0.994807
957.902724	0.994821
958.202861	0.995282
958.502960	0.996210
958.803022	0.993350
959.103045	0.996171
959.403031	0.996206
959.702979	0.995207
960.002889	0.995628
960.302762	0.994529
960.602596	0.996440
960.902393	0.995039
961.202153	0.996524
961.501875	0.996853
961.801559	0.996159
962.101205	0.995526
962.400814	0.996657
962.700385	0.997192
962.999918	0.995604
963.299414	0.995646
963.598873	0.996559
963.898293	0.997038
964.197677	0.996097
964.497022	0.995769
964.796331	0.997045
965.095601	0.996431
965.394835	0.997174
965.694030	0.996425
965.993189	0.996587
966.292309	0.996239
966.591393	0.997784
966.890439	0.997189
967.189447	0.996909
967.488419	0.997149
967.787353	0.995559
968.086249	0.995837
968.385108	0.997446
968.683930	0.997464
968.982714	0.996492
969.281462	0.997672
969.580172	0.997147
969.878844	0.996793
970.177480	0.996927
970.476078	0.996872
970.774639	0.996364
971.073162	0.996404
971.371649	0.995729
971.670098	0.996780
971.968510	0.997997
972.266885	0.995848
972.565223	0.996833
972.863524	0.996256
973.161788	0.996132
973.460014	0.997221
973.758204	0.995624
974.056356	0.996091
974.354471	0.993759
974.652550	0.995797
974.950591	0.996454
975.248595	0.996786
975.546563	0.996187
975.844493	0.998036
976.142386	0.996442
976.440243	0.996833
976.738062	0.996811
977.035845	0.997239
977.333590	0.997193
977.631299	0.997245
977.928971	0.996595
978.226606	0.997104
978.524204	0.995782
978.821765	0.999039
979.119290	0.996955
979.416777	0.997019
979.714228	0.997965
980.011642	0.995912
980.309020	0.996383
980.606360	0.996921
980.903664	0.996988
981.200931	0.997028
981.498162	0.994500
981.795356	0.994691
982.092513	0.993809
982.389633	0.995010
982.686717	0.991984
982.983764	0.991014
983.280775	0.990388
983.577749	0.990873
983.874686	0.991183
984.171587	0.991717
984.468451	0.994086
984.765279	0.994603
985.062070	0.994670
985.358824	0.995574
985.655543	0.994625
985.952224	0.996825
986.248869	0.995876
986.545478	0.997269
986.842050	0.999024
987.138586	0.995685
987.435086	0.996365
987.731549	0.997294
988.027975	0.997739
988.324366	0.996837
988.620719	0.997322
988.917037	0.996268
989.213318	0.999169
989.509563	0.997780
989.805772	0.998522
990.101944	0.997179
990.398080	0.997103
990.694180	0.998296
990.990244	0.996155
991.286271	0.997985
991.582262	0.998044
991.878217	0.998271
992.174136	0.999313
992.470019	0.998336
992.765865	0.997434
993.061676	0.998874
993.357450	0.997561
993.653188	0.997886
993.948890	0.997007
994.244556	0.997782
994.540186	0.997571
994.835780	0.996208
995.131337	0.998645
995.426859	0.996419
995.722345	0.997720
996.017795	0.995790
996.313208	0.996614
996.608586	0.995111
996.903928	0.996153
997.199234	0.995998
997.494504	0.996848
997.789738	0.996705
998.084936	0.996190
998.380099	0.998006
998.675225	0.997066
998.970316	0.999743
999.265371	0.998198
999.560390	0.999310
999.855373	0.997900
1000.150320	0.998654
1000.445232	0.998125
1000.740108	0.997118
1001.034948	0.998282
1001.329752	0.998563
1001.624521	0.999855
1001.919254	0.998685
1002.213951	0.997661
1002.508613	0.997632
1002.803239	0.999126
1003.097829	0.998821
1003.392384	0.998883
1003.686903	0.997775
1003.981386	0.998248
1004.275834	0.999081
1004.570246	0.998785
1004.864623	0.999736
1005.158964	0.999478
1005.453270	0.999497
1005.747540	0.998271
1006.041775	0.997793
1006.335974	0.998560
1006.630138	0.998829
1006.924266	0.999513
1007.218359	1.000513
1007.512416	0.999522
1007.806438	0.999514
1008.100425	0.999037
1008.394376	0.998845
1008.688292	0.998788
1008.982172	0.999390
1009.276017	0.999190
1009.569827	0.998221
1009.863602	0.998945
1010.157341	0.999819
1010.451045	1.000291
1010.744714	0.998901
1011.038347	0.999467
1011.331945	1.000066
1011.625508	0.998106
1011.919036	0.998707
1012.212528	0.998722
1012.505986	0.998201
1012.799408	0.998414
1013.092795	0.999632
1013.386147	0.999949
1013.679464	0.999663
1013.972745	0.999371
1014.265992	0.998030
1014.559204	0.998906
1014.852380	0.998556
1015.145521	0.998699
1015.438628	0.999135
1015.731699	0.998377
1016.024736	0.998904
1016.317737	0.997987
1016.610703	0.999395
1016.903635	0.999957
1017.196531	0.997370
1017.489393	1.000365
1017.782219	0.999325
1018.075011	0.999532
1018.367768	0.998672
1018.660490	0.999978
1018.953177	0.999978
1019.245829	0.999978
