Dividing Wavelength (nm)	Counts (n)	Blue Motor Position (mm): 0.000000	Red Motor Position (mm): 14.900000	
326.493990	1.001338
326.888308	1.001338
327.282561	1.001338
327.676750	1.000792
328.070874	1.000508
328.464933	1.000240
328.858929	1.001211
329.252859	1.001424
329.646726	1.000146
330.040528	1.000283
330.434265	1.000870
330.827938	1.001876
331.221547	1.000735
331.615091	1.001275
332.008571	1.001096
332.401986	1.000242
332.795338	1.000826
333.188625	0.999466
333.581847	1.001595
333.975006	1.000103
334.368100	1.001113
334.761129	1.001008
335.154095	1.000816
335.546996	0.997872
335.939833	0.993134
336.332606	0.994030
336.725315	0.994994
337.117960	0.995658
337.510540	0.994456
337.903056	0.995025
338.295508	0.993331
338.687896	0.994244
339.080220	0.994537
339.472480	0.994490
339.864676	0.994300
340.256807	0.994983
340.648875	0.995612
341.040879	0.995126
341.432818	0.994636
341.824694	0.993933
342.216506	0.995141
342.608253	0.995181
342.999937	0.994850
343.391557	0.995005
343.783113	0.994721
344.174605	0.995176
344.566033	0.994600
344.957397	0.992448
345.348697	0.994194
345.739934	0.994078
346.131106	0.993693
346.522215	0.993864
346.913260	0.994655
347.304241	0.994330
347.695159	0.995534
348.086012	0.994345
348.476802	0.993864
348.867528	0.993995
349.258191	0.993219
349.648789	0.995781
350.039324	0.992698
350.429796	0.994444
350.820203	0.994465
351.210548	0.994573
351.600828	0.994918
351.991045	0.994609
352.381198	0.993388
352.771288	0.994431
353.161314	0.994196
353.551276	0.995727
353.941175	0.993192
354.331010	0.994553
354.720782	0.995323
355.110490	0.993582
355.500135	0.995580
355.889717	0.994588
356.279235	0.993742
356.668689	0.993843
357.058080	0.994926
357.447408	0.995328
357.836672	0.995778
358.225873	0.995416
358.615010	0.995341
359.004084	0.995897
359.393095	0.995763
359.782043	0.995150
360.170927	0.996446
360.559748	0.995293
360.948505	0.993956
361.337199	0.994364
361.725830	0.994629
362.114398	0.994328
362.502903	0.995106
362.891344	0.994976
363.279722	0.993651
363.668037	0.994701
364.056289	0.995168
364.444478	0.994106
364.832603	0.995220
365.220665	0.994667
365.608665	0.993028
365.996601	0.994907
366.384474	0.994001
366.772284	0.994941
367.160031	0.992935
367.547715	0.992471
367.935336	0.994128
368.322893	0.993556
368.710388	0.993025
369.097820	0.993873
369.485189	0.994241
369.872495	0.992758
370.259738	0.991640
370.646918	0.995332
371.034035	0.994309
371.421090	0.993699
371.808081	0.993665
372.195010	0.994009
372.581875	0.993617
372.968678	0.993395
373.355418	0.994140
373.742096	0.994843
374.128710	0.996164
374.515262	0.993180
374.901751	0.994426
375.288177	0.993633
375.674540	0.994675
376.060841	0.992779
376.447079	0.994167
376.833254	0.994497
377.219367	0.994299
377.605417	0.995241
377.991404	0.994527
378.377329	0.993128
378.763191	0.993553
379.148991	0.994551
379.534727	0.994362
379.920402	0.995105
380.306013	0.993762
380.691563	0.994375
381.077049	0.993904
381.462474	0.994473
381.847835	0.995356
382.233134	0.993865
382.618371	0.995111
383.003545	0.994758
383.388657	0.994133
383.773706	0.994906
384.158693	0.994548
384.543618	0.994683
384.928480	0.994675
385.313280	0.994315
385.698017	0.994935
386.082692	0.995300
386.467305	0.994791
386.851856	0.994015
387.236344	0.993924
387.620770	0.993874
388.005133	0.994554
388.389435	0.994586
388.773674	0.993965
389.157851	0.994895
389.541965	0.994413
389.926018	0.994599
390.310008	0.994816
390.693936	0.994003
391.077802	0.993958
391.461606	0.993767
391.845348	0.994079
392.229027	0.994256
392.612645	0.993193
392.996200	0.993600
393.379694	0.991599
393.763125	0.991081
394.146494	0.989098
394.529801	0.986165
394.913047	0.985354
395.296230	0.983211
395.679351	0.979862
396.062410	0.977495
396.445408	0.975643
396.828343	0.971663
397.211217	0.968167
397.594028	0.965498
397.976778	0.959728
398.359466	0.955762
398.742092	0.950743
399.124656	0.946434
399.507158	0.941079
399.889598	0.935498
400.271977	0.928805
400.654294	0.923551
401.036549	0.917875
401.418742	0.910920
401.800874	0.902356
402.182944	0.894747
402.564952	0.884593
402.946898	0.879004
403.328783	0.870732
403.710606	0.866427
404.092367	0.850326
404.474067	0.843841
404.855705	0.835082
405.237282	0.831373
405.618797	0.816831
406.000250	0.806118
406.381642	0.794181
406.762972	0.786142
407.144240	0.777103
407.525447	0.768621
407.906593	0.757070
408.287677	0.745310
408.668700	0.741522
409.049661	0.728806
409.430560	0.717040
409.811399	0.713488
410.192176	0.693401
410.572891	0.689595
410.953545	0.673543
411.334138	0.674640
411.714669	0.662442
412.095139	0.663266
412.475547	0.644488
412.855894	0.638348
413.236180	0.630633
413.616405	0.627387
413.996568	0.614646
414.376670	0.612671
414.756711	0.610177
415.136691	0.602015
415.516609	0.590228
415.896466	0.581160
416.276262	0.573181
416.655997	0.569848
417.035670	0.548398
417.415283	0.536833
417.794834	0.536974
418.174324	0.538328
418.553753	0.543385
418.933121	0.523339
419.312428	0.513302
419.691674	0.515692
420.070859	0.502021
420.449983	0.507115
420.829045	0.494753
421.208047	0.501267
421.586988	0.492731
421.965867	0.489621
422.344686	0.477180
422.723444	0.487589
423.102141	0.502388
423.480777	0.475180
423.859352	0.493726
424.237866	0.470483
424.616319	0.470541
424.994712	0.460745
425.373044	0.470463
425.751314	0.457899
426.129524	0.473562
426.507673	0.457039
426.885762	0.450261
427.263789	0.455091
427.641756	0.464652
428.019662	0.455291
428.397508	0.453605
428.775292	0.457243
429.153016	0.449380
429.530679	0.456036
429.908282	0.448256
430.285824	0.458839
430.663305	0.436733
431.040726	0.457582
431.418086	0.458579
431.795385	0.449609
432.172624	0.447947
432.549802	0.448888
432.926920	0.447250
433.303977	0.446843
433.680974	0.443942
434.057910	0.442810
434.434786	0.441812
434.811601	0.444098
435.188355	0.426727
435.565050	0.435748
435.941683	0.437344
436.318257	0.421928
436.694770	0.422181
437.071222	0.420339
437.447614	0.425015
437.823946	0.432029
438.200218	0.420951
438.576429	0.430276
438.952580	0.423544
439.328670	0.420034
439.704700	0.426792
440.080670	0.427746
440.456580	0.408654
440.832429	0.416619
441.208218	0.428004
441.583947	0.416735
441.959616	0.416908
442.335224	0.421477
442.710773	0.412467
443.086261	0.410057
443.461689	0.424104
443.837057	0.414157
444.212365	0.404257
444.587612	0.411035
444.962800	0.401088
445.337927	0.402474
445.712995	0.429052
446.088002	0.391035
446.462949	0.401584
446.837837	0.406111
447.212664	0.394928
447.587431	0.386518
447.962139	0.357266
448.336786	0.316699
448.711374	0.326734
449.085901	0.370926
449.460369	0.375276
449.834776	0.378811
450.209124	0.358562
450.583412	0.350437
450.957640	0.343709
451.331808	0.354990
451.705917	0.378355
452.079965	0.382785
452.453954	0.370905
452.827883	0.377547
453.201752	0.372638
453.575562	0.384119
453.949311	0.372627
454.323001	0.378524
454.696632	0.374750
455.070202	0.366832
455.443713	0.358905
455.817164	0.353949
456.190556	0.349767
456.563888	0.346180
456.937160	0.343938
457.310373	0.361523
457.683526	0.359685
458.056619	0.365369
458.429653	0.366426
458.802628	0.369951
459.175542	0.364003
459.548398	0.346806
459.921194	0.339393
460.293930	0.339038
460.666607	0.317273
461.039224	0.304967
461.411782	0.301074
461.784280	0.299975
462.156719	0.304804
462.529099	0.308955
462.901419	0.324580
463.273680	0.329195
463.645882	0.328611
464.018024	0.334776
464.390106	0.327621
464.762130	0.312200
465.134094	0.295352
465.505999	0.264623
465.877845	0.235274
466.249631	0.222269
466.621358	0.229589
466.993026	0.243462
467.364634	0.249433
467.736184	0.258309
468.107674	0.266957
468.479105	0.266127
468.850477	0.273215
469.221790	0.279992
469.593043	0.289846
469.964238	0.294669
470.335373	0.294044
470.706449	0.292219
471.077467	0.293003
471.448425	0.255316
471.819324	0.230920
472.190164	0.230080
472.560945	0.259029
472.931667	0.281112
473.302330	0.285104
473.672934	0.297330
474.043479	0.285222
474.413965	0.287288
474.784393	0.290743
475.154761	0.285919
475.525070	0.282527
475.895321	0.288587
476.265513	0.282360
476.635645	0.278040
477.005719	0.278336
477.375734	0.274823
477.745691	0.267826
478.115588	0.264519
478.485427	0.258012
478.855207	0.245064
479.224928	0.227639
479.594591	0.215363
479.964194	0.218971
480.333739	0.220350
480.703226	0.221487
481.072653	0.220140
481.442022	0.215711
481.811333	0.212072
482.180584	0.215653
482.549777	0.220718
482.918912	0.224432
483.287988	0.223883
483.657005	0.223620
484.025964	0.229696
484.394864	0.227409
484.763706	0.228026
485.132489	0.232790
485.501213	0.233571
485.869879	0.231964
486.238487	0.235390
486.607036	0.233234
486.975527	0.237767
487.343959	0.233435
487.712333	0.232558
488.080648	0.233965
488.448905	0.233415
488.817104	0.234382
489.185244	0.228761
489.553326	0.225919
489.921350	0.215757
490.289315	0.198403
490.657222	0.193255
491.025070	0.194477
491.392861	0.196534
491.760593	0.202149
492.128267	0.207992
492.495883	0.213326
492.863440	0.219726
493.230939	0.225886
493.598380	0.227251
493.965763	0.229459
494.333088	0.231646
494.700354	0.233287
495.067563	0.232145
495.434713	0.235419
495.801805	0.233600
496.168839	0.234741
496.535815	0.236344
496.902733	0.236017
497.269593	0.238000
497.636395	0.235458
498.003139	0.235669
498.369825	0.238595
498.736453	0.235391
499.103023	0.236816
499.469535	0.236106
499.835989	0.236510
500.202385	0.237331
500.568723	0.240309
500.935003	0.235895
501.301226	0.240245
501.667390	0.234426
502.033497	0.232307
502.399546	0.235563
502.765537	0.237271
503.131470	0.235625
503.497345	0.231816
503.863163	0.240671
504.228923	0.233803
504.594625	0.232309
504.960269	0.237798
505.325856	0.232781
505.691385	0.237275
506.056856	0.233884
506.422270	0.233629
506.787625	0.235850
507.152924	0.233338
507.518164	0.233819
507.883347	0.235285
508.248472	0.237296
508.613540	0.232151
508.978550	0.234857
509.343503	0.235168
509.708398	0.232853
510.073236	0.230323
510.438016	0.230505
510.802738	0.231098
511.167403	0.230304
511.532010	0.232318
511.896561	0.227776
512.261053	0.226656
512.625488	0.228625
512.989866	0.229089
513.354186	0.229313
513.718449	0.231140
514.082655	0.227433
514.446803	0.229712
514.810894	0.227295
515.174927	0.230116
515.538904	0.229593
515.902822	0.226269
516.266684	0.228526
516.630488	0.229785
516.994235	0.228491
517.357925	0.227697
517.721558	0.225881
518.085133	0.225218
518.448651	0.225291
518.812112	0.227476
519.175516	0.227051
519.538863	0.225012
519.902152	0.226617
520.265385	0.223297
520.628560	0.225058
520.991678	0.225332
521.354739	0.224416
521.717743	0.225619
522.080690	0.226038
522.443580	0.223232
522.806413	0.224380
523.169189	0.223436
523.531908	0.222513
523.894569	0.226098
524.257174	0.226015
524.619722	0.223336
524.982213	0.224751
525.344647	0.223616
525.707025	0.224631
526.069345	0.222652
526.431608	0.224225
526.793815	0.222132
527.155964	0.226511
527.518057	0.225475
527.880093	0.226358
528.242072	0.224772
528.603995	0.226891
528.965860	0.228293
529.327669	0.227232
529.689421	0.228568
530.051117	0.229064
530.412755	0.226886
530.774337	0.229236
531.135862	0.229598
531.497331	0.229025
531.858743	0.232013
532.220098	0.228508
532.581396	0.230673
532.942638	0.231593
533.303824	0.232374
533.664953	0.232243
534.026025	0.234067
534.387040	0.231794
534.747999	0.231797
535.108902	0.230661
535.469748	0.235783
535.830537	0.233394
536.191270	0.233901
536.551947	0.233588
536.912567	0.233618
537.273131	0.235511
537.633638	0.235417
537.994089	0.235688
538.354483	0.236920
538.714821	0.233989
539.075103	0.233321
539.435328	0.234352
539.795497	0.238217
540.155609	0.234490
540.515665	0.233104
540.875665	0.238510
541.235609	0.236960
541.595496	0.237308
541.955328	0.233558
542.315102	0.236329
542.674821	0.237614
543.034483	0.237193
543.394090	0.236920
543.753640	0.239065
544.113134	0.233925
544.472571	0.237149
544.831953	0.234069
545.191278	0.238269
545.550548	0.237541
545.909761	0.234685
546.268918	0.235348
546.628019	0.233612
546.987064	0.236285
547.346053	0.238222
547.704986	0.235898
548.063863	0.236225
548.422684	0.236112
548.781449	0.238438
549.140158	0.235930
549.498811	0.238620
549.857408	0.241806
550.215949	0.236552
550.574434	0.239840
550.932864	0.237480
551.291237	0.236315
551.649555	0.237797
552.007817	0.237524
552.366022	0.238082
552.724173	0.238621
553.082267	0.238724
553.440305	0.235569
553.798288	0.240375
554.156215	0.236595
554.514086	0.237173
554.871902	0.240377
555.229661	0.239746
555.587365	0.240429
555.945014	0.242718
556.302606	0.239826
556.660143	0.242215
557.017625	0.238772
557.375050	0.240825
557.732421	0.238026
558.089735	0.240173
558.446994	0.240036
558.804197	0.239367
559.161345	0.239159
559.518437	0.242770
559.875474	0.240126
560.232455	0.239628
560.589381	0.241157
560.946251	0.241073
561.303065	0.238788
561.659825	0.240148
562.016528	0.241509
562.373177	0.244461
562.729770	0.241901
563.086307	0.244003
563.442789	0.241722
563.799216	0.244194
564.155587	0.243225
564.511904	0.243894
564.868164	0.244517
565.224370	0.244050
565.580520	0.246089
565.936615	0.245885
566.292654	0.248834
566.648638	0.245850
567.004567	0.246935
567.360441	0.247485
567.716260	0.249644
568.072023	0.247205
568.427732	0.247750
568.783385	0.250271
569.138982	0.248358
569.494525	0.247737
569.850013	0.250956
570.205445	0.249464
570.560823	0.251808
570.916145	0.254084
571.271412	0.252241
571.626625	0.253784
571.981782	0.253945
572.336884	0.255031
572.691931	0.254672
573.046923	0.255825
573.401860	0.257166
573.756743	0.258875
574.111570	0.257781
574.466342	0.258216
574.821059	0.257121
575.175722	0.260228
575.530330	0.259920
575.884882	0.260219
576.239380	0.262330
576.593823	0.262643
576.948211	0.262135
577.302544	0.265429
577.656823	0.264801
578.011047	0.265090
578.365216	0.265912
578.719330	0.267707
579.073389	0.267480
579.427394	0.269027
579.781344	0.269951
580.135239	0.271272
580.489080	0.270808
580.842866	0.273529
581.196597	0.273356
581.550273	0.272391
581.903895	0.273112
582.257463	0.271215
582.610975	0.275052
582.964434	0.274311
583.317837	0.276658
583.671186	0.277307
584.024481	0.277039
584.377721	0.279508
584.730906	0.280459
585.084037	0.279256
585.437113	0.281249
585.790135	0.280531
586.143103	0.283625
586.496016	0.284850
586.848874	0.282063
587.201679	0.283006
587.554428	0.286364
587.907124	0.284999
588.259765	0.285554
588.612352	0.285983
588.964884	0.290139
589.317362	0.289586
589.669786	0.289264
590.022155	0.288300
590.374470	0.287241
590.726731	0.289383
591.078937	0.294138
591.431090	0.290489
591.783188	0.294707
592.135232	0.295343
592.487222	0.294967
592.839157	0.293628
593.191038	0.295655
593.542866	0.297708
593.894639	0.300868
594.246358	0.298916
594.598022	0.298386
594.949633	0.302387
595.301190	0.302409
595.652692	0.302148
596.004141	0.298282
596.355535	0.306233
596.706876	0.307123
597.058162	0.309234
597.409395	0.306413
597.760573	0.303838
598.111698	0.307332
598.462768	0.307773
598.813785	0.309251
599.164748	0.310638
599.515657	0.310577
599.866511	0.314016
600.217312	0.309096
600.568060	0.314766
600.918753	0.311114
601.269392	0.312121
601.619978	0.315351
601.970510	0.312983
602.320988	0.313141
602.671412	0.310771
603.021783	0.313183
603.372100	0.314632
603.722363	0.314646
604.072572	0.315151
604.422728	0.314830
604.772830	0.317069
605.122878	0.316494
605.472872	0.316832
605.822813	0.315143
606.172701	0.318382
606.522534	0.315389
606.872314	0.315498
607.222041	0.316501
607.571714	0.314662
607.921333	0.316146
608.270899	0.315857
608.620411	0.312423
608.969870	0.316639
609.319276	0.316415
609.668627	0.316723
610.017926	0.315174
610.367171	0.313480
610.716362	0.314421
611.065500	0.314627
611.414585	0.313382
611.763616	0.313648
612.112594	0.314203
612.461518	0.313642
612.810389	0.311244
613.159207	0.313558
613.507971	0.315552
613.856682	0.311277
614.205340	0.312820
614.553945	0.309736
614.902496	0.313553
615.250994	0.311486
615.599439	0.312040
615.947830	0.311474
616.296169	0.312887
616.644454	0.311909
616.992686	0.312138
617.340864	0.310190
617.688990	0.313750
618.037063	0.310222
618.385082	0.312378
618.733048	0.309022
619.080961	0.311480
619.428821	0.310818
619.776628	0.310693
620.124382	0.312394
620.472083	0.312769
620.819731	0.311942
621.167326	0.315929
621.514868	0.315373
621.862357	0.319963
622.209793	0.319266
622.557176	0.321295
622.904506	0.322728
623.251783	0.324674
623.599007	0.327137
623.946179	0.327004
624.293297	0.328899
624.640363	0.332224
624.987376	0.333491
625.334336	0.335479
625.681243	0.337950
626.028097	0.338679
626.374899	0.339787
626.721647	0.339906
627.068343	0.343094
627.414987	0.344179
627.761577	0.346491
628.108115	0.344805
628.454600	0.349948
628.801032	0.347087
629.147412	0.349172
629.493739	0.349439
629.840014	0.352773
630.186236	0.350477
630.532405	0.355653
630.878521	0.353065
631.224585	0.355195
631.570597	0.358915
631.916556	0.357551
632.262462	0.357563
632.608316	0.359575
632.954117	0.360555
633.299866	0.361163
633.645562	0.361934
633.991206	0.366212
634.336797	0.368930
634.682336	0.370968
635.027823	0.373031
635.373257	0.373715
635.718639	0.376973
636.063968	0.376090
636.409245	0.382482
636.754470	0.382561
637.099642	0.384983
637.444762	0.388344
637.789829	0.387094
638.134845	0.390839
638.479808	0.391754
638.824719	0.391448
639.169577	0.395713
639.514383	0.394461
639.859137	0.399143
640.203839	0.398330
640.548489	0.399148
640.893086	0.400554
641.237632	0.402193
641.582125	0.400614
641.926566	0.402074
642.270955	0.401925
642.615292	0.402725
642.959576	0.401632
643.303809	0.402193
643.647990	0.401910
643.992118	0.402347
644.336195	0.406086
644.680219	0.404224
645.024192	0.404995
645.368112	0.398529
645.711981	0.397660
646.055797	0.393049
646.399562	0.395358
646.743274	0.387277
647.086935	0.384502
647.430544	0.384724
647.774101	0.383730
648.117606	0.383327
648.461059	0.383746
648.804460	0.386403
649.147810	0.391445
649.491108	0.393357
649.834354	0.394349
650.177548	0.400378
650.520690	0.405542
650.863781	0.406609
651.206820	0.405823
651.549807	0.410815
651.892742	0.414460
652.235626	0.414217
652.578458	0.415106
652.921238	0.421129
653.263967	0.419323
653.606644	0.423426
653.949269	0.422539
654.291843	0.426994
654.634365	0.423368
654.976836	0.425961
655.319255	0.427076
655.661622	0.428361
656.003938	0.428785
656.346203	0.431206
656.688416	0.428891
657.030577	0.432439
657.372687	0.434475
657.714746	0.435228
658.056753	0.432450
658.398708	0.436246
658.740612	0.437510
659.082465	0.433137
659.424266	0.434159
659.766016	0.433463
660.107715	0.436286
660.449362	0.435166
660.790958	0.435358
661.132503	0.436107
661.473996	0.433901
661.815438	0.435011
662.156829	0.435322
662.498168	0.435833
662.839456	0.437323
663.180693	0.434696
663.521879	0.434654
663.863013	0.435521
664.204097	0.434155
664.545129	0.431127
664.886110	0.431072
665.227040	0.428417
665.567918	0.431383
665.908746	0.429242
666.249522	0.429377
666.590248	0.429449
666.930922	0.427857
667.271545	0.426865
667.612118	0.427098
667.952639	0.428578
668.293109	0.427182
668.633528	0.430320
668.973896	0.430206
669.314213	0.430572
669.654480	0.432369
669.994695	0.432732
670.334859	0.433299
670.674973	0.433439
671.015035	0.433476
671.355047	0.433438
671.695008	0.434543
672.034918	0.436867
672.374777	0.435784
672.714585	0.437071
673.054342	0.437387
673.394049	0.437263
673.733705	0.434501
674.073310	0.435627
674.412864	0.438759
674.752368	0.439234
675.091820	0.439761
675.431223	0.444110
675.770574	0.443789
676.109875	0.446565
676.449125	0.447167
676.788324	0.448987
677.127473	0.454585
677.466571	0.454348
677.805619	0.456102
678.144616	0.457170
678.483562	0.458380
678.822458	0.461131
679.161303	0.463056
679.500098	0.462623
679.838842	0.464491
680.177535	0.464018
680.516179	0.462764
680.854771	0.462234
681.193314	0.454831
681.531805	0.445501
681.870247	0.435191
682.208638	0.427311
682.546978	0.426145
682.885268	0.427959
683.223508	0.434648
683.561697	0.438221
683.899836	0.440569
684.237925	0.444566
684.575963	0.446024
684.913951	0.449883
685.251889	0.445793
685.589776	0.447099
685.927614	0.449915
686.265401	0.443971
686.603137	0.445152
686.940824	0.439532
687.278460	0.437576
687.616046	0.436703
687.953582	0.431728
688.291068	0.433360
688.628504	0.429132
688.965889	0.431258
689.303224	0.435075
689.640510	0.439293
689.977745	0.444926
690.314930	0.453188
690.652065	0.457644
690.989150	0.465098
691.326185	0.471327
691.663170	0.476139
692.000105	0.483093
692.336990	0.490177
692.673825	0.492916
693.010610	0.499496
693.347345	0.505658
693.684030	0.507061
694.020665	0.511486
694.357251	0.520231
694.693786	0.520068
695.030272	0.524487
695.366707	0.527500
695.703093	0.531471
696.039429	0.528927
696.375716	0.530180
696.711952	0.533072
697.048139	0.535226
697.384276	0.537518
697.720363	0.536006
698.056400	0.534630
698.392388	0.540094
698.728326	0.543335
699.064214	0.546318
699.400053	0.546910
699.735842	0.550215
700.071581	0.552960
700.407270	0.555875
700.742910	0.558697
701.078501	0.565246
701.414042	0.564894
701.749533	0.569347
702.084974	0.577658
702.420366	0.569666
702.755709	0.578228
703.091002	0.585046
703.426246	0.578136
703.761440	0.584485
704.096584	0.589023
704.431679	0.585549
704.766725	0.588481
705.101721	0.589412
705.436668	0.586016
705.771565	0.593288
706.106413	0.589720
706.441212	0.584766
706.775961	0.583917
707.110661	0.586875
707.445311	0.582756
707.779913	0.580574
708.114465	0.578890
708.448967	0.574922
708.783421	0.567191
709.117825	0.561666
709.452180	0.562189
709.786485	0.555995
710.120742	0.545044
710.454949	0.547934
710.789107	0.539989
711.123216	0.530536
711.457275	0.532292
711.791286	0.523742
712.125247	0.522212
712.459159	0.532675
712.793023	0.525770
713.126837	0.529076
713.460602	0.530754
713.794318	0.539057
714.127985	0.538365
714.461602	0.548577
714.795171	0.551452
715.128691	0.558905
715.462162	0.566070
715.795584	0.572549
716.128957	0.575573
716.462281	0.581855
716.795556	0.585469
717.128782	0.590164
717.461960	0.600453
717.795088	0.598330
718.128167	0.605351
718.461198	0.613398
718.794180	0.614288
719.127113	0.616890
719.459997	0.620430
719.792833	0.626964
720.125619	0.627600
720.458357	0.633413
720.791046	0.633731
721.123686	0.636241
721.456278	0.642976
721.788821	0.641570
722.121315	0.645414
722.453761	0.649669
722.786158	0.647312
723.118506	0.643633
723.450805	0.652017
723.783056	0.647273
724.115259	0.644428
724.447412	0.644619
724.779518	0.645919
725.111574	0.644700
725.443582	0.640628
725.775542	0.642407
726.107453	0.634246
726.439315	0.634004
726.771129	0.632668
727.102895	0.625490
727.434612	0.618764
727.766281	0.617151
728.097901	0.616407
728.429473	0.616621
728.760996	0.614582
729.092471	0.615164
729.423897	0.618304
729.755276	0.617589
730.086606	0.617636
730.417887	0.611837
730.749120	0.602603
731.080305	0.593907
731.411442	0.589735
731.742530	0.594991
732.073570	0.593837
732.404562	0.586329
732.735506	0.587520
733.066401	0.592058
733.397249	0.601738
733.728048	0.612866
734.058798	0.625954
734.389501	0.636739
734.720156	0.646003
735.050762	0.654110
735.381320	0.654859
735.711831	0.664154
736.042293	0.668697
736.372707	0.664983
736.703073	0.669733
737.033391	0.672386
737.363661	0.667890
737.693883	0.663420
738.024056	0.664049
738.354182	0.662753
738.684260	0.652073
739.014290	0.648180
739.344272	0.649304
739.674207	0.642254
740.004093	0.641957
740.333931	0.641920
740.663722	0.642398
740.993464	0.643183
741.323159	0.646442
741.652806	0.651779
741.982405	0.656701
742.311956	0.661339
742.641460	0.662984
742.970915	0.666611
743.300323	0.674858
743.629683	0.681365
743.958996	0.683040
744.288260	0.687716
744.617477	0.692889
744.946647	0.694549
745.275768	0.700204
745.604842	0.700196
745.933869	0.709778
746.262847	0.709891
746.591778	0.703250
746.920662	0.710543
747.249498	0.716716
747.578286	0.707998
747.907027	0.703508
748.235720	0.704756
748.564365	0.699861
748.892963	0.699966
749.221514	0.703179
749.550017	0.707637
749.878473	0.707090
750.206881	0.713848
750.535242	0.715263
750.863555	0.714606
751.191821	0.716422
751.520039	0.718235
751.848210	0.723457
752.176334	0.716807
752.504411	0.715999
752.832440	0.723948
753.160421	0.727273
753.488356	0.725955
753.816243	0.723721
754.144082	0.731710
754.471875	0.734972
754.799620	0.731023
755.127318	0.732009
755.454969	0.732376
755.782572	0.731042
756.110129	0.736013
756.437638	0.738851
756.765100	0.735333
757.092515	0.734282
757.419882	0.732428
757.747203	0.736501
758.074477	0.736604
758.401703	0.734297
758.728882	0.729574
759.056014	0.728121
759.383099	0.726551
759.710138	0.727912
760.037129	0.724367
760.364073	0.718245
760.690970	0.721850
761.017820	0.727039
761.344623	0.722607
761.671379	0.713456
761.998088	0.701807
762.324751	0.678524
762.651366	0.637092
762.977935	0.569244
763.304456	0.517157
763.630931	0.508708
763.957359	0.547315
764.283740	0.591330
764.610074	0.619616
764.936362	0.650216
765.262602	0.676486
765.588796	0.697723
765.914943	0.716023
766.241044	0.734405
766.567097	0.741448
766.893104	0.750510
767.219064	0.757190
767.544978	0.764201
767.870845	0.777237
768.196665	0.780659
768.522438	0.778752
768.848165	0.780585
769.173846	0.789133
769.499479	0.793650
769.825066	0.797029
770.150607	0.802932
770.476101	0.797695
770.801548	0.798726
771.126949	0.810162
771.452303	0.814153
771.777611	0.812902
772.102872	0.811822
772.428087	0.818091
772.753256	0.820082
773.078378	0.823639
773.403453	0.832480
773.728482	0.836172
774.053465	0.829741
774.378401	0.833881
774.703291	0.841866
775.028135	0.841127
775.352932	0.842991
775.677683	0.845410
776.002388	0.847536
776.327046	0.846217
776.651658	0.849293
776.976224	0.851696
777.300743	0.852367
777.625216	0.855728
777.949643	0.856174
778.274024	0.856607
778.598359	0.858850
778.922647	0.856942
779.246889	0.857352
779.571086	0.861416
779.895236	0.863984
780.219339	0.861089
780.543397	0.857067
780.867409	0.855861
781.191374	0.858910
781.515294	0.859718
781.839167	0.859398
782.162995	0.862027
782.486776	0.859169
782.810511	0.860342
783.134201	0.862984
783.457844	0.860308
783.781441	0.863790
784.104993	0.870172
784.428498	0.869678
784.751958	0.866143
785.075372	0.868594
785.398739	0.871509
785.722061	0.868727
786.045337	0.864157
786.368568	0.869636
786.691752	0.871548
787.014891	0.857287
787.337983	0.849079
787.661030	0.840232
787.984031	0.822683
788.306987	0.810629
788.629897	0.811898
788.952760	0.816341
789.275579	0.820216
789.598351	0.835459
789.921078	0.849283
790.243759	0.851449
790.566395	0.856371
790.888984	0.863117
791.211529	0.869221
791.534027	0.871280
791.856480	0.874717
792.178888	0.879805
792.501249	0.880745
792.823566	0.881873
793.145836	0.882410
793.468062	0.884559
793.790241	0.884971
794.112375	0.882467
794.434464	0.878600
794.756507	0.876860
795.078505	0.877622
795.400457	0.872249
795.722364	0.860875
796.044226	0.852976
796.366042	0.852650
796.687812	0.854951
797.009538	0.850951
797.331218	0.853737
797.652852	0.858230
797.974442	0.863958
798.295986	0.863437
798.617484	0.866097
798.938938	0.870139
799.260346	0.874965
799.581709	0.877960
799.903026	0.880021
800.224299	0.879577
800.545526	0.884676
800.866708	0.888097
801.187845	0.892335
801.508936	0.891176
801.829983	0.890012
802.150984	0.892618
802.471940	0.897762
802.792851	0.897304
803.113717	0.897061
803.434538	0.896199
803.755314	0.897249
804.076045	0.899866
804.396731	0.900237
804.717372	0.898863
805.037967	0.900574
805.358518	0.899704
805.679024	0.896755
805.999485	0.897361
806.319901	0.896512
806.640272	0.898015
806.960598	0.895828
807.280879	0.894212
807.601115	0.891534
807.921306	0.896452
808.241453	0.895778
808.561554	0.893466
808.881611	0.894402
809.201623	0.895000
809.521590	0.895810
809.841513	0.896854
810.161390	0.896505
810.481223	0.897713
810.801011	0.901234
811.120755	0.902749
811.440453	0.901276
811.760107	0.900661
812.079716	0.900381
812.399281	0.903767
812.718801	0.907451
813.038276	0.906661
813.357707	0.906559
813.677093	0.903534
813.996434	0.907886
814.315731	0.909055
814.634983	0.909456
814.954191	0.907507
815.273354	0.904497
815.592473	0.901759
815.911547	0.901546
816.230577	0.899531
816.549562	0.895389
816.868502	0.896098
817.187399	0.893317
817.506250	0.887311
817.825058	0.889342
818.143821	0.885884
818.462539	0.881200
818.781213	0.872294
819.099843	0.861293
819.418429	0.846344
819.736970	0.828359
820.055466	0.808480
820.373919	0.782881
820.692327	0.748865
821.010691	0.714718
821.329011	0.637162
821.647286	0.521321
821.965517	0.407043
822.283704	0.364418
822.601847	0.365609
822.919945	0.400603
823.237999	0.435327
823.556010	0.482353
823.873976	0.538655
824.191897	0.589012
824.509775	0.631412
824.827609	0.677807
825.145398	0.700302
825.463144	0.702612
825.780845	0.686172
826.098502	0.667173
826.416116	0.621741
826.733685	0.576715
827.051210	0.567973
827.368692	0.582916
827.686129	0.620160
828.003522	0.674624
828.320872	0.721307
828.638177	0.766154
828.955439	0.798909
829.272656	0.820687
829.589830	0.837524
829.906960	0.854197
830.224046	0.865969
830.541088	0.875951
830.858086	0.880862
831.175041	0.888335
831.491952	0.885987
831.808819	0.882613
832.125642	0.877168
832.442421	0.861915
832.759157	0.840103
833.075849	0.792908
833.392497	0.729340
833.709101	0.688034
834.025662	0.697257
834.342179	0.729611
834.658653	0.768412
834.975083	0.805543
835.291469	0.831881
835.607811	0.854462
835.924110	0.870540
836.240366	0.887657
836.556578	0.902134
836.872746	0.909555
837.188871	0.914298
837.504952	0.919613
837.820990	0.923267
838.136984	0.926841
838.452935	0.929742
838.768842	0.931188
839.084706	0.924584
839.400526	0.899087
839.716303	0.859204
840.032037	0.835717
840.347727	0.839160
840.663373	0.857413
840.978977	0.879048
841.294537	0.902210
841.610054	0.918587
841.925527	0.926391
842.240957	0.932648
842.556344	0.939245
842.871687	0.945183
843.186987	0.949792
843.502244	0.949739
843.817458	0.951198
844.132629	0.955603
844.447756	0.960803
844.762840	0.960675
845.077881	0.960777
845.392879	0.959758
845.707833	0.963153
846.022745	0.965172
846.337613	0.965618
846.652438	0.966561
846.967221	0.965271
847.281960	0.965525
847.596656	0.967986
847.911309	0.966419
848.225919	0.969268
848.540485	0.967989
848.855009	0.969787
849.169490	0.968184
849.483928	0.970772
849.798323	0.970059
850.112675	0.970427
850.426984	0.970491
850.741251	0.969536
851.055474	0.970915
851.369654	0.968737
851.683792	0.970047
851.997887	0.970512
852.311938	0.970133
852.625947	0.970134
852.939914	0.968201
853.253837	0.970509
853.567718	0.970526
853.881555	0.971161
854.195350	0.968141
854.509103	0.971277
854.822812	0.970144
855.136479	0.971150
855.450103	0.968990
855.763685	0.968944
856.077224	0.969197
856.390720	0.970059
856.704173	0.970968
857.017584	0.968900
857.330953	0.966627
857.644278	0.968140
857.957561	0.968218
858.270802	0.968369
858.584000	0.967554
858.897155	0.966695
859.210268	0.967777
859.523339	0.967996
859.836367	0.970727
860.149352	0.970726
860.462295	0.968847
860.775195	0.969343
861.088054	0.969529
861.400869	0.970686
861.713642	0.971428
862.026373	0.970443
862.339062	0.970915
862.651708	0.967199
862.964312	0.968579
863.276873	0.968755
863.589392	0.968528
863.901869	0.966283
864.214303	0.964379
864.526696	0.964287
864.839045	0.963337
865.151353	0.961924
865.463619	0.962731
865.775842	0.962398
866.088023	0.962616
866.400162	0.963082
866.712258	0.963308
867.024313	0.963140
867.336325	0.963317
867.648296	0.963610
867.960224	0.962505
868.272110	0.961416
868.583954	0.963638
868.895755	0.964212
869.207515	0.962223
869.519233	0.959837
869.830909	0.961351
870.142542	0.963233
870.454134	0.961595
870.765684	0.960978
871.077191	0.957202
871.388657	0.959382
871.700081	0.958127
872.011463	0.959085
872.322803	0.958385
872.634101	0.956798
872.945357	0.955241
873.256571	0.952903
873.567744	0.953063
873.878874	0.953136
874.189963	0.952287
874.501010	0.951507
874.812015	0.949570
875.122979	0.951149
875.433900	0.953836
875.744780	0.954077
876.055618	0.951409
876.366415	0.949210
876.677169	0.950241
876.987882	0.951946
877.298554	0.950977
877.609183	0.947392
877.919771	0.945309
878.230317	0.942955
878.540822	0.940965
878.851285	0.935463
879.161707	0.926949
879.472087	0.914152
879.782425	0.898115
880.092722	0.863468
880.402977	0.811537
880.713191	0.750398
881.023363	0.690717
881.333494	0.656222
881.643583	0.627993
881.953631	0.628729
882.263637	0.657114
882.573602	0.696075
882.883526	0.721786
883.193408	0.746678
883.503248	0.768889
883.813048	0.796527
884.122806	0.825802
884.432522	0.850150
884.742197	0.870218
885.051831	0.880456
885.361424	0.890536
885.670975	0.902317
885.980485	0.913142
886.289954	0.919818
886.599382	0.924059
886.908768	0.928505
887.218113	0.934670
887.527417	0.938400
887.836680	0.941070
888.145901	0.943291
888.455082	0.945709
888.764221	0.950897
889.073319	0.952415
889.382376	0.953535
889.691392	0.953489
890.000366	0.953058
890.309300	0.953319
890.618193	0.952168
890.927044	0.951285
891.235855	0.951664
891.544625	0.951384
891.853353	0.952970
892.162041	0.949371
892.470687	0.941830
892.779293	0.938258
893.087858	0.934255
893.396381	0.926212
893.704864	0.911818
894.013306	0.888081
894.321707	0.861194
894.630068	0.846646
894.938387	0.841701
895.246665	0.843848
895.554903	0.855414
895.863100	0.868798
896.171256	0.886368
896.479371	0.905473
896.787446	0.918779
897.095480	0.925213
897.403473	0.928638
897.711425	0.931267
898.019336	0.939686
898.327207	0.943621
898.635038	0.944554
898.942827	0.944838
899.250576	0.948389
899.558284	0.951758
899.865952	0.954353
900.173579	0.954439
900.481165	0.956607
900.788711	0.960238
901.096216	0.961585
901.403681	0.962411
901.711105	0.963002
902.018489	0.963694
902.325832	0.962572
902.633135	0.961468
902.940397	0.955335
903.247619	0.943774
903.554800	0.917352
903.861941	0.877864
904.169041	0.841447
904.476101	0.823202
904.783121	0.825600
905.090100	0.842058
905.397039	0.862711
905.703938	0.885255
906.010796	0.904880
906.317614	0.923049
906.624391	0.934318
906.931129	0.943465
907.237826	0.952428
907.544483	0.959369
907.851099	0.962736
908.157675	0.967372
908.464211	0.969628
908.770707	0.973112
909.077163	0.975498
909.383578	0.974287
909.689954	0.975190
909.996289	0.976390
910.302584	0.978687
910.608839	0.979704
910.915054	0.978190
911.221229	0.978740
911.527363	0.978240
911.833458	0.977736
912.139513	0.978235
912.445527	0.976163
912.751502	0.973099
913.057436	0.972509
913.363331	0.971090
913.669186	0.966360
913.975000	0.962319
914.280775	0.955524
914.586510	0.947538
914.892205	0.934548
915.197859	0.913672
915.503475	0.885642
915.809050	0.865768
916.114585	0.861063
916.420081	0.857297
916.725536	0.854738
917.030952	0.862498
917.336328	0.875996
917.641665	0.890326
917.946961	0.907333
918.252218	0.919422
918.557435	0.928333
918.862612	0.935547
919.167750	0.942083
919.472848	0.947252
919.777906	0.953062
920.082925	0.957937
920.387904	0.961462
920.692843	0.963025
920.997743	0.963778
921.302603	0.966139
921.607423	0.968814
921.912204	0.971624
922.216946	0.972316
922.521647	0.973734
922.826310	0.974841
923.130932	0.976571
923.435516	0.979456
923.740059	0.979897
924.044564	0.978560
924.349028	0.981246
924.653454	0.983220
924.957840	0.983553
925.262186	0.985189
925.566493	0.983679
925.870761	0.985375
926.174989	0.987221
926.479178	0.988110
926.783328	0.988799
927.087438	0.988653
927.391509	0.988510
927.695541	0.989732
927.999533	0.990631
928.303486	0.989705
928.607400	0.991245
928.911275	0.990492
929.215110	0.991026
929.518906	0.991576
929.822663	0.990486
930.126381	0.990860
930.430060	0.991489
930.733699	0.990087
931.037299	0.990176
931.340861	0.991082
931.644383	0.990095
931.947866	0.988355
932.251309	0.990011
932.554714	0.991453
932.858080	0.991183
933.161407	0.990703
933.464694	0.990531
933.767943	0.990568
934.071153	0.991646
934.374323	0.991982
934.677455	0.991252
934.980548	0.992825
935.283602	0.992436
935.586617	0.991106
935.889593	0.989991
936.192530	0.991390
936.495428	0.991039
936.798287	0.990593
937.101108	0.990887
937.403890	0.989194
937.706632	0.989278
938.009336	0.987037
938.312002	0.986439
938.614628	0.984482
938.917216	0.983591
939.219765	0.982498
939.522275	0.983707
939.824747	0.983478
940.127179	0.983095
940.429573	0.984868
940.731929	0.984218
941.034246	0.984519
941.336524	0.986448
941.638763	0.986122
941.940964	0.986587
942.243126	0.986972
942.545250	0.988144
942.847335	0.988206
943.149381	0.989039
943.451389	0.989273
943.753359	0.988939
944.055290	0.990819
944.357182	0.989814
944.659036	0.988991
944.960851	0.988847
945.262628	0.989879
945.564367	0.991213
945.866067	0.990603
946.167729	0.990954
946.469352	0.990191
946.770937	0.989300
947.072484	0.991807
947.373992	0.991083
947.675462	0.990243
947.976893	0.989839
948.278286	0.990270
948.579641	0.992422
948.880958	0.991077
949.182236	0.990849
949.483476	0.990958
949.784678	0.990749
950.085841	0.991306
950.386967	0.992549
950.688054	0.991596
950.989103	0.991118
951.290114	0.989465
951.591087	0.990066
951.892021	0.990952
952.192917	0.988926
952.493776	0.988620
952.794596	0.988159
953.095378	0.987735
953.396122	0.988527
953.696828	0.987678
953.997496	0.988965
954.298126	0.990736
954.598718	0.990331
954.899272	0.991298
955.199788	0.991029
955.500266	0.993211
955.800706	0.993479
956.101108	0.993919
956.401472	0.993820
956.701798	0.994689
957.002087	0.993916
957.302337	0.993983
957.602550	0.994694
957.902724	0.995303
958.202861	0.995346
958.502960	0.995960
958.803022	0.993604
959.103045	0.996121
959.403031	0.996510
959.702979	0.995993
960.002889	0.995882
960.302762	0.994971
960.602596	0.995881
960.902393	0.994762
961.202153	0.997979
961.501875	0.996125
961.801559	0.996516
962.101205	0.995549
962.400814	0.997382
962.700385	0.995693
962.999918	0.996580
963.299414	0.997062
963.598873	0.997461
963.898293	0.997199
964.197677	0.996900
964.497022	0.997119
964.796331	0.998300
965.095601	0.997437
965.394835	0.997443
965.694030	0.997248
965.993189	0.997559
966.292309	0.996565
966.591393	0.998158
966.890439	0.996766
967.189447	0.997478
967.488419	0.997946
967.787353	0.995739
968.086249	0.997056
968.385108	0.997845
968.683930	0.997077
968.982714	0.997690
969.281462	0.998421
969.580172	0.997622
969.878844	0.997687
970.177480	0.997806
970.476078	0.998056
970.774639	0.997813
971.073162	0.998279
971.371649	0.996057
971.670098	0.996634
971.968510	0.997322
972.266885	0.996811
972.565223	0.996976
972.863524	0.996200
973.161788	0.995634
973.460014	0.998092
973.758204	0.996092
974.056356	0.997480
974.354471	0.995082
974.652550	0.998008
974.950591	0.997652
975.248595	0.996828
975.546563	0.999011
975.844493	0.997680
976.142386	0.998215
976.440243	0.997821
976.738062	0.998320
977.035845	0.999342
977.333590	0.997695
977.631299	0.997461
977.928971	0.997606
978.226606	0.997308
978.524204	0.997186
978.821765	0.997841
979.119290	0.997318
979.416777	0.996574
979.714228	0.998220
980.011642	0.996068
980.309020	0.998053
980.606360	0.998020
980.903664	0.997674
981.200931	0.996325
981.498162	0.995407
981.795356	0.994606
982.092513	0.994862
982.389633	0.995121
982.686717	0.992157
982.983764	0.993020
983.280775	0.990199
983.577749	0.990340
983.874686	0.991887
984.171587	0.993256
984.468451	0.994465
984.765279	0.995287
985.062070	0.995377
985.358824	0.995091
985.655543	0.995804
985.952224	0.995545
986.248869	0.997152
986.545478	0.997718
986.842050	0.999241
987.138586	0.996300
987.435086	0.997766
987.731549	0.999512
988.027975	0.997623
988.324366	0.999196
988.620719	0.997865
988.917037	0.997178
989.213318	0.998371
989.509563	0.999236
989.805772	0.998157
990.101944	0.998790
990.398080	0.998200
990.694180	0.998628
990.990244	0.998820
991.286271	0.999335
991.582262	0.998842
991.878217	0.997746
992.174136	0.999663
992.470019	0.999119
992.765865	0.998541
993.061676	0.998565
993.357450	0.997225
993.653188	0.997762
993.948890	0.997286
994.244556	0.998856
994.540186	0.998109
994.835780	0.996050
995.131337	0.998106
995.426859	0.996334
995.722345	0.998489
996.017795	0.996923
996.313208	0.996934
996.608586	0.995932
996.903928	0.996842
997.199234	0.997654
997.494504	0.998094
997.789738	0.997790
998.084936	0.996902
998.380099	0.998956
998.675225	0.998456
998.970316	0.998898
999.265371	0.997531
999.560390	0.997743
999.855373	0.999056
1000.150320	0.999464
1000.445232	0.998993
1000.740108	0.998748
1001.034948	0.999403
1001.329752	0.999578
1001.624521	0.999056
1001.919254	0.998033
1002.213951	0.998159
1002.508613	0.998452
1002.803239	0.998613
1003.097829	0.999478
1003.392384	1.000141
1003.686903	0.998895
1003.981386	0.999689
1004.275834	0.998380
1004.570246	0.999436
1004.864623	1.000109
1005.158964	1.000348
1005.453270	0.999201
1005.747540	0.997374
1006.041775	0.999294
1006.335974	0.999233
1006.630138	0.999348
1006.924266	0.999497
1007.218359	1.000768
1007.512416	0.999068
1007.806438	0.999830
1008.100425	0.999835
1008.394376	0.999838
1008.688292	0.999350
1008.982172	1.000811
1009.276017	1.000561
1009.569827	0.999884
1009.863602	0.999617
1010.157341	1.000535
1010.451045	0.999153
1010.744714	0.998732
1011.038347	0.999417
1011.331945	0.999524
1011.625508	0.999341
1011.919036	0.999274
1012.212528	0.999921
1012.505986	0.998416
1012.799408	0.998596
1013.092795	1.000369
1013.386147	0.998938
1013.679464	0.999310
1013.972745	0.998925
1014.265992	0.997075
1014.559204	0.998714
1014.852380	0.999478
1015.145521	0.999547
1015.438628	1.000346
1015.731699	0.999745
1016.024736	0.998415
1016.317737	0.999562
1016.610703	0.999495
1016.903635	0.999635
1017.196531	0.998586
1017.489393	0.999608
1017.782219	0.998668
1018.075011	0.999888
1018.367768	1.000127
1018.660490	1.000343
1018.953177	1.000343
1019.245829	1.000343
