Dividing Wavelength (nm)	Counts (n)	Blue Motor Position (mm): 0.000000	Red Motor Position (mm): 37.300000	
326.493990	1.001047
326.888308	1.001047
327.282561	1.001047
327.676750	0.999965
328.070874	0.999473
328.464933	0.999336
328.858929	1.000000
329.252859	0.999120
329.646726	0.999527
330.040528	0.999920
330.434265	0.999710
330.827938	1.000707
331.221547	1.001223
331.615091	1.001557
332.008571	1.000019
332.401986	1.000575
332.795338	0.999455
333.188625	0.999002
333.581847	1.001067
333.975006	0.999496
334.368100	0.998212
334.761129	1.000319
335.154095	1.001442
335.546996	0.998352
335.939833	0.996014
336.332606	0.996125
336.725315	0.997808
337.117960	0.997688
337.510540	0.996564
337.903056	0.997940
338.295508	0.996142
338.687896	0.996941
339.080220	0.997493
339.472480	0.996271
339.864676	0.997691
340.256807	0.997194
340.648875	0.997931
341.040879	0.997710
341.432818	0.996488
341.824694	0.997526
342.216506	0.997671
342.608253	0.997812
342.999937	0.996304
343.391557	0.996825
343.783113	0.996537
344.174605	0.996088
344.566033	0.998262
344.957397	0.996708
345.348697	0.996678
345.739934	0.997334
346.131106	0.997829
346.522215	0.996917
346.913260	0.996010
347.304241	0.997727
347.695159	0.995956
348.086012	0.995804
348.476802	0.996496
348.867528	0.996559
349.258191	0.996420
349.648789	0.997600
350.039324	0.996658
350.429796	0.998335
350.820203	0.998186
351.210548	0.997206
351.600828	0.996684
351.991045	0.997555
352.381198	0.997297
352.771288	0.997538
353.161314	0.996151
353.551276	0.997429
353.941175	0.997373
354.331010	0.996877
354.720782	0.998017
355.110490	0.996791
355.500135	0.997141
355.889717	0.996984
356.279235	0.996476
356.668689	0.997239
357.058080	0.997208
357.447408	0.998553
357.836672	0.996910
358.225873	0.997179
358.615010	0.997825
359.004084	0.998648
359.393095	0.997727
359.782043	0.997706
360.170927	0.997811
360.559748	0.998350
360.948505	0.997063
361.337199	0.996908
361.725830	0.998188
362.114398	0.996193
362.502903	0.998666
362.891344	0.997632
363.279722	0.996536
363.668037	0.998061
364.056289	0.998077
364.444478	0.998943
364.832603	0.998653
365.220665	0.997352
365.608665	0.997178
365.996601	0.997584
366.384474	0.998257
366.772284	0.997463
367.160031	0.996460
367.547715	0.996396
367.935336	0.997446
368.322893	0.996645
368.710388	0.996556
369.097820	0.997283
369.485189	0.996185
369.872495	0.997125
370.259738	0.996641
370.646918	0.997622
371.034035	0.997613
371.421090	0.997503
371.808081	0.996964
372.195010	0.998063
372.581875	0.998032
372.968678	0.997210
373.355418	0.997449
373.742096	0.997355
374.128710	0.999166
374.515262	0.996681
374.901751	0.997789
375.288177	0.997687
375.674540	0.998452
376.060841	0.998135
376.447079	0.997526
376.833254	0.997415
377.219367	0.997472
377.605417	0.997390
377.991404	0.997922
378.377329	0.996503
378.763191	0.998633
379.148991	0.997621
379.534727	0.997895
379.920402	0.997177
380.306013	0.998273
380.691563	0.997857
381.077049	0.996348
381.462474	0.997450
381.847835	0.998003
382.233134	0.996846
382.618371	0.998597
383.003545	0.998331
383.388657	0.997436
383.773706	0.998359
384.158693	0.997644
384.543618	0.997152
384.928480	0.999499
385.313280	0.997930
385.698017	0.998833
386.082692	0.999365
386.467305	0.999012
386.851856	0.998274
387.236344	0.998532
387.620770	0.997135
388.005133	0.998777
388.389435	0.999012
388.773674	0.998350
389.157851	0.998505
389.541965	0.999082
389.926018	0.998277
390.310008	0.999491
390.693936	0.998836
391.077802	0.998991
391.461606	0.998736
391.845348	0.998119
392.229027	0.999028
392.612645	0.998436
392.996200	1.000138
393.379694	0.998939
393.763125	0.999617
394.146494	0.999423
394.529801	0.998506
394.913047	0.999260
395.296230	0.998151
395.679351	0.998547
396.062410	0.997777
396.445408	0.999006
396.828343	0.999347
397.211217	0.998199
397.594028	0.999302
397.976778	0.998723
398.359466	0.998826
398.742092	0.998907
399.124656	0.998416
399.507158	0.999419
399.889598	0.998662
400.271977	0.998741
400.654294	0.999021
401.036549	0.999719
401.418742	0.999311
401.800874	0.998757
402.182944	0.999083
402.564952	0.998041
402.946898	0.999717
403.328783	0.999110
403.710606	0.998853
404.092367	0.998912
404.474067	0.999027
404.855705	0.998961
405.237282	0.999970
405.618797	0.998315
406.000250	0.999225
406.381642	0.999647
406.762972	0.999140
407.144240	0.999241
407.525447	0.999548
407.906593	0.999573
408.287677	0.999008
408.668700	0.999769
409.049661	0.998169
409.430560	0.999421
409.811399	0.999713
410.192176	0.998622
410.572891	0.998857
410.953545	0.999027
411.334138	0.997921
411.714669	0.999018
412.095139	0.998762
412.475547	1.000254
412.855894	0.998760
413.236180	1.000531
413.616405	0.999736
413.996568	0.999817
414.376670	0.999418
414.756711	0.998877
415.136691	0.999627
415.516609	0.999321
415.896466	0.999157
416.276262	0.998266
416.655997	0.999646
417.035670	0.999226
417.415283	1.000161
417.794834	0.999542
418.174324	0.999202
418.553753	1.000591
418.933121	0.999424
419.312428	0.999528
419.691674	0.999105
420.070859	0.999706
420.449983	0.999347
420.829045	0.998999
421.208047	0.999982
421.586988	1.000238
421.965867	0.999810
422.344686	1.000086
422.723444	1.000057
423.102141	0.999786
423.480777	0.999277
423.859352	0.999328
424.237866	0.999904
424.616319	0.999579
424.994712	0.999682
425.373044	1.000138
425.751314	0.999925
426.129524	0.999142
426.507673	0.999681
426.885762	1.000904
427.263789	1.000075
427.641756	0.999997
428.019662	1.000282
428.397508	0.999043
428.775292	0.998970
429.153016	0.998776
429.530679	0.999538
429.908282	1.000000
430.285824	0.999734
430.663305	0.998664
431.040726	0.999038
431.418086	1.000538
431.795385	0.999772
432.172624	0.999639
432.549802	1.000135
432.926920	1.000424
433.303977	0.999660
433.680974	1.000508
434.057910	0.999489
434.434786	0.999776
434.811601	0.999539
435.188355	0.998592
435.565050	0.999648
435.941683	0.999709
436.318257	0.999868
436.694770	0.998385
437.071222	1.000432
437.447614	1.000490
437.823946	1.000516
438.200218	0.999942
438.576429	0.999309
438.952580	1.000447
439.328670	0.999195
439.704700	0.999537
440.080670	1.000327
440.456580	0.999887
440.832429	0.999869
441.208218	1.000300
441.583947	0.999857
441.959616	1.000304
442.335224	0.999321
442.710773	1.000602
443.086261	0.999760
443.461689	0.999682
443.837057	0.999951
444.212365	1.001184
444.587612	0.999816
444.962800	0.999070
445.337927	1.000553
445.712995	0.999905
446.088002	1.001685
446.462949	1.000281
446.837837	0.999941
447.212664	1.000058
447.587431	0.999927
447.962139	0.999316
448.336786	0.999651
448.711374	1.000324
449.085901	0.999819
449.460369	1.000917
449.834776	0.999858
450.209124	1.000529
450.583412	1.000250
450.957640	0.999662
451.331808	0.999872
451.705917	0.999615
452.079965	0.998950
452.453954	0.999858
452.827883	0.999765
453.201752	1.000396
453.575562	1.000392
453.949311	1.000600
454.323001	0.999747
454.696632	1.000058
455.070202	0.999175
455.443713	0.999503
455.817164	0.999879
456.190556	1.000378
456.563888	0.999800
456.937160	1.000133
457.310373	0.999122
457.683526	0.999306
458.056619	1.000099
458.429653	1.000478
458.802628	0.999990
459.175542	1.000215
459.548398	1.000280
459.921194	0.999548
460.293930	1.000041
460.666607	0.999380
461.039224	0.999069
461.411782	0.999515
461.784280	1.000275
462.156719	1.000554
462.529099	1.000463
462.901419	1.000269
463.273680	0.999565
463.645882	1.000338
464.018024	0.999670
464.390106	0.999811
464.762130	1.000237
465.134094	1.000080
465.505999	1.000384
465.877845	1.000193
466.249631	1.000568
466.621358	1.000393
466.993026	1.000112
467.364634	1.000596
467.736184	1.000633
468.107674	1.000602
468.479105	1.000287
468.850477	1.000112
469.221790	0.999495
469.593043	1.001041
469.964238	1.001162
470.335373	1.000115
470.706449	1.000069
471.077467	1.001020
471.448425	0.999785
471.819324	1.000776
472.190164	1.000263
472.560945	1.000586
472.931667	0.999685
473.302330	0.999569
473.672934	1.000419
474.043479	1.000683
474.413965	1.000091
474.784393	1.000609
475.154761	1.000049
475.525070	0.999901
475.895321	1.000641
476.265513	0.999494
476.635645	1.000065
477.005719	1.000501
477.375734	0.999863
477.745691	1.000219
478.115588	1.000144
478.485427	1.000434
478.855207	0.999966
479.224928	1.000251
479.594591	1.000335
479.964194	1.000302
480.333739	1.000986
480.703226	1.000005
481.072653	1.001235
481.442022	1.001264
481.811333	1.000253
482.180584	1.000917
482.549777	0.999930
482.918912	1.000731
483.287988	1.001038
483.657005	1.000227
484.025964	1.001164
484.394864	1.000388
484.763706	1.000704
485.132489	1.000490
485.501213	1.000348
485.869879	1.000565
486.238487	1.001006
486.607036	1.000744
486.975527	0.999598
487.343959	1.000126
487.712333	1.000433
488.080648	1.000757
488.448905	1.000277
488.817104	1.000463
489.185244	1.000306
489.553326	1.000507
489.921350	0.999679
490.289315	0.999638
490.657222	1.000436
491.025070	1.001292
491.392861	1.000752
491.760593	1.001232
492.128267	1.000168
492.495883	1.000376
492.863440	1.000041
493.230939	1.000545
493.598380	0.999987
493.965763	1.000439
494.333088	1.001042
494.700354	1.000273
495.067563	1.000444
495.434713	1.000043
495.801805	1.000422
496.168839	1.000160
496.535815	1.000296
496.902733	1.000019
497.269593	1.000227
497.636395	1.000606
498.003139	1.000200
498.369825	1.000807
498.736453	0.999925
499.103023	0.999547
499.469535	0.999226
499.835989	0.999871
500.202385	0.999934
500.568723	1.000339
500.935003	0.999930
501.301226	1.000044
501.667390	1.000169
502.033497	0.999890
502.399546	1.000294
502.765537	0.999806
503.131470	1.000317
503.497345	1.000165
503.863163	1.001212
504.228923	0.999408
504.594625	1.000177
504.960269	1.001165
505.325856	0.999803
505.691385	0.999841
506.056856	1.000053
506.422270	0.999796
506.787625	0.999824
507.152924	0.999035
507.518164	0.999653
507.883347	0.999929
508.248472	0.999235
508.613540	0.999539
508.978550	0.999946
509.343503	0.999134
509.708398	0.999762
510.073236	0.999726
510.438016	1.000127
510.802738	0.999868
511.167403	0.999582
511.532010	0.999622
511.896561	0.999608
512.261053	1.000495
512.625488	0.999642
512.989866	0.999221
513.354186	0.999608
513.718449	0.999356
514.082655	0.999700
514.446803	0.999299
514.810894	0.999899
515.174927	0.999664
515.538904	0.998883
515.902822	0.998972
516.266684	0.999269
516.630488	0.999593
516.994235	0.998831
517.357925	0.999113
517.721558	0.999616
518.085133	0.998854
518.448651	0.999434
518.812112	0.998923
519.175516	0.998349
519.538863	0.999269
519.902152	0.997708
520.265385	0.998316
520.628560	0.998674
520.991678	0.998893
521.354739	0.998776
521.717743	0.998757
522.080690	0.998534
522.443580	0.998570
522.806413	0.997537
523.169189	0.997526
523.531908	0.997653
523.894569	0.997838
524.257174	0.997436
524.619722	0.998516
524.982213	0.997532
525.344647	0.997900
525.707025	0.996625
526.069345	0.996653
526.431608	0.996816
526.793815	0.996779
527.155964	0.996076
527.518057	0.996177
527.880093	0.996460
528.242072	0.996472
528.603995	0.996009
528.965860	0.996400
529.327669	0.995495
529.689421	0.995335
530.051117	0.995464
530.412755	0.994537
530.774337	0.995410
531.135862	0.993999
531.497331	0.993693
531.858743	0.993724
532.220098	0.993563
532.581396	0.993536
532.942638	0.992843
533.303824	0.992522
533.664953	0.991917
534.026025	0.990509
534.387040	0.990819
534.747999	0.991470
535.108902	0.990619
535.469748	0.989368
535.830537	0.989279
536.191270	0.989225
536.551947	0.988431
536.912567	0.987926
537.273131	0.988227
537.633638	0.986343
537.994089	0.986410
538.354483	0.985806
538.714821	0.985291
539.075103	0.984038
539.435328	0.983870
539.795497	0.983194
540.155609	0.981444
540.515665	0.981850
540.875665	0.980688
541.235609	0.979844
541.595496	0.978715
541.955328	0.977681
542.315102	0.977512
542.674821	0.976633
543.034483	0.975569
543.394090	0.974079
543.753640	0.973986
544.113134	0.972527
544.472571	0.972173
544.831953	0.970361
545.191278	0.970115
545.550548	0.968867
545.909761	0.967034
546.268918	0.966271
546.628019	0.965135
546.987064	0.963724
547.346053	0.962894
547.704986	0.960821
548.063863	0.959854
548.422684	0.958861
548.781449	0.957576
549.140158	0.955398
549.498811	0.954749
549.857408	0.953113
550.215949	0.951468
550.574434	0.950087
550.932864	0.947861
551.291237	0.947040
551.649555	0.944258
552.007817	0.943623
552.366022	0.941288
552.724173	0.939775
553.082267	0.938543
553.440305	0.934711
553.798288	0.934495
554.156215	0.930889
554.514086	0.929623
554.871902	0.927755
555.229661	0.926219
555.587365	0.923865
555.945014	0.922246
556.302606	0.918802
556.660143	0.917718
557.017625	0.913833
557.375050	0.911854
557.732421	0.909558
558.089735	0.907694
558.446994	0.905587
558.804197	0.902759
559.161345	0.900692
559.518437	0.899524
559.875474	0.894791
560.232455	0.891766
560.589381	0.890536
560.946251	0.886256
561.303065	0.884805
561.659825	0.881623
562.016528	0.879079
562.373177	0.877761
562.729770	0.872803
563.086307	0.871199
563.442789	0.868133
563.799216	0.864511
564.155587	0.861858
564.511904	0.859083
564.868164	0.856475
565.224370	0.853501
565.580520	0.849954
565.936615	0.848154
566.292654	0.843860
566.648638	0.841817
567.004567	0.837374
567.360441	0.835291
567.716260	0.831706
568.072023	0.828372
568.427732	0.824898
568.783385	0.823482
569.138982	0.817921
569.494525	0.814573
569.850013	0.812758
570.205445	0.807550
570.560823	0.806423
570.916145	0.802000
571.271412	0.797738
571.626625	0.795286
571.981782	0.792049
572.336884	0.788944
572.691931	0.786443
573.046923	0.780791
573.401860	0.778853
573.756743	0.774731
574.111570	0.770894
574.466342	0.768496
574.821059	0.763659
575.175722	0.760918
575.530330	0.756980
575.884882	0.753300
576.239380	0.750508
576.593823	0.747539
576.948211	0.742665
577.302544	0.741952
577.656823	0.736513
578.011047	0.734019
578.365216	0.730246
578.719330	0.727739
579.073389	0.723327
579.427394	0.720934
579.781344	0.717133
580.135239	0.714268
580.489080	0.710776
580.842866	0.707485
581.196597	0.703005
581.550273	0.699164
581.903895	0.696073
582.257463	0.692094
582.610975	0.689018
582.964434	0.686048
583.317837	0.683092
583.671186	0.680331
584.024481	0.676243
584.377721	0.673693
584.730906	0.670436
585.084037	0.665942
585.437113	0.664448
585.790135	0.658986
586.143103	0.657309
586.496016	0.655138
586.848874	0.649460
587.201679	0.646671
587.554428	0.644377
587.907124	0.639810
588.259765	0.637430
588.612352	0.634086
588.964884	0.632671
589.317362	0.628081
589.669786	0.624139
590.022155	0.621981
590.374470	0.616322
590.726731	0.615145
591.078937	0.613254
591.431090	0.607290
591.783188	0.607006
592.135232	0.602714
592.487222	0.600797
592.839157	0.595431
593.191038	0.593757
593.542866	0.591298
593.894639	0.590513
594.246358	0.585393
594.598022	0.581856
594.949633	0.580769
595.301190	0.577958
595.652692	0.574073
596.004141	0.567990
596.355535	0.570433
596.706876	0.567894
597.058162	0.566026
597.409395	0.561089
597.760573	0.557041
598.111698	0.555811
598.462768	0.551868
598.813785	0.550461
599.164748	0.547781
599.515657	0.545626
599.866511	0.543677
600.217312	0.538502
600.568060	0.538894
600.918753	0.533067
601.269392	0.530891
601.619978	0.529904
601.970510	0.524954
602.320988	0.523065
602.671412	0.518121
603.021783	0.517254
603.372100	0.516003
603.722363	0.511960
604.072572	0.510516
604.422728	0.507712
604.772830	0.506300
605.122878	0.503585
605.472872	0.501326
605.822813	0.497146
606.172701	0.496818
606.522534	0.491748
606.872314	0.489584
607.222041	0.487210
607.571714	0.483644
607.921333	0.482274
608.270899	0.479119
608.620411	0.474337
608.969870	0.475793
609.319276	0.472688
609.668627	0.470022
610.017926	0.466812
610.367171	0.463133
610.716362	0.461373
611.065500	0.459228
611.414585	0.455932
611.763616	0.454551
612.112594	0.452932
612.461518	0.449845
612.810389	0.446508
613.159207	0.445957
613.507971	0.445813
613.856682	0.439557
614.205340	0.439404
614.553945	0.434624
614.902496	0.435455
615.250994	0.432143
615.599439	0.431382
615.947830	0.428466
616.296169	0.427919
616.644454	0.425248
616.992686	0.423970
617.340864	0.420847
617.688990	0.421957
618.037063	0.417581
618.385082	0.417814
618.733048	0.413321
619.080961	0.414268
619.428821	0.412037
619.776628	0.409688
620.124382	0.410087
620.472083	0.408109
620.819731	0.406099
621.167326	0.407728
621.514868	0.405638
621.862357	0.407743
622.209793	0.405984
622.557176	0.405828
622.904506	0.405502
623.251783	0.406192
623.599007	0.406401
623.946179	0.404390
624.293297	0.404482
624.640363	0.406715
624.987376	0.405309
625.334336	0.406852
625.681243	0.407332
626.028097	0.406124
626.374899	0.406706
626.721647	0.404309
627.068343	0.406663
627.414987	0.406627
627.761577	0.407406
628.108115	0.404950
628.454600	0.409124
628.801032	0.404394
629.147412	0.406762
629.493739	0.405096
629.840014	0.407377
630.186236	0.403916
630.532405	0.408008
630.878521	0.404655
631.224585	0.405928
631.570597	0.408622
631.916556	0.405949
632.262462	0.405487
632.608316	0.406517
632.954117	0.406751
633.299866	0.406692
633.645562	0.406306
633.991206	0.409152
634.336797	0.411054
634.682336	0.412522
635.027823	0.413075
635.373257	0.413049
635.718639	0.415112
636.063968	0.413382
636.409245	0.418594
636.754470	0.418165
637.099642	0.419691
637.444762	0.422279
637.789829	0.420568
638.134845	0.422993
638.479808	0.423226
638.824719	0.422191
639.169577	0.426000
639.514383	0.424080
639.859137	0.427696
640.203839	0.427084
640.548489	0.427033
640.893086	0.428324
641.237632	0.429148
641.582125	0.427030
641.926566	0.428103
642.270955	0.427277
642.615292	0.427407
642.959576	0.426202
643.303809	0.426783
643.647990	0.425170
643.992118	0.425782
644.336195	0.428444
644.680219	0.426511
645.024192	0.427030
645.368112	0.420476
645.711981	0.419171
646.055797	0.414202
646.399562	0.416786
646.743274	0.408395
647.086935	0.405933
647.430544	0.405517
647.774101	0.404553
648.117606	0.403682
648.461059	0.403942
648.804460	0.405659
649.147810	0.410580
649.491108	0.411794
649.834354	0.412708
650.177548	0.417662
650.520690	0.422613
650.863781	0.423518
651.206820	0.422703
651.549807	0.427003
651.892742	0.430720
652.235626	0.429726
652.578458	0.430401
652.921238	0.435780
653.263967	0.433859
653.606644	0.437764
653.949269	0.436965
654.291843	0.440891
654.634365	0.437116
654.976836	0.440069
655.319255	0.440703
655.661622	0.441667
656.003938	0.441258
656.346203	0.444064
656.688416	0.441944
657.030577	0.444703
657.372687	0.446631
657.714746	0.447534
658.056753	0.444471
658.398708	0.448093
658.740612	0.448986
659.082465	0.444768
659.424266	0.445568
659.766016	0.444468
660.107715	0.446588
660.449362	0.445986
660.790958	0.446297
661.132503	0.446509
661.473996	0.444555
661.815438	0.445374
662.156829	0.445203
662.498168	0.446090
662.839456	0.447319
663.180693	0.445214
663.521879	0.444658
663.863013	0.445470
664.204097	0.444165
664.545129	0.441065
664.886110	0.440893
665.227040	0.438436
665.567918	0.440458
665.908746	0.438435
666.249522	0.438088
666.590248	0.439483
666.930922	0.437351
667.271545	0.436529
667.612118	0.436219
667.952639	0.438093
668.293109	0.436141
668.633528	0.439229
668.973896	0.439467
669.314213	0.439779
669.654480	0.441255
669.994695	0.441134
670.334859	0.441762
670.674973	0.441727
671.015035	0.442177
671.355047	0.442036
671.695008	0.443096
672.034918	0.444655
672.374777	0.443759
672.714585	0.445403
673.054342	0.445512
673.394049	0.445386
673.733705	0.443048
674.073310	0.443415
674.412864	0.447391
674.752368	0.447683
675.091820	0.447541
675.431223	0.452242
675.770574	0.451627
676.109875	0.454608
676.449125	0.454284
676.788324	0.456734
677.127473	0.462413
677.466571	0.461983
677.805619	0.463654
678.144616	0.464529
678.483562	0.466007
678.822458	0.468630
679.161303	0.469629
679.500098	0.469803
679.838842	0.471285
680.177535	0.470864
680.516179	0.469392
680.854771	0.468904
681.193314	0.461255
681.531805	0.453459
681.870247	0.441923
682.208638	0.434621
682.546978	0.433359
682.885268	0.434797
683.223508	0.441741
683.561697	0.444529
683.899836	0.447721
684.237925	0.451146
684.575963	0.453226
684.913951	0.456489
685.251889	0.452470
685.589776	0.454031
685.927614	0.457020
686.265401	0.450792
686.603137	0.452224
686.940824	0.446180
687.278460	0.445089
687.616046	0.444291
687.953582	0.438694
688.291068	0.439857
688.628504	0.436274
688.965889	0.437949
689.303224	0.442363
689.640510	0.446504
689.977745	0.452199
690.314930	0.459899
690.652065	0.464405
690.989150	0.471854
691.326185	0.478303
691.663170	0.482375
692.000105	0.489698
692.336990	0.496778
692.673825	0.499128
693.010610	0.506204
693.347345	0.511232
693.684030	0.512513
694.020665	0.517357
694.357251	0.526308
694.693786	0.526189
695.030272	0.529833
695.366707	0.533334
695.703093	0.536656
696.039429	0.534767
696.375716	0.536176
696.711952	0.538618
697.048139	0.541253
697.384276	0.543142
697.720363	0.541016
698.056400	0.540393
698.392388	0.545145
698.728326	0.548890
699.064214	0.551146
699.400053	0.552101
699.735842	0.555038
700.071581	0.558344
700.407270	0.561282
700.742910	0.564042
701.078501	0.570910
701.414042	0.570704
701.749533	0.573556
702.084974	0.581904
702.420366	0.574781
702.755709	0.582392
703.091002	0.590703
703.426246	0.583800
703.761440	0.588931
704.096584	0.594727
704.431679	0.591231
704.766725	0.593534
705.101721	0.594911
705.436668	0.591115
705.771565	0.597754
706.106413	0.594988
706.441212	0.590362
706.775961	0.588785
707.110661	0.591874
707.445311	0.587876
707.779913	0.585094
708.114465	0.583833
708.448967	0.580555
708.783421	0.572714
709.117825	0.567211
709.452180	0.567292
709.786485	0.561194
710.120742	0.551134
710.454949	0.553135
710.789107	0.545545
711.123216	0.536518
711.457275	0.537906
711.791286	0.528916
712.125247	0.527770
712.459159	0.538905
712.793023	0.531207
713.126837	0.535440
713.460602	0.536076
713.794318	0.545343
714.127985	0.544286
714.461602	0.553704
714.795171	0.557224
715.128691	0.565109
715.462162	0.571829
715.795584	0.578511
716.128957	0.580901
716.462281	0.587682
716.795556	0.591333
717.128782	0.595563
717.461960	0.605335
717.795088	0.603853
718.128167	0.609952
718.461198	0.618722
718.794180	0.619130
719.127113	0.621862
719.459997	0.625416
719.792833	0.631819
720.125619	0.632615
720.458357	0.638355
720.791046	0.637483
721.123686	0.642084
721.456278	0.648789
721.788821	0.645773
722.121315	0.650599
722.453761	0.654707
722.786158	0.651970
723.118506	0.648310
723.450805	0.656166
723.783056	0.652451
724.115259	0.649917
724.447412	0.649016
724.779518	0.651830
725.111574	0.649521
725.443582	0.645003
725.775542	0.646984
726.107453	0.639862
726.439315	0.639510
726.771129	0.637838
727.102895	0.631917
727.434612	0.623964
727.766281	0.622385
728.097901	0.621942
728.429473	0.621499
728.760996	0.619201
729.092471	0.619666
729.423897	0.623435
729.755276	0.623086
730.086606	0.622236
730.417887	0.616659
730.749120	0.607772
731.080305	0.599450
731.411442	0.595231
731.742530	0.600270
732.073570	0.599360
732.404562	0.591147
732.735506	0.593208
733.066401	0.598051
733.397249	0.607038
733.728048	0.618229
734.058798	0.631011
734.389501	0.640840
734.720156	0.650254
735.050762	0.659442
735.381320	0.659386
735.711831	0.669348
736.042293	0.673535
736.372707	0.669219
736.703073	0.674308
737.033391	0.676249
737.363661	0.672144
737.693883	0.668389
738.024056	0.667343
738.354182	0.667062
738.684260	0.657424
739.014290	0.653598
739.344272	0.653383
739.674207	0.647161
740.004093	0.647118
740.333931	0.647451
740.663722	0.647492
740.993464	0.648108
741.323159	0.652461
741.652806	0.656671
741.982405	0.661354
742.311956	0.666261
742.641460	0.668595
742.970915	0.671875
743.300323	0.679906
743.629683	0.686067
743.958996	0.688302
744.288260	0.692909
744.617477	0.698495
744.946647	0.699983
745.275768	0.704237
745.604842	0.704746
745.933869	0.714457
746.262847	0.715372
746.591778	0.708429
746.920662	0.714333
747.249498	0.721805
747.578286	0.712755
747.907027	0.708070
748.235720	0.709564
748.564365	0.703740
748.892963	0.704015
749.221514	0.707217
749.550017	0.712706
749.878473	0.711139
750.206881	0.717873
750.535242	0.720460
750.863555	0.719433
751.191821	0.720051
751.520039	0.723394
751.848210	0.728754
752.176334	0.720520
752.504411	0.720671
752.832440	0.728327
753.160421	0.732127
753.488356	0.730513
753.816243	0.727765
754.144082	0.735858
754.471875	0.740099
754.799620	0.734609
755.127318	0.737254
755.454969	0.736713
755.782572	0.735502
756.110129	0.740738
756.437638	0.743076
756.765100	0.739573
757.092515	0.738344
757.419882	0.736788
757.747203	0.742510
758.074477	0.741055
758.401703	0.737529
758.728882	0.733903
759.056014	0.732921
759.383099	0.731691
759.710138	0.732057
760.037129	0.728566
760.364073	0.723713
760.690970	0.725556
761.017820	0.731494
761.344623	0.725995
761.671379	0.718222
761.998088	0.705980
762.324751	0.684435
762.651366	0.642303
762.977935	0.576934
763.304456	0.525011
763.630931	0.515487
763.957359	0.553949
764.283740	0.598172
764.610074	0.625880
764.936362	0.655634
765.262602	0.682788
765.588796	0.703246
765.914943	0.721049
766.241044	0.738434
766.567097	0.745391
766.893104	0.755630
767.219064	0.761213
767.544978	0.768930
767.870845	0.780839
768.196665	0.785372
768.522438	0.783616
768.848165	0.784176
769.173846	0.792610
769.499479	0.797394
769.825066	0.800967
770.150607	0.805728
770.476101	0.801625
770.801548	0.802895
771.126949	0.813052
771.452303	0.817160
771.777611	0.816186
772.102872	0.814852
772.428087	0.821599
772.753256	0.824467
773.078378	0.825840
773.403453	0.836683
773.728482	0.839631
774.053465	0.832475
774.378401	0.836610
774.703291	0.845473
775.028135	0.844658
775.352932	0.845855
775.677683	0.848378
776.002388	0.850004
776.327046	0.848954
776.651658	0.851991
776.976224	0.855209
777.300743	0.855763
777.625216	0.857691
777.949643	0.860715
778.274024	0.860270
778.598359	0.861451
778.922647	0.860256
779.246889	0.859859
779.571086	0.864885
779.895236	0.867355
780.219339	0.863229
780.543397	0.861166
780.867409	0.859103
781.191374	0.861821
781.515294	0.862450
781.839167	0.862367
782.162995	0.865281
782.486776	0.862087
782.810511	0.863229
783.134201	0.866328
783.457844	0.863882
783.781441	0.866836
784.104993	0.873057
784.428498	0.872815
784.751958	0.868957
785.075372	0.871819
785.398739	0.875124
785.722061	0.871549
786.045337	0.866368
786.368568	0.871658
786.691752	0.874451
787.014891	0.859742
787.337983	0.851941
787.661030	0.845040
787.984031	0.826353
788.306987	0.813115
788.629897	0.816682
788.952760	0.820584
789.275579	0.824657
789.598351	0.839474
789.921078	0.852555
790.243759	0.854761
790.566395	0.859654
790.888984	0.866411
791.211529	0.871065
791.534027	0.874482
791.856480	0.876350
792.178888	0.881224
792.501249	0.883818
792.823566	0.885455
793.145836	0.885441
793.468062	0.887922
793.790241	0.887685
794.112375	0.885446
794.434464	0.881411
794.756507	0.880615
795.078505	0.880298
795.400457	0.875045
795.722364	0.862981
796.044226	0.856019
796.366042	0.856276
796.687812	0.858735
797.009538	0.854814
797.331218	0.857564
797.652852	0.862523
797.974442	0.867058
798.295986	0.867277
798.617484	0.869462
798.938938	0.874077
799.260346	0.878694
799.581709	0.879985
799.903026	0.883360
800.224299	0.882988
800.545526	0.887452
800.866708	0.890915
801.187845	0.894884
801.508936	0.894998
801.829983	0.892622
802.150984	0.894980
802.471940	0.900613
802.792851	0.898831
803.113717	0.900817
803.434538	0.899014
803.755314	0.900818
804.076045	0.902950
804.396731	0.903393
804.717372	0.902166
805.037967	0.904045
805.358518	0.901262
805.679024	0.899163
805.999485	0.899128
806.319901	0.900407
806.640272	0.900193
806.960598	0.898604
807.280879	0.895016
807.601115	0.895194
807.921306	0.899123
808.241453	0.899115
808.561554	0.897198
808.881611	0.896534
809.201623	0.899064
809.521590	0.898580
809.841513	0.900152
810.161390	0.898969
810.481223	0.900386
810.801011	0.903099
811.120755	0.906314
811.440453	0.904479
811.760107	0.903466
812.079716	0.902220
812.399281	0.906928
812.718801	0.909694
813.038276	0.909734
813.357707	0.909693
813.677093	0.907089
813.996434	0.909593
814.315731	0.911469
814.634983	0.912345
814.954191	0.910124
815.273354	0.909085
815.592473	0.903654
815.911547	0.903720
816.230577	0.902156
816.549562	0.899783
816.868502	0.900444
817.187399	0.896097
817.506250	0.891259
817.825058	0.892650
818.143821	0.889349
818.462539	0.883511
818.781213	0.876595
819.099843	0.865852
819.418429	0.850337
819.736970	0.832962
820.055466	0.815059
820.373919	0.789399
820.692327	0.757621
821.010691	0.723305
821.329011	0.648467
821.647286	0.534749
821.965517	0.422627
822.283704	0.380526
822.601847	0.382255
822.919945	0.417674
823.237999	0.450867
823.556010	0.496394
823.873976	0.551275
824.191897	0.600938
824.509775	0.642066
824.827609	0.687557
825.145398	0.709159
825.463144	0.711228
825.780845	0.694693
826.098502	0.676222
826.416116	0.631531
826.733685	0.588853
827.051210	0.580980
827.368692	0.595388
827.686129	0.631430
828.003522	0.683941
828.320872	0.730791
828.638177	0.773092
828.955439	0.805975
829.272656	0.826211
829.589830	0.842411
829.906960	0.858751
830.224046	0.870550
830.541088	0.881270
830.858086	0.884943
831.175041	0.891579
831.491952	0.890479
831.808819	0.886635
832.125642	0.880987
832.442421	0.865835
832.759157	0.844544
833.075849	0.799737
833.392497	0.736019
833.709101	0.696599
834.025662	0.706484
834.342179	0.737573
834.658653	0.775986
834.975083	0.812028
835.291469	0.837381
835.607811	0.859028
835.924110	0.874035
836.240366	0.891679
836.556578	0.904619
836.872746	0.912173
837.188871	0.918150
837.504952	0.923246
837.820990	0.927523
838.136984	0.930277
838.452935	0.931916
838.768842	0.933915
839.084706	0.927776
839.400526	0.902615
839.716303	0.862709
840.032037	0.841576
840.347727	0.845428
840.663373	0.862573
840.978977	0.883800
841.294537	0.904812
841.610054	0.921163
841.925527	0.928928
842.240957	0.935473
842.556344	0.942124
842.871687	0.947900
843.186987	0.952073
843.502244	0.953311
843.817458	0.954015
844.132629	0.957195
844.447756	0.962626
844.762840	0.963959
845.077881	0.962970
845.392879	0.962389
845.707833	0.965088
846.022745	0.967283
846.337613	0.966868
846.652438	0.968177
846.967221	0.966468
847.281960	0.966596
847.596656	0.968882
847.911309	0.968088
848.225919	0.970028
848.540485	0.970296
848.855009	0.971522
849.169490	0.969750
849.483928	0.970514
849.798323	0.970989
850.112675	0.971961
850.426984	0.971602
850.741251	0.971607
851.055474	0.972292
851.369654	0.969226
851.683792	0.971601
851.997887	0.971955
852.311938	0.971982
852.625947	0.971607
852.939914	0.969824
853.253837	0.970557
853.567718	0.972708
853.881555	0.972645
854.195350	0.969810
854.509103	0.971976
854.822812	0.971298
855.136479	0.973052
855.450103	0.970417
855.763685	0.971260
856.077224	0.970087
856.390720	0.972940
856.704173	0.972544
857.017584	0.970619
857.330953	0.969397
857.644278	0.969822
857.957561	0.970095
858.270802	0.972173
858.584000	0.969223
858.897155	0.968931
859.210268	0.970548
859.523339	0.970280
859.836367	0.972829
860.149352	0.972321
860.462295	0.970158
860.775195	0.971718
861.088054	0.971454
861.400869	0.971046
861.713642	0.972306
862.026373	0.972204
862.339062	0.972597
862.651708	0.969712
862.964312	0.970266
863.276873	0.971342
863.589392	0.970427
863.901869	0.968866
864.214303	0.967018
864.526696	0.966254
864.839045	0.965939
865.151353	0.964515
865.463619	0.965738
865.775842	0.964017
866.088023	0.964147
866.400162	0.964492
866.712258	0.964411
867.024313	0.964421
867.336325	0.965308
867.648296	0.964271
867.960224	0.964606
868.272110	0.963516
868.583954	0.967538
868.895755	0.966645
869.207515	0.963196
869.519233	0.961706
869.830909	0.963019
870.142542	0.964814
870.454134	0.964555
870.765684	0.962855
871.077191	0.960698
871.388657	0.961544
871.700081	0.960165
872.011463	0.961238
872.322803	0.959617
872.634101	0.958604
872.945357	0.958019
873.256571	0.955738
873.567744	0.955207
873.878874	0.956659
874.189963	0.954180
874.501010	0.955063
874.812015	0.953405
875.122979	0.954679
875.433900	0.956454
875.744780	0.955513
876.055618	0.954275
876.366415	0.952320
876.677169	0.952678
876.987882	0.954863
877.298554	0.953992
877.609183	0.951241
877.919771	0.948745
878.230317	0.946385
878.540822	0.943420
878.851285	0.938740
879.161707	0.931584
879.472087	0.919424
879.782425	0.904919
880.092722	0.871526
880.402977	0.820780
880.713191	0.763571
881.023363	0.706570
881.333494	0.674237
881.643583	0.646314
881.953631	0.646033
882.263637	0.673983
882.573602	0.712652
882.883526	0.737571
883.193408	0.760177
883.503248	0.781867
883.813048	0.809046
884.122806	0.835860
884.432522	0.858261
884.742197	0.877594
885.051831	0.888885
885.361424	0.896934
885.670975	0.909378
885.980485	0.919164
886.289954	0.924087
886.599382	0.929967
886.908768	0.932906
887.218113	0.937783
887.527417	0.943032
887.836680	0.946585
888.145901	0.946106
888.455082	0.948567
888.764221	0.953811
889.073319	0.955009
889.382376	0.956780
889.691392	0.956051
890.000366	0.955981
890.309300	0.957318
890.618193	0.957052
890.927044	0.955336
891.235855	0.954704
891.544625	0.954924
891.853353	0.955232
892.162041	0.953117
892.470687	0.947240
892.779293	0.941664
893.087858	0.937286
893.396381	0.930861
893.704864	0.919368
894.013306	0.896373
894.321707	0.870090
894.630068	0.856431
894.938387	0.853178
895.246665	0.852968
895.554903	0.865227
895.863100	0.877256
896.171256	0.893375
896.479371	0.912562
896.787446	0.924443
897.095480	0.929813
897.403473	0.933095
897.711425	0.936415
898.019336	0.943945
898.327207	0.947471
898.635038	0.948915
898.942827	0.948263
899.250576	0.951399
899.558284	0.955977
899.865952	0.957686
900.173579	0.958770
900.481165	0.957811
900.788711	0.962970
901.096216	0.964888
901.403681	0.964278
901.711105	0.966612
902.018489	0.965829
902.325832	0.965384
902.633135	0.964623
902.940397	0.958843
903.247619	0.947744
903.554800	0.923155
903.861941	0.885628
904.169041	0.852749
904.476101	0.836598
904.783121	0.836954
905.090100	0.853216
905.397039	0.873620
905.703938	0.893695
906.010796	0.911869
906.317614	0.927467
906.624391	0.938532
906.931129	0.948049
907.237826	0.955666
907.544483	0.962997
907.851099	0.966310
908.157675	0.970194
908.464211	0.972945
908.770707	0.975166
909.077163	0.977668
909.383578	0.977200
909.689954	0.976447
909.996289	0.977532
910.302584	0.980235
910.608839	0.981433
910.915054	0.981009
911.221229	0.980481
911.527363	0.980125
911.833458	0.978654
912.139513	0.979710
912.445527	0.977909
912.751502	0.976271
913.057436	0.975829
913.363331	0.973646
913.669186	0.968703
913.975000	0.964134
914.280775	0.958337
914.586510	0.953261
914.892205	0.940559
915.197859	0.919119
915.503475	0.894617
915.809050	0.875724
916.114585	0.871954
916.420081	0.869911
916.725536	0.866229
917.030952	0.873397
917.336328	0.885560
917.641665	0.899844
917.946961	0.914687
918.252218	0.926043
918.557435	0.933986
918.862612	0.941811
919.167750	0.947274
919.472848	0.951649
919.777906	0.956989
920.082925	0.962160
920.387904	0.966086
920.692843	0.964907
920.997743	0.967114
921.302603	0.969493
921.607423	0.972151
921.912204	0.975098
922.216946	0.974771
922.521647	0.975635
922.826310	0.976861
923.130932	0.978950
923.435516	0.981410
923.740059	0.981465
924.044564	0.980937
924.349028	0.982771
924.653454	0.984884
924.957840	0.987595
925.262186	0.986018
925.566493	0.985962
925.870761	0.986669
926.174989	0.987572
926.479178	0.990202
926.783328	0.989765
927.087438	0.989841
927.391509	0.990233
927.695541	0.990775
927.999533	0.991550
928.303486	0.990987
928.607400	0.993719
928.911275	0.990632
929.215110	0.991901
929.518906	0.992416
929.822663	0.991753
930.126381	0.992026
930.430060	0.991580
930.733699	0.992521
931.037299	0.990061
931.340861	0.993643
931.644383	0.990055
931.947866	0.991914
932.251309	0.992291
932.554714	0.992102
932.858080	0.992271
933.161407	0.991447
933.464694	0.992329
933.767943	0.990668
934.071153	0.992396
934.374323	0.992926
934.677455	0.993006
934.980548	0.993975
935.283602	0.993137
935.586617	0.991974
935.889593	0.992266
936.192530	0.992123
936.495428	0.991664
936.798287	0.992720
937.101108	0.991695
937.403890	0.989299
937.706632	0.990448
938.009336	0.989508
938.312002	0.988188
938.614628	0.985941
938.917216	0.984830
939.219765	0.984287
939.522275	0.986396
939.824747	0.984981
940.127179	0.985575
940.429573	0.985496
940.731929	0.986448
941.034246	0.986837
941.336524	0.988135
941.638763	0.988892
941.940964	0.989050
942.243126	0.988511
942.545250	0.989919
942.847335	0.989987
943.149381	0.989706
943.451389	0.990147
943.753359	0.990455
944.055290	0.992309
944.357182	0.990848
944.659036	0.989833
944.960851	0.990194
945.262628	0.991205
945.564367	0.992967
945.866067	0.990748
946.167729	0.991729
946.469352	0.990809
946.770937	0.990667
947.072484	0.991382
947.373992	0.991654
947.675462	0.991488
947.976893	0.991362
948.278286	0.990936
948.579641	0.993495
948.880958	0.992362
949.182236	0.992431
949.483476	0.992810
949.784678	0.993223
950.085841	0.992513
950.386967	0.992471
950.688054	0.991867
950.989103	0.992379
951.290114	0.990507
951.591087	0.991653
951.892021	0.991548
952.192917	0.991134
952.493776	0.989614
952.794596	0.990241
953.095378	0.990056
953.396122	0.990008
953.696828	0.988795
953.997496	0.991161
954.298126	0.992061
954.598718	0.991542
954.899272	0.992218
955.199788	0.991536
955.500266	0.994137
955.800706	0.994431
956.101108	0.994450
956.401472	0.995656
956.701798	0.994713
957.002087	0.994311
957.302337	0.996204
957.602550	0.995241
957.902724	0.996950
958.202861	0.995474
958.502960	0.996350
958.803022	0.995625
959.103045	0.995476
959.403031	0.995857
959.702979	0.996067
960.002889	0.996472
960.302762	0.996189
960.602596	0.997523
960.902393	0.996190
961.202153	0.997699
961.501875	0.997416
961.801559	0.996035
962.101205	0.996487
962.400814	0.997382
962.700385	0.997154
962.999918	0.997136
963.299414	0.997584
963.598873	0.995531
963.898293	0.995760
964.197677	0.996675
964.497022	0.996884
964.796331	0.998712
965.095601	0.996938
965.394835	0.997166
965.694030	0.998770
965.993189	0.998572
966.292309	0.997463
966.591393	0.998724
966.890439	0.998734
967.189447	0.997214
967.488419	0.998416
967.787353	0.997919
968.086249	0.996133
968.385108	0.997990
968.683930	0.997462
968.982714	0.997754
969.281462	0.998394
969.580172	0.998885
969.878844	0.997798
970.177480	0.998422
970.476078	0.997896
970.774639	0.997654
971.073162	0.997274
971.371649	0.997303
971.670098	0.996241
971.968510	0.999090
972.266885	0.996673
972.565223	0.997303
972.863524	0.996400
973.161788	0.996346
973.460014	0.999235
973.758204	0.996331
974.056356	0.997014
974.354471	0.994350
974.652550	0.996528
974.950591	0.997751
975.248595	0.997445
975.546563	0.997929
975.844493	0.998756
976.142386	0.997431
976.440243	0.998335
976.738062	0.997943
977.035845	0.997680
977.333590	0.996942
977.631299	0.999290
977.928971	0.997105
978.226606	0.996967
978.524204	0.996931
978.821765	0.999141
979.119290	0.997654
979.416777	0.997090
979.714228	0.997314
980.011642	0.996043
980.309020	0.998672
980.606360	0.998465
980.903664	0.999209
981.200931	0.997284
981.498162	0.995996
981.795356	0.995192
982.092513	0.994586
982.389633	0.994817
982.686717	0.993130
982.983764	0.993380
983.280775	0.992605
983.577749	0.991871
983.874686	0.992561
984.171587	0.992844
984.468451	0.995714
984.765279	0.995918
985.062070	0.994694
985.358824	0.996233
985.655543	0.995166
985.952224	0.996897
986.248869	0.996818
986.545478	0.998144
986.842050	0.999054
987.138586	0.995626
987.435086	0.998787
987.731549	0.997909
988.027975	0.998412
988.324366	0.998857
988.620719	0.997687
988.917037	0.996229
989.213318	0.997929
989.509563	0.998139
989.805772	0.999776
990.101944	0.998900
990.398080	0.998615
990.694180	0.998280
990.990244	0.997821
991.286271	0.998065
991.582262	0.998957
991.878217	0.997674
992.174136	0.998925
992.470019	0.998667
992.765865	0.998286
993.061676	0.998952
993.357450	0.998159
993.653188	0.998066
993.948890	0.997697
994.244556	0.998449
994.540186	0.997701
994.835780	0.996924
995.131337	0.997770
995.426859	0.997010
995.722345	0.997597
996.017795	0.997049
996.313208	0.996837
996.608586	0.996249
996.903928	0.998582
997.199234	0.996526
997.494504	0.998652
997.789738	0.996675
998.084936	0.998201
998.380099	0.998490
998.675225	0.998063
998.970316	0.998095
999.265371	0.998255
999.560390	0.998563
999.855373	0.998866
1000.150320	0.998930
1000.445232	0.998748
1000.740108	0.998815
1001.034948	0.998641
1001.329752	0.999337
1001.624521	0.998572
1001.919254	0.998918
1002.213951	0.998399
1002.508613	0.998864
1002.803239	0.999877
1003.097829	0.998227
1003.392384	0.998909
1003.686903	0.998635
1003.981386	0.999337
1004.275834	0.999283
1004.570246	0.999165
1004.864623	0.999302
1005.158964	0.999849
1005.453270	0.999276
1005.747540	0.998180
1006.041775	0.998751
1006.335974	0.999949
1006.630138	1.000030
1006.924266	1.000993
1007.218359	0.999850
1007.512416	0.998194
1007.806438	0.999436
1008.100425	0.999776
1008.394376	0.999333
1008.688292	0.999003
1008.982172	1.000711
1009.276017	1.000763
1009.569827	0.999490
1009.863602	0.998650
1010.157341	0.999267
1010.451045	0.998897
1010.744714	0.999672
1011.038347	0.998624
1011.331945	0.999284
1011.625508	0.997977
1011.919036	0.999327
1012.212528	0.999255
1012.505986	0.999273
1012.799408	0.998543
1013.092795	1.000199
1013.386147	0.999209
1013.679464	0.999267
1013.972745	0.998194
1014.265992	0.997654
1014.559204	0.998763
1014.852380	0.999354
1015.145521	0.998785
1015.438628	0.999843
1015.731699	0.999278
1016.024736	0.999622
1016.317737	0.998628
1016.610703	0.998940
1016.903635	0.999754
1017.196531	0.999066
1017.489393	1.000347
1017.782219	0.998979
1018.075011	0.998186
1018.367768	0.999504
1018.660490	1.000319
1018.953177	1.000319
1019.245829	1.000319
