Dividing Wavelength (nm)	Counts (n)	Blue Motor Position (mm): 0.000000	Red Motor Position (mm): 36.000000	
326.493990	1.001540
326.888308	1.001540
327.282561	1.001540
327.676750	0.999218
328.070874	0.998215
328.464933	0.999514
328.858929	0.998810
329.252859	0.999973
329.646726	0.999302
330.040528	0.999161
330.434265	0.997927
330.827938	1.000479
331.221547	1.000348
331.615091	0.999943
332.008571	1.000255
332.401986	0.999515
332.795338	1.000304
333.188625	0.998525
333.581847	0.999849
333.975006	0.998862
334.368100	0.999920
334.761129	0.999543
335.154095	1.000452
335.546996	0.998324
335.939833	0.996472
336.332606	0.995532
336.725315	0.997831
337.117960	0.997122
337.510540	0.996342
337.903056	0.997314
338.295508	0.995689
338.687896	0.997352
339.080220	0.996853
339.472480	0.997563
339.864676	0.996732
340.256807	0.997575
340.648875	0.997666
341.040879	0.997178
341.432818	0.997790
341.824694	0.997309
342.216506	0.997534
342.608253	0.996351
342.999937	0.996917
343.391557	0.996965
343.783113	0.997149
344.174605	0.997073
344.566033	0.997137
344.957397	0.995501
345.348697	0.995346
345.739934	0.997094
346.131106	0.995746
346.522215	0.996220
346.913260	0.995957
347.304241	0.996758
347.695159	0.997408
348.086012	0.994948
348.476802	0.996127
348.867528	0.996918
349.258191	0.995820
349.648789	0.996717
350.039324	0.998052
350.429796	0.996859
350.820203	0.996890
351.210548	0.996191
351.600828	0.996113
351.991045	0.996454
352.381198	0.994892
352.771288	0.995734
353.161314	0.997433
353.551276	0.997907
353.941175	0.997068
354.331010	0.996875
354.720782	0.997079
355.110490	0.997562
355.500135	0.997266
355.889717	0.996405
356.279235	0.996312
356.668689	0.995333
357.058080	0.996099
357.447408	0.998165
357.836672	0.996792
358.225873	0.998099
358.615010	0.996587
359.004084	0.997332
359.393095	0.997231
359.782043	0.996819
360.170927	0.997581
360.559748	0.996864
360.948505	0.995206
361.337199	0.996828
361.725830	0.996353
362.114398	0.997454
362.502903	0.997056
362.891344	0.998411
363.279722	0.995933
363.668037	0.997850
364.056289	0.996549
364.444478	0.998313
364.832603	0.997570
365.220665	0.997120
365.608665	0.995769
365.996601	0.996187
366.384474	0.996262
366.772284	0.997346
367.160031	0.997062
367.547715	0.996043
367.935336	0.997353
368.322893	0.997367
368.710388	0.995701
369.097820	0.996827
369.485189	0.996454
369.872495	0.994998
370.259738	0.994789
370.646918	0.997457
371.034035	0.997822
371.421090	0.997141
371.808081	0.995287
372.195010	0.997277
372.581875	0.997075
372.968678	0.996331
373.355418	0.997595
373.742096	0.997557
374.128710	0.997700
374.515262	0.996297
374.901751	0.997268
375.288177	0.996907
375.674540	0.997579
376.060841	0.997767
376.447079	0.998465
376.833254	0.997175
377.219367	0.996748
377.605417	0.997382
377.991404	0.997381
378.377329	0.996094
378.763191	0.997508
379.148991	0.998503
379.534727	0.997626
379.920402	0.998183
380.306013	0.997642
380.691563	0.998685
381.077049	0.995849
381.462474	0.997968
381.847835	0.997604
382.233134	0.997260
382.618371	0.998498
383.003545	0.997739
383.388657	0.997595
383.773706	0.998435
384.158693	0.997896
384.543618	0.997931
384.928480	0.997587
385.313280	0.998933
385.698017	0.999517
386.082692	0.997729
386.467305	0.999433
386.851856	0.998491
387.236344	0.997879
387.620770	0.997414
388.005133	0.997864
388.389435	0.999450
388.773674	0.997775
389.157851	0.998090
389.541965	0.998969
389.926018	0.998728
390.310008	0.999062
390.693936	0.998131
391.077802	0.999536
391.461606	0.997931
391.845348	0.998735
392.229027	0.999206
392.612645	0.999464
392.996200	0.999387
393.379694	0.998661
393.763125	1.000037
394.146494	0.998875
394.529801	0.998229
394.913047	0.999363
395.296230	0.998751
395.679351	0.998248
396.062410	0.998550
396.445408	0.999307
396.828343	0.998441
397.211217	0.997545
397.594028	0.999530
397.976778	0.997974
398.359466	0.998558
398.742092	0.998807
399.124656	0.998353
399.507158	0.998483
399.889598	0.999038
400.271977	0.999602
400.654294	0.999370
401.036549	0.999121
401.418742	0.999206
401.800874	0.998319
402.182944	0.999085
402.564952	0.998174
402.946898	1.000082
403.328783	0.998577
403.710606	0.999243
404.092367	0.998377
404.474067	0.998860
404.855705	0.998409
405.237282	0.998769
405.618797	0.999408
406.000250	0.998389
406.381642	0.999759
406.762972	0.999336
407.144240	0.999677
407.525447	0.999412
407.906593	0.999287
408.287677	0.999362
408.668700	0.999578
409.049661	0.997581
409.430560	0.999897
409.811399	0.998966
410.192176	0.998438
410.572891	0.998639
410.953545	0.998202
411.334138	0.998332
411.714669	1.000118
412.095139	0.998679
412.475547	1.000073
412.855894	0.998924
413.236180	0.999734
413.616405	0.999658
413.996568	1.000023
414.376670	1.000061
414.756711	0.998572
415.136691	0.998746
415.516609	0.998973
415.896466	0.999227
416.276262	0.997981
416.655997	0.999750
417.035670	0.998391
417.415283	0.998870
417.794834	0.998830
418.174324	0.999276
418.553753	1.000112
418.933121	0.999414
419.312428	0.999096
419.691674	0.998717
420.070859	0.999284
420.449983	0.999443
420.829045	0.999797
421.208047	1.000712
421.586988	0.999882
421.965867	0.999581
422.344686	0.999997
422.723444	0.998815
423.102141	0.999487
423.480777	0.999862
423.859352	0.998791
424.237866	0.998300
424.616319	0.999651
424.994712	0.999309
425.373044	1.000434
425.751314	0.999757
426.129524	0.999218
426.507673	1.000313
426.885762	1.000115
427.263789	0.999930
427.641756	0.999853
428.019662	1.000236
428.397508	0.999736
428.775292	0.999364
429.153016	0.999321
429.530679	1.000752
429.908282	1.000314
430.285824	0.998824
430.663305	0.999122
431.040726	0.999473
431.418086	1.000032
431.795385	0.999764
432.172624	0.999635
432.549802	0.999750
432.926920	0.999612
433.303977	0.998949
433.680974	1.000678
434.057910	0.999775
434.434786	1.000073
434.811601	0.999295
435.188355	0.999078
435.565050	0.998312
435.941683	0.999468
436.318257	1.000262
436.694770	0.999194
437.071222	1.000136
437.447614	0.999747
437.823946	0.999326
438.200218	1.000116
438.576429	0.999736
438.952580	0.999827
439.328670	0.998896
439.704700	0.999423
440.080670	1.000724
440.456580	0.998358
440.832429	0.999439
441.208218	0.999728
441.583947	0.999603
441.959616	0.999927
442.335224	0.999181
442.710773	1.000604
443.086261	1.000068
443.461689	0.998943
443.837057	0.999604
444.212365	0.999950
444.587612	0.999113
444.962800	0.999692
445.337927	1.000017
445.712995	0.999641
446.088002	1.000544
446.462949	1.000132
446.837837	0.999618
447.212664	1.000263
447.587431	1.000031
447.962139	1.000169
448.336786	0.999856
448.711374	0.999660
449.085901	0.999360
449.460369	1.000028
449.834776	0.999425
450.209124	1.000244
450.583412	0.999769
450.957640	0.999273
451.331808	0.999443
451.705917	1.000385
452.079965	0.999804
452.453954	1.000139
452.827883	0.999783
453.201752	0.999966
453.575562	1.000422
453.949311	1.000422
454.323001	0.999829
454.696632	0.999978
455.070202	0.999925
455.443713	0.999158
455.817164	0.999840
456.190556	0.999610
456.563888	1.000466
456.937160	0.999383
457.310373	0.998790
457.683526	0.999013
458.056619	0.999230
458.429653	1.000028
458.802628	0.998415
459.175542	0.999736
459.548398	0.999762
459.921194	0.999699
460.293930	0.999730
460.666607	0.998885
461.039224	0.998620
461.411782	0.999489
461.784280	0.999446
462.156719	1.000528
462.529099	1.000177
462.901419	1.000235
463.273680	0.999974
463.645882	1.000511
464.018024	0.999702
464.390106	0.999547
464.762130	1.000300
465.134094	0.999179
465.505999	1.000335
465.877845	0.999688
466.249631	1.000528
466.621358	0.999987
466.993026	0.999739
467.364634	1.000381
467.736184	1.000712
468.107674	0.999576
468.479105	0.999464
468.850477	1.000248
469.221790	1.000413
469.593043	1.000605
469.964238	1.000651
470.335373	0.999421
470.706449	0.999861
471.077467	1.000001
471.448425	1.000330
471.819324	1.000920
472.190164	0.999694
472.560945	1.000449
472.931667	0.999920
473.302330	0.999560
473.672934	1.000246
474.043479	1.000152
474.413965	0.999657
474.784393	1.000226
475.154761	0.999965
475.525070	0.998950
475.895321	0.999860
476.265513	0.999852
476.635645	0.998903
477.005719	1.000338
477.375734	0.999309
477.745691	0.999950
478.115588	0.999837
478.485427	0.999784
478.855207	0.999749
479.224928	1.000109
479.594591	0.999949
479.964194	1.000574
480.333739	1.000112
480.703226	0.999908
481.072653	1.001159
481.442022	1.000219
481.811333	0.999512
482.180584	1.000621
482.549777	1.000381
482.918912	0.999836
483.287988	1.000140
483.657005	0.999792
484.025964	1.000335
484.394864	1.000020
484.763706	1.000055
485.132489	1.000385
485.501213	1.000155
485.869879	0.999849
486.238487	1.000157
486.607036	1.000210
486.975527	0.999441
487.343959	0.999675
487.712333	0.999700
488.080648	0.999956
488.448905	1.000301
488.817104	0.999245
489.185244	0.999396
489.553326	1.000069
489.921350	0.999754
490.289315	1.000129
490.657222	1.000279
491.025070	0.999742
491.392861	1.000172
491.760593	1.000459
492.128267	1.000169
492.495883	1.000491
492.863440	1.000083
493.230939	1.000449
493.598380	0.999856
493.965763	0.999338
494.333088	0.999657
494.700354	0.999827
495.067563	0.999673
495.434713	0.999654
495.801805	1.000028
496.168839	1.000049
496.535815	0.998989
496.902733	0.999622
497.269593	0.999460
497.636395	1.000129
498.003139	0.999816
498.369825	0.999753
498.736453	0.999162
499.103023	0.998665
499.469535	0.999056
499.835989	0.999439
500.202385	0.999883
500.568723	0.999513
500.935003	0.999857
501.301226	0.999322
501.667390	0.999165
502.033497	0.998845
502.399546	0.999692
502.765537	0.998556
503.131470	0.999007
503.497345	0.999405
503.863163	1.000780
504.228923	0.999477
504.594625	0.999622
504.960269	0.999426
505.325856	0.999383
505.691385	0.998922
506.056856	0.998979
506.422270	0.999145
506.787625	0.998997
507.152924	0.999299
507.518164	0.998710
507.883347	0.998745
508.248472	0.998507
508.613540	0.998461
508.978550	0.998683
509.343503	0.998252
509.708398	0.998378
510.073236	0.998174
510.438016	0.998523
510.802738	0.998020
511.167403	0.997966
511.532010	0.998164
511.896561	0.997453
512.261053	0.998574
512.625488	0.997634
512.989866	0.997633
513.354186	0.996757
513.718449	0.997108
514.082655	0.996689
514.446803	0.996969
514.810894	0.996675
515.174927	0.996568
515.538904	0.996473
515.902822	0.995502
516.266684	0.995020
516.630488	0.995659
516.994235	0.994377
517.357925	0.994509
517.721558	0.994370
518.085133	0.993223
518.448651	0.994292
518.812112	0.992995
519.175516	0.991872
519.538863	0.992261
519.902152	0.991521
520.265385	0.991273
520.628560	0.990572
520.991678	0.989924
521.354739	0.989780
521.717743	0.989472
522.080690	0.988005
522.443580	0.987494
522.806413	0.986989
523.169189	0.986141
523.531908	0.985310
523.894569	0.984539
524.257174	0.984477
524.619722	0.983577
524.982213	0.982814
525.344647	0.981947
525.707025	0.979989
526.069345	0.979270
526.431608	0.978266
526.793815	0.978109
527.155964	0.977043
527.518057	0.976233
527.880093	0.974963
528.242072	0.973392
528.603995	0.972222
528.965860	0.971930
529.327669	0.970363
529.689421	0.968238
530.051117	0.967772
530.412755	0.966544
530.774337	0.965875
531.135862	0.963055
531.497331	0.962097
531.858743	0.960348
532.220098	0.959281
532.581396	0.957656
532.942638	0.956550
533.303824	0.954483
533.664953	0.952955
534.026025	0.951091
534.387040	0.948671
534.747999	0.947410
535.108902	0.945487
535.469748	0.943406
535.830537	0.941753
536.191270	0.939535
536.551947	0.936990
536.912567	0.935460
537.273131	0.933557
537.633638	0.930066
537.994089	0.928266
538.354483	0.925868
538.714821	0.923593
539.075103	0.920713
539.435328	0.918150
539.795497	0.916391
540.155609	0.913047
540.515665	0.909999
540.875665	0.908571
541.235609	0.905099
541.595496	0.902475
541.955328	0.898340
542.315102	0.897036
542.674821	0.893712
543.034483	0.890813
543.394090	0.887424
543.753640	0.885038
544.113134	0.880749
544.472571	0.878401
544.831953	0.874818
545.191278	0.872750
545.550548	0.869472
545.909761	0.864990
546.268918	0.861855
546.628019	0.858353
546.987064	0.854647
547.346053	0.853100
547.704986	0.847543
548.063863	0.844269
548.422684	0.841322
548.781449	0.837734
549.140158	0.832798
549.498811	0.830262
549.857408	0.827810
550.215949	0.821755
550.574434	0.819134
550.932864	0.814076
551.291237	0.811300
551.649555	0.805913
552.007817	0.802914
552.366022	0.799505
552.724173	0.795934
553.082267	0.792599
553.440305	0.785587
553.798288	0.784930
554.156215	0.778444
554.514086	0.775288
554.871902	0.772248
555.229661	0.767808
555.587365	0.763878
555.945014	0.761923
556.302606	0.754534
556.660143	0.753119
557.017625	0.744829
557.375050	0.742568
557.732421	0.737821
558.089735	0.733306
558.446994	0.729983
558.804197	0.725266
559.161345	0.720994
559.518437	0.718575
559.875474	0.711227
560.232455	0.707479
560.589381	0.704322
560.946251	0.697741
561.303065	0.694918
561.659825	0.690002
562.016528	0.686613
562.373177	0.684771
562.729770	0.677026
563.086307	0.674477
563.442789	0.670220
563.799216	0.664639
564.155587	0.660788
564.511904	0.656724
564.868164	0.652778
565.224370	0.649162
565.580520	0.644198
565.936615	0.641439
566.292654	0.636971
566.648638	0.632513
567.004567	0.627515
567.360441	0.624276
567.716260	0.620340
568.072023	0.615208
568.427732	0.610467
568.783385	0.609239
569.138982	0.602770
569.494525	0.598037
569.850013	0.596349
570.205445	0.590072
570.560823	0.588888
570.916145	0.584945
571.271412	0.579745
571.626625	0.576406
571.981782	0.572819
572.336884	0.568985
572.691931	0.565776
573.046923	0.560456
573.401860	0.557976
573.756743	0.554543
574.111570	0.550173
574.466342	0.547609
574.821059	0.542353
575.175722	0.540350
575.530330	0.535671
575.884882	0.532522
576.239380	0.529733
576.593823	0.526036
576.948211	0.522332
577.302544	0.521472
577.656823	0.516430
578.011047	0.513253
578.365216	0.509888
578.719330	0.507979
579.073389	0.503583
579.427394	0.501785
579.781344	0.499197
580.135239	0.496084
580.489080	0.492964
580.842866	0.491038
581.196597	0.488111
581.550273	0.483409
581.903895	0.480842
582.257463	0.476667
582.610975	0.475323
582.964434	0.472471
583.317837	0.470707
583.671186	0.469006
584.024481	0.465230
584.377721	0.463940
584.730906	0.461591
585.084037	0.457466
585.437113	0.456901
585.790135	0.452375
586.143103	0.451662
586.496016	0.449965
586.848874	0.444759
587.201679	0.442972
587.554428	0.442335
587.907124	0.437994
588.259765	0.436637
588.612352	0.434049
588.964884	0.434970
589.317362	0.431729
589.669786	0.429569
590.022155	0.425792
590.374470	0.421756
590.726731	0.421975
591.078937	0.422688
591.431090	0.416603
591.783188	0.418644
592.135232	0.415616
592.487222	0.414215
592.839157	0.410125
593.191038	0.409999
593.542866	0.409471
593.894639	0.410110
594.246358	0.405950
594.598022	0.403154
594.949633	0.404351
595.301190	0.402577
595.652692	0.400112
596.004141	0.393910
596.355535	0.399669
596.706876	0.398119
597.058162	0.397876
597.409395	0.393559
597.760573	0.389921
598.111698	0.390947
598.462768	0.389689
598.813785	0.389112
599.164748	0.388189
599.515657	0.387384
599.866511	0.387928
600.217312	0.382631
600.568060	0.385851
600.918753	0.380883
601.269392	0.380662
601.619978	0.381521
601.970510	0.378072
602.320988	0.376948
602.671412	0.372916
603.021783	0.374267
603.372100	0.373949
603.722363	0.372176
604.072572	0.371866
604.422728	0.370366
604.772830	0.371557
605.122878	0.368888
605.472872	0.368764
605.822813	0.365786
606.172701	0.367258
606.522534	0.363670
606.872314	0.362929
607.222041	0.362124
607.571714	0.359702
607.921333	0.359771
608.270899	0.358518
608.620411	0.354513
608.969870	0.357198
609.319276	0.356528
609.668627	0.355392
610.017926	0.353157
610.367171	0.350845
610.716362	0.351220
611.065500	0.350256
611.414585	0.347852
611.763616	0.347843
612.112594	0.347893
612.461518	0.346425
612.810389	0.343539
613.159207	0.344819
613.507971	0.346393
613.856682	0.341336
614.205340	0.342177
614.553945	0.338779
614.902496	0.341526
615.250994	0.339438
615.599439	0.339411
615.947830	0.338039
616.296169	0.339029
616.644454	0.337844
616.992686	0.337584
617.340864	0.334880
617.688990	0.338230
618.037063	0.333845
618.385082	0.335488
618.733048	0.332486
619.080961	0.334406
619.428821	0.333219
619.776628	0.332302
620.124382	0.333401
620.472083	0.333389
620.819731	0.332310
621.167326	0.335622
621.514868	0.334959
621.862357	0.338469
622.209793	0.337508
622.557176	0.339400
622.904506	0.340127
623.251783	0.342157
623.599007	0.343833
623.946179	0.343471
624.293297	0.344906
624.640363	0.348364
624.987376	0.348504
625.334336	0.350919
625.681243	0.352741
626.028097	0.352869
626.374899	0.353859
626.721647	0.353866
627.068343	0.356472
627.414987	0.357410
627.761577	0.359579
628.108115	0.357485
628.454600	0.362489
628.801032	0.359827
629.147412	0.361390
629.493739	0.361601
629.840014	0.364820
630.186236	0.361936
630.532405	0.367093
630.878521	0.364809
631.224585	0.366627
631.570597	0.370041
631.916556	0.368422
632.262462	0.368428
632.608316	0.369966
632.954117	0.371174
633.299866	0.372161
633.645562	0.371966
633.991206	0.376287
634.336797	0.379435
634.682336	0.381141
635.027823	0.382696
635.373257	0.382799
635.718639	0.386269
636.063968	0.385377
636.409245	0.391264
636.754470	0.391433
637.099642	0.393672
637.444762	0.397211
637.789829	0.395671
638.134845	0.399391
638.479808	0.400166
638.824719	0.399769
639.169577	0.403825
639.514383	0.402871
639.859137	0.406364
640.203839	0.406759
640.548489	0.406912
640.893086	0.408408
641.237632	0.409830
641.582125	0.408259
641.926566	0.410318
642.270955	0.410494
642.615292	0.410179
642.959576	0.409018
643.303809	0.409729
643.647990	0.409258
643.992118	0.409796
644.336195	0.413208
644.680219	0.411498
645.024192	0.411906
645.368112	0.406031
645.711981	0.404238
646.055797	0.400434
646.399562	0.401905
646.743274	0.394372
647.086935	0.391774
647.430544	0.392126
647.774101	0.390691
648.117606	0.390285
648.461059	0.390766
648.804460	0.393594
649.147810	0.398593
649.491108	0.399860
649.834354	0.401448
650.177548	0.406644
650.520690	0.411977
650.863781	0.413277
651.206820	0.412571
651.549807	0.416872
651.892742	0.421301
652.235626	0.420263
652.578458	0.421443
652.921238	0.427617
653.263967	0.425337
653.606644	0.429229
653.949269	0.429309
654.291843	0.432777
654.634365	0.428903
654.976836	0.433245
655.319255	0.432690
655.661622	0.434422
656.003938	0.434828
656.346203	0.437284
656.688416	0.435352
657.030577	0.438692
657.372687	0.440449
657.714746	0.440925
658.056753	0.438443
658.398708	0.441931
658.740612	0.443100
659.082465	0.439057
659.424266	0.440126
659.766016	0.439101
660.107715	0.441874
660.449362	0.440960
660.790958	0.441509
661.132503	0.441976
661.473996	0.439451
661.815438	0.440366
662.156829	0.440740
662.498168	0.440668
662.839456	0.443218
663.180693	0.440613
663.521879	0.440432
663.863013	0.441511
664.204097	0.439540
664.545129	0.436960
664.886110	0.436953
665.227040	0.434674
665.567918	0.437304
665.908746	0.435321
666.249522	0.434512
666.590248	0.435374
666.930922	0.433985
667.271545	0.432663
667.612118	0.432714
667.952639	0.434349
668.293109	0.433026
668.633528	0.435962
668.973896	0.435719
669.314213	0.435785
669.654480	0.437891
669.994695	0.437800
670.334859	0.438847
670.674973	0.439029
671.015035	0.439025
671.355047	0.438864
671.695008	0.440305
672.034918	0.442288
672.374777	0.441744
672.714585	0.442324
673.054342	0.442340
673.394049	0.442321
673.733705	0.439938
674.073310	0.441467
674.412864	0.444559
674.752368	0.444617
675.091820	0.445685
675.431223	0.449890
675.770574	0.449387
676.109875	0.452212
676.449125	0.452604
676.788324	0.454344
677.127473	0.460178
677.466571	0.459600
677.805619	0.461142
678.144616	0.462518
678.483562	0.463742
678.822458	0.466680
679.161303	0.468201
679.500098	0.468245
679.838842	0.468866
680.177535	0.469352
680.516179	0.468006
680.854771	0.467333
681.193314	0.460536
681.531805	0.451867
681.870247	0.440359
682.208638	0.432686
682.546978	0.432101
682.885268	0.433430
683.223508	0.440035
683.561697	0.442986
683.899836	0.446177
684.237925	0.449649
684.575963	0.451811
684.913951	0.454898
685.251889	0.450784
685.589776	0.452866
685.927614	0.455610
686.265401	0.449647
686.603137	0.451072
686.940824	0.445123
687.278460	0.443358
687.616046	0.442706
687.953582	0.437579
688.291068	0.439288
688.628504	0.434437
688.965889	0.436843
689.303224	0.440752
689.640510	0.445022
689.977745	0.450302
690.314930	0.458521
690.652065	0.463058
690.989150	0.470382
691.326185	0.477207
691.663170	0.481868
692.000105	0.488645
692.336990	0.495542
692.673825	0.497996
693.010610	0.504923
693.347345	0.509993
693.684030	0.512180
694.020665	0.516098
694.357251	0.525369
694.693786	0.524880
695.030272	0.528953
695.366707	0.532563
695.703093	0.536517
696.039429	0.533825
696.375716	0.535438
696.711952	0.537857
697.048139	0.540333
697.384276	0.541923
697.720363	0.540365
698.056400	0.539344
698.392388	0.544754
698.728326	0.547534
699.064214	0.550582
699.400053	0.551597
699.735842	0.555182
700.071581	0.558220
700.407270	0.560827
700.742910	0.563274
701.078501	0.569991
701.414042	0.569943
701.749533	0.572924
702.084974	0.581896
702.420366	0.574134
702.755709	0.581700
703.091002	0.588996
703.426246	0.582393
703.761440	0.588953
704.096584	0.593334
704.431679	0.590631
704.766725	0.592846
705.101721	0.593959
705.436668	0.590807
705.771565	0.597378
706.106413	0.593782
706.441212	0.589052
706.775961	0.587726
707.110661	0.590611
707.445311	0.586621
707.779913	0.584471
708.114465	0.583230
708.448967	0.579798
708.783421	0.571673
709.117825	0.566203
709.452180	0.566231
709.786485	0.559721
710.120742	0.549775
710.454949	0.552717
710.789107	0.544871
711.123216	0.535754
711.457275	0.536115
711.791286	0.528672
712.125247	0.527411
712.459159	0.537672
712.793023	0.530562
713.126837	0.535012
713.460602	0.534754
713.794318	0.544811
714.127985	0.542711
714.461602	0.553153
714.795171	0.556225
715.128691	0.563992
715.462162	0.571543
715.795584	0.577291
716.128957	0.580126
716.462281	0.586760
716.795556	0.590814
717.128782	0.595293
717.461960	0.604408
717.795088	0.603056
718.128167	0.609156
718.461198	0.617559
718.794180	0.618679
719.127113	0.621342
719.459997	0.624942
719.792833	0.630915
720.125619	0.632522
720.458357	0.638640
720.791046	0.638231
721.123686	0.641228
721.456278	0.647433
721.788821	0.645526
722.121315	0.648974
722.453761	0.653317
722.786158	0.652198
723.118506	0.647819
723.450805	0.655336
723.783056	0.651537
724.115259	0.649493
724.447412	0.649326
724.779518	0.650187
725.111574	0.649464
725.443582	0.644742
725.775542	0.646588
726.107453	0.638870
726.439315	0.638572
726.771129	0.637467
727.102895	0.630607
727.434612	0.624211
727.766281	0.621640
728.097901	0.620854
728.429473	0.620329
728.760996	0.619027
729.092471	0.618905
729.423897	0.623064
729.755276	0.622330
730.086606	0.622001
730.417887	0.616545
730.749120	0.607502
731.080305	0.598531
731.411442	0.594506
731.742530	0.599351
732.073570	0.598987
732.404562	0.591457
732.735506	0.592732
733.066401	0.597368
733.397249	0.606472
733.728048	0.618030
734.058798	0.629546
734.389501	0.640379
734.720156	0.650606
735.050762	0.658318
735.381320	0.658120
735.711831	0.668978
736.042293	0.672434
736.372707	0.668595
736.703073	0.673826
737.033391	0.675480
737.363661	0.672276
737.693883	0.667848
738.024056	0.666559
738.354182	0.666919
738.684260	0.657247
739.014290	0.652662
739.344272	0.653094
739.674207	0.646873
740.004093	0.646242
740.333931	0.647155
740.663722	0.646567
740.993464	0.647687
741.323159	0.651141
741.652806	0.656583
741.982405	0.661296
742.311956	0.665997
742.641460	0.667453
742.970915	0.671037
743.300323	0.678983
743.629683	0.686251
743.958996	0.687086
744.288260	0.691471
744.617477	0.697397
744.946647	0.698626
745.275768	0.704263
745.604842	0.703907
745.933869	0.713549
746.262847	0.714915
746.591778	0.708508
746.920662	0.714533
747.249498	0.720265
747.578286	0.712139
747.907027	0.707927
748.235720	0.709302
748.564365	0.704093
748.892963	0.703638
749.221514	0.706886
749.550017	0.711605
749.878473	0.710608
750.206881	0.718453
750.535242	0.719087
750.863555	0.718426
751.191821	0.719852
751.520039	0.723138
751.848210	0.728038
752.176334	0.720377
752.504411	0.720291
752.832440	0.727851
753.160421	0.731456
753.488356	0.729726
753.816243	0.727314
754.144082	0.735173
754.471875	0.739083
754.799620	0.734415
755.127318	0.735671
755.454969	0.735581
755.782572	0.735693
756.110129	0.739504
756.437638	0.742607
756.765100	0.739340
757.092515	0.736689
757.419882	0.735974
757.747203	0.741298
758.074477	0.740706
758.401703	0.738376
758.728882	0.732966
759.056014	0.732067
759.383099	0.731134
759.710138	0.732352
760.037129	0.728920
760.364073	0.723095
760.690970	0.724621
761.017820	0.730903
761.344623	0.726125
761.671379	0.716943
761.998088	0.705909
762.324751	0.683279
762.651366	0.642766
762.977935	0.575767
763.304456	0.524272
763.630931	0.515064
763.957359	0.553581
764.283740	0.598273
764.610074	0.625251
764.936362	0.655828
765.262602	0.682212
765.588796	0.703356
765.914943	0.721146
766.241044	0.738199
766.567097	0.745547
766.893104	0.754402
767.219064	0.760366
767.544978	0.767319
767.870845	0.781095
768.196665	0.784656
768.522438	0.782372
768.848165	0.783477
769.173846	0.792511
769.499479	0.797378
769.825066	0.799694
770.150607	0.806062
770.476101	0.800113
770.801548	0.802413
771.126949	0.813531
771.452303	0.816779
771.777611	0.816884
772.102872	0.815887
772.428087	0.819942
772.753256	0.822522
773.078378	0.826531
773.403453	0.835029
773.728482	0.839197
774.053465	0.832591
774.378401	0.834985
774.703291	0.843623
775.028135	0.843849
775.352932	0.845091
775.677683	0.849003
776.002388	0.849571
776.327046	0.847358
776.651658	0.851784
776.976224	0.855609
777.300743	0.855925
777.625216	0.857129
777.949643	0.858950
778.274024	0.858888
778.598359	0.860305
778.922647	0.859617
779.246889	0.859121
779.571086	0.864048
779.895236	0.866146
780.219339	0.862504
780.543397	0.860628
780.867409	0.858599
781.191374	0.861171
781.515294	0.862750
781.839167	0.861355
782.162995	0.863870
782.486776	0.861698
782.810511	0.862766
783.134201	0.866987
783.457844	0.863763
783.781441	0.866611
784.104993	0.872869
784.428498	0.873875
784.751958	0.868288
785.075372	0.870559
785.398739	0.874721
785.722061	0.870838
786.045337	0.866495
786.368568	0.872681
786.691752	0.874335
787.014891	0.860150
787.337983	0.851394
787.661030	0.844084
787.984031	0.826560
788.306987	0.813840
788.629897	0.816549
788.952760	0.819501
789.275579	0.823097
789.598351	0.838946
789.921078	0.852332
790.243759	0.853527
790.566395	0.859017
790.888984	0.866130
791.211529	0.871472
791.534027	0.874408
791.856480	0.876512
792.178888	0.881250
792.501249	0.883675
792.823566	0.885363
793.145836	0.884996
793.468062	0.887538
793.790241	0.886935
794.112375	0.885022
794.434464	0.880306
794.756507	0.879171
795.078505	0.879370
795.400457	0.874314
795.722364	0.862769
796.044226	0.855717
796.366042	0.855311
796.687812	0.858524
797.009538	0.853899
797.331218	0.856751
797.652852	0.862208
797.974442	0.867759
798.295986	0.866518
798.617484	0.870217
798.938938	0.874254
799.260346	0.878696
799.581709	0.879198
799.903026	0.882131
800.224299	0.881920
800.545526	0.886684
800.866708	0.890871
801.187845	0.894154
801.508936	0.893956
801.829983	0.892490
802.150984	0.895094
802.471940	0.899885
802.792851	0.899728
803.113717	0.900117
803.434538	0.899038
803.755314	0.900301
804.076045	0.901859
804.396731	0.901530
804.717372	0.902361
805.037967	0.903880
805.358518	0.901648
805.679024	0.898790
805.999485	0.898430
806.319901	0.899051
806.640272	0.899835
806.960598	0.898605
807.280879	0.895308
807.601115	0.894871
807.921306	0.898505
808.241453	0.898497
808.561554	0.896120
808.881611	0.896066
809.201623	0.898583
809.521590	0.897901
809.841513	0.899297
810.161390	0.899221
810.481223	0.899777
810.801011	0.903821
811.120755	0.905445
811.440453	0.904417
811.760107	0.902022
812.079716	0.902285
812.399281	0.906814
812.718801	0.908275
813.038276	0.909024
813.357707	0.909177
813.677093	0.905220
813.996434	0.909892
814.315731	0.910921
814.634983	0.912000
814.954191	0.910052
815.273354	0.906232
815.592473	0.903606
815.911547	0.903947
816.230577	0.901716
816.549562	0.898548
816.868502	0.899495
817.187399	0.895738
817.506250	0.890622
817.825058	0.892341
818.143821	0.888693
818.462539	0.883587
818.781213	0.876001
819.099843	0.865186
819.418429	0.849533
819.736970	0.832898
820.055466	0.814041
820.373919	0.788567
820.692327	0.756543
821.010691	0.723405
821.329011	0.647121
821.647286	0.534109
821.965517	0.421947
822.283704	0.379595
822.601847	0.381931
822.919945	0.417215
823.237999	0.449805
823.556010	0.495778
823.873976	0.550669
824.191897	0.599818
824.509775	0.641828
824.827609	0.686896
825.145398	0.708667
825.463144	0.711468
825.780845	0.693425
826.098502	0.675329
826.416116	0.630380
826.733685	0.587647
827.051210	0.579889
827.368692	0.593923
827.686129	0.630831
828.003522	0.682775
828.320872	0.729809
828.638177	0.772885
828.955439	0.804633
829.272656	0.825537
829.589830	0.842129
829.906960	0.857856
830.224046	0.870118
830.541088	0.880188
830.858086	0.884461
831.175041	0.890714
831.491952	0.890301
831.808819	0.886351
832.125642	0.880367
832.442421	0.865333
832.759157	0.844457
833.075849	0.799350
833.392497	0.736894
833.709101	0.696216
834.025662	0.706832
834.342179	0.736140
834.658653	0.774605
834.975083	0.810275
835.291469	0.836402
835.607811	0.858731
835.924110	0.873643
836.240366	0.890981
836.556578	0.904593
836.872746	0.911758
837.188871	0.916788
837.504952	0.923145
837.820990	0.925752
838.136984	0.929485
838.452935	0.932373
838.768842	0.934014
839.084706	0.927334
839.400526	0.902349
839.716303	0.862279
840.032037	0.840203
840.347727	0.843816
840.663373	0.861794
840.978977	0.883228
841.294537	0.904993
841.610054	0.920446
841.925527	0.928437
842.240957	0.936265
842.556344	0.941266
842.871687	0.948179
843.186987	0.952521
843.502244	0.952054
843.817458	0.954238
844.132629	0.956715
844.447756	0.962094
844.762840	0.961507
845.077881	0.961926
845.392879	0.961387
845.707833	0.964796
846.022745	0.966340
846.337613	0.966693
846.652438	0.967255
846.967221	0.966001
847.281960	0.968175
847.596656	0.968777
847.911309	0.968069
848.225919	0.969589
848.540485	0.968582
848.855009	0.970498
849.169490	0.970148
849.483928	0.969467
849.798323	0.970884
850.112675	0.970762
850.426984	0.971172
850.741251	0.971378
851.055474	0.971166
851.369654	0.969018
851.683792	0.970703
851.997887	0.970851
852.311938	0.971880
852.625947	0.971064
852.939914	0.969135
853.253837	0.970638
853.567718	0.972274
853.881555	0.971583
854.195350	0.970688
854.509103	0.970714
854.822812	0.970833
855.136479	0.970668
855.450103	0.972802
855.763685	0.969364
856.077224	0.971070
856.390720	0.972284
856.704173	0.971531
857.017584	0.971098
857.330953	0.968799
857.644278	0.969762
857.957561	0.970425
858.270802	0.969587
858.584000	0.970217
858.897155	0.967732
859.210268	0.968986
859.523339	0.969078
859.836367	0.971060
860.149352	0.972084
860.462295	0.970636
860.775195	0.971061
861.088054	0.969978
861.400869	0.971151
861.713642	0.972202
862.026373	0.971527
862.339062	0.972448
862.651708	0.969543
862.964312	0.969164
863.276873	0.970507
863.589392	0.969321
863.901869	0.968572
864.214303	0.966752
864.526696	0.965696
864.839045	0.965473
865.151353	0.964174
865.463619	0.965304
865.775842	0.963329
866.088023	0.964083
866.400162	0.964262
866.712258	0.964788
867.024313	0.963951
867.336325	0.964667
867.648296	0.964537
867.960224	0.963784
868.272110	0.962969
868.583954	0.966066
868.895755	0.965031
869.207515	0.962971
869.519233	0.961433
869.830909	0.962225
870.142542	0.963139
870.454134	0.964350
870.765684	0.961677
871.077191	0.959704
871.388657	0.960371
871.700081	0.959957
872.011463	0.959827
872.322803	0.960398
872.634101	0.959003
872.945357	0.957089
873.256571	0.955380
873.567744	0.953683
873.878874	0.955288
874.189963	0.954649
874.501010	0.952616
874.812015	0.951956
875.122979	0.953517
875.433900	0.955152
875.744780	0.956303
876.055618	0.953856
876.366415	0.952069
876.677169	0.952069
876.987882	0.954404
877.298554	0.953118
877.609183	0.951187
877.919771	0.947049
878.230317	0.945477
878.540822	0.943306
878.851285	0.937839
879.161707	0.931221
879.472087	0.919356
879.782425	0.904485
880.092722	0.870570
880.402977	0.820379
880.713191	0.762624
881.023363	0.705906
881.333494	0.672656
881.643583	0.645059
881.953631	0.644803
882.263637	0.673637
882.573602	0.713014
882.883526	0.736416
883.193408	0.758889
883.503248	0.781182
883.813048	0.806834
884.122806	0.835022
884.432522	0.857913
884.742197	0.876937
885.051831	0.886478
885.361424	0.897215
885.670975	0.907290
885.980485	0.917587
886.289954	0.923430
886.599382	0.928181
886.908768	0.931066
887.218113	0.937773
887.527417	0.942636
887.836680	0.944881
888.145901	0.946939
888.455082	0.948835
888.764221	0.953666
889.073319	0.954983
889.382376	0.956346
889.691392	0.955991
890.000366	0.955559
890.309300	0.956415
890.618193	0.955454
890.927044	0.953337
891.235855	0.955362
891.544625	0.954177
891.853353	0.953076
892.162041	0.952355
892.470687	0.945949
892.779293	0.941692
893.087858	0.937922
893.396381	0.930154
893.704864	0.917898
894.013306	0.895145
894.321707	0.869396
894.630068	0.856472
894.938387	0.852440
895.246665	0.852084
895.554903	0.863461
895.863100	0.876987
896.171256	0.891984
896.479371	0.911235
896.787446	0.923846
897.095480	0.929531
897.403473	0.932614
897.711425	0.935331
898.019336	0.943871
898.327207	0.946139
898.635038	0.948685
898.942827	0.948419
899.250576	0.950988
899.558284	0.955354
899.865952	0.956324
900.173579	0.957543
900.481165	0.957751
900.788711	0.962340
901.096216	0.964017
901.403681	0.964055
901.711105	0.965441
902.018489	0.965610
902.325832	0.964914
902.633135	0.964142
902.940397	0.958203
903.247619	0.947304
903.554800	0.922832
903.861941	0.885267
904.169041	0.851937
904.476101	0.836279
904.783121	0.836883
905.090100	0.851813
905.397039	0.871321
905.703938	0.893103
906.010796	0.911332
906.317614	0.928409
906.624391	0.938305
906.931129	0.947848
907.237826	0.954972
907.544483	0.962790
907.851099	0.965229
908.157675	0.969745
908.464211	0.971760
908.770707	0.974672
909.077163	0.975377
909.383578	0.977002
909.689954	0.977608
909.996289	0.977126
910.302584	0.979794
910.608839	0.981293
910.915054	0.979392
911.221229	0.979370
911.527363	0.978906
911.833458	0.979301
912.139513	0.978091
912.445527	0.977409
912.751502	0.976012
913.057436	0.974266
913.363331	0.971989
913.669186	0.969902
913.975000	0.964308
914.280775	0.958939
914.586510	0.951849
914.892205	0.939846
915.197859	0.919533
915.503475	0.893389
915.809050	0.876279
916.114585	0.871050
916.420081	0.868750
916.725536	0.865470
917.030952	0.871913
917.336328	0.884432
917.641665	0.898918
917.946961	0.913172
918.252218	0.924211
918.557435	0.932523
918.862612	0.941142
919.167750	0.946163
919.472848	0.950500
919.777906	0.956349
920.082925	0.961608
920.387904	0.964251
920.692843	0.965876
920.997743	0.966157
921.302603	0.969525
921.607423	0.971311
921.912204	0.973914
922.216946	0.973624
922.521647	0.975612
922.826310	0.976820
923.130932	0.978769
923.435516	0.979617
923.740059	0.981640
924.044564	0.980202
924.349028	0.981688
924.653454	0.984054
924.957840	0.986003
925.262186	0.986634
925.566493	0.985652
925.870761	0.986068
926.174989	0.988186
926.479178	0.988675
926.783328	0.990327
927.087438	0.989705
927.391509	0.989463
927.695541	0.990544
927.999533	0.990277
928.303486	0.990771
928.607400	0.992520
928.911275	0.991775
929.215110	0.991583
929.518906	0.991759
929.822663	0.991250
930.126381	0.991049
930.430060	0.990484
930.733699	0.991296
931.037299	0.989626
931.340861	0.991927
931.644383	0.989776
931.947866	0.990262
932.251309	0.991974
932.554714	0.990679
932.858080	0.990738
933.161407	0.991208
933.464694	0.991412
933.767943	0.991003
934.071153	0.991611
934.374323	0.991947
934.677455	0.992747
934.980548	0.992345
935.283602	0.992126
935.586617	0.991563
935.889593	0.992735
936.192530	0.991022
936.495428	0.991675
936.798287	0.991629
937.101108	0.991011
937.403890	0.989622
937.706632	0.990813
938.009336	0.987671
938.312002	0.986977
938.614628	0.986016
938.917216	0.985614
939.219765	0.983142
939.522275	0.984356
939.824747	0.984984
940.127179	0.984712
940.429573	0.986562
940.731929	0.985403
941.034246	0.985313
941.336524	0.987192
941.638763	0.986382
941.940964	0.987461
942.243126	0.987903
942.545250	0.989091
942.847335	0.988794
943.149381	0.990044
943.451389	0.988919
943.753359	0.989051
944.055290	0.992094
944.357182	0.990961
944.659036	0.989694
944.960851	0.991257
945.262628	0.990659
945.564367	0.991620
945.866067	0.990795
946.167729	0.990845
946.469352	0.990849
946.770937	0.989600
947.072484	0.992342
947.373992	0.990484
947.675462	0.990854
947.976893	0.991505
948.278286	0.991906
948.579641	0.992979
948.880958	0.992209
949.182236	0.991990
949.483476	0.992410
949.784678	0.991381
950.085841	0.992881
950.386967	0.992245
950.688054	0.991489
950.989103	0.991877
951.290114	0.991379
951.591087	0.989968
951.892021	0.990791
952.192917	0.990369
952.493776	0.989054
952.794596	0.989351
953.095378	0.989081
953.396122	0.989379
953.696828	0.987831
953.997496	0.991192
954.298126	0.991275
954.598718	0.991043
954.899272	0.991531
955.199788	0.991744
955.500266	0.993219
955.800706	0.993653
956.101108	0.994250
956.401472	0.995241
956.701798	0.994389
957.002087	0.994271
957.302337	0.994137
957.602550	0.994683
957.902724	0.996004
958.202861	0.995301
958.502960	0.996334
958.803022	0.994420
959.103045	0.996579
959.403031	0.997130
959.702979	0.995000
960.002889	0.996591
960.302762	0.994421
960.602596	0.996172
960.902393	0.995070
961.202153	0.997454
961.501875	0.996737
961.801559	0.996121
962.101205	0.996353
962.400814	0.996784
962.700385	0.997322
962.999918	0.995985
963.299414	0.997191
963.598873	0.996195
963.898293	0.997104
964.197677	0.995636
964.497022	0.996987
964.796331	0.997130
965.095601	0.997763
965.394835	0.995539
965.694030	0.997369
965.993189	0.997145
966.292309	0.996934
966.591393	0.997841
966.890439	0.998035
967.189447	0.996401
967.488419	0.997444
967.787353	0.996278
968.086249	0.996896
968.385108	0.997186
968.683930	0.996535
968.982714	0.997497
969.281462	0.998098
969.580172	0.997140
969.878844	0.997284
970.177480	0.997675
970.476078	0.997874
970.774639	0.997366
971.073162	0.997016
971.371649	0.996964
971.670098	0.996330
971.968510	0.997734
972.266885	0.995411
972.565223	0.997637
972.863524	0.997075
973.161788	0.997036
973.460014	0.996693
973.758204	0.996092
974.056356	0.996493
974.354471	0.994585
974.652550	0.996295
974.950591	0.996587
975.248595	0.997398
975.546563	0.997012
975.844493	0.997575
976.142386	0.997610
976.440243	0.998526
976.738062	0.997171
977.035845	0.997638
977.333590	0.997010
977.631299	0.997937
977.928971	0.996810
978.226606	0.996870
978.524204	0.996051
978.821765	0.999284
979.119290	0.995879
979.416777	0.998238
979.714228	0.997648
980.011642	0.995747
980.309020	0.997437
980.606360	0.997260
980.903664	0.998939
981.200931	0.997443
981.498162	0.994860
981.795356	0.996153
982.092513	0.994971
982.389633	0.995166
982.686717	0.992671
982.983764	0.991713
983.280775	0.990517
983.577749	0.990429
983.874686	0.991669
984.171587	0.992345
984.468451	0.994745
984.765279	0.994818
985.062070	0.995275
985.358824	0.996317
985.655543	0.994326
985.952224	0.997138
986.248869	0.996889
986.545478	0.997208
986.842050	0.998167
987.138586	0.995903
987.435086	0.997575
987.731549	0.999383
988.027975	0.997897
988.324366	0.997506
988.620719	0.998166
988.917037	0.996182
989.213318	0.999250
989.509563	0.999024
989.805772	0.999464
990.101944	0.998319
990.398080	0.996403
990.694180	0.998272
990.990244	0.997947
991.286271	0.998002
991.582262	0.999027
991.878217	0.997551
992.174136	0.999756
992.470019	0.998811
992.765865	0.998331
993.061676	0.997762
993.357450	0.998608
993.653188	0.997052
993.948890	0.997009
994.244556	0.998151
994.540186	0.996466
994.835780	0.997463
995.131337	0.997386
995.426859	0.997005
995.722345	0.997155
996.017795	0.996923
996.313208	0.996220
996.608586	0.996829
996.903928	0.995586
997.199234	0.996984
997.494504	0.996540
997.789738	0.996208
998.084936	0.995833
998.380099	0.998065
998.675225	0.997887
998.970316	0.997533
999.265371	0.998387
999.560390	0.998015
999.855373	0.999125
1000.150320	0.998815
1000.445232	0.998234
1000.740108	0.997789
1001.034948	0.997605
1001.329752	0.999446
1001.624521	0.998898
1001.919254	1.000067
1002.213951	0.998511
1002.508613	0.998325
1002.803239	0.999993
1003.097829	0.999461
1003.392384	0.999288
1003.686903	0.998173
1003.981386	0.999347
1004.275834	0.998568
1004.570246	0.998392
1004.864623	0.999620
1005.158964	1.000343
1005.453270	0.999217
1005.747540	0.997962
1006.041775	0.997631
1006.335974	0.999890
1006.630138	0.999224
1006.924266	0.999943
1007.218359	1.000667
1007.512416	0.999467
1007.806438	0.999987
1008.100425	0.998572
1008.394376	0.999310
1008.688292	0.998408
1008.982172	1.000292
1009.276017	0.998983
1009.569827	0.998635
1009.863602	0.997773
1010.157341	0.998415
1010.451045	1.000022
1010.744714	0.999428
1011.038347	0.998306
1011.331945	0.999100
1011.625508	0.997505
1011.919036	0.998510
1012.212528	0.998876
1012.505986	0.997834
1012.799408	0.998812
1013.092795	0.998820
1013.386147	0.999091
1013.679464	0.997962
1013.972745	0.999531
1014.265992	0.997637
1014.559204	0.998928
1014.852380	0.998808
1015.145521	0.998267
1015.438628	0.999334
1015.731699	0.998997
1016.024736	0.998909
1016.317737	0.999089
1016.610703	0.998634
1016.903635	0.999423
1017.196531	0.998812
1017.489393	0.999085
1017.782219	0.998026
1018.075011	0.999184
1018.367768	0.997818
1018.660490	1.000214
1018.953177	1.000214
1019.245829	1.000214
