Dividing Wavelength (nm)	Counts (n)	Blue Motor Position (mm): 0.000000	Red Motor Position (mm): 27.100000	
326.493990	1.000299
326.888308	1.000299
327.282561	1.000299
327.676750	0.999319
328.070874	0.999158
328.464933	0.999453
328.858929	0.999611
329.252859	1.000557
329.646726	0.998698
330.040528	0.999395
330.434265	0.999327
330.827938	0.999947
331.221547	1.000299
331.615091	0.999178
332.008571	0.998982
332.401986	0.999860
332.795338	1.000345
333.188625	0.998564
333.581847	1.000142
333.975006	0.999206
334.368100	0.998023
334.761129	0.999337
335.154095	1.001156
335.546996	0.997837
335.939833	0.993176
336.332606	0.995017
336.725315	0.995075
337.117960	0.996740
337.510540	0.994091
337.903056	0.996108
338.295508	0.993542
338.687896	0.995193
339.080220	0.994671
339.472480	0.994616
339.864676	0.995255
340.256807	0.994674
340.648875	0.996109
341.040879	0.995568
341.432818	0.994415
341.824694	0.994660
342.216506	0.994745
342.608253	0.994441
342.999937	0.995053
343.391557	0.995189
343.783113	0.994740
344.174605	0.994853
344.566033	0.995588
344.957397	0.993926
345.348697	0.994677
345.739934	0.994532
346.131106	0.993993
346.522215	0.994452
346.913260	0.994932
347.304241	0.994257
347.695159	0.994942
348.086012	0.993785
348.476802	0.995291
348.867528	0.994667
349.258191	0.992944
349.648789	0.994719
350.039324	0.994589
350.429796	0.995886
350.820203	0.994582
351.210548	0.994071
351.600828	0.995208
351.991045	0.994972
352.381198	0.994902
352.771288	0.994726
353.161314	0.993695
353.551276	0.995836
353.941175	0.994514
354.331010	0.994860
354.720782	0.995311
355.110490	0.993750
355.500135	0.994943
355.889717	0.994986
356.279235	0.995058
356.668689	0.995448
357.058080	0.994976
357.447408	0.995061
357.836672	0.995426
358.225873	0.995955
358.615010	0.994783
359.004084	0.995915
359.393095	0.995026
359.782043	0.995006
360.170927	0.995405
360.559748	0.996087
360.948505	0.993693
361.337199	0.995823
361.725830	0.994170
362.114398	0.994799
362.502903	0.996022
362.891344	0.996282
363.279722	0.995050
363.668037	0.994965
364.056289	0.995219
364.444478	0.994818
364.832603	0.995052
365.220665	0.995215
365.608665	0.994400
365.996601	0.995698
366.384474	0.995149
366.772284	0.995195
367.160031	0.994069
367.547715	0.994245
367.935336	0.994314
368.322893	0.994769
368.710388	0.993061
369.097820	0.995067
369.485189	0.994955
369.872495	0.994875
370.259738	0.993457
370.646918	0.995125
371.034035	0.997075
371.421090	0.994605
371.808081	0.994547
372.195010	0.995663
372.581875	0.995440
372.968678	0.995413
373.355418	0.995061
373.742096	0.994296
374.128710	0.995652
374.515262	0.994527
374.901751	0.995915
375.288177	0.995294
375.674540	0.995451
376.060841	0.995218
376.447079	0.996291
376.833254	0.995177
377.219367	0.996022
377.605417	0.995781
377.991404	0.995209
378.377329	0.995057
378.763191	0.995591
379.148991	0.997622
379.534727	0.995913
379.920402	0.995108
380.306013	0.996235
380.691563	0.996315
381.077049	0.995564
381.462474	0.995357
381.847835	0.995654
382.233134	0.995591
382.618371	0.995837
383.003545	0.995489
383.388657	0.995279
383.773706	0.996248
384.158693	0.996396
384.543618	0.996479
384.928480	0.996491
385.313280	0.995708
385.698017	0.996982
386.082692	0.995995
386.467305	0.996704
386.851856	0.996243
387.236344	0.996214
387.620770	0.995153
388.005133	0.996515
388.389435	0.997465
388.773674	0.996220
389.157851	0.996449
389.541965	0.997246
389.926018	0.996776
390.310008	0.997636
390.693936	0.995931
391.077802	0.996629
391.461606	0.996040
391.845348	0.996273
392.229027	0.997192
392.612645	0.997542
392.996200	0.998022
393.379694	0.996309
393.763125	0.997843
394.146494	0.996493
394.529801	0.995883
394.913047	0.997316
395.296230	0.996806
395.679351	0.996578
396.062410	0.996570
396.445408	0.996474
396.828343	0.995628
397.211217	0.997057
397.594028	0.997410
397.976778	0.996060
398.359466	0.997113
398.742092	0.996164
399.124656	0.996312
399.507158	0.996356
399.889598	0.997196
400.271977	0.997430
400.654294	0.997453
401.036549	0.996824
401.418742	0.998291
401.800874	0.996931
402.182944	0.996745
402.564952	0.995259
402.946898	0.997512
403.328783	0.997584
403.710606	0.996726
404.092367	0.997197
404.474067	0.997079
404.855705	0.997189
405.237282	0.996444
405.618797	0.996645
406.000250	0.996315
406.381642	0.997381
406.762972	0.996636
407.144240	0.997962
407.525447	0.996984
407.906593	0.997265
408.287677	0.997297
408.668700	0.997935
409.049661	0.995918
409.430560	0.997264
409.811399	0.997063
410.192176	0.996757
410.572891	0.997261
410.953545	0.997173
411.334138	0.995559
411.714669	0.998099
412.095139	0.996522
412.475547	0.997512
412.855894	0.996912
413.236180	0.997291
413.616405	0.997757
413.996568	0.997831
414.376670	0.996806
414.756711	0.996823
415.136691	0.997806
415.516609	0.996765
415.896466	0.997438
416.276262	0.995966
416.655997	0.997716
417.035670	0.996719
417.415283	0.998069
417.794834	0.997329
418.174324	0.996497
418.553753	0.998649
418.933121	0.997236
419.312428	0.996601
419.691674	0.996329
420.070859	0.998038
420.449983	0.996442
420.829045	0.997099
421.208047	0.997726
421.586988	0.998762
421.965867	0.997191
422.344686	0.998956
422.723444	0.997705
423.102141	0.996672
423.480777	0.996686
423.859352	0.997693
424.237866	0.996450
424.616319	0.997337
424.994712	0.997442
425.373044	0.997634
425.751314	0.996881
426.129524	0.997370
426.507673	0.997589
426.885762	0.998376
427.263789	0.996799
427.641756	0.997561
428.019662	0.997613
428.397508	0.996684
428.775292	0.996292
429.153016	0.996692
429.530679	0.997533
429.908282	0.997398
430.285824	0.996922
430.663305	0.996271
431.040726	0.997068
431.418086	0.998064
431.795385	0.997331
432.172624	0.996036
432.549802	0.997356
432.926920	0.997710
433.303977	0.995818
433.680974	0.997239
434.057910	0.997141
434.434786	0.997192
434.811601	0.996660
435.188355	0.996364
435.565050	0.996187
435.941683	0.996519
436.318257	0.997739
436.694770	0.996267
437.071222	0.996725
437.447614	0.996800
437.823946	0.996397
438.200218	0.996255
438.576429	0.996519
438.952580	0.997565
439.328670	0.995899
439.704700	0.996217
440.080670	0.996922
440.456580	0.995685
440.832429	0.996028
441.208218	0.995864
441.583947	0.996544
441.959616	0.996275
442.335224	0.995429
442.710773	0.996185
443.086261	0.994415
443.461689	0.994806
443.837057	0.994470
444.212365	0.994613
444.587612	0.993791
444.962800	0.992917
445.337927	0.992665
445.712995	0.992812
446.088002	0.992249
446.462949	0.990858
446.837837	0.990038
447.212664	0.990105
447.587431	0.988764
447.962139	0.986146
448.336786	0.985316
448.711374	0.984833
449.085901	0.984054
449.460369	0.983568
449.834776	0.981551
450.209124	0.980013
450.583412	0.977526
450.957640	0.975942
451.331808	0.974149
451.705917	0.973892
452.079965	0.971623
452.453954	0.969283
452.827883	0.967974
453.201752	0.966325
453.575562	0.964867
453.949311	0.961245
454.323001	0.958758
454.696632	0.956329
455.070202	0.952925
455.443713	0.949896
455.817164	0.946582
456.190556	0.942483
456.563888	0.938791
456.937160	0.936831
457.310373	0.933922
457.683526	0.930927
458.056619	0.927332
458.429653	0.924065
458.802628	0.920158
459.175542	0.915225
459.548398	0.908111
459.921194	0.903094
460.293930	0.897007
460.666607	0.886059
461.039224	0.877506
461.411782	0.872211
461.784280	0.867476
462.156719	0.864907
462.529099	0.859826
462.901419	0.857441
463.273680	0.853674
463.645882	0.847999
464.018024	0.841826
464.390106	0.834412
464.762130	0.824522
465.134094	0.810254
465.505999	0.793282
465.877845	0.775792
466.249631	0.767083
466.621358	0.763396
466.993026	0.760293
467.364634	0.755635
467.736184	0.750570
468.107674	0.744589
468.479105	0.735157
468.850477	0.731784
469.221790	0.725971
469.593043	0.722127
469.964238	0.714856
470.335373	0.706477
470.706449	0.698075
471.077467	0.690211
471.448425	0.663809
471.819324	0.644390
472.190164	0.636932
472.560945	0.643241
472.931667	0.644393
473.302330	0.638981
473.672934	0.636263
474.043479	0.622042
474.413965	0.615234
474.784393	0.608445
475.154761	0.598374
475.525070	0.587924
475.895321	0.584608
476.265513	0.572918
476.635645	0.562821
477.005719	0.554364
477.375734	0.545476
477.745691	0.533404
478.115588	0.523397
478.485427	0.511263
478.855207	0.495690
479.224928	0.477265
479.594591	0.462603
479.964194	0.456982
480.333739	0.449166
480.703226	0.441044
481.072653	0.433728
481.442022	0.424091
481.811333	0.415239
482.180584	0.411173
482.549777	0.406873
482.918912	0.403516
483.287988	0.396625
483.657005	0.390774
484.025964	0.389303
484.394864	0.380639
484.763706	0.374858
485.132489	0.373746
485.501213	0.368207
485.869879	0.361651
486.238487	0.358562
486.607036	0.352019
486.975527	0.349965
487.343959	0.342396
487.712333	0.336634
488.080648	0.333764
488.448905	0.327971
488.817104	0.325115
489.185244	0.316028
489.553326	0.309113
489.921350	0.297260
490.289315	0.278026
490.657222	0.270077
491.025070	0.267595
491.392861	0.266075
491.760593	0.267148
492.128267	0.268576
492.495883	0.270457
492.863440	0.272705
493.230939	0.275751
493.598380	0.274576
493.965763	0.273856
494.333088	0.274009
494.700354	0.272756
495.067563	0.269914
495.434713	0.270805
495.801805	0.266765
496.168839	0.266442
496.535815	0.265868
496.902733	0.264343
497.269593	0.264284
497.636395	0.260830
498.003139	0.259371
498.369825	0.261099
498.736453	0.256402
499.103023	0.256864
499.469535	0.255007
499.835989	0.254296
500.202385	0.254127
500.568723	0.256564
500.935003	0.251022
501.301226	0.254490
501.667390	0.248260
502.033497	0.245401
502.399546	0.248065
502.765537	0.249164
503.131470	0.247205
503.497345	0.242895
503.863163	0.251070
504.228923	0.243814
504.594625	0.241988
504.960269	0.247161
505.325856	0.241853
505.691385	0.245928
506.056856	0.242289
506.422270	0.241532
506.787625	0.243955
507.152924	0.240743
507.518164	0.241090
507.883347	0.242625
508.248472	0.243888
508.613540	0.238739
508.978550	0.241203
509.343503	0.241528
509.708398	0.239234
510.073236	0.236767
510.438016	0.236343
510.802738	0.237259
511.167403	0.236370
511.532010	0.237999
511.896561	0.233145
512.261053	0.232044
512.625488	0.233981
512.989866	0.234191
513.354186	0.234319
513.718449	0.235739
514.082655	0.232198
514.446803	0.234672
514.810894	0.231980
515.174927	0.234844
515.538904	0.234272
515.902822	0.231162
516.266684	0.232977
516.630488	0.234332
516.994235	0.232704
517.357925	0.231892
517.721558	0.230146
518.085133	0.229261
518.448651	0.229641
518.812112	0.231901
519.175516	0.231455
519.538863	0.229032
519.902152	0.230403
520.265385	0.227358
520.628560	0.229047
520.991678	0.229414
521.354739	0.228359
521.717743	0.229524
522.080690	0.230111
522.443580	0.227255
522.806413	0.228327
523.169189	0.227417
523.531908	0.226310
523.894569	0.230069
524.257174	0.229752
524.619722	0.227454
524.982213	0.228621
525.344647	0.227211
525.707025	0.228373
526.069345	0.226512
526.431608	0.228157
526.793815	0.226058
527.155964	0.230291
527.518057	0.229137
527.880093	0.230193
528.242072	0.228364
528.603995	0.230747
528.965860	0.232158
529.327669	0.231049
529.689421	0.232035
530.051117	0.232925
530.412755	0.230345
530.774337	0.232753
531.135862	0.233072
531.497331	0.232496
531.858743	0.235152
532.220098	0.232043
532.581396	0.234405
532.942638	0.234934
533.303824	0.235965
533.664953	0.235769
534.026025	0.237410
534.387040	0.235315
534.747999	0.235413
535.108902	0.234152
535.469748	0.239407
535.830537	0.237159
536.191270	0.237526
536.551947	0.236793
536.912567	0.237105
537.273131	0.238908
537.633638	0.238808
537.994089	0.239169
538.354483	0.240313
538.714821	0.237360
539.075103	0.237112
539.435328	0.237927
539.795497	0.241426
540.155609	0.237901
540.515665	0.236355
540.875665	0.242055
541.235609	0.240281
541.595496	0.240773
541.955328	0.237169
542.315102	0.239873
542.674821	0.241072
543.034483	0.240817
543.394090	0.240454
543.753640	0.242423
544.113134	0.237356
544.472571	0.240805
544.831953	0.237519
545.191278	0.241897
545.550548	0.241645
545.909761	0.237750
546.268918	0.238993
546.628019	0.236893
546.987064	0.239966
547.346053	0.241586
547.704986	0.239467
548.063863	0.239664
548.422684	0.240219
548.781449	0.241929
549.140158	0.239210
549.498811	0.242385
549.857408	0.245551
550.215949	0.240302
550.574434	0.243099
550.932864	0.241262
551.291237	0.239929
551.649555	0.241253
552.007817	0.241054
552.366022	0.241820
552.724173	0.241864
553.082267	0.242164
553.440305	0.239362
553.798288	0.243401
554.156215	0.240286
554.514086	0.240965
554.871902	0.244159
555.229661	0.243350
555.587365	0.243857
555.945014	0.246777
556.302606	0.243219
556.660143	0.245837
557.017625	0.242324
557.375050	0.244397
557.732421	0.241625
558.089735	0.243631
558.446994	0.243696
558.804197	0.242967
559.161345	0.242968
559.518437	0.246341
559.875474	0.243839
560.232455	0.243437
560.589381	0.244609
560.946251	0.244955
561.303065	0.242355
561.659825	0.243842
562.016528	0.244963
562.373177	0.248228
562.729770	0.244988
563.086307	0.247505
563.442789	0.245168
563.799216	0.248043
564.155587	0.246784
564.511904	0.247893
564.868164	0.248111
565.224370	0.247825
565.580520	0.249666
565.936615	0.249588
566.292654	0.252376
566.648638	0.249185
567.004567	0.250458
567.360441	0.250909
567.716260	0.253034
568.072023	0.250814
568.427732	0.251522
568.783385	0.253971
569.138982	0.251923
569.494525	0.251367
569.850013	0.254728
570.205445	0.253141
570.560823	0.255379
570.916145	0.257520
571.271412	0.255628
571.626625	0.257092
571.981782	0.257728
572.336884	0.258480
572.691931	0.258237
573.046923	0.259389
573.401860	0.260633
573.756743	0.262541
574.111570	0.261351
574.466342	0.261749
574.821059	0.260896
575.175722	0.263749
575.530330	0.263489
575.884882	0.263614
576.239380	0.265468
576.593823	0.266351
576.948211	0.265482
577.302544	0.269049
577.656823	0.268868
578.011047	0.268824
578.365216	0.269611
578.719330	0.271276
579.073389	0.271540
579.427394	0.272473
579.781344	0.273234
580.135239	0.274808
580.489080	0.274190
580.842866	0.277505
581.196597	0.277542
581.550273	0.275570
581.903895	0.277105
582.257463	0.275037
582.610975	0.278428
582.964434	0.277871
583.317837	0.280099
583.671186	0.280478
584.024481	0.280580
584.377721	0.283189
584.730906	0.284129
585.084037	0.283086
585.437113	0.284819
585.790135	0.283956
586.143103	0.287223
586.496016	0.288409
586.848874	0.285831
587.201679	0.286561
587.554428	0.289883
587.907124	0.288647
588.259765	0.289012
588.612352	0.290016
588.964884	0.293796
589.317362	0.293017
589.669786	0.293067
590.022155	0.291910
590.374470	0.290981
590.726731	0.293272
591.078937	0.297632
591.431090	0.294014
591.783188	0.298779
592.135232	0.298551
592.487222	0.298706
592.839157	0.297128
593.191038	0.299313
593.542866	0.300914
593.894639	0.304614
594.246358	0.302627
594.598022	0.302133
594.949633	0.305660
595.301190	0.306665
595.652692	0.305735
596.004141	0.301897
596.355535	0.309925
596.706876	0.310236
597.058162	0.312814
597.409395	0.310036
597.760573	0.307638
598.111698	0.310732
598.462768	0.311541
598.813785	0.312680
599.164748	0.313990
599.515657	0.314429
599.866511	0.317576
600.217312	0.312816
600.568060	0.318183
600.918753	0.314572
601.269392	0.315389
601.619978	0.318894
601.970510	0.316431
602.320988	0.316469
602.671412	0.314334
603.021783	0.316733
603.372100	0.318047
603.722363	0.317803
604.072572	0.318831
604.422728	0.318423
604.772830	0.320530
605.122878	0.320098
605.472872	0.320564
605.822813	0.318979
606.172701	0.321674
606.522534	0.319228
606.872314	0.319027
607.222041	0.320165
607.571714	0.318557
607.921333	0.319469
608.270899	0.318986
608.620411	0.316113
608.969870	0.319614
609.319276	0.319930
609.668627	0.319965
610.017926	0.318603
610.367171	0.316976
610.716362	0.317798
611.065500	0.318034
611.414585	0.316505
611.763616	0.317224
612.112594	0.317882
612.461518	0.317110
612.810389	0.315030
613.159207	0.317434
613.507971	0.318609
613.856682	0.314574
614.205340	0.316324
614.553945	0.313610
614.902496	0.317072
615.250994	0.314976
615.599439	0.315683
615.947830	0.315179
616.296169	0.315847
616.644454	0.315660
616.992686	0.315781
617.340864	0.313634
617.688990	0.317427
618.037063	0.313533
618.385082	0.315704
618.733048	0.312385
619.080961	0.314624
619.428821	0.314281
619.776628	0.313644
620.124382	0.315920
620.472083	0.315984
620.819731	0.315542
621.167326	0.319483
621.514868	0.319225
621.862357	0.323558
622.209793	0.322817
622.557176	0.324750
622.904506	0.326207
623.251783	0.328779
623.599007	0.330595
623.946179	0.330537
624.293297	0.332436
624.640363	0.335943
624.987376	0.336657
625.334336	0.339348
625.681243	0.341237
626.028097	0.342066
626.374899	0.343170
626.721647	0.343279
627.068343	0.346795
627.414987	0.347658
627.761577	0.349821
628.108115	0.348260
628.454600	0.353316
628.801032	0.350308
629.147412	0.352425
629.493739	0.353429
629.840014	0.356140
630.186236	0.353749
630.532405	0.359040
630.878521	0.356615
631.224585	0.358509
631.570597	0.362425
631.916556	0.360394
632.262462	0.360853
632.608316	0.362706
632.954117	0.363640
633.299866	0.364773
633.645562	0.365215
633.991206	0.369652
634.336797	0.372552
634.682336	0.374785
635.027823	0.376112
635.373257	0.377091
635.718639	0.380617
636.063968	0.379763
636.409245	0.385127
636.754470	0.385845
637.099642	0.388027
637.444762	0.391426
637.789829	0.390280
638.134845	0.394054
638.479808	0.395005
638.824719	0.394743
639.169577	0.398594
639.514383	0.397616
639.859137	0.401718
640.203839	0.401150
640.548489	0.401955
640.893086	0.403563
641.237632	0.404869
641.582125	0.403766
641.926566	0.405466
642.270955	0.405353
642.615292	0.405852
642.959576	0.404944
643.303809	0.405263
643.647990	0.404643
643.992118	0.405642
644.336195	0.408618
644.680219	0.407382
645.024192	0.408022
645.368112	0.401691
645.711981	0.401060
646.055797	0.395667
646.399562	0.398584
646.743274	0.390319
647.086935	0.388173
647.430544	0.388684
647.774101	0.386865
648.117606	0.386353
648.461059	0.386588
648.804460	0.389388
649.147810	0.394667
649.491108	0.396259
649.834354	0.397889
650.177548	0.403107
650.520690	0.408472
650.863781	0.409659
651.206820	0.409133
651.549807	0.413732
651.892742	0.418014
652.235626	0.417534
652.578458	0.418182
652.921238	0.424574
653.263967	0.422239
653.606644	0.426022
653.949269	0.425654
654.291843	0.429908
654.634365	0.426841
654.976836	0.429418
655.319255	0.429820
655.661622	0.431206
656.003938	0.431330
656.346203	0.434715
656.688416	0.432651
657.030577	0.435366
657.372687	0.437607
657.714746	0.438555
658.056753	0.435571
658.398708	0.438836
658.740612	0.440567
659.082465	0.436311
659.424266	0.436503
659.766016	0.436358
660.107715	0.438822
660.449362	0.437767
660.790958	0.438680
661.132503	0.438848
661.473996	0.436996
661.815438	0.437945
662.156829	0.437627
662.498168	0.438430
662.839456	0.440225
663.180693	0.437769
663.521879	0.437961
663.863013	0.438423
664.204097	0.437252
664.545129	0.434096
664.886110	0.434493
665.227040	0.431582
665.567918	0.434204
665.908746	0.432208
666.249522	0.432153
666.590248	0.432743
666.930922	0.431325
667.271545	0.430239
667.612118	0.430496
667.952639	0.431962
668.293109	0.430338
668.633528	0.433783
668.973896	0.433075
669.314213	0.433773
669.654480	0.435259
669.994695	0.435767
670.334859	0.436599
670.674973	0.436929
671.015035	0.436490
671.355047	0.436897
671.695008	0.438224
672.034918	0.439643
672.374777	0.438938
672.714585	0.440607
673.054342	0.440117
673.394049	0.439860
673.733705	0.437980
674.073310	0.438607
674.412864	0.441716
674.752368	0.442825
675.091820	0.442723
675.431223	0.447044
675.770574	0.447415
676.109875	0.450322
676.449125	0.449718
676.788324	0.452116
677.127473	0.457236
677.466571	0.456935
677.805619	0.458951
678.144616	0.459923
678.483562	0.461962
678.822458	0.463981
679.161303	0.465221
679.500098	0.465516
679.838842	0.467388
680.177535	0.467031
680.516179	0.465989
680.854771	0.464592
681.193314	0.457854
681.531805	0.449251
681.870247	0.437804
682.208638	0.430432
682.546978	0.429664
682.885268	0.431233
683.223508	0.437179
683.561697	0.440554
683.899836	0.443485
684.237925	0.447484
684.575963	0.449629
684.913951	0.452636
685.251889	0.449075
685.589776	0.450501
685.927614	0.452980
686.265401	0.446902
686.603137	0.448265
686.940824	0.442738
687.278460	0.441325
687.616046	0.440408
687.953582	0.435537
688.291068	0.436513
688.628504	0.432548
688.965889	0.434359
689.303224	0.438616
689.640510	0.442229
689.977745	0.448414
690.314930	0.455869
690.652065	0.460641
690.989150	0.468293
691.326185	0.474325
691.663170	0.479311
692.000105	0.486154
692.336990	0.493044
692.673825	0.495914
693.010610	0.502459
693.347345	0.508263
693.684030	0.509417
694.020665	0.514206
694.357251	0.522884
694.693786	0.523027
695.030272	0.526750
695.366707	0.530364
695.703093	0.533288
696.039429	0.531598
696.375716	0.533215
696.711952	0.535534
697.048139	0.537532
697.384276	0.539757
697.720363	0.538438
698.056400	0.537433
698.392388	0.542511
698.728326	0.546495
699.064214	0.548369
699.400053	0.549325
699.735842	0.552888
700.071581	0.555718
700.407270	0.558142
700.742910	0.560805
701.078501	0.567067
701.414042	0.567533
701.749533	0.570687
702.084974	0.579981
702.420366	0.571982
702.755709	0.580093
703.091002	0.587183
703.426246	0.580523
703.761440	0.586855
704.096584	0.591361
704.431679	0.588678
704.766725	0.590598
705.101721	0.591378
705.436668	0.588373
705.771565	0.594792
706.106413	0.592322
706.441212	0.587442
706.775961	0.585926
707.110661	0.588481
707.445311	0.585599
707.779913	0.581918
708.114465	0.580543
708.448967	0.578052
708.783421	0.569478
709.117825	0.564523
709.452180	0.564110
709.786485	0.558608
710.120742	0.547662
710.454949	0.550028
710.789107	0.542109
711.123216	0.533444
711.457275	0.534471
711.791286	0.526073
712.125247	0.524600
712.459159	0.535932
712.793023	0.528573
713.126837	0.532223
713.460602	0.533030
713.794318	0.542265
714.127985	0.540768
714.461602	0.550553
714.795171	0.554484
715.128691	0.561274
715.462162	0.568962
715.795584	0.575218
716.128957	0.576779
716.462281	0.584261
716.795556	0.588206
717.128782	0.592593
717.461960	0.602220
717.795088	0.600750
718.128167	0.606709
718.461198	0.616002
718.794180	0.615958
719.127113	0.619122
719.459997	0.622870
719.792833	0.628897
720.125619	0.630410
720.458357	0.635959
720.791046	0.635736
721.123686	0.639700
721.456278	0.646204
721.788821	0.642995
722.121315	0.647316
722.453761	0.651992
722.786158	0.649534
723.118506	0.645284
723.450805	0.653895
723.783056	0.649838
724.115259	0.647157
724.447412	0.646554
724.779518	0.647854
725.111574	0.647323
725.443582	0.642141
725.775542	0.644898
726.107453	0.636894
726.439315	0.636958
726.771129	0.635352
727.102895	0.628475
727.434612	0.621545
727.766281	0.619174
728.097901	0.618369
728.429473	0.618887
728.760996	0.616771
729.092471	0.616968
729.423897	0.620815
729.755276	0.619546
730.086606	0.619920
730.417887	0.614870
730.749120	0.605374
731.080305	0.595965
731.411442	0.592896
731.742530	0.597691
732.073570	0.596813
732.404562	0.588680
732.735506	0.589551
733.066401	0.594712
733.397249	0.604528
733.728048	0.615495
734.058798	0.627814
734.389501	0.638024
734.720156	0.647508
735.050762	0.655877
735.381320	0.656437
735.711831	0.666253
736.042293	0.671642
736.372707	0.667119
736.703073	0.671523
737.033391	0.674122
737.363661	0.671502
737.693883	0.665401
738.024056	0.664510
738.354182	0.665804
738.684260	0.654203
739.014290	0.650427
739.344272	0.651293
739.674207	0.645153
740.004093	0.644299
740.333931	0.645224
740.663722	0.644757
740.993464	0.645479
741.323159	0.648596
741.652806	0.653756
741.982405	0.658510
742.311956	0.663984
742.641460	0.665660
742.970915	0.669121
743.300323	0.676510
743.629683	0.682961
743.958996	0.685064
744.288260	0.689838
744.617477	0.695326
744.946647	0.697865
745.275768	0.701430
745.604842	0.701685
745.933869	0.712240
746.262847	0.712372
746.591778	0.705795
746.920662	0.712255
747.249498	0.719535
747.578286	0.709522
747.907027	0.706158
748.235720	0.706520
748.564365	0.701082
748.892963	0.702384
749.221514	0.704324
749.550017	0.710208
749.878473	0.709040
750.206881	0.715626
750.535242	0.716443
750.863555	0.717184
751.191821	0.717579
751.520039	0.720597
751.848210	0.726062
752.176334	0.718414
752.504411	0.717564
752.832440	0.725053
753.160421	0.728627
753.488356	0.727344
753.816243	0.724392
754.144082	0.733525
754.471875	0.737080
754.799620	0.732339
755.127318	0.733833
755.454969	0.733743
755.782572	0.733432
756.110129	0.738750
756.437638	0.741201
756.765100	0.736513
757.092515	0.735369
757.419882	0.733911
757.747203	0.739755
758.074477	0.738087
758.401703	0.735637
758.728882	0.730939
759.056014	0.731121
759.383099	0.728636
759.710138	0.729663
760.037129	0.725887
760.364073	0.720317
760.690970	0.722683
761.017820	0.728890
761.344623	0.724269
761.671379	0.715654
761.998088	0.703559
762.324751	0.680991
762.651366	0.640103
762.977935	0.573064
763.304456	0.521540
763.630931	0.511679
763.957359	0.551352
764.283740	0.595243
764.610074	0.622050
764.936362	0.652640
765.262602	0.680034
765.588796	0.700543
765.914943	0.718791
766.241044	0.736595
766.567097	0.742857
766.893104	0.752993
767.219064	0.759055
767.544978	0.764096
767.870845	0.778387
768.196665	0.782344
768.522438	0.780391
768.848165	0.782167
769.173846	0.790331
769.499479	0.794645
769.825066	0.798456
770.150607	0.803306
770.476101	0.799248
770.801548	0.799387
771.126949	0.810581
771.452303	0.814418
771.777611	0.813904
772.102872	0.812908
772.428087	0.817920
772.753256	0.822427
773.078378	0.823706
773.403453	0.832879
773.728482	0.836489
774.053465	0.831883
774.378401	0.834344
774.703291	0.843080
775.028135	0.842408
775.352932	0.844084
775.677683	0.845704
776.002388	0.847260
776.327046	0.846324
776.651658	0.850995
776.976224	0.852246
777.300743	0.853965
777.625216	0.856416
777.949643	0.857341
778.274024	0.856802
778.598359	0.859201
778.922647	0.857800
779.246889	0.857905
779.571086	0.861841
779.895236	0.864276
780.219339	0.861713
780.543397	0.858718
780.867409	0.856722
781.191374	0.859907
781.515294	0.861123
781.839167	0.859631
782.162995	0.863053
782.486776	0.859628
782.810511	0.861013
783.134201	0.864458
783.457844	0.861390
783.781441	0.865102
784.104993	0.870921
784.428498	0.871491
784.751958	0.866840
785.075372	0.869730
785.398739	0.872741
785.722061	0.869822
786.045337	0.865480
786.368568	0.870056
786.691752	0.872466
787.014891	0.858772
787.337983	0.849308
787.661030	0.842118
787.984031	0.824579
788.306987	0.811819
788.629897	0.814019
788.952760	0.818515
789.275579	0.822033
789.598351	0.836918
789.921078	0.849667
790.243759	0.852150
790.566395	0.857867
790.888984	0.864236
791.211529	0.869747
791.534027	0.872912
791.856480	0.874449
792.178888	0.878823
792.501249	0.882965
792.823566	0.883357
793.145836	0.882344
793.468062	0.884954
793.790241	0.886023
794.112375	0.883627
794.434464	0.878392
794.756507	0.878129
795.078505	0.877904
795.400457	0.872789
795.722364	0.859640
796.044226	0.852979
796.366042	0.852578
796.687812	0.856276
797.009538	0.851530
797.331218	0.856266
797.652852	0.860741
797.974442	0.865171
798.295986	0.864699
798.617484	0.866677
798.938938	0.871973
799.260346	0.876613
799.581709	0.878442
799.903026	0.879798
800.224299	0.880188
800.545526	0.884756
800.866708	0.889995
801.187845	0.893124
801.508936	0.892645
801.829983	0.890141
802.150984	0.893680
802.471940	0.898214
802.792851	0.897450
803.113717	0.898693
803.434538	0.895932
803.755314	0.899637
804.076045	0.900737
804.396731	0.899921
804.717372	0.900128
805.037967	0.902003
805.358518	0.900131
805.679024	0.897019
805.999485	0.897057
806.319901	0.897808
806.640272	0.899854
806.960598	0.896530
807.280879	0.893769
807.601115	0.893810
807.921306	0.896278
808.241453	0.896531
808.561554	0.894959
808.881611	0.894558
809.201623	0.895585
809.521590	0.896173
809.841513	0.898044
810.161390	0.896484
810.481223	0.898068
810.801011	0.902074
811.120755	0.903547
811.440453	0.902558
811.760107	0.900737
812.079716	0.900933
812.399281	0.904246
812.718801	0.906016
813.038276	0.909513
813.357707	0.907069
813.677093	0.903776
813.996434	0.907625
814.315731	0.909491
814.634983	0.910270
814.954191	0.908629
815.273354	0.906111
815.592473	0.901824
815.911547	0.901907
816.230577	0.898768
816.549562	0.896317
816.868502	0.897634
817.187399	0.893881
817.506250	0.889167
817.825058	0.890746
818.143821	0.887449
818.462539	0.881691
818.781213	0.875587
819.099843	0.862323
819.418429	0.847652
819.736970	0.830449
820.055466	0.810752
820.373919	0.785930
820.692327	0.753617
821.010691	0.718843
821.329011	0.642405
821.647286	0.528743
821.965517	0.415148
822.283704	0.372664
822.601847	0.374934
822.919945	0.410278
823.237999	0.443486
823.556010	0.489748
823.873976	0.545055
824.191897	0.594652
824.509775	0.636566
824.827609	0.682212
825.145398	0.704513
825.463144	0.707452
825.780845	0.690168
826.098502	0.671729
826.416116	0.626641
826.733685	0.583377
827.051210	0.575226
827.368692	0.589515
827.686129	0.625344
828.003522	0.678996
828.320872	0.725742
828.638177	0.768890
828.955439	0.801613
829.272656	0.823438
829.589830	0.840542
829.906960	0.856227
830.224046	0.868767
830.541088	0.878204
830.858086	0.881882
831.175041	0.888935
831.491952	0.887353
831.808819	0.884355
832.125642	0.878053
832.442421	0.863857
832.759157	0.842402
833.075849	0.796402
833.392497	0.731852
833.709101	0.691697
834.025662	0.701378
834.342179	0.732860
834.658653	0.772333
834.975083	0.807447
835.291469	0.832435
835.607811	0.856377
835.924110	0.871630
836.240366	0.887234
836.556578	0.902256
836.872746	0.909868
837.188871	0.916425
837.504952	0.921288
837.820990	0.924900
838.136984	0.927499
838.452935	0.931106
838.768842	0.932708
839.084706	0.925399
839.400526	0.899599
839.716303	0.860027
840.032037	0.837926
840.347727	0.841584
840.663373	0.860591
840.978977	0.881607
841.294537	0.902571
841.610054	0.918553
841.925527	0.927260
842.240957	0.932443
842.556344	0.940997
842.871687	0.947380
843.186987	0.951298
843.502244	0.951567
843.817458	0.951631
844.132629	0.956205
844.447756	0.961235
844.762840	0.960884
845.077881	0.959278
845.392879	0.960227
845.707833	0.962851
846.022745	0.965418
846.337613	0.965012
846.652438	0.966218
846.967221	0.964220
847.281960	0.966574
847.596656	0.968138
847.911309	0.965804
848.225919	0.968148
848.540485	0.968323
848.855009	0.968862
849.169490	0.968896
849.483928	0.968606
849.798323	0.970426
850.112675	0.969677
850.426984	0.969536
850.741251	0.970414
851.055474	0.971215
851.369654	0.968227
851.683792	0.970046
851.997887	0.970151
852.311938	0.970732
852.625947	0.969718
852.939914	0.968300
853.253837	0.969843
853.567718	0.970918
853.881555	0.971519
854.195350	0.967944
854.509103	0.970893
854.822812	0.970447
855.136479	0.971193
855.450103	0.969323
855.763685	0.968962
856.077224	0.969250
856.390720	0.970851
856.704173	0.970992
857.017584	0.969435
857.330953	0.966777
857.644278	0.968164
857.957561	0.969835
858.270802	0.968095
858.584000	0.968215
858.897155	0.967190
859.210268	0.968239
859.523339	0.967556
859.836367	0.971726
860.149352	0.969853
860.462295	0.968615
860.775195	0.970646
861.088054	0.968132
861.400869	0.970103
861.713642	0.969965
862.026373	0.970529
862.339062	0.971216
862.651708	0.968284
862.964312	0.968639
863.276873	0.970937
863.589392	0.970082
863.901869	0.967159
864.214303	0.964677
864.526696	0.964447
864.839045	0.964166
865.151353	0.962078
865.463619	0.963903
865.775842	0.962512
866.088023	0.963487
866.400162	0.962429
866.712258	0.962462
867.024313	0.963148
867.336325	0.963775
867.648296	0.963578
867.960224	0.962408
868.272110	0.962257
868.583954	0.964805
868.895755	0.964133
869.207515	0.961508
869.519233	0.960246
869.830909	0.960861
870.142542	0.962699
870.454134	0.962119
870.765684	0.962179
871.077191	0.958902
871.388657	0.959006
871.700081	0.958362
872.011463	0.959039
872.322803	0.959736
872.634101	0.957837
872.945357	0.955170
873.256571	0.953266
873.567744	0.953545
873.878874	0.954625
874.189963	0.953023
874.501010	0.952535
874.812015	0.949637
875.122979	0.951756
875.433900	0.953532
875.744780	0.954565
876.055618	0.951462
876.366415	0.950673
876.677169	0.950094
876.987882	0.953908
877.298554	0.951532
877.609183	0.948702
877.919771	0.946236
878.230317	0.942005
878.540822	0.942369
878.851285	0.936230
879.161707	0.928348
879.472087	0.916382
879.782425	0.900433
880.092722	0.867520
880.402977	0.816139
880.713191	0.756613
881.023363	0.698994
881.333494	0.665437
881.643583	0.636952
881.953631	0.636872
882.263637	0.666060
882.573602	0.704668
882.883526	0.729777
883.193408	0.753159
883.503248	0.774949
883.813048	0.801699
884.122806	0.830758
884.432522	0.853599
884.742197	0.872899
885.051831	0.883382
885.361424	0.892995
885.670975	0.905145
885.980485	0.914777
886.289954	0.921047
886.599382	0.926609
886.908768	0.929564
887.218113	0.934956
887.527417	0.941394
887.836680	0.942768
888.145901	0.944700
888.455082	0.946575
888.764221	0.951880
889.073319	0.953849
889.382376	0.954190
889.691392	0.953200
890.000366	0.953481
890.309300	0.954816
890.618193	0.954028
890.927044	0.951693
891.235855	0.952477
891.544625	0.951845
891.853353	0.953275
892.162041	0.950640
892.470687	0.944061
892.779293	0.939552
893.087858	0.935241
893.396381	0.927035
893.704864	0.914687
894.013306	0.890880
894.321707	0.865461
894.630068	0.850296
894.938387	0.847559
895.246665	0.848119
895.554903	0.860026
895.863100	0.873571
896.171256	0.889651
896.479371	0.908470
896.787446	0.921475
897.095480	0.926945
897.403473	0.930095
897.711425	0.933792
898.019336	0.940628
898.327207	0.944163
898.635038	0.946185
898.942827	0.946599
899.250576	0.949279
899.558284	0.952471
899.865952	0.954477
900.173579	0.956580
900.481165	0.957310
900.788711	0.960539
901.096216	0.961377
901.403681	0.961717
901.711105	0.963339
902.018489	0.964536
902.325832	0.963284
902.633135	0.962366
902.940397	0.956700
903.247619	0.945162
903.554800	0.919791
903.861941	0.881572
904.169041	0.846893
904.476101	0.830150
904.783121	0.830933
905.090100	0.846853
905.397039	0.867312
905.703938	0.888314
906.010796	0.908111
906.317614	0.924096
906.624391	0.935576
906.931129	0.944666
907.237826	0.953716
907.544483	0.958860
907.851099	0.963975
908.157675	0.968316
908.464211	0.970871
908.770707	0.973916
909.077163	0.974016
909.383578	0.974627
909.689954	0.976068
909.996289	0.975571
910.302584	0.978971
910.608839	0.979976
910.915054	0.979163
911.221229	0.977130
911.527363	0.977653
911.833458	0.977309
912.139513	0.977551
912.445527	0.976025
912.751502	0.974793
913.057436	0.973073
913.363331	0.971001
913.669186	0.967200
913.975000	0.962782
914.280775	0.957535
914.586510	0.949820
914.892205	0.937126
915.197859	0.917269
915.503475	0.889767
915.809050	0.870468
916.114585	0.866076
916.420081	0.863005
916.725536	0.859645
917.030952	0.867811
917.336328	0.879440
917.641665	0.894972
917.946961	0.909851
918.252218	0.920838
918.557435	0.929915
918.862612	0.937341
919.167750	0.943878
919.472848	0.948438
919.777906	0.953750
920.082925	0.959679
920.387904	0.963221
920.692843	0.963840
920.997743	0.963530
921.302603	0.967468
921.607423	0.969561
921.912204	0.972332
922.216946	0.971989
922.521647	0.973010
922.826310	0.975819
923.130932	0.977624
923.435516	0.979216
923.740059	0.980462
924.044564	0.979659
924.349028	0.980973
924.653454	0.982549
924.957840	0.985510
925.262186	0.984509
925.566493	0.983605
925.870761	0.984697
926.174989	0.986388
926.479178	0.987929
926.783328	0.988191
927.087438	0.987416
927.391509	0.988118
927.695541	0.989481
927.999533	0.989721
928.303486	0.989748
928.607400	0.990755
928.911275	0.990659
929.215110	0.990667
929.518906	0.990019
929.822663	0.989686
930.126381	0.991036
930.430060	0.991360
930.733699	0.990046
931.037299	0.989516
931.340861	0.989940
931.644383	0.990349
931.947866	0.988905
932.251309	0.991332
932.554714	0.991286
932.858080	0.989986
933.161407	0.990241
933.464694	0.991748
933.767943	0.989620
934.071153	0.991157
934.374323	0.992258
934.677455	0.990710
934.980548	0.992307
935.283602	0.991333
935.586617	0.990338
935.889593	0.991289
936.192530	0.990097
936.495428	0.990860
936.798287	0.990252
937.101108	0.990163
937.403890	0.989360
937.706632	0.989291
938.009336	0.986613
938.312002	0.986270
938.614628	0.984547
938.917216	0.983067
939.219765	0.981467
939.522275	0.983588
939.824747	0.984129
940.127179	0.984119
940.429573	0.984411
940.731929	0.984475
941.034246	0.985019
941.336524	0.985952
941.638763	0.987740
941.940964	0.985737
942.243126	0.985810
942.545250	0.987785
942.847335	0.988233
943.149381	0.987956
943.451389	0.988680
943.753359	0.989358
944.055290	0.990069
944.357182	0.989727
944.659036	0.988192
944.960851	0.989318
945.262628	0.989251
945.564367	0.990898
945.866067	0.989902
946.167729	0.990270
946.469352	0.990127
946.770937	0.989603
947.072484	0.990771
947.373992	0.989661
947.675462	0.990729
947.976893	0.990192
948.278286	0.991146
948.579641	0.991881
948.880958	0.990624
949.182236	0.990936
949.483476	0.990823
949.784678	0.990699
950.085841	0.990171
950.386967	0.990715
950.688054	0.990890
950.989103	0.991897
951.290114	0.990227
951.591087	0.990422
951.892021	0.988723
952.192917	0.989537
952.493776	0.988043
952.794596	0.987762
953.095378	0.988429
953.396122	0.988174
953.696828	0.988337
953.997496	0.989491
954.298126	0.990601
954.598718	0.991273
954.899272	0.991412
955.199788	0.990623
955.500266	0.992722
955.800706	0.992640
956.101108	0.993394
956.401472	0.993425
956.701798	0.994313
957.002087	0.992653
957.302337	0.992811
957.602550	0.995205
957.902724	0.994325
958.202861	0.995302
958.502960	0.995453
958.803022	0.994490
959.103045	0.995572
959.403031	0.995458
959.702979	0.994647
960.002889	0.996037
960.302762	0.994941
960.602596	0.995404
960.902393	0.994079
961.202153	0.996437
961.501875	0.995997
961.801559	0.996615
962.101205	0.995014
962.400814	0.996443
962.700385	0.995769
962.999918	0.996771
963.299414	0.996547
963.598873	0.995402
963.898293	0.995554
964.197677	0.996718
964.497022	0.995831
964.796331	0.996845
965.095601	0.996516
965.394835	0.995619
965.694030	0.996460
965.993189	0.997214
966.292309	0.996061
966.591393	0.997962
966.890439	0.996573
967.189447	0.996038
967.488419	0.997242
967.787353	0.997155
968.086249	0.994950
968.385108	0.997762
968.683930	0.997592
968.982714	0.996777
969.281462	0.997427
969.580172	0.994875
969.878844	0.997016
970.177480	0.996394
970.476078	0.996835
970.774639	0.997743
971.073162	0.997081
971.371649	0.995445
971.670098	0.997225
971.968510	0.996811
972.266885	0.995540
972.565223	0.996017
972.863524	0.995639
973.161788	0.996645
973.460014	0.997740
973.758204	0.995256
974.056356	0.996307
974.354471	0.994941
974.652550	0.995631
974.950591	0.996209
975.248595	0.995646
975.546563	0.996678
975.844493	0.998299
976.142386	0.995934
976.440243	0.997490
976.738062	0.997918
977.035845	0.997387
977.333590	0.995654
977.631299	0.996757
977.928971	0.995259
978.226606	0.996618
978.524204	0.995853
978.821765	0.997151
979.119290	0.995351
979.416777	0.996581
979.714228	0.998530
980.011642	0.996074
980.309020	0.996768
980.606360	0.995910
980.903664	0.998549
981.200931	0.997174
981.498162	0.994364
981.795356	0.993893
982.092513	0.993250
982.389633	0.996038
982.686717	0.991579
982.983764	0.992903
983.280775	0.990446
983.577749	0.991616
983.874686	0.991883
984.171587	0.991052
984.468451	0.994301
984.765279	0.994300
985.062070	0.994986
985.358824	0.995673
985.655543	0.995381
985.952224	0.996124
986.248869	0.995097
986.545478	0.998717
986.842050	0.999093
987.138586	0.995015
987.435086	0.996297
987.731549	0.998076
988.027975	0.998187
988.324366	0.997918
988.620719	0.997306
988.917037	0.995160
989.213318	0.998310
989.509563	0.998577
989.805772	0.997678
990.101944	0.998110
990.398080	0.996506
990.694180	0.997195
990.990244	0.997687
991.286271	0.997581
991.582262	0.997390
991.878217	0.997494
992.174136	0.997950
992.470019	0.998348
992.765865	0.998404
993.061676	0.997603
993.357450	0.997276
993.653188	0.995543
993.948890	0.996535
994.244556	0.997640
994.540186	0.996341
994.835780	0.996559
995.131337	0.996839
995.426859	0.996137
995.722345	0.997096
996.017795	0.995549
996.313208	0.996322
996.608586	0.995449
996.903928	0.996151
997.199234	0.996027
997.494504	0.995520
997.789738	0.995628
998.084936	0.996434
998.380099	0.999096
998.675225	0.996695
998.970316	0.998053
999.265371	0.998990
999.560390	0.998203
999.855373	0.997981
1000.150320	0.996742
1000.445232	0.997211
1000.740108	0.996924
1001.034948	0.998327
1001.329752	0.998332
1001.624521	0.999070
1001.919254	0.998110
1002.213951	0.998525
1002.508613	0.996446
1002.803239	0.999582
1003.097829	0.999065
1003.392384	0.998800
1003.686903	0.997416
1003.981386	0.998455
1004.275834	0.999118
1004.570246	0.999309
1004.864623	0.998750
1005.158964	0.999303
1005.453270	0.998656
1005.747540	0.995961
1006.041775	0.998216
1006.335974	0.999132
1006.630138	0.998510
1006.924266	0.998710
1007.218359	1.000333
1007.512416	0.999497
1007.806438	0.998145
1008.100425	0.999416
1008.394376	0.998014
1008.688292	0.998616
1008.982172	1.000394
1009.276017	0.999786
1009.569827	0.998302
1009.863602	0.998731
1010.157341	0.999319
1010.451045	0.998701
1010.744714	0.998446
1011.038347	0.998957
1011.331945	0.999445
1011.625508	0.998268
1011.919036	0.999267
1012.212528	0.999195
1012.505986	0.998007
1012.799408	0.998612
1013.092795	0.998867
1013.386147	0.999266
1013.679464	0.998598
1013.972745	0.998412
1014.265992	0.997762
1014.559204	0.999111
1014.852380	0.998857
1015.145521	0.998311
1015.438628	0.999100
1015.731699	0.998895
1016.024736	0.998906
1016.317737	0.999168
1016.610703	0.999556
1016.903635	0.999450
1017.196531	0.998200
1017.489393	1.000069
1017.782219	0.998666
1018.075011	0.997847
1018.367768	0.998886
1018.660490	0.998601
1018.953177	0.998601
1019.245829	0.998601
