Dividing Wavelength (nm)	Counts (n)	Blue Motor Position (mm): 0.000000	Red Motor Position (mm): 26.800000	
326.493990	1.001119
326.888308	1.001119
327.282561	1.001119
327.676750	0.999808
328.070874	0.998927
328.464933	1.000204
328.858929	0.999180
329.252859	0.999957
329.646726	1.000332
330.040528	1.001951
330.434265	1.000112
330.827938	1.000117
331.221547	0.999847
331.615091	0.999709
332.008571	1.000235
332.401986	1.000911
332.795338	0.999959
333.188625	0.998634
333.581847	0.999109
333.975006	0.999530
334.368100	1.000013
334.761129	1.000731
335.154095	1.000773
335.546996	0.998052
335.939833	0.994877
336.332606	0.994884
336.725315	0.995708
337.117960	0.995015
337.510540	0.995422
337.903056	0.995347
338.295508	0.994197
338.687896	0.995596
339.080220	0.995063
339.472480	0.995037
339.864676	0.994566
340.256807	0.995916
340.648875	0.995838
341.040879	0.996123
341.432818	0.994942
341.824694	0.994953
342.216506	0.997093
342.608253	0.995600
342.999937	0.994482
343.391557	0.995509
343.783113	0.995037
344.174605	0.994867
344.566033	0.995776
344.957397	0.993806
345.348697	0.995390
345.739934	0.995326
346.131106	0.993929
346.522215	0.994126
346.913260	0.995314
347.304241	0.995273
347.695159	0.996173
348.086012	0.993910
348.476802	0.995548
348.867528	0.995616
349.258191	0.995091
349.648789	0.994801
350.039324	0.994844
350.429796	0.995799
350.820203	0.994511
351.210548	0.995432
351.600828	0.994361
351.991045	0.994267
352.381198	0.994860
352.771288	0.994721
353.161314	0.994463
353.551276	0.995907
353.941175	0.995729
354.331010	0.995099
354.720782	0.994133
355.110490	0.994584
355.500135	0.995998
355.889717	0.995090
356.279235	0.995107
356.668689	0.994565
357.058080	0.994356
357.447408	0.996559
357.836672	0.995479
358.225873	0.995660
358.615010	0.995812
359.004084	0.996078
359.393095	0.995623
359.782043	0.996432
360.170927	0.996242
360.559748	0.996307
360.948505	0.993361
361.337199	0.995420
361.725830	0.994758
362.114398	0.994649
362.502903	0.995676
362.891344	0.997144
363.279722	0.994244
363.668037	0.995926
364.056289	0.995352
364.444478	0.995950
364.832603	0.995708
365.220665	0.994983
365.608665	0.994781
365.996601	0.996115
366.384474	0.995191
366.772284	0.994755
367.160031	0.993458
367.547715	0.993591
367.935336	0.994848
368.322893	0.994685
368.710388	0.994724
369.097820	0.994464
369.485189	0.993252
369.872495	0.994854
370.259738	0.993925
370.646918	0.996219
371.034035	0.995652
371.421090	0.994252
371.808081	0.993339
372.195010	0.995828
372.581875	0.995482
372.968678	0.995232
373.355418	0.995768
373.742096	0.994105
374.128710	0.996361
374.515262	0.994722
374.901751	0.995098
375.288177	0.995323
375.674540	0.995983
376.060841	0.994979
376.447079	0.996163
376.833254	0.996578
377.219367	0.995836
377.605417	0.995854
377.991404	0.996497
378.377329	0.995381
378.763191	0.996608
379.148991	0.996056
379.534727	0.996084
379.920402	0.996249
380.306013	0.995778
380.691563	0.996695
381.077049	0.995279
381.462474	0.995896
381.847835	0.996586
382.233134	0.995805
382.618371	0.995990
383.003545	0.996108
383.388657	0.996142
383.773706	0.997231
384.158693	0.996493
384.543618	0.996437
384.928480	0.997397
385.313280	0.996607
385.698017	0.997469
386.082692	0.997976
386.467305	0.996491
386.851856	0.996400
387.236344	0.995209
387.620770	0.995444
388.005133	0.996560
388.389435	0.996929
388.773674	0.996742
389.157851	0.996011
389.541965	0.996045
389.926018	0.997392
390.310008	0.997082
390.693936	0.996648
391.077802	0.997275
391.461606	0.996513
391.845348	0.997417
392.229027	0.998167
392.612645	0.996994
392.996200	0.998172
393.379694	0.996414
393.763125	0.996992
394.146494	0.997108
394.529801	0.996661
394.913047	0.998493
395.296230	0.997537
395.679351	0.997444
396.062410	0.998041
396.445408	0.997042
396.828343	0.995992
397.211217	0.997114
397.594028	0.997572
397.976778	0.996558
398.359466	0.997024
398.742092	0.997294
399.124656	0.997086
399.507158	0.997715
399.889598	0.996883
400.271977	0.997466
400.654294	0.998058
401.036549	0.998073
401.418742	0.997101
401.800874	0.997383
402.182944	0.996726
402.564952	0.996804
402.946898	0.997675
403.328783	0.997147
403.710606	0.997130
404.092367	0.996758
404.474067	0.997409
404.855705	0.996816
405.237282	0.997405
405.618797	0.997596
406.000250	0.996066
406.381642	0.998210
406.762972	0.997181
407.144240	0.998541
407.525447	0.997086
407.906593	0.997862
408.287677	0.997172
408.668700	0.997878
409.049661	0.996111
409.430560	0.997365
409.811399	0.997411
410.192176	0.997496
410.572891	0.996550
410.953545	0.997959
411.334138	0.996243
411.714669	0.998144
412.095139	0.996629
412.475547	0.997675
412.855894	0.997152
413.236180	0.997280
413.616405	0.996373
413.996568	0.997705
414.376670	0.997564
414.756711	0.997156
415.136691	0.997774
415.516609	0.997316
415.896466	0.997466
416.276262	0.996678
416.655997	0.996927
417.035670	0.996663
417.415283	0.997526
417.794834	0.996667
418.174324	0.996687
418.553753	0.997352
418.933121	0.996512
419.312428	0.996961
419.691674	0.997338
420.070859	0.997642
420.449983	0.996998
420.829045	0.996529
421.208047	0.998169
421.586988	0.997731
421.965867	0.997302
422.344686	0.997830
422.723444	0.997157
423.102141	0.997261
423.480777	0.998293
423.859352	0.997170
424.237866	0.997349
424.616319	0.996942
424.994712	0.996980
425.373044	0.997599
425.751314	0.997434
426.129524	0.996823
426.507673	0.997466
426.885762	0.998090
427.263789	0.997201
427.641756	0.996769
428.019662	0.997199
428.397508	0.997127
428.775292	0.996200
429.153016	0.997229
429.530679	0.997527
429.908282	0.997989
430.285824	0.996551
430.663305	0.997035
431.040726	0.996512
431.418086	0.998090
431.795385	0.997245
432.172624	0.996813
432.549802	0.997166
432.926920	0.997202
433.303977	0.996349
433.680974	0.997285
434.057910	0.996886
434.434786	0.996729
434.811601	0.996859
435.188355	0.996193
435.565050	0.996066
435.941683	0.996675
436.318257	0.997763
436.694770	0.995886
437.071222	0.997196
437.447614	0.996438
437.823946	0.996572
438.200218	0.996473
438.576429	0.996034
438.952580	0.996487
439.328670	0.995448
439.704700	0.996329
440.080670	0.996377
440.456580	0.995476
440.832429	0.994680
441.208218	0.995903
441.583947	0.994966
441.959616	0.995060
442.335224	0.993303
442.710773	0.994059
443.086261	0.993048
443.461689	0.992569
443.837057	0.992214
444.212365	0.991604
444.587612	0.991630
444.962800	0.990174
445.337927	0.990318
445.712995	0.990054
446.088002	0.988370
446.462949	0.987092
446.837837	0.986325
447.212664	0.985038
447.587431	0.982780
447.962139	0.980622
448.336786	0.979173
448.711374	0.977630
449.085901	0.976805
449.460369	0.976680
449.834776	0.973993
450.209124	0.971282
450.583412	0.967776
450.957640	0.966240
451.331808	0.963990
451.705917	0.963712
452.079965	0.961473
452.453954	0.958574
452.827883	0.956813
453.201752	0.954503
453.575562	0.952048
453.949311	0.947797
454.323001	0.945796
454.696632	0.941472
455.070202	0.937694
455.443713	0.932138
455.817164	0.928987
456.190556	0.923796
456.563888	0.918980
456.937160	0.915889
457.310373	0.913457
457.683526	0.909776
458.056619	0.904990
458.429653	0.900568
458.802628	0.896454
459.175542	0.890780
459.548398	0.882447
459.921194	0.875384
460.293930	0.869200
460.666607	0.855432
461.039224	0.846024
461.411782	0.840204
461.784280	0.834451
462.156719	0.830980
462.529099	0.826242
462.901419	0.823648
463.273680	0.818189
463.645882	0.812774
464.018024	0.806238
464.390106	0.797035
464.762130	0.785703
465.134094	0.770431
465.505999	0.750220
465.877845	0.731830
466.249631	0.722001
466.621358	0.717657
466.993026	0.714190
467.364634	0.708742
467.736184	0.703648
468.107674	0.698838
468.479105	0.688034
468.850477	0.685753
469.221790	0.679398
469.593043	0.675302
469.964238	0.668446
470.335373	0.659402
470.706449	0.651047
471.077467	0.643539
471.448425	0.614647
471.819324	0.594246
472.190164	0.586682
472.560945	0.594825
472.931667	0.596992
473.302330	0.590836
473.672934	0.590132
474.043479	0.575189
474.413965	0.568435
474.784393	0.561986
475.154761	0.551286
475.525070	0.541831
475.895321	0.538774
476.265513	0.526973
476.635645	0.516955
477.005719	0.508515
477.375734	0.499667
477.745691	0.487906
478.115588	0.478145
478.485427	0.466159
478.855207	0.450685
479.224928	0.431614
479.594591	0.417089
479.964194	0.411844
480.333739	0.405065
480.703226	0.397705
481.072653	0.390976
481.442022	0.381947
481.811333	0.373485
482.180584	0.370113
482.549777	0.366804
482.918912	0.364438
483.287988	0.358429
483.657005	0.352826
484.025964	0.352505
484.394864	0.344568
484.763706	0.339614
485.132489	0.339095
485.501213	0.334548
485.869879	0.328875
486.238487	0.326695
486.607036	0.320928
486.975527	0.320624
487.343959	0.313051
487.712333	0.308226
488.080648	0.306005
488.448905	0.301526
488.817104	0.299371
489.185244	0.291026
489.553326	0.284641
489.921350	0.272984
490.289315	0.254047
490.657222	0.246850
491.025070	0.245070
491.392861	0.244224
491.760593	0.246647
492.128267	0.249159
492.495883	0.251522
492.863440	0.255610
493.230939	0.259519
493.598380	0.258910
493.965763	0.259163
494.333088	0.259911
494.700354	0.259547
495.067563	0.257101
495.434713	0.258829
495.801805	0.255558
496.168839	0.256045
496.535815	0.255685
496.902733	0.254899
497.269593	0.255194
497.636395	0.252252
498.003139	0.251407
498.369825	0.253796
498.736453	0.249326
499.103023	0.250030
499.469535	0.248837
499.835989	0.248676
500.202385	0.248809
500.568723	0.251536
500.935003	0.246452
501.301226	0.250029
501.667390	0.244274
502.033497	0.242014
502.399546	0.244485
502.765537	0.245929
503.131470	0.244044
503.497345	0.240060
503.863163	0.248310
504.228923	0.241225
504.594625	0.239957
504.960269	0.244912
505.325856	0.240021
505.691385	0.244280
506.056856	0.240581
506.422270	0.239861
506.787625	0.242176
507.152924	0.239440
507.518164	0.239661
507.883347	0.241059
508.248472	0.242766
508.613540	0.237670
508.978550	0.240272
509.343503	0.240522
509.708398	0.238254
510.073236	0.235825
510.438016	0.235572
510.802738	0.236219
511.167403	0.235049
511.532010	0.237485
511.896561	0.232655
512.261053	0.231398
512.625488	0.233293
512.989866	0.233497
513.354186	0.233813
513.718449	0.235506
514.082655	0.232015
514.446803	0.233982
514.810894	0.231891
515.174927	0.234456
515.538904	0.233616
515.902822	0.230522
516.266684	0.232781
516.630488	0.234017
516.994235	0.232570
517.357925	0.231321
517.721558	0.229790
518.085133	0.229009
518.448651	0.229480
518.812112	0.231534
519.175516	0.230916
519.538863	0.228622
519.902152	0.230372
520.265385	0.227079
520.628560	0.228948
520.991678	0.229440
521.354739	0.228386
521.717743	0.229164
522.080690	0.229771
522.443580	0.226940
522.806413	0.228026
523.169189	0.227237
523.531908	0.226030
523.894569	0.229621
524.257174	0.229700
524.619722	0.227234
524.982213	0.228646
525.344647	0.227393
525.707025	0.228012
526.069345	0.226278
526.431608	0.228080
526.793815	0.226002
527.155964	0.229929
527.518057	0.228996
527.880093	0.230052
528.242072	0.228776
528.603995	0.230313
528.965860	0.232338
529.327669	0.230899
529.689421	0.232083
530.051117	0.232689
530.412755	0.230460
530.774337	0.232602
531.135862	0.232879
531.497331	0.232457
531.858743	0.235004
532.220098	0.232037
532.581396	0.234493
532.942638	0.235007
533.303824	0.236006
533.664953	0.235719
534.026025	0.237560
534.387040	0.235469
534.747999	0.235277
535.108902	0.233948
535.469748	0.239133
535.830537	0.237023
536.191270	0.237483
536.551947	0.237170
536.912567	0.236989
537.273131	0.238808
537.633638	0.239084
537.994089	0.239259
538.354483	0.240247
538.714821	0.237445
539.075103	0.237221
539.435328	0.237762
539.795497	0.241651
540.155609	0.238301
540.515665	0.236382
540.875665	0.242281
541.235609	0.240529
541.595496	0.240711
541.955328	0.237143
542.315102	0.239783
542.674821	0.240802
543.034483	0.240983
543.394090	0.240739
543.753640	0.242214
544.113134	0.237530
544.472571	0.240815
544.831953	0.237556
545.191278	0.241806
545.550548	0.241436
545.909761	0.238110
546.268918	0.238555
546.628019	0.237157
546.987064	0.239931
547.346053	0.241557
547.704986	0.239450
548.063863	0.239751
548.422684	0.239971
548.781449	0.241814
549.140158	0.239397
549.498811	0.242358
549.857408	0.245215
550.215949	0.239992
550.574434	0.243341
550.932864	0.241235
551.291237	0.239913
551.649555	0.241162
552.007817	0.240950
552.366022	0.241742
552.724173	0.241868
553.082267	0.242383
553.440305	0.239176
553.798288	0.243677
554.156215	0.240103
554.514086	0.241144
554.871902	0.244038
555.229661	0.243419
555.587365	0.243836
555.945014	0.246408
556.302606	0.243093
556.660143	0.245916
557.017625	0.242329
557.375050	0.244645
557.732421	0.241495
558.089735	0.243526
558.446994	0.243715
558.804197	0.242902
559.161345	0.242873
559.518437	0.246393
559.875474	0.244283
560.232455	0.243525
560.589381	0.244663
560.946251	0.244791
561.303065	0.242215
561.659825	0.243785
562.016528	0.245093
562.373177	0.248049
562.729770	0.245324
563.086307	0.247551
563.442789	0.245051
563.799216	0.247891
564.155587	0.246624
564.511904	0.247768
564.868164	0.247903
565.224370	0.248001
565.580520	0.249587
565.936615	0.249569
566.292654	0.252556
566.648638	0.249526
567.004567	0.250541
567.360441	0.251259
567.716260	0.253127
568.072023	0.250540
568.427732	0.251625
568.783385	0.253833
569.138982	0.251867
569.494525	0.251815
569.850013	0.254562
570.205445	0.252962
570.560823	0.255367
570.916145	0.257426
571.271412	0.255736
571.626625	0.256981
571.981782	0.257629
572.336884	0.258365
572.691931	0.258006
573.046923	0.259537
573.401860	0.260818
573.756743	0.262329
574.111570	0.261367
574.466342	0.261691
574.821059	0.261414
575.175722	0.263617
575.530330	0.263671
575.884882	0.263806
576.239380	0.265950
576.593823	0.266541
576.948211	0.265654
577.302544	0.268980
577.656823	0.268167
578.011047	0.268939
578.365216	0.269443
578.719330	0.271210
579.073389	0.271395
579.427394	0.272529
579.781344	0.273400
580.135239	0.274969
580.489080	0.274647
580.842866	0.277177
581.196597	0.277236
581.550273	0.276048
581.903895	0.277030
582.257463	0.274938
582.610975	0.278463
582.964434	0.278000
583.317837	0.280380
583.671186	0.280703
584.024481	0.280646
584.377721	0.283256
584.730906	0.283831
585.084037	0.282974
585.437113	0.284781
585.790135	0.284537
586.143103	0.287008
586.496016	0.288191
586.848874	0.285738
587.201679	0.286397
587.554428	0.290123
587.907124	0.288669
588.259765	0.289213
588.612352	0.290040
588.964884	0.293678
589.317362	0.293427
589.669786	0.293160
590.022155	0.291828
590.374470	0.291093
590.726731	0.292955
591.078937	0.297930
591.431090	0.294054
591.783188	0.298303
592.135232	0.298723
592.487222	0.298860
592.839157	0.296953
593.191038	0.299434
593.542866	0.301140
593.894639	0.304691
594.246358	0.302616
594.598022	0.301981
594.949633	0.305606
595.301190	0.306478
595.652692	0.305794
596.004141	0.302167
596.355535	0.309724
596.706876	0.310557
597.058162	0.312568
597.409395	0.310277
597.760573	0.307583
598.111698	0.310879
598.462768	0.311508
598.813785	0.312906
599.164748	0.313999
599.515657	0.314465
599.866511	0.317653
600.217312	0.313009
600.568060	0.318299
600.918753	0.314718
601.269392	0.315617
601.619978	0.319004
601.970510	0.316356
602.320988	0.316823
602.671412	0.314434
603.021783	0.317045
603.372100	0.318253
603.722363	0.318084
604.072572	0.318981
604.422728	0.318483
604.772830	0.320786
605.122878	0.320287
605.472872	0.320860
605.822813	0.319297
606.172701	0.321534
606.522534	0.318726
606.872314	0.319135
607.222041	0.320076
607.571714	0.318193
607.921333	0.319354
608.270899	0.319469
608.620411	0.316576
608.969870	0.319834
609.319276	0.319878
609.668627	0.320175
610.017926	0.318581
610.367171	0.316876
610.716362	0.317981
611.065500	0.318257
611.414585	0.316890
611.763616	0.317114
612.112594	0.317834
612.461518	0.317143
612.810389	0.314888
613.159207	0.317027
613.507971	0.319156
613.856682	0.314972
614.205340	0.316800
614.553945	0.313249
614.902496	0.317026
615.250994	0.315490
615.599439	0.316113
615.947830	0.315498
616.296169	0.316302
616.644454	0.316059
616.992686	0.315968
617.340864	0.313320
617.688990	0.317324
618.037063	0.314054
618.385082	0.315645
618.733048	0.312667
619.080961	0.314988
619.428821	0.314593
619.776628	0.313787
620.124382	0.316285
620.472083	0.316189
620.819731	0.315915
621.167326	0.319458
621.514868	0.319185
621.862357	0.323535
622.209793	0.322895
622.557176	0.325157
622.904506	0.326226
623.251783	0.328492
623.599007	0.331072
623.946179	0.330476
624.293297	0.332473
624.640363	0.335874
624.987376	0.336876
625.334336	0.339234
625.681243	0.341599
626.028097	0.341988
626.374899	0.343107
626.721647	0.343237
627.068343	0.346690
627.414987	0.347894
627.761577	0.349741
628.108115	0.348294
628.454600	0.353245
628.801032	0.350838
629.147412	0.352833
629.493739	0.353117
629.840014	0.356095
630.186236	0.353566
630.532405	0.359178
630.878521	0.356278
631.224585	0.358652
631.570597	0.362397
631.916556	0.361096
632.262462	0.361277
632.608316	0.363227
632.954117	0.363760
633.299866	0.364813
633.645562	0.365477
633.991206	0.369738
634.336797	0.372003
634.682336	0.374424
635.027823	0.376549
635.373257	0.376861
635.718639	0.380328
636.063968	0.379800
636.409245	0.385404
636.754470	0.385829
637.099642	0.387952
637.444762	0.391763
637.789829	0.390499
638.134845	0.394272
638.479808	0.395378
638.824719	0.394735
639.169577	0.398698
639.514383	0.398111
639.859137	0.402549
640.203839	0.402048
640.548489	0.402718
640.893086	0.403134
641.237632	0.405040
641.582125	0.403746
641.926566	0.405084
642.270955	0.405320
642.615292	0.405951
642.959576	0.405164
643.303809	0.405360
643.647990	0.405015
643.992118	0.406130
644.336195	0.409149
644.680219	0.407483
645.024192	0.408182
645.368112	0.402025
645.711981	0.400949
646.055797	0.396142
646.399562	0.398267
646.743274	0.390733
647.086935	0.388034
647.430544	0.388332
647.774101	0.386669
648.117606	0.386535
648.461059	0.387416
648.804460	0.389645
649.147810	0.394434
649.491108	0.396795
649.834354	0.398328
650.177548	0.403338
650.520690	0.409088
650.863781	0.409792
651.206820	0.409141
651.549807	0.413967
651.892742	0.417522
652.235626	0.417314
652.578458	0.418916
652.921238	0.424512
653.263967	0.421719
653.606644	0.426255
653.949269	0.425487
654.291843	0.429914
654.634365	0.426279
654.976836	0.429825
655.319255	0.429857
655.661622	0.431353
656.003938	0.431814
656.346203	0.434939
656.688416	0.432041
657.030577	0.436039
657.372687	0.437912
657.714746	0.438429
658.056753	0.435311
658.398708	0.438900
658.740612	0.440151
659.082465	0.436402
659.424266	0.437242
659.766016	0.436447
660.107715	0.439297
660.449362	0.438154
660.790958	0.438572
661.132503	0.439404
661.473996	0.436851
661.815438	0.437591
662.156829	0.438455
662.498168	0.438538
662.839456	0.439791
663.180693	0.438241
663.521879	0.438282
663.863013	0.439025
664.204097	0.437344
664.545129	0.434203
664.886110	0.434344
665.227040	0.431742
665.567918	0.434335
665.908746	0.432441
666.249522	0.432216
666.590248	0.432839
666.930922	0.431357
667.271545	0.430156
667.612118	0.430235
667.952639	0.432156
668.293109	0.430845
668.633528	0.433895
668.973896	0.433396
669.314213	0.433536
669.654480	0.435487
669.994695	0.435823
670.334859	0.436765
670.674973	0.436618
671.015035	0.436750
671.355047	0.436992
671.695008	0.437924
672.034918	0.439721
672.374777	0.438690
672.714585	0.440164
673.054342	0.440311
673.394049	0.440278
673.733705	0.437720
674.073310	0.439229
674.412864	0.442563
674.752368	0.442705
675.091820	0.442956
675.431223	0.447408
675.770574	0.447077
676.109875	0.449965
676.449125	0.450190
676.788324	0.452372
677.127473	0.458168
677.466571	0.457588
677.805619	0.458678
678.144616	0.460240
678.483562	0.461678
678.822458	0.464552
679.161303	0.465524
679.500098	0.465313
679.838842	0.467931
680.177535	0.467167
680.516179	0.465570
680.854771	0.464543
681.193314	0.458239
681.531805	0.449296
681.870247	0.438127
682.208638	0.430852
682.546978	0.429758
682.885268	0.431153
683.223508	0.437621
683.561697	0.440913
683.899836	0.443617
684.237925	0.447714
684.575963	0.449580
684.913951	0.452703
685.251889	0.448462
685.589776	0.450749
685.927614	0.453039
686.265401	0.447490
686.603137	0.448477
686.940824	0.443316
687.278460	0.441250
687.616046	0.440351
687.953582	0.435203
688.291068	0.436528
688.628504	0.432370
688.965889	0.434659
689.303224	0.438973
689.640510	0.442584
689.977745	0.448434
690.314930	0.456253
690.652065	0.460042
690.989150	0.468415
691.326185	0.474502
691.663170	0.479298
692.000105	0.486328
692.336990	0.493429
692.673825	0.495816
693.010610	0.502954
693.347345	0.508157
693.684030	0.509842
694.020665	0.514637
694.357251	0.523250
694.693786	0.522589
695.030272	0.526901
695.366707	0.530183
695.703093	0.534392
696.039429	0.531673
696.375716	0.532895
696.711952	0.535992
697.048139	0.537690
697.384276	0.539949
697.720363	0.538358
698.056400	0.537451
698.392388	0.542737
698.728326	0.545919
699.064214	0.548933
699.400053	0.549990
699.735842	0.552475
700.071581	0.555579
700.407270	0.558121
700.742910	0.561270
701.078501	0.568221
701.414042	0.567989
701.749533	0.570829
702.084974	0.579346
702.420366	0.572284
702.755709	0.579604
703.091002	0.587526
703.426246	0.580702
703.761440	0.586172
704.096584	0.591564
704.431679	0.588616
704.766725	0.590700
705.101721	0.592085
705.436668	0.587984
705.771565	0.595723
706.106413	0.591997
706.441212	0.587847
706.775961	0.585924
707.110661	0.589022
707.445311	0.585551
707.779913	0.582275
708.114465	0.580790
708.448967	0.577464
708.783421	0.569849
709.117825	0.564697
709.452180	0.564803
709.786485	0.558160
710.120742	0.547304
710.454949	0.550143
710.789107	0.542795
711.123216	0.533296
711.457275	0.534795
711.791286	0.526128
712.125247	0.525004
712.459159	0.536017
712.793023	0.528793
713.126837	0.532306
713.460602	0.533263
713.794318	0.542715
714.127985	0.541214
714.461602	0.551097
714.795171	0.554319
715.128691	0.561912
715.462162	0.569982
715.795584	0.575258
716.128957	0.578563
716.462281	0.584709
716.795556	0.588100
717.128782	0.593283
717.461960	0.602147
717.795088	0.601170
718.128167	0.607517
718.461198	0.616413
718.794180	0.617032
719.127113	0.619629
719.459997	0.622320
719.792833	0.629207
720.125619	0.630246
720.458357	0.636350
720.791046	0.634825
721.123686	0.639354
721.456278	0.646153
721.788821	0.643696
722.121315	0.647879
722.453761	0.651963
722.786158	0.649724
723.118506	0.646192
723.450805	0.654131
723.783056	0.650044
724.115259	0.647647
724.447412	0.646713
724.779518	0.647747
725.111574	0.646934
725.443582	0.642765
725.775542	0.644521
726.107453	0.636583
726.439315	0.637040
726.771129	0.635264
727.102895	0.629322
727.434612	0.621074
727.766281	0.619567
728.097901	0.618736
728.429473	0.618619
728.760996	0.617232
729.092471	0.617154
729.423897	0.621215
729.755276	0.620419
730.086606	0.620179
730.417887	0.614413
730.749120	0.605559
731.080305	0.596107
731.411442	0.592711
731.742530	0.596825
732.073570	0.595981
732.404562	0.588967
732.735506	0.590750
733.066401	0.595334
733.397249	0.604250
733.728048	0.615157
734.058798	0.628513
734.389501	0.639180
734.720156	0.648381
735.050762	0.655792
735.381320	0.657200
735.711831	0.666029
736.042293	0.670818
736.372707	0.667608
736.703073	0.671012
737.033391	0.674442
737.363661	0.670271
737.693883	0.666050
738.024056	0.665710
738.354182	0.665241
738.684260	0.654369
739.014290	0.650589
739.344272	0.651237
739.674207	0.644544
740.004093	0.643729
740.333931	0.644544
740.663722	0.644587
740.993464	0.645065
741.323159	0.649197
741.652806	0.654252
741.982405	0.658765
742.311956	0.663921
742.641460	0.665166
742.970915	0.669115
743.300323	0.676866
743.629683	0.683981
743.958996	0.685541
744.288260	0.690143
744.617477	0.695398
744.946647	0.697481
745.275768	0.702549
745.604842	0.702188
745.933869	0.712200
746.262847	0.712280
746.591778	0.706474
746.920662	0.712559
747.249498	0.717988
747.578286	0.709478
747.907027	0.706303
748.235720	0.707541
748.564365	0.701675
748.892963	0.701152
749.221514	0.704802
749.550017	0.709858
749.878473	0.709025
750.206881	0.716287
750.535242	0.716892
750.863555	0.716930
751.191821	0.718639
751.520039	0.721217
751.848210	0.726298
752.176334	0.718812
752.504411	0.716692
752.832440	0.725153
753.160421	0.730024
753.488356	0.727704
753.816243	0.725769
754.144082	0.733845
754.471875	0.736924
754.799620	0.733015
755.127318	0.733899
755.454969	0.734004
755.782572	0.733357
756.110129	0.738826
756.437638	0.741195
756.765100	0.736905
757.092515	0.735879
757.419882	0.734105
757.747203	0.739643
758.074477	0.739110
758.401703	0.736160
758.728882	0.731135
759.056014	0.729767
759.383099	0.728970
759.710138	0.730341
760.037129	0.727193
760.364073	0.720952
760.690970	0.722021
761.017820	0.729575
761.344623	0.724077
761.671379	0.716243
761.998088	0.703746
762.324751	0.681300
762.651366	0.640339
762.977935	0.574352
763.304456	0.521732
763.630931	0.512005
763.957359	0.551092
764.283740	0.594783
764.610074	0.622067
764.936362	0.653054
765.262602	0.679700
765.588796	0.700688
765.914943	0.718218
766.241044	0.736101
766.567097	0.743840
766.893104	0.752846
767.219064	0.759034
767.544978	0.765596
767.870845	0.778244
768.196665	0.782881
768.522438	0.780550
768.848165	0.781214
769.173846	0.791127
769.499479	0.795303
769.825066	0.798763
770.150607	0.803440
770.476101	0.798206
770.801548	0.800535
771.126949	0.812404
771.452303	0.815894
771.777611	0.815452
772.102872	0.812937
772.428087	0.820042
772.753256	0.821860
773.078378	0.824356
773.403453	0.833692
773.728482	0.837507
774.053465	0.830790
774.378401	0.834881
774.703291	0.842658
775.028135	0.842337
775.352932	0.843760
775.677683	0.846946
776.002388	0.848187
776.327046	0.845869
776.651658	0.849695
776.976224	0.853466
777.300743	0.853788
777.625216	0.855930
777.949643	0.858263
778.274024	0.858113
778.598359	0.859430
778.922647	0.857594
779.246889	0.859216
779.571086	0.862170
779.895236	0.865690
780.219339	0.861545
780.543397	0.858813
780.867409	0.856494
781.191374	0.859286
781.515294	0.861243
781.839167	0.860036
782.162995	0.862944
782.486776	0.860364
782.810511	0.861452
783.134201	0.864898
783.457844	0.862646
783.781441	0.865558
784.104993	0.871715
784.428498	0.871638
784.751958	0.867338
785.075372	0.868857
785.398739	0.873239
785.722061	0.869616
786.045337	0.865575
786.368568	0.871736
786.691752	0.872101
787.014891	0.858168
787.337983	0.849597
787.661030	0.843035
787.984031	0.824777
788.306987	0.812123
788.629897	0.814519
788.952760	0.818315
789.275579	0.823127
789.598351	0.836983
789.921078	0.850747
790.243759	0.852000
790.566395	0.857421
790.888984	0.864868
791.211529	0.869974
791.534027	0.872855
791.856480	0.874874
792.178888	0.879764
792.501249	0.882454
792.823566	0.883801
793.145836	0.883196
793.468062	0.886294
793.790241	0.885587
794.112375	0.884475
794.434464	0.879102
794.756507	0.879349
795.078505	0.879172
795.400457	0.872620
795.722364	0.861067
796.044226	0.854989
796.366042	0.853279
796.687812	0.856856
797.009538	0.853004
797.331218	0.856072
797.652852	0.860355
797.974442	0.865667
798.295986	0.865013
798.617484	0.866983
798.938938	0.872290
799.260346	0.876656
799.581709	0.878083
799.903026	0.880715
800.224299	0.881677
800.545526	0.885527
800.866708	0.888800
801.187845	0.893265
801.508936	0.892068
801.829983	0.892139
802.150984	0.893804
802.471940	0.899109
802.792851	0.897772
803.113717	0.898296
803.434538	0.896688
803.755314	0.899316
804.076045	0.900647
804.396731	0.900041
804.717372	0.901030
805.037967	0.902727
805.358518	0.900623
805.679024	0.897572
805.999485	0.898331
806.319901	0.897954
806.640272	0.898065
806.960598	0.897958
807.280879	0.894369
807.601115	0.893232
807.921306	0.896507
808.241453	0.896148
808.561554	0.895571
808.881611	0.895753
809.201623	0.897205
809.521590	0.897067
809.841513	0.897239
810.161390	0.897228
810.481223	0.898412
810.801011	0.901783
811.120755	0.904757
811.440453	0.902602
811.760107	0.901850
812.079716	0.901761
812.399281	0.904826
812.718801	0.907850
813.038276	0.908990
813.357707	0.907194
813.677093	0.904937
813.996434	0.908338
814.315731	0.910008
814.634983	0.910190
814.954191	0.908904
815.273354	0.905511
815.592473	0.901945
815.911547	0.902789
816.230577	0.899510
816.549562	0.897374
816.868502	0.897697
817.187399	0.894959
817.506250	0.888902
817.825058	0.889901
818.143821	0.887713
818.462539	0.882141
818.781213	0.874971
819.099843	0.863110
819.418429	0.847636
819.736970	0.831021
820.055466	0.811666
820.373919	0.786905
820.692327	0.753089
821.010691	0.718933
821.329011	0.642375
821.647286	0.528733
821.965517	0.415205
822.283704	0.372779
822.601847	0.374098
822.919945	0.410037
823.237999	0.443028
823.556010	0.489570
823.873976	0.544540
824.191897	0.595131
824.509775	0.636483
824.827609	0.682226
825.145398	0.705199
825.463144	0.707290
825.780845	0.690264
826.098502	0.671317
826.416116	0.626549
826.733685	0.583487
827.051210	0.574436
827.368692	0.588534
827.686129	0.625424
828.003522	0.678458
828.320872	0.725323
828.638177	0.768986
828.955439	0.801735
829.272656	0.822918
829.589830	0.840506
829.906960	0.856472
830.224046	0.867866
830.541088	0.879022
830.858086	0.883097
831.175041	0.889705
831.491952	0.887886
831.808819	0.885426
832.125642	0.877884
832.442421	0.863225
832.759157	0.842124
833.075849	0.795739
833.392497	0.732466
833.709101	0.692312
834.025662	0.702209
834.342179	0.733885
834.658653	0.772003
834.975083	0.808214
835.291469	0.834403
835.607811	0.855695
835.924110	0.871934
836.240366	0.887541
836.556578	0.901760
836.872746	0.909912
837.188871	0.916204
837.504952	0.921668
837.820990	0.923689
838.136984	0.927543
838.452935	0.931757
838.768842	0.933335
839.084706	0.925458
839.400526	0.900072
839.716303	0.860533
840.032037	0.838714
840.347727	0.841731
840.663373	0.859877
840.978977	0.882222
841.294537	0.903568
841.610054	0.918919
841.925527	0.926807
842.240957	0.933360
842.556344	0.940841
842.871687	0.946116
843.186987	0.950499
843.502244	0.951657
843.817458	0.953213
844.132629	0.955226
844.447756	0.961097
844.762840	0.961552
845.077881	0.960414
845.392879	0.960022
845.707833	0.963290
846.022745	0.965694
846.337613	0.966013
846.652438	0.967139
846.967221	0.965143
847.281960	0.965541
847.596656	0.967880
847.911309	0.967978
848.225919	0.968902
848.540485	0.969253
848.855009	0.969430
849.169490	0.968523
849.483928	0.970046
849.798323	0.970077
850.112675	0.971040
850.426984	0.970472
850.741251	0.971179
851.055474	0.970704
851.369654	0.968949
851.683792	0.970183
851.997887	0.970094
852.311938	0.971028
852.625947	0.970234
852.939914	0.968509
853.253837	0.970282
853.567718	0.972176
853.881555	0.971607
854.195350	0.969306
854.509103	0.969606
854.822812	0.971755
855.136479	0.970719
855.450103	0.970514
855.763685	0.968480
856.077224	0.969109
856.390720	0.971276
856.704173	0.970557
857.017584	0.969557
857.330953	0.966876
857.644278	0.968888
857.957561	0.968471
858.270802	0.969805
858.584000	0.969281
858.897155	0.967234
859.210268	0.968567
859.523339	0.968753
859.836367	0.971420
860.149352	0.971492
860.462295	0.968384
860.775195	0.970003
861.088054	0.970310
861.400869	0.970064
861.713642	0.972274
862.026373	0.970966
862.339062	0.970795
862.651708	0.969391
862.964312	0.968229
863.276873	0.970175
863.589392	0.968342
863.901869	0.966706
864.214303	0.963938
864.526696	0.964807
864.839045	0.964344
865.151353	0.962664
865.463619	0.964020
865.775842	0.963960
866.088023	0.963863
866.400162	0.963117
866.712258	0.963551
867.024313	0.963116
867.336325	0.964738
867.648296	0.964194
867.960224	0.963813
868.272110	0.963279
868.583954	0.964347
868.895755	0.964217
869.207515	0.963518
869.519233	0.960220
869.830909	0.961290
870.142542	0.964279
870.454134	0.963054
870.765684	0.962290
871.077191	0.959354
871.388657	0.960507
871.700081	0.959101
872.011463	0.958571
872.322803	0.958910
872.634101	0.957623
872.945357	0.955947
873.256571	0.953256
873.567744	0.954286
873.878874	0.954183
874.189963	0.952897
874.501010	0.952519
874.812015	0.950744
875.122979	0.952103
875.433900	0.953667
875.744780	0.955465
876.055618	0.952540
876.366415	0.951757
876.677169	0.950991
876.987882	0.952302
877.298554	0.951937
877.609183	0.948281
877.919771	0.945848
878.230317	0.943102
878.540822	0.942739
878.851285	0.937141
879.161707	0.928629
879.472087	0.916633
879.782425	0.900418
880.092722	0.867987
880.402977	0.815515
880.713191	0.755958
881.023363	0.698837
881.333494	0.665284
881.643583	0.636583
881.953631	0.636536
882.263637	0.665708
882.573602	0.704036
882.883526	0.729352
883.193408	0.752930
883.503248	0.774909
883.813048	0.802182
884.122806	0.831144
884.432522	0.853894
884.742197	0.873412
885.051831	0.883644
885.361424	0.893526
885.670975	0.905571
885.980485	0.915305
886.289954	0.921099
886.599382	0.926808
886.908768	0.930012
887.218113	0.935877
887.527417	0.939303
887.836680	0.943161
888.145901	0.944719
888.455082	0.948319
888.764221	0.952162
889.073319	0.953727
889.382376	0.955019
889.691392	0.954666
890.000366	0.953569
890.309300	0.955585
890.618193	0.955011
890.927044	0.951954
891.235855	0.953012
891.544625	0.953118
891.853353	0.953312
892.162041	0.951222
892.470687	0.944634
892.779293	0.938837
893.087858	0.935318
893.396381	0.928530
893.704864	0.915623
894.013306	0.892014
894.321707	0.865047
894.630068	0.850701
894.938387	0.846644
895.246665	0.848100
895.554903	0.859246
895.863100	0.873216
896.171256	0.889833
896.479371	0.908772
896.787446	0.921497
897.095480	0.926524
897.403473	0.929911
897.711425	0.933954
898.019336	0.941519
898.327207	0.943959
898.635038	0.947187
898.942827	0.945790
899.250576	0.949520
899.558284	0.953668
899.865952	0.954690
900.173579	0.956362
900.481165	0.958609
900.788711	0.960998
901.096216	0.962279
901.403681	0.963125
901.711105	0.963990
902.018489	0.964877
902.325832	0.963725
902.633135	0.964422
902.940397	0.956417
903.247619	0.945206
903.554800	0.920157
903.861941	0.881206
904.169041	0.845849
904.476101	0.830587
904.783121	0.831363
905.090100	0.846872
905.397039	0.868151
905.703938	0.888915
906.010796	0.907998
906.317614	0.925464
906.624391	0.936325
906.931129	0.946790
907.237826	0.953838
907.544483	0.959998
907.851099	0.964250
908.157675	0.969182
908.464211	0.970813
908.770707	0.973159
909.077163	0.975577
909.383578	0.975703
909.689954	0.976701
909.996289	0.976940
910.302584	0.978854
910.608839	0.980654
910.915054	0.979758
911.221229	0.979406
911.527363	0.977795
911.833458	0.978241
912.139513	0.978394
912.445527	0.974950
912.751502	0.974852
913.057436	0.973327
913.363331	0.971753
913.669186	0.966347
913.975000	0.962692
914.280775	0.956628
914.586510	0.950861
914.892205	0.936723
915.197859	0.916963
915.503475	0.890358
915.809050	0.870410
916.114585	0.866037
916.420081	0.863812
916.725536	0.860070
917.030952	0.867373
917.336328	0.879584
917.641665	0.894358
917.946961	0.909508
918.252218	0.922153
918.557435	0.930639
918.862612	0.938747
919.167750	0.944374
919.472848	0.948760
919.777906	0.953603
920.082925	0.959584
920.387904	0.962422
920.692843	0.964466
920.997743	0.965223
921.302603	0.969458
921.607423	0.970289
921.912204	0.972773
922.216946	0.972491
922.521647	0.973989
922.826310	0.976358
923.130932	0.977613
923.435516	0.979599
923.740059	0.979799
924.044564	0.979698
924.349028	0.982741
924.653454	0.983938
924.957840	0.986340
925.262186	0.985099
925.566493	0.984437
925.870761	0.985171
926.174989	0.987449
926.479178	0.988705
926.783328	0.989580
927.087438	0.989167
927.391509	0.989303
927.695541	0.989709
927.999533	0.989700
928.303486	0.989942
928.607400	0.991925
928.911275	0.990915
929.215110	0.990085
929.518906	0.990676
929.822663	0.989956
930.126381	0.992023
930.430060	0.991117
930.733699	0.990556
931.037299	0.989248
931.340861	0.991612
931.644383	0.991145
931.947866	0.989845
932.251309	0.991740
932.554714	0.990896
932.858080	0.990696
933.161407	0.990470
933.464694	0.991604
933.767943	0.990036
934.071153	0.990618
934.374323	0.991678
934.677455	0.991888
934.980548	0.991847
935.283602	0.991280
935.586617	0.991492
935.889593	0.990219
936.192530	0.990208
936.495428	0.991155
936.798287	0.990979
937.101108	0.991349
937.403890	0.988808
937.706632	0.989510
938.009336	0.987856
938.312002	0.986155
938.614628	0.984986
938.917216	0.984500
939.219765	0.982999
939.522275	0.983820
939.824747	0.983161
940.127179	0.984810
940.429573	0.985524
940.731929	0.985739
941.034246	0.985323
941.336524	0.986191
941.638763	0.986962
941.940964	0.986847
942.243126	0.987628
942.545250	0.988913
942.847335	0.988788
943.149381	0.988836
943.451389	0.988615
943.753359	0.989037
944.055290	0.991020
944.357182	0.990110
944.659036	0.989216
944.960851	0.988899
945.262628	0.990525
945.564367	0.991004
945.866067	0.990588
946.167729	0.990351
946.469352	0.990502
946.770937	0.989110
947.072484	0.991705
947.373992	0.990939
947.675462	0.991274
947.976893	0.990076
948.278286	0.992256
948.579641	0.992441
948.880958	0.990813
949.182236	0.992090
949.483476	0.991333
949.784678	0.990239
950.085841	0.991023
950.386967	0.991211
950.688054	0.991178
950.989103	0.990597
951.290114	0.990383
951.591087	0.990503
951.892021	0.990009
952.192917	0.989770
952.493776	0.988293
952.794596	0.988671
953.095378	0.988652
953.396122	0.987186
953.696828	0.988495
953.997496	0.990484
954.298126	0.991390
954.598718	0.990525
954.899272	0.992852
955.199788	0.991379
955.500266	0.992550
955.800706	0.994183
956.101108	0.994133
956.401472	0.993553
956.701798	0.994606
957.002087	0.993365
957.302337	0.994099
957.602550	0.995049
957.902724	0.994581
958.202861	0.996382
958.502960	0.995296
958.803022	0.994879
959.103045	0.995878
959.403031	0.995760
959.702979	0.995557
960.002889	0.996454
960.302762	0.995804
960.602596	0.996625
960.902393	0.995715
961.202153	0.997068
961.501875	0.997162
961.801559	0.995158
962.101205	0.995594
962.400814	0.997261
962.700385	0.995779
962.999918	0.995549
963.299414	0.996386
963.598873	0.996136
963.898293	0.997338
964.197677	0.997037
964.497022	0.996446
964.796331	0.997135
965.095601	0.997196
965.394835	0.996825
965.694030	0.996390
965.993189	0.997853
966.292309	0.996387
966.591393	0.998054
966.890439	0.997016
967.189447	0.997546
967.488419	0.996995
967.787353	0.997172
968.086249	0.996719
968.385108	0.998228
968.683930	0.997259
968.982714	0.996209
969.281462	0.998432
969.580172	0.997296
969.878844	0.997596
970.177480	0.997202
970.476078	0.996399
970.774639	0.997169
971.073162	0.998309
971.371649	0.996931
971.670098	0.995897
971.968510	0.998002
972.266885	0.995922
972.565223	0.996682
972.863524	0.996176
973.161788	0.997343
973.460014	0.998900
973.758204	0.995690
974.056356	0.995785
974.354471	0.994608
974.652550	0.996250
974.950591	0.995778
975.248595	0.996405
975.546563	0.997886
975.844493	0.998270
976.142386	0.997396
976.440243	0.997798
976.738062	0.996787
977.035845	0.998655
977.333590	0.997266
977.631299	0.998649
977.928971	0.997301
978.226606	0.996838
978.524204	0.996220
978.821765	0.998975
979.119290	0.997116
979.416777	0.996807
979.714228	0.998082
980.011642	0.995930
980.309020	0.998302
980.606360	0.997675
980.903664	0.998745
981.200931	0.996202
981.498162	0.995999
981.795356	0.995350
982.092513	0.993839
982.389633	0.994971
982.686717	0.992063
982.983764	0.991751
983.280775	0.990454
983.577749	0.990232
983.874686	0.992278
984.171587	0.991329
984.468451	0.994065
984.765279	0.995962
985.062070	0.994121
985.358824	0.995522
985.655543	0.995179
985.952224	0.994979
986.248869	0.996547
986.545478	0.996489
986.842050	0.998210
987.138586	0.995965
987.435086	0.997959
987.731549	0.998672
988.027975	0.998969
988.324366	0.998355
988.620719	0.997199
988.917037	0.996866
989.213318	0.997775
989.509563	0.998841
989.805772	0.997600
990.101944	0.999387
990.398080	0.997778
990.694180	0.998123
990.990244	0.997968
991.286271	0.998183
991.582262	0.999069
991.878217	0.999011
992.174136	0.999285
992.470019	0.998151
992.765865	0.998002
993.061676	0.997478
993.357450	0.998498
993.653188	0.997241
993.948890	0.997681
994.244556	0.998024
994.540186	0.997153
994.835780	0.997170
995.131337	0.997851
995.426859	0.997078
995.722345	0.998138
996.017795	0.996600
996.313208	0.996923
996.608586	0.995923
996.903928	0.996395
997.199234	0.996761
997.494504	0.996992
997.789738	0.996515
998.084936	0.997114
998.380099	0.999404
998.675225	0.998293
998.970316	0.997233
999.265371	0.998819
999.560390	0.997519
999.855373	0.999003
1000.150320	0.999081
1000.445232	0.998348
1000.740108	0.998337
1001.034948	0.998988
1001.329752	1.000424
1001.624521	0.998807
1001.919254	0.998223
1002.213951	0.998246
1002.508613	0.999459
1002.803239	0.999743
1003.097829	0.999409
1003.392384	0.998866
1003.686903	0.997747
1003.981386	0.998855
1004.275834	0.999460
1004.570246	0.998884
1004.864623	0.999659
1005.158964	1.001022
1005.453270	0.998466
1005.747540	0.998313
1006.041775	0.999230
1006.335974	0.999268
1006.630138	0.999568
1006.924266	0.999534
1007.218359	1.000608
1007.512416	0.999355
1007.806438	0.999420
1008.100425	1.000095
1008.394376	0.997830
1008.688292	0.999148
1008.982172	1.000666
1009.276017	0.999598
1009.569827	0.998220
1009.863602	0.997289
1010.157341	1.000926
1010.451045	0.999829
1010.744714	0.999482
1011.038347	1.000354
1011.331945	0.999540
1011.625508	0.997942
1011.919036	0.998303
1012.212528	0.999275
1012.505986	0.998424
1012.799408	0.998658
1013.092795	0.999244
1013.386147	0.999202
1013.679464	0.999772
1013.972745	0.998261
1014.265992	0.998076
1014.559204	0.999201
1014.852380	1.000447
1015.145521	0.999072
1015.438628	0.998855
1015.731699	0.998987
1016.024736	0.998372
1016.317737	0.998077
1016.610703	0.998865
1016.903635	0.999707
1017.196531	0.998148
1017.489393	1.000023
1017.782219	0.998708
1018.075011	0.999395
1018.367768	0.999698
1018.660490	0.999801
1018.953177	0.999801
1019.245829	0.999801
