Dividing Wavelength (nm)	Counts (n)	Blue Motor Position (mm): 0.000000	Red Motor Position (mm): 32.300000	
326.493990	1.001027
326.888308	1.001027
327.282561	1.001027
327.676750	0.999802
328.070874	0.999062
328.464933	0.998854
328.858929	0.999424
329.252859	0.999606
329.646726	0.999667
330.040528	0.998902
330.434265	0.997892
330.827938	1.000075
331.221547	1.000162
331.615091	0.999913
332.008571	0.999904
332.401986	0.999084
332.795338	1.000105
333.188625	0.998680
333.581847	1.000163
333.975006	0.998792
334.368100	0.998016
334.761129	0.998624
335.154095	0.999833
335.546996	0.997601
335.939833	0.994230
336.332606	0.995787
336.725315	0.995764
337.117960	0.997131
337.510540	0.996824
337.903056	0.995375
338.295508	0.994296
338.687896	0.995080
339.080220	0.995579
339.472480	0.995648
339.864676	0.995695
340.256807	0.996176
340.648875	0.996227
341.040879	0.996506
341.432818	0.995596
341.824694	0.994918
342.216506	0.996781
342.608253	0.995823
342.999937	0.995720
343.391557	0.995155
343.783113	0.995789
344.174605	0.994943
344.566033	0.996886
344.957397	0.995239
345.348697	0.995470
345.739934	0.995355
346.131106	0.994087
346.522215	0.994660
346.913260	0.996002
347.304241	0.995108
347.695159	0.996264
348.086012	0.995124
348.476802	0.995266
348.867528	0.996108
349.258191	0.994361
349.648789	0.996355
350.039324	0.995267
350.429796	0.996204
350.820203	0.996591
351.210548	0.995511
351.600828	0.995153
351.991045	0.993688
352.381198	0.994255
352.771288	0.995699
353.161314	0.994538
353.551276	0.996437
353.941175	0.995661
354.331010	0.995024
354.720782	0.996670
355.110490	0.994987
355.500135	0.995712
355.889717	0.996820
356.279235	0.994933
356.668689	0.995171
357.058080	0.995141
357.447408	0.996840
357.836672	0.996616
358.225873	0.995391
358.615010	0.995864
359.004084	0.996424
359.393095	0.995448
359.782043	0.996035
360.170927	0.995204
360.559748	0.996411
360.948505	0.995143
361.337199	0.994713
361.725830	0.995646
362.114398	0.994927
362.502903	0.995427
362.891344	0.996162
363.279722	0.996232
363.668037	0.996727
364.056289	0.994739
364.444478	0.996694
364.832603	0.995184
365.220665	0.995027
365.608665	0.995594
365.996601	0.995736
366.384474	0.996214
366.772284	0.996074
367.160031	0.994590
367.547715	0.994354
367.935336	0.995580
368.322893	0.995223
368.710388	0.996127
369.097820	0.995313
369.485189	0.995219
369.872495	0.994924
370.259738	0.994116
370.646918	0.996154
371.034035	0.996588
371.421090	0.995047
371.808081	0.995307
372.195010	0.995575
372.581875	0.996102
372.968678	0.995097
373.355418	0.995941
373.742096	0.995408
374.128710	0.996424
374.515262	0.995926
374.901751	0.997343
375.288177	0.997037
375.674540	0.997315
376.060841	0.996235
376.447079	0.996869
376.833254	0.996506
377.219367	0.996323
377.605417	0.996633
377.991404	0.994906
378.377329	0.995439
378.763191	0.995673
379.148991	0.996646
379.534727	0.996384
379.920402	0.996084
380.306013	0.996699
380.691563	0.997206
381.077049	0.996862
381.462474	0.997000
381.847835	0.997469
382.233134	0.996833
382.618371	0.996225
383.003545	0.996659
383.388657	0.997062
383.773706	0.998130
384.158693	0.996459
384.543618	0.996979
384.928480	0.997073
385.313280	0.997604
385.698017	0.997957
386.082692	0.997643
386.467305	0.997101
386.851856	0.997687
387.236344	0.996614
387.620770	0.995971
388.005133	0.996892
388.389435	0.997662
388.773674	0.997468
389.157851	0.997119
389.541965	0.997501
389.926018	0.996640
390.310008	0.998159
390.693936	0.996876
391.077802	0.998346
391.461606	0.997139
391.845348	0.998153
392.229027	0.999269
392.612645	0.997873
392.996200	0.998413
393.379694	0.996914
393.763125	0.997928
394.146494	0.998543
394.529801	0.997444
394.913047	0.998032
395.296230	0.998174
395.679351	0.997955
396.062410	0.997773
396.445408	0.998541
396.828343	0.997700
397.211217	0.997351
397.594028	0.997931
397.976778	0.997282
398.359466	0.997736
398.742092	0.997907
399.124656	0.997302
399.507158	0.997953
399.889598	0.998473
400.271977	0.997796
400.654294	0.998240
401.036549	0.998364
401.418742	0.998528
401.800874	0.997655
402.182944	0.996976
402.564952	0.997430
402.946898	0.998663
403.328783	0.998126
403.710606	0.998101
404.092367	0.998357
404.474067	0.998171
404.855705	0.998102
405.237282	0.998664
405.618797	0.996729
406.000250	0.997926
406.381642	0.998048
406.762972	0.998184
407.144240	0.999070
407.525447	0.998849
407.906593	0.998158
408.287677	0.997972
408.668700	0.999151
409.049661	0.997543
409.430560	0.997993
409.811399	0.997683
410.192176	0.998280
410.572891	0.998792
410.953545	0.998312
411.334138	0.997579
411.714669	0.999227
412.095139	0.998013
412.475547	0.999342
412.855894	0.998577
413.236180	0.998701
413.616405	0.997663
413.996568	0.998545
414.376670	0.997690
414.756711	0.997559
415.136691	0.998342
415.516609	0.998419
415.896466	0.997796
416.276262	0.997731
416.655997	0.998991
417.035670	0.998307
417.415283	0.997977
417.794834	0.998052
418.174324	0.998233
418.553753	0.998985
418.933121	0.998134
419.312428	0.998024
419.691674	0.999026
420.070859	0.998450
420.449983	0.998640
420.829045	0.998620
421.208047	0.998775
421.586988	0.999289
421.965867	0.997499
422.344686	0.999186
422.723444	0.999191
423.102141	0.999049
423.480777	0.999562
423.859352	0.998399
424.237866	0.998228
424.616319	0.998507
424.994712	0.998552
425.373044	0.998951
425.751314	0.998361
426.129524	0.998252
426.507673	0.998898
426.885762	1.000227
427.263789	0.999269
427.641756	0.999144
428.019662	0.999556
428.397508	0.998009
428.775292	0.997728
429.153016	0.997951
429.530679	0.999447
429.908282	0.999621
430.285824	0.998878
430.663305	0.998354
431.040726	0.998058
431.418086	0.998736
431.795385	0.998863
432.172624	0.999034
432.549802	0.999153
432.926920	0.999465
433.303977	0.998086
433.680974	1.000008
434.057910	0.998850
434.434786	0.998927
434.811601	0.998854
435.188355	0.997554
435.565050	0.998326
435.941683	0.998011
436.318257	0.999661
436.694770	0.998261
437.071222	0.999236
437.447614	0.998606
437.823946	0.998352
438.200218	0.999325
438.576429	0.998430
438.952580	0.999155
439.328670	0.998117
439.704700	0.998740
440.080670	0.999420
440.456580	0.998154
440.832429	0.998313
441.208218	0.998909
441.583947	0.998999
441.959616	0.998925
442.335224	0.998478
442.710773	0.999680
443.086261	0.998393
443.461689	0.998524
443.837057	0.998172
444.212365	0.999212
444.587612	0.998907
444.962800	0.998796
445.337927	0.998912
445.712995	0.999021
446.088002	0.999068
446.462949	0.999057
446.837837	0.998799
447.212664	0.998992
447.587431	0.999579
447.962139	0.998835
448.336786	0.999687
448.711374	0.998878
449.085901	0.998800
449.460369	0.999309
449.834776	0.998939
450.209124	0.999420
450.583412	0.998795
450.957640	0.998708
451.331808	0.998516
451.705917	0.998896
452.079965	0.998117
452.453954	0.999368
452.827883	0.999093
453.201752	0.998924
453.575562	0.999421
453.949311	0.999800
454.323001	0.998969
454.696632	0.998897
455.070202	0.998893
455.443713	0.998642
455.817164	0.999945
456.190556	0.998775
456.563888	0.998451
456.937160	0.998775
457.310373	0.998396
457.683526	0.998381
458.056619	0.998743
458.429653	0.999706
458.802628	0.997929
459.175542	0.998288
459.548398	0.998927
459.921194	0.998521
460.293930	0.998777
460.666607	0.998915
461.039224	0.997713
461.411782	0.999198
461.784280	0.998483
462.156719	0.999343
462.529099	0.999493
462.901419	0.999306
463.273680	0.998402
463.645882	0.999056
464.018024	0.998867
464.390106	0.999228
464.762130	0.999125
465.134094	0.999689
465.505999	0.999442
465.877845	0.999921
466.249631	1.000560
466.621358	0.999349
466.993026	0.999437
467.364634	0.998931
467.736184	0.998909
468.107674	0.999140
468.479105	0.998602
468.850477	0.999537
469.221790	0.998376
469.593043	0.999219
469.964238	0.999137
470.335373	0.998812
470.706449	0.998801
471.077467	0.999640
471.448425	0.999309
471.819324	0.999467
472.190164	0.998334
472.560945	0.998768
472.931667	0.998270
473.302330	0.997783
473.672934	0.998215
474.043479	0.998849
474.413965	0.997354
474.784393	0.998271
475.154761	0.997561
475.525070	0.997589
475.895321	0.998663
476.265513	0.998541
476.635645	0.997827
477.005719	0.997729
477.375734	0.997058
477.745691	0.997693
478.115588	0.997438
478.485427	0.997317
478.855207	0.996464
479.224928	0.997031
479.594591	0.996566
479.964194	0.996237
480.333739	0.996051
480.703226	0.995490
481.072653	0.995584
481.442022	0.995784
481.811333	0.993983
482.180584	0.993928
482.549777	0.993414
482.918912	0.992613
483.287988	0.992457
483.657005	0.991382
484.025964	0.991090
484.394864	0.990973
484.763706	0.990031
485.132489	0.989461
485.501213	0.988554
485.869879	0.987768
486.238487	0.987202
486.607036	0.986483
486.975527	0.984304
487.343959	0.983804
487.712333	0.982496
488.080648	0.982105
488.448905	0.981068
488.817104	0.979749
489.185244	0.979185
489.553326	0.976503
489.921350	0.974831
490.289315	0.971142
490.657222	0.970780
491.025070	0.967657
491.392861	0.967132
491.760593	0.966368
492.128267	0.965217
492.495883	0.963727
492.863440	0.962946
493.230939	0.960802
493.598380	0.958570
493.965763	0.956436
494.333088	0.955092
494.700354	0.952570
495.067563	0.950120
495.434713	0.948087
495.801805	0.945507
496.168839	0.943176
496.535815	0.939417
496.902733	0.937608
497.269593	0.934335
497.636395	0.932629
498.003139	0.928458
498.369825	0.926837
498.736453	0.922039
499.103023	0.919739
499.469535	0.916282
499.835989	0.913397
500.202385	0.909815
500.568723	0.906146
500.935003	0.902594
501.301226	0.897749
501.667390	0.894622
502.033497	0.889593
502.399546	0.887534
502.765537	0.882586
503.131470	0.878122
503.497345	0.873596
503.863163	0.871112
504.228923	0.865071
504.594625	0.861220
504.960269	0.858020
505.325856	0.851559
505.691385	0.847238
506.056856	0.841481
506.422270	0.836286
506.787625	0.832936
507.152924	0.826535
507.518164	0.822058
507.883347	0.816996
508.248472	0.812603
508.613540	0.806177
508.978550	0.801065
509.343503	0.795906
509.708398	0.789813
510.073236	0.783840
510.438016	0.778638
510.802738	0.772006
511.167403	0.766865
511.532010	0.760712
511.896561	0.754546
512.261053	0.749190
512.625488	0.743134
512.989866	0.737099
513.354186	0.731129
513.718449	0.726028
514.082655	0.718677
514.446803	0.713475
514.810894	0.706925
515.174927	0.700469
515.538904	0.695357
515.902822	0.687765
516.266684	0.682143
516.630488	0.675899
516.994235	0.669816
517.357925	0.662863
517.721558	0.655983
518.085133	0.648888
518.448651	0.644426
518.812112	0.638770
519.175516	0.630946
519.538863	0.624852
519.902152	0.619756
520.265385	0.611407
520.628560	0.606812
520.991678	0.599409
521.354739	0.594206
521.717743	0.588728
522.080690	0.583532
522.443580	0.574396
522.806413	0.569758
523.169189	0.563037
523.531908	0.556402
523.894569	0.552904
524.257174	0.546446
524.619722	0.538714
524.982213	0.534858
525.344647	0.527524
525.707025	0.522893
526.069345	0.515395
526.431608	0.510590
526.793815	0.503930
527.155964	0.501081
527.518057	0.495261
527.880093	0.490265
528.242072	0.483993
528.603995	0.479265
528.965860	0.475561
529.327669	0.468959
529.689421	0.464653
530.051117	0.460166
530.412755	0.452808
530.774337	0.450100
531.135862	0.444307
531.497331	0.440008
531.858743	0.436245
532.220098	0.429917
532.581396	0.427294
532.942638	0.423541
533.303824	0.419549
533.664953	0.414475
534.026025	0.411530
534.387040	0.405445
534.747999	0.401674
535.108902	0.396115
535.469748	0.395850
535.830537	0.390152
536.191270	0.386205
536.551947	0.381841
536.912567	0.378321
537.273131	0.375993
537.633638	0.372548
537.994089	0.368573
538.354483	0.365978
538.714821	0.359884
539.075103	0.356617
539.435328	0.353526
539.795497	0.354202
540.155609	0.347115
540.515665	0.342431
540.875665	0.344031
541.235609	0.339636
541.595496	0.336993
541.955328	0.330265
542.315102	0.330428
542.674821	0.328255
543.034483	0.325613
543.394090	0.322608
543.753640	0.321852
544.113134	0.314464
544.472571	0.315116
544.831953	0.309386
545.191278	0.310975
545.550548	0.308083
545.909761	0.303066
546.268918	0.301569
546.628019	0.297598
546.987064	0.297975
547.346053	0.298265
547.704986	0.294043
548.063863	0.292254
548.422684	0.290853
548.781449	0.290780
549.140158	0.286767
549.498811	0.287671
549.857408	0.288999
550.215949	0.282055
550.574434	0.283616
550.932864	0.280100
551.291237	0.277459
551.649555	0.277261
552.007817	0.275888
552.366022	0.275196
552.724173	0.274255
553.082267	0.273175
553.440305	0.268640
553.798288	0.272277
554.156215	0.267560
554.514086	0.267232
554.871902	0.268998
555.229661	0.267267
555.587365	0.267073
555.945014	0.268795
556.302606	0.264753
556.660143	0.266576
557.017625	0.261888
557.375050	0.263520
557.732421	0.259858
558.089735	0.261256
558.446994	0.260707
558.804197	0.259061
559.161345	0.258441
559.518437	0.261303
559.875474	0.258160
560.232455	0.257312
560.589381	0.258091
560.946251	0.257408
561.303065	0.254655
561.659825	0.255610
562.016528	0.256574
562.373177	0.258939
562.729770	0.255876
563.086307	0.257518
563.442789	0.255065
563.799216	0.257430
564.155587	0.255880
564.511904	0.256566
564.868164	0.256324
565.224370	0.255892
565.580520	0.257401
565.936615	0.257044
566.292654	0.259823
566.648638	0.256723
567.004567	0.257114
567.360441	0.257638
567.716260	0.259432
568.072023	0.257143
568.427732	0.257540
568.783385	0.259745
569.138982	0.257776
569.494525	0.257348
569.850013	0.260080
570.205445	0.258379
570.560823	0.260507
570.916145	0.262496
571.271412	0.260569
571.626625	0.261996
571.981782	0.262316
572.336884	0.263174
572.691931	0.262837
573.046923	0.264009
573.401860	0.264816
573.756743	0.266691
574.111570	0.265121
574.466342	0.265696
574.821059	0.264574
575.175722	0.267123
575.530330	0.267272
575.884882	0.267217
576.239380	0.269252
576.593823	0.269697
576.948211	0.269224
577.302544	0.272445
577.656823	0.271710
578.011047	0.271642
578.365216	0.272512
578.719330	0.274251
579.073389	0.273815
579.427394	0.275168
579.781344	0.276140
580.135239	0.277518
580.489080	0.276880
580.842866	0.279817
581.196597	0.280036
581.550273	0.278594
581.903895	0.279396
582.257463	0.277430
582.610975	0.280763
582.964434	0.280111
583.317837	0.282520
583.671186	0.283051
584.024481	0.283121
584.377721	0.285393
584.730906	0.285908
585.084037	0.285111
585.437113	0.287082
585.790135	0.285969
586.143103	0.289449
586.496016	0.290481
586.848874	0.287822
587.201679	0.288736
587.554428	0.291631
587.907124	0.290544
588.259765	0.290995
588.612352	0.291892
588.964884	0.295321
589.317362	0.295184
589.669786	0.294907
590.022155	0.293652
590.374470	0.292810
590.726731	0.294981
591.078937	0.299832
591.431090	0.295748
591.783188	0.300002
592.135232	0.300532
592.487222	0.300479
592.839157	0.298515
593.191038	0.300913
593.542866	0.303033
593.894639	0.306317
594.246358	0.304249
594.598022	0.303834
594.949633	0.307501
595.301190	0.308299
595.652692	0.307254
596.004141	0.303443
596.355535	0.311470
596.706876	0.312009
597.058162	0.314286
597.409395	0.311759
597.760573	0.309121
598.111698	0.312610
598.462768	0.312946
598.813785	0.314370
599.164748	0.315567
599.515657	0.315524
599.866511	0.319094
600.217312	0.314323
600.568060	0.319506
600.918753	0.315883
601.269392	0.316713
601.619978	0.320502
601.970510	0.317833
602.320988	0.318314
602.671412	0.315968
603.021783	0.318415
603.372100	0.319384
603.722363	0.319439
604.072572	0.320108
604.422728	0.319958
604.772830	0.322287
605.122878	0.321331
605.472872	0.321901
605.822813	0.320259
606.172701	0.323176
606.522534	0.320268
606.872314	0.320526
607.222041	0.321262
607.571714	0.319171
607.921333	0.320776
608.270899	0.320743
608.620411	0.317493
608.969870	0.321028
609.319276	0.321419
609.668627	0.321410
610.017926	0.319676
610.367171	0.318430
610.716362	0.319202
611.065500	0.319452
611.414585	0.317988
611.763616	0.318551
612.112594	0.319274
612.461518	0.318515
612.810389	0.316038
613.159207	0.318549
613.507971	0.320256
613.856682	0.315638
614.205340	0.317536
614.553945	0.314336
614.902496	0.318462
615.250994	0.316370
615.599439	0.317498
615.947830	0.316487
616.296169	0.317411
616.644454	0.316679
616.992686	0.317068
617.340864	0.314761
617.688990	0.318554
618.037063	0.314966
618.385082	0.316963
618.733048	0.314071
619.080961	0.316478
619.428821	0.315390
619.776628	0.314997
620.124382	0.317115
620.472083	0.317023
620.819731	0.316929
621.167326	0.320472
621.514868	0.320334
621.862357	0.324729
622.209793	0.324380
622.557176	0.326448
622.904506	0.327556
623.251783	0.329597
623.599007	0.332155
623.946179	0.331928
624.293297	0.333520
624.640363	0.337537
624.987376	0.338107
625.334336	0.340482
625.681243	0.342664
626.028097	0.343202
626.374899	0.344577
626.721647	0.344485
627.068343	0.347954
627.414987	0.348740
627.761577	0.351200
628.108115	0.349211
628.454600	0.354341
628.801032	0.351788
629.147412	0.354185
629.493739	0.354161
629.840014	0.357142
630.186236	0.354632
630.532405	0.360176
630.878521	0.357927
631.224585	0.359821
631.570597	0.363936
631.916556	0.361884
632.262462	0.362439
632.608316	0.363739
632.954117	0.364932
633.299866	0.365918
633.645562	0.366392
633.991206	0.370630
634.336797	0.373426
634.682336	0.375413
635.027823	0.377274
635.373257	0.377840
635.718639	0.381554
636.063968	0.380187
636.409245	0.386108
636.754470	0.386856
637.099642	0.389010
637.444762	0.392294
637.789829	0.391646
638.134845	0.395394
638.479808	0.396044
638.824719	0.395668
639.169577	0.400066
639.514383	0.398578
639.859137	0.402982
640.203839	0.402530
640.548489	0.403377
640.893086	0.404322
641.237632	0.406421
641.582125	0.404736
641.926566	0.406753
642.270955	0.406587
642.615292	0.406859
642.959576	0.406005
643.303809	0.406608
643.647990	0.405895
643.992118	0.406502
644.336195	0.409929
644.680219	0.408876
645.024192	0.409124
645.368112	0.402855
645.711981	0.401581
646.055797	0.396863
646.399562	0.399443
646.743274	0.391552
647.086935	0.389054
647.430544	0.389252
647.774101	0.388160
648.117606	0.387318
648.461059	0.388162
648.804460	0.390526
649.147810	0.395977
649.491108	0.397381
649.834354	0.399444
650.177548	0.404379
650.520690	0.409823
650.863781	0.410401
651.206820	0.410047
651.549807	0.414581
651.892742	0.418890
652.235626	0.418190
652.578458	0.419528
652.921238	0.425171
653.263967	0.423289
653.606644	0.427020
653.949269	0.426864
654.291843	0.430824
654.634365	0.427272
654.976836	0.430800
655.319255	0.430948
655.661622	0.432403
656.003938	0.432332
656.346203	0.435503
656.688416	0.433358
657.030577	0.436585
657.372687	0.438357
657.714746	0.439232
658.056753	0.436799
658.398708	0.440049
658.740612	0.441465
659.082465	0.437411
659.424266	0.437959
659.766016	0.437812
660.107715	0.440245
660.449362	0.439413
660.790958	0.439417
661.132503	0.440363
661.473996	0.438005
661.815438	0.439030
662.156829	0.438760
662.498168	0.440200
662.839456	0.441197
663.180693	0.438862
663.521879	0.439049
663.863013	0.439745
664.204097	0.438499
664.545129	0.435215
664.886110	0.435382
665.227040	0.432553
665.567918	0.435445
665.908746	0.433501
666.249522	0.433195
666.590248	0.434495
666.930922	0.432413
667.271545	0.431366
667.612118	0.431614
667.952639	0.432747
668.293109	0.431417
668.633528	0.434453
668.973896	0.433855
669.314213	0.434818
669.654480	0.436610
669.994695	0.436273
670.334859	0.437533
670.674973	0.438139
671.015035	0.437681
671.355047	0.437471
671.695008	0.439029
672.034918	0.440600
672.374777	0.440653
672.714585	0.441078
673.054342	0.441502
673.394049	0.441240
673.733705	0.438648
674.073310	0.439918
674.412864	0.443050
674.752368	0.443806
675.091820	0.444037
675.431223	0.448280
675.770574	0.448035
676.109875	0.451103
676.449125	0.450919
676.788324	0.452814
677.127473	0.458833
677.466571	0.458551
677.805619	0.460068
678.144616	0.461104
678.483562	0.462259
678.822458	0.465475
679.161303	0.466678
679.500098	0.466907
679.838842	0.468667
680.177535	0.468259
680.516179	0.466546
680.854771	0.465385
681.193314	0.459215
681.531805	0.450507
681.870247	0.439265
682.208638	0.431667
682.546978	0.430174
682.885268	0.432016
683.223508	0.439000
683.561697	0.442497
683.899836	0.444704
684.237925	0.448540
684.575963	0.451023
684.913951	0.454285
685.251889	0.449348
685.589776	0.451476
685.927614	0.454312
686.265401	0.447935
686.603137	0.449854
686.940824	0.443842
687.278460	0.441740
687.616046	0.441288
687.953582	0.436328
688.291068	0.437529
688.628504	0.433698
688.965889	0.435591
689.303224	0.439975
689.640510	0.443593
689.977745	0.449240
690.314930	0.457683
690.652065	0.462075
690.989150	0.469053
691.326185	0.475829
691.663170	0.480247
692.000105	0.487737
692.336990	0.494503
692.673825	0.497265
693.010610	0.503430
693.347345	0.509218
693.684030	0.510685
694.020665	0.515112
694.357251	0.523850
694.693786	0.523799
695.030272	0.527607
695.366707	0.531336
695.703093	0.534884
696.039429	0.532850
696.375716	0.534379
696.711952	0.536794
697.048139	0.539246
697.384276	0.540549
697.720363	0.539763
698.056400	0.538311
698.392388	0.543597
698.728326	0.546963
699.064214	0.549179
699.400053	0.550149
699.735842	0.553303
700.071581	0.556431
700.407270	0.559516
700.742910	0.561982
701.078501	0.568386
701.414042	0.569556
701.749533	0.571970
702.084974	0.581542
702.420366	0.573285
702.755709	0.580694
703.091002	0.588703
703.426246	0.581602
703.761440	0.587695
704.096584	0.593235
704.431679	0.589772
704.766725	0.591602
705.101721	0.593132
705.436668	0.588568
705.771565	0.596429
706.106413	0.593313
706.441212	0.588166
706.775961	0.586875
707.110661	0.589912
707.445311	0.585757
707.779913	0.583424
708.114465	0.581821
708.448967	0.578970
708.783421	0.571011
709.117825	0.565644
709.452180	0.565927
709.786485	0.558960
710.120742	0.549227
710.454949	0.550940
710.789107	0.543689
711.123216	0.534363
711.457275	0.536298
711.791286	0.527223
712.125247	0.526146
712.459159	0.536864
712.793023	0.530314
713.126837	0.533885
713.460602	0.533712
713.794318	0.543036
714.127985	0.542202
714.461602	0.552172
714.795171	0.555489
715.128691	0.562980
715.462162	0.570565
715.795584	0.576235
716.128957	0.579042
716.462281	0.585482
716.795556	0.588857
717.128782	0.593768
717.461960	0.603904
717.795088	0.601822
718.128167	0.608150
718.461198	0.616950
718.794180	0.617506
719.127113	0.620611
719.459997	0.623861
719.792833	0.629981
720.125619	0.631273
720.458357	0.637097
720.791046	0.636582
721.123686	0.640266
721.456278	0.647436
721.788821	0.643938
722.121315	0.648905
722.453761	0.652519
722.786158	0.649980
723.118506	0.646278
723.450805	0.654927
723.783056	0.651290
724.115259	0.648002
724.447412	0.647415
724.779518	0.649232
725.111574	0.648941
725.443582	0.643212
725.775542	0.644998
726.107453	0.637651
726.439315	0.637467
726.771129	0.635218
727.102895	0.629545
727.434612	0.622545
727.766281	0.620966
728.097901	0.619663
728.429473	0.620146
728.760996	0.618060
729.092471	0.618626
729.423897	0.621994
729.755276	0.620610
730.086606	0.621118
730.417887	0.615219
730.749120	0.606882
731.080305	0.597145
731.411442	0.592851
731.742530	0.598101
732.073570	0.597253
732.404562	0.590114
732.735506	0.591230
733.066401	0.596257
733.397249	0.606048
733.728048	0.616759
734.058798	0.628266
734.389501	0.640066
734.720156	0.649893
735.050762	0.657280
735.381320	0.658100
735.711831	0.667674
736.042293	0.671920
736.372707	0.667292
736.703073	0.672603
737.033391	0.674829
737.363661	0.671051
737.693883	0.666477
738.024056	0.666339
738.354182	0.666443
738.684260	0.655976
739.014290	0.650820
739.344272	0.652174
739.674207	0.646408
740.004093	0.645228
740.333931	0.646002
740.663722	0.645123
740.993464	0.646596
741.323159	0.649989
741.652806	0.655408
741.982405	0.660059
742.311956	0.664193
742.641460	0.666224
742.970915	0.670289
743.300323	0.678096
743.629683	0.683929
743.958996	0.686630
744.288260	0.691128
744.617477	0.696230
744.946647	0.697673
745.275768	0.703249
745.604842	0.703422
745.933869	0.713888
746.262847	0.713400
746.591778	0.707165
746.920662	0.713520
747.249498	0.718485
747.578286	0.710683
747.907027	0.706834
748.235720	0.708638
748.564365	0.702995
748.892963	0.703326
749.221514	0.705116
749.550017	0.710931
749.878473	0.709350
750.206881	0.716534
750.535242	0.718745
750.863555	0.716916
751.191821	0.719659
751.520039	0.721507
751.848210	0.727525
752.176334	0.719547
752.504411	0.718908
752.832440	0.726121
753.160421	0.730377
753.488356	0.729089
753.816243	0.726008
754.144082	0.734552
754.471875	0.738140
754.799620	0.732980
755.127318	0.734729
755.454969	0.734633
755.782572	0.734270
756.110129	0.738888
756.437638	0.740923
756.765100	0.738376
757.092515	0.736344
757.419882	0.734502
757.747203	0.740929
758.074477	0.738966
758.401703	0.736677
758.728882	0.732407
759.056014	0.730787
759.383099	0.730360
759.710138	0.731878
760.037129	0.728253
760.364073	0.721457
760.690970	0.724273
761.017820	0.729471
761.344623	0.725732
761.671379	0.716060
761.998088	0.704629
762.324751	0.682420
762.651366	0.640843
762.977935	0.574939
763.304456	0.523704
763.630931	0.513673
763.957359	0.552113
764.283740	0.596746
764.610074	0.623179
764.936362	0.654379
765.262602	0.680600
765.588796	0.701393
765.914943	0.719656
766.241044	0.737767
766.567097	0.743627
766.893104	0.753597
767.219064	0.760096
767.544978	0.766512
767.870845	0.779845
768.196665	0.783597
768.522438	0.780745
768.848165	0.782649
769.173846	0.791084
769.499479	0.795962
769.825066	0.798975
770.150607	0.803887
770.476101	0.799737
770.801548	0.800471
771.126949	0.812486
771.452303	0.816252
771.777611	0.815010
772.102872	0.813976
772.428087	0.819573
772.753256	0.822254
773.078378	0.824520
773.403453	0.834515
773.728482	0.837265
774.053465	0.830997
774.378401	0.834534
774.703291	0.843422
775.028135	0.842659
775.352932	0.844184
775.677683	0.847104
776.002388	0.848520
776.327046	0.846885
776.651658	0.850595
776.976224	0.853884
777.300743	0.854758
777.625216	0.856082
777.949643	0.856840
778.274024	0.858886
778.598359	0.858907
778.922647	0.859070
779.246889	0.858974
779.571086	0.862736
779.895236	0.865693
780.219339	0.862539
780.543397	0.859742
780.867409	0.857773
781.191374	0.860251
781.515294	0.861179
781.839167	0.859728
782.162995	0.863897
782.486776	0.860331
782.810511	0.861665
783.134201	0.864631
783.457844	0.863239
783.781441	0.864346
784.104993	0.870656
784.428498	0.871087
784.751958	0.866788
785.075372	0.870127
785.398739	0.873481
785.722061	0.870089
786.045337	0.865727
786.368568	0.869905
786.691752	0.873986
787.014891	0.858989
787.337983	0.849848
787.661030	0.842414
787.984031	0.825601
788.306987	0.812115
788.629897	0.815063
788.952760	0.820178
789.275579	0.823622
789.598351	0.837737
789.921078	0.852018
790.243759	0.853363
790.566395	0.858076
790.888984	0.866320
791.211529	0.869712
791.534027	0.872942
791.856480	0.875476
792.178888	0.880282
792.501249	0.883203
792.823566	0.883275
793.145836	0.883112
793.468062	0.886243
793.790241	0.885584
794.112375	0.884758
794.434464	0.880466
794.756507	0.878945
795.078505	0.878307
795.400457	0.874071
795.722364	0.861090
796.044226	0.854560
796.366042	0.854660
796.687812	0.857581
797.009538	0.854224
797.331218	0.856055
797.652852	0.861388
797.974442	0.866686
798.295986	0.865478
798.617484	0.867943
798.938938	0.872430
799.260346	0.877649
799.581709	0.879040
799.903026	0.881056
800.224299	0.881337
800.545526	0.885652
800.866708	0.889753
801.187845	0.892960
801.508936	0.893643
801.829983	0.890815
802.150984	0.893990
802.471940	0.898946
802.792851	0.898832
803.113717	0.899015
803.434538	0.897193
803.755314	0.899632
804.076045	0.899783
804.396731	0.901368
804.717372	0.900618
805.037967	0.902955
805.358518	0.899605
805.679024	0.898220
805.999485	0.898223
806.319901	0.898685
806.640272	0.898965
806.960598	0.898327
807.280879	0.894396
807.601115	0.893703
807.921306	0.897703
808.241453	0.897319
808.561554	0.894902
808.881611	0.896120
809.201623	0.897132
809.521590	0.897366
809.841513	0.898003
810.161390	0.897453
810.481223	0.898635
810.801011	0.903167
811.120755	0.903939
811.440453	0.902711
811.760107	0.900651
812.079716	0.902278
812.399281	0.904260
812.718801	0.907072
813.038276	0.908792
813.357707	0.908030
813.677093	0.904490
813.996434	0.907846
814.315731	0.910504
814.634983	0.910889
814.954191	0.909668
815.273354	0.905863
815.592473	0.901833
815.911547	0.902975
816.230577	0.900746
816.549562	0.897487
816.868502	0.898836
817.187399	0.895133
817.506250	0.888961
817.825058	0.891586
818.143821	0.887929
818.462539	0.883470
818.781213	0.875886
819.099843	0.864086
819.418429	0.848374
819.736970	0.832437
820.055466	0.813432
820.373919	0.787895
820.692327	0.756035
821.010691	0.721279
821.329011	0.645319
821.647286	0.532584
821.965517	0.419941
822.283704	0.377849
822.601847	0.379479
822.919945	0.414924
823.237999	0.447771
823.556010	0.493201
823.873976	0.549260
824.191897	0.598177
824.509775	0.639886
824.827609	0.685098
825.145398	0.707698
825.463144	0.708994
825.780845	0.692874
826.098502	0.674374
826.416116	0.629171
826.733685	0.586304
827.051210	0.578260
827.368692	0.592957
827.686129	0.629523
828.003522	0.681475
828.320872	0.728052
828.638177	0.771077
828.955439	0.804124
829.272656	0.824813
829.589830	0.841863
829.906960	0.857073
830.224046	0.868826
830.541088	0.879304
830.858086	0.883371
831.175041	0.889743
831.491952	0.888586
831.808819	0.884864
832.125642	0.878482
832.442421	0.863837
832.759157	0.843193
833.075849	0.798253
833.392497	0.734701
833.709101	0.695376
834.025662	0.704715
834.342179	0.735272
834.658653	0.773894
834.975083	0.808154
835.291469	0.833997
835.607811	0.857194
835.924110	0.873717
836.240366	0.889626
836.556578	0.903497
836.872746	0.910111
837.188871	0.915599
837.504952	0.920659
837.820990	0.925251
838.136984	0.927639
838.452935	0.931315
838.768842	0.933863
839.084706	0.925892
839.400526	0.900426
839.716303	0.862848
840.032037	0.840119
840.347727	0.843508
840.663373	0.861650
840.978977	0.881977
841.294537	0.904411
841.610054	0.920490
841.925527	0.927910
842.240957	0.934759
842.556344	0.939869
842.871687	0.946757
843.186987	0.950738
843.502244	0.952062
843.817458	0.952927
844.132629	0.955723
844.447756	0.961435
844.762840	0.960353
845.077881	0.959965
845.392879	0.961894
845.707833	0.964100
846.022745	0.966302
846.337613	0.965261
846.652438	0.966500
846.967221	0.965827
847.281960	0.965078
847.596656	0.967754
847.911309	0.965773
848.225919	0.967737
848.540485	0.968901
848.855009	0.969836
849.169490	0.967885
849.483928	0.969207
849.798323	0.968740
850.112675	0.969492
850.426984	0.971613
850.741251	0.970784
851.055474	0.970665
851.369654	0.968533
851.683792	0.970652
851.997887	0.970371
852.311938	0.971852
852.625947	0.969416
852.939914	0.968349
853.253837	0.969881
853.567718	0.970273
853.881555	0.971671
854.195350	0.968705
854.509103	0.970961
854.822812	0.970491
855.136479	0.970289
855.450103	0.970813
855.763685	0.968748
856.077224	0.969114
856.390720	0.971680
856.704173	0.970740
857.017584	0.968920
857.330953	0.968252
857.644278	0.967828
857.957561	0.968733
858.270802	0.968598
858.584000	0.968143
858.897155	0.967652
859.210268	0.968634
859.523339	0.968249
859.836367	0.970846
860.149352	0.970784
860.462295	0.968699
860.775195	0.970148
861.088054	0.969842
861.400869	0.970665
861.713642	0.971007
862.026373	0.971220
862.339062	0.971078
862.651708	0.968344
862.964312	0.969085
863.276873	0.969620
863.589392	0.969254
863.901869	0.966698
864.214303	0.966314
864.526696	0.964391
864.839045	0.964351
865.151353	0.962223
865.463619	0.963040
865.775842	0.963666
866.088023	0.963383
866.400162	0.962244
866.712258	0.963099
867.024313	0.962363
867.336325	0.963811
867.648296	0.963838
867.960224	0.963041
868.272110	0.962333
868.583954	0.964506
868.895755	0.965026
869.207515	0.961909
869.519233	0.960083
869.830909	0.962439
870.142542	0.963601
870.454134	0.962448
870.765684	0.962213
871.077191	0.958489
871.388657	0.960215
871.700081	0.959515
872.011463	0.959766
872.322803	0.960555
872.634101	0.957638
872.945357	0.955336
873.256571	0.953261
873.567744	0.954128
873.878874	0.954138
874.189963	0.953484
874.501010	0.951337
874.812015	0.950395
875.122979	0.952098
875.433900	0.954014
875.744780	0.955091
876.055618	0.952047
876.366415	0.951419
876.677169	0.950295
876.987882	0.952952
877.298554	0.952203
877.609183	0.949389
877.919771	0.947156
878.230317	0.944356
878.540822	0.943170
878.851285	0.937342
879.161707	0.929393
879.472087	0.918340
879.782425	0.902275
880.092722	0.869780
880.402977	0.818946
880.713191	0.760327
881.023363	0.703332
881.333494	0.669782
881.643583	0.642864
881.953631	0.642375
882.263637	0.671444
882.573602	0.709871
882.883526	0.734174
883.193408	0.756789
883.503248	0.778019
883.813048	0.805426
884.122806	0.832877
884.432522	0.856164
884.742197	0.875337
885.051831	0.886439
885.361424	0.894759
885.670975	0.907316
885.980485	0.916829
886.289954	0.922080
886.599382	0.927000
886.908768	0.930581
887.218113	0.936197
887.527417	0.941462
887.836680	0.944401
888.145901	0.946702
888.455082	0.947307
888.764221	0.952705
889.073319	0.954810
889.382376	0.955138
889.691392	0.954641
890.000366	0.953487
890.309300	0.955438
890.618193	0.954232
890.927044	0.952485
891.235855	0.953235
891.544625	0.952291
891.853353	0.953341
892.162041	0.951092
892.470687	0.944737
892.779293	0.939735
893.087858	0.936218
893.396381	0.929156
893.704864	0.917118
894.013306	0.893355
894.321707	0.867270
894.630068	0.853444
894.938387	0.850587
895.246665	0.851298
895.554903	0.862470
895.863100	0.875204
896.171256	0.891744
896.479371	0.911042
896.787446	0.923260
897.095480	0.928757
897.403473	0.930354
897.711425	0.935324
898.019336	0.942404
898.327207	0.944920
898.635038	0.947665
898.942827	0.947069
899.250576	0.950921
899.558284	0.954411
899.865952	0.956466
900.173579	0.956776
900.481165	0.957450
900.788711	0.960823
901.096216	0.962721
901.403681	0.962825
901.711105	0.963719
902.018489	0.966016
902.325832	0.963116
902.633135	0.963634
902.940397	0.957024
903.247619	0.946370
903.554800	0.921554
903.861941	0.883459
904.169041	0.850398
904.476101	0.834234
904.783121	0.834150
905.090100	0.850524
905.397039	0.870534
905.703938	0.891018
906.010796	0.909973
906.317614	0.926247
906.624391	0.936003
906.931129	0.947156
907.237826	0.953396
907.544483	0.960874
907.851099	0.965029
908.157675	0.968795
908.464211	0.970825
908.770707	0.973649
909.077163	0.976049
909.383578	0.976581
909.689954	0.975844
909.996289	0.976446
910.302584	0.977831
910.608839	0.980069
910.915054	0.978648
911.221229	0.978707
911.527363	0.977406
911.833458	0.976781
912.139513	0.978476
912.445527	0.976702
912.751502	0.974157
913.057436	0.973587
913.363331	0.971624
913.669186	0.967697
913.975000	0.962531
914.280775	0.958077
914.586510	0.950003
914.892205	0.939508
915.197859	0.917714
915.503475	0.891245
915.809050	0.873704
916.114585	0.869504
916.420081	0.866947
916.725536	0.864136
917.030952	0.871286
917.336328	0.883855
917.641665	0.896733
917.946961	0.912722
918.252218	0.923827
918.557435	0.931695
918.862612	0.940443
919.167750	0.944913
919.472848	0.949356
919.777906	0.955344
920.082925	0.959505
920.387904	0.963425
920.692843	0.965235
920.997743	0.966051
921.302603	0.968479
921.607423	0.970319
921.912204	0.972467
922.216946	0.973782
922.521647	0.974686
922.826310	0.974780
923.130932	0.977691
923.435516	0.978740
923.740059	0.980087
924.044564	0.979922
924.349028	0.980793
924.653454	0.983310
924.957840	0.985193
925.262186	0.985893
925.566493	0.984537
925.870761	0.985495
926.174989	0.986987
926.479178	0.988152
926.783328	0.989029
927.087438	0.988585
927.391509	0.988464
927.695541	0.990401
927.999533	0.989106
928.303486	0.989896
928.607400	0.991688
928.911275	0.989334
929.215110	0.989985
929.518906	0.991339
929.822663	0.989397
930.126381	0.990000
930.430060	0.990503
930.733699	0.990062
931.037299	0.989703
931.340861	0.990666
931.644383	0.990706
931.947866	0.989447
932.251309	0.990773
932.554714	0.990134
932.858080	0.989919
933.161407	0.990752
933.464694	0.992223
933.767943	0.990139
934.071153	0.991046
934.374323	0.991740
934.677455	0.991310
934.980548	0.992517
935.283602	0.990612
935.586617	0.991892
935.889593	0.991856
936.192530	0.991413
936.495428	0.990654
936.798287	0.990572
937.101108	0.990212
937.403890	0.989410
937.706632	0.988505
938.009336	0.987875
938.312002	0.985826
938.614628	0.985275
938.917216	0.984017
939.219765	0.982245
939.522275	0.984289
939.824747	0.983471
940.127179	0.983470
940.429573	0.983976
940.731929	0.984801
941.034246	0.985796
941.336524	0.987062
941.638763	0.986897
941.940964	0.986771
942.243126	0.986818
942.545250	0.987711
942.847335	0.988265
943.149381	0.988534
943.451389	0.988101
943.753359	0.987683
944.055290	0.990476
944.357182	0.990299
944.659036	0.988452
944.960851	0.989398
945.262628	0.989730
945.564367	0.990237
945.866067	0.990345
946.167729	0.990242
946.469352	0.990341
946.770937	0.988865
947.072484	0.991192
947.373992	0.990024
947.675462	0.991040
947.976893	0.990215
948.278286	0.989756
948.579641	0.991694
948.880958	0.990963
949.182236	0.991562
949.483476	0.990597
949.784678	0.990409
950.085841	0.990645
950.386967	0.991805
950.688054	0.991349
950.989103	0.991373
951.290114	0.989454
951.591087	0.989713
951.892021	0.990939
952.192917	0.990529
952.493776	0.988991
952.794596	0.987884
953.095378	0.988183
953.396122	0.988127
953.696828	0.988717
953.997496	0.990053
954.298126	0.991255
954.598718	0.990778
954.899272	0.992146
955.199788	0.990414
955.500266	0.991707
955.800706	0.993561
956.101108	0.992951
956.401472	0.993404
956.701798	0.994902
957.002087	0.992107
957.302337	0.994225
957.602550	0.994886
957.902724	0.994056
958.202861	0.994278
958.502960	0.995312
958.803022	0.993615
959.103045	0.995198
959.403031	0.995875
959.702979	0.994897
960.002889	0.995298
960.302762	0.994924
960.602596	0.995704
960.902393	0.994918
961.202153	0.996269
961.501875	0.996301
961.801559	0.995978
962.101205	0.995791
962.400814	0.996296
962.700385	0.996077
962.999918	0.995868
963.299414	0.996436
963.598873	0.994774
963.898293	0.995783
964.197677	0.995466
964.497022	0.996493
964.796331	0.997916
965.095601	0.996492
965.394835	0.996139
965.694030	0.996582
965.993189	0.996918
966.292309	0.996447
966.591393	0.996716
966.890439	0.996365
967.189447	0.996696
967.488419	0.997020
967.787353	0.994630
968.086249	0.996938
968.385108	0.996738
968.683930	0.995662
968.982714	0.997220
969.281462	0.997640
969.580172	0.995351
969.878844	0.996471
970.177480	0.997259
970.476078	0.996667
970.774639	0.996401
971.073162	0.995668
971.371649	0.996877
971.670098	0.995567
971.968510	0.998015
972.266885	0.995275
972.565223	0.996099
972.863524	0.996415
973.161788	0.996812
973.460014	0.996886
973.758204	0.994846
974.056356	0.996195
974.354471	0.995048
974.652550	0.996104
974.950591	0.995858
975.248595	0.995841
975.546563	0.998099
975.844493	0.997702
976.142386	0.996546
976.440243	0.997581
976.738062	0.996753
977.035845	0.997901
977.333590	0.996431
977.631299	0.998400
977.928971	0.996711
978.226606	0.995806
978.524204	0.995125
978.821765	0.998663
979.119290	0.996230
979.416777	0.995686
979.714228	0.996911
980.011642	0.994690
980.309020	0.996621
980.606360	0.996595
980.903664	0.997462
981.200931	0.995731
981.498162	0.995160
981.795356	0.994042
982.092513	0.993611
982.389633	0.993490
982.686717	0.991031
982.983764	0.991770
983.280775	0.990733
983.577749	0.991134
983.874686	0.992101
984.171587	0.991937
984.468451	0.993752
984.765279	0.995122
985.062070	0.994788
985.358824	0.994488
985.655543	0.994720
985.952224	0.994711
986.248869	0.996514
986.545478	0.996889
986.842050	0.997581
987.138586	0.994411
987.435086	0.996429
987.731549	0.998506
988.027975	0.996805
988.324366	0.998540
988.620719	0.997628
988.917037	0.996976
989.213318	0.997592
989.509563	0.997808
989.805772	0.998068
990.101944	0.997766
990.398080	0.996654
990.694180	0.997962
990.990244	0.996216
991.286271	0.998358
991.582262	0.998013
991.878217	0.997911
992.174136	0.997426
992.470019	0.997976
992.765865	0.996180
993.061676	0.997534
993.357450	0.997502
993.653188	0.994912
993.948890	0.996726
994.244556	0.996392
994.540186	0.997145
994.835780	0.996649
995.131337	0.997235
995.426859	0.996474
995.722345	0.997057
996.017795	0.995570
996.313208	0.995708
996.608586	0.995739
996.903928	0.996390
997.199234	0.995766
997.494504	0.995348
997.789738	0.994310
998.084936	0.995919
998.380099	0.998922
998.675225	0.997004
998.970316	0.997572
999.265371	0.996890
999.560390	0.997519
999.855373	0.996626
1000.150320	0.997138
1000.445232	0.998450
1000.740108	0.996752
1001.034948	0.997398
1001.329752	0.997958
1001.624521	0.998180
1001.919254	0.998140
1002.213951	0.997215
1002.508613	0.997346
1002.803239	0.999054
1003.097829	0.998150
1003.392384	0.999411
1003.686903	0.998096
1003.981386	0.997856
1004.275834	0.998230
1004.570246	0.998306
1004.864623	0.998355
1005.158964	0.999444
1005.453270	0.998314
1005.747540	0.995981
1006.041775	0.997604
1006.335974	0.999267
1006.630138	0.998362
1006.924266	0.998506
1007.218359	0.999765
1007.512416	0.998408
1007.806438	0.998889
1008.100425	0.999104
1008.394376	0.998908
1008.688292	0.998276
1008.982172	0.999766
1009.276017	0.999079
1009.569827	0.998394
1009.863602	0.998884
1010.157341	0.998954
1010.451045	0.998623
1010.744714	0.998907
1011.038347	0.998287
1011.331945	0.998447
1011.625508	0.996444
1011.919036	0.998789
1012.212528	0.998539
1012.505986	0.996765
1012.799408	0.998646
1013.092795	0.998956
1013.386147	0.997678
1013.679464	0.999499
1013.972745	0.998187
1014.265992	0.997029
1014.559204	0.998469
1014.852380	0.998895
1015.145521	0.998555
1015.438628	0.998477
1015.731699	0.998088
1016.024736	0.998214
1016.317737	0.999894
1016.610703	0.997912
1016.903635	0.998979
1017.196531	0.997347
1017.489393	0.998835
1017.782219	0.998347
1018.075011	0.998239
1018.367768	0.997269
1018.660490	0.999539
1018.953177	0.999539
1019.245829	0.999539
