Dividing Wavelength (nm)	Counts (n)	Blue Motor Position (mm): 0.000000	Red Motor Position (mm): 23.700000	
326.493990	0.999404
326.888308	0.999404
327.282561	0.999404
327.676750	0.999128
328.070874	0.998891
328.464933	0.999763
328.858929	0.999479
329.252859	1.000363
329.646726	0.999396
330.040528	0.999783
330.434265	0.999042
330.827938	1.000051
331.221547	1.001156
331.615091	0.999177
332.008571	1.000464
332.401986	1.000278
332.795338	0.999322
333.188625	0.999069
333.581847	1.000624
333.975006	0.999554
334.368100	0.998411
334.761129	0.999646
335.154095	1.000460
335.546996	0.998281
335.939833	0.993017
336.332606	0.994858
336.725315	0.995407
337.117960	0.995388
337.510540	0.993565
337.903056	0.994482
338.295508	0.993830
338.687896	0.994240
339.080220	0.994005
339.472480	0.994029
339.864676	0.994615
340.256807	0.994840
340.648875	0.994982
341.040879	0.995597
341.432818	0.993258
341.824694	0.994451
342.216506	0.995201
342.608253	0.993916
342.999937	0.992851
343.391557	0.993827
343.783113	0.993508
344.174605	0.995247
344.566033	0.995285
344.957397	0.993819
345.348697	0.994357
345.739934	0.994775
346.131106	0.993583
346.522215	0.993514
346.913260	0.994035
347.304241	0.994169
347.695159	0.994771
348.086012	0.992469
348.476802	0.994940
348.867528	0.995095
349.258191	0.992951
349.648789	0.994611
350.039324	0.995545
350.429796	0.993664
350.820203	0.994649
351.210548	0.994525
351.600828	0.994608
351.991045	0.994152
352.381198	0.994154
352.771288	0.993329
353.161314	0.994693
353.551276	0.995344
353.941175	0.994327
354.331010	0.993633
354.720782	0.994549
355.110490	0.993900
355.500135	0.994592
355.889717	0.993897
356.279235	0.994330
356.668689	0.994289
357.058080	0.993800
357.447408	0.996000
357.836672	0.994736
358.225873	0.995895
358.615010	0.994646
359.004084	0.995750
359.393095	0.994439
359.782043	0.993548
360.170927	0.995779
360.559748	0.995464
360.948505	0.994259
361.337199	0.993878
361.725830	0.994281
362.114398	0.994223
362.502903	0.994664
362.891344	0.994354
363.279722	0.994704
363.668037	0.994777
364.056289	0.994210
364.444478	0.994190
364.832603	0.994549
365.220665	0.993817
365.608665	0.993656
365.996601	0.994094
366.384474	0.994645
366.772284	0.993831
367.160031	0.993499
367.547715	0.993207
367.935336	0.994368
368.322893	0.994451
368.710388	0.994295
369.097820	0.994318
369.485189	0.994340
369.872495	0.993273
370.259738	0.993112
370.646918	0.995221
371.034035	0.994615
371.421090	0.994508
371.808081	0.995100
372.195010	0.994695
372.581875	0.994580
372.968678	0.994537
373.355418	0.994508
373.742096	0.993204
374.128710	0.995251
374.515262	0.994175
374.901751	0.995866
375.288177	0.995507
375.674540	0.995821
376.060841	0.994586
376.447079	0.994932
376.833254	0.994674
377.219367	0.994600
377.605417	0.994226
377.991404	0.995722
378.377329	0.994495
378.763191	0.994666
379.148991	0.995343
379.534727	0.995864
379.920402	0.995964
380.306013	0.995721
380.691563	0.995565
381.077049	0.995609
381.462474	0.995996
381.847835	0.995782
382.233134	0.995779
382.618371	0.994860
383.003545	0.995376
383.388657	0.995654
383.773706	0.996405
384.158693	0.997415
384.543618	0.996771
384.928480	0.996377
385.313280	0.995971
385.698017	0.996546
386.082692	0.996392
386.467305	0.996377
386.851856	0.995627
387.236344	0.994824
387.620770	0.995885
388.005133	0.996995
388.389435	0.997465
388.773674	0.996422
389.157851	0.996020
389.541965	0.996450
389.926018	0.995728
390.310008	0.997111
390.693936	0.996462
391.077802	0.996567
391.461606	0.995795
391.845348	0.996893
392.229027	0.998017
392.612645	0.995716
392.996200	0.997396
393.379694	0.996858
393.763125	0.997636
394.146494	0.997026
394.529801	0.996196
394.913047	0.997539
395.296230	0.996796
395.679351	0.997178
396.062410	0.995862
396.445408	0.997262
396.828343	0.996774
397.211217	0.995986
397.594028	0.998276
397.976778	0.996550
398.359466	0.996299
398.742092	0.996219
399.124656	0.996416
399.507158	0.995851
399.889598	0.997079
400.271977	0.997159
400.654294	0.996841
401.036549	0.997186
401.418742	0.997666
401.800874	0.995821
402.182944	0.996981
402.564952	0.996144
402.946898	0.997063
403.328783	0.997098
403.710606	0.996926
404.092367	0.996610
404.474067	0.997687
404.855705	0.995825
405.237282	0.997344
405.618797	0.997095
406.000250	0.995995
406.381642	0.996169
406.762972	0.995969
407.144240	0.997341
407.525447	0.996835
407.906593	0.997495
408.287677	0.997224
408.668700	0.996992
409.049661	0.996120
409.430560	0.997386
409.811399	0.996326
410.192176	0.996465
410.572891	0.997299
410.953545	0.996435
411.334138	0.995033
411.714669	0.997498
412.095139	0.996437
412.475547	0.997333
412.855894	0.996952
413.236180	0.996674
413.616405	0.996960
413.996568	0.997329
414.376670	0.995216
414.756711	0.996532
415.136691	0.996503
415.516609	0.996017
415.896466	0.996247
416.276262	0.995215
416.655997	0.996710
417.035670	0.995977
417.415283	0.996452
417.794834	0.996194
418.174324	0.995865
418.553753	0.996551
418.933121	0.996236
419.312428	0.995575
419.691674	0.996631
420.070859	0.996499
420.449983	0.996647
420.829045	0.996250
421.208047	0.996951
421.586988	0.996853
421.965867	0.995648
422.344686	0.995910
422.723444	0.996326
423.102141	0.995481
423.480777	0.995740
423.859352	0.995720
424.237866	0.994589
424.616319	0.994897
424.994712	0.995431
425.373044	0.995386
425.751314	0.994689
426.129524	0.994227
426.507673	0.994221
426.885762	0.993569
427.263789	0.992136
427.641756	0.992001
428.019662	0.992649
428.397508	0.989945
428.775292	0.989276
429.153016	0.988403
429.530679	0.987912
429.908282	0.987016
430.285824	0.984705
430.663305	0.982781
431.040726	0.981724
431.418086	0.981156
431.795385	0.978045
432.172624	0.975309
432.549802	0.973766
432.926920	0.971828
433.303977	0.968461
433.680974	0.966622
434.057910	0.963271
434.434786	0.961898
434.811601	0.958344
435.188355	0.954238
435.565050	0.951430
435.941683	0.948007
436.318257	0.943494
436.694770	0.938866
437.071222	0.934803
437.447614	0.932343
437.823946	0.928687
438.200218	0.924215
438.576429	0.919950
438.952580	0.914373
439.328670	0.908407
439.704700	0.904194
440.080670	0.900244
440.456580	0.890141
440.832429	0.885326
441.208218	0.882700
441.583947	0.874425
441.959616	0.868497
442.335224	0.862237
442.710773	0.855415
443.086261	0.846625
443.461689	0.843949
443.837057	0.834483
444.212365	0.824422
444.587612	0.819524
444.962800	0.808916
445.337927	0.801622
445.712995	0.802729
446.088002	0.782225
446.462949	0.778088
446.837837	0.771928
447.212664	0.760694
447.587431	0.746758
447.962139	0.725633
448.336786	0.699738
448.711374	0.697941
449.085901	0.708839
449.460369	0.701319
449.834776	0.693569
450.209124	0.675365
450.583412	0.661398
450.957640	0.651344
451.331808	0.648003
451.705917	0.652312
452.079965	0.645842
452.453954	0.630404
452.827883	0.626474
453.201752	0.615919
453.575562	0.615042
453.949311	0.598300
454.323001	0.595855
454.696632	0.585190
455.070202	0.572389
455.443713	0.559753
455.817164	0.548787
456.190556	0.537878
456.563888	0.528305
456.937160	0.520093
457.310373	0.524984
457.683526	0.516487
458.056619	0.513872
458.429653	0.507534
458.802628	0.504747
459.175542	0.493647
459.548398	0.473833
459.921194	0.462738
460.293930	0.458353
460.666607	0.434287
461.039224	0.420326
461.411782	0.411688
461.784280	0.404678
462.156719	0.402070
462.529099	0.399450
462.901419	0.407984
463.273680	0.406808
463.645882	0.402185
464.018024	0.402342
464.390106	0.392068
464.762130	0.375161
465.134094	0.356860
465.505999	0.327929
465.877845	0.298461
466.249631	0.282582
466.621358	0.283666
466.993026	0.291902
467.364634	0.293790
467.736184	0.298767
468.107674	0.304191
468.479105	0.300704
468.850477	0.305148
469.221790	0.308965
469.593043	0.316770
469.964238	0.319510
470.335373	0.316743
470.706449	0.313466
471.077467	0.312830
471.448425	0.274646
471.819324	0.249964
472.190164	0.247822
472.560945	0.274858
472.931667	0.295436
473.302330	0.298537
473.672934	0.309365
474.043479	0.296841
474.413965	0.297911
474.784393	0.300937
475.154761	0.295222
475.525070	0.291885
475.895321	0.297229
476.265513	0.290670
476.635645	0.285695
477.005719	0.285285
477.375734	0.281441
477.745691	0.274550
478.115588	0.270920
478.485427	0.264260
478.855207	0.251057
479.224928	0.233549
479.594591	0.221579
479.964194	0.224570
480.333739	0.225566
480.703226	0.227005
481.072653	0.225347
481.442022	0.220690
481.811333	0.216979
482.180584	0.220512
482.549777	0.225586
482.918912	0.228687
483.287988	0.228564
483.657005	0.227913
484.025964	0.234239
484.394864	0.231531
484.763706	0.231865
485.132489	0.237103
485.501213	0.237509
485.869879	0.235706
486.238487	0.239174
486.607036	0.236908
486.975527	0.241413
487.343959	0.237365
487.712333	0.236324
488.080648	0.237645
488.448905	0.236730
488.817104	0.238292
489.185244	0.232369
489.553326	0.229199
489.921350	0.219122
490.289315	0.202026
490.657222	0.196742
491.025070	0.198081
491.392861	0.199813
491.760593	0.205511
492.128267	0.211026
492.495883	0.216600
492.863440	0.222877
493.230939	0.229219
493.598380	0.230661
493.965763	0.232603
494.333088	0.234744
494.700354	0.236147
495.067563	0.235221
495.434713	0.238536
495.801805	0.236392
496.168839	0.237849
496.535815	0.238867
496.902733	0.239066
497.269593	0.240554
497.636395	0.238135
498.003139	0.238622
498.369825	0.241609
498.736453	0.238220
499.103023	0.239436
499.469535	0.239115
499.835989	0.238964
500.202385	0.240053
500.568723	0.242970
500.935003	0.238409
501.301226	0.242534
501.667390	0.236770
502.033497	0.235068
502.399546	0.237909
502.765537	0.239634
503.131470	0.238110
503.497345	0.234196
503.863163	0.242959
504.228923	0.236186
504.594625	0.234795
504.960269	0.240192
505.325856	0.235246
505.691385	0.239574
506.056856	0.236663
506.422270	0.235757
506.787625	0.238186
507.152924	0.235558
507.518164	0.235903
507.883347	0.237716
508.248472	0.239389
508.613540	0.234644
508.978550	0.237012
509.343503	0.237647
509.708398	0.235220
510.073236	0.232805
510.438016	0.232852
510.802738	0.233793
511.167403	0.232600
511.532010	0.234813
511.896561	0.229992
512.261053	0.228903
512.625488	0.231032
512.989866	0.231289
513.354186	0.231726
513.718449	0.233501
514.082655	0.229760
514.446803	0.231748
514.810894	0.229718
515.174927	0.232241
515.538904	0.231793
515.902822	0.228792
516.266684	0.231003
516.630488	0.232686
516.994235	0.230815
517.357925	0.229731
517.721558	0.228101
518.085133	0.227528
518.448651	0.227721
518.812112	0.230006
519.175516	0.229450
519.538863	0.227318
519.902152	0.228837
520.265385	0.225639
520.628560	0.227630
520.991678	0.228055
521.354739	0.226657
521.717743	0.227894
522.080690	0.228411
522.443580	0.225880
522.806413	0.226744
523.169189	0.225973
523.531908	0.224832
523.894569	0.228530
524.257174	0.228379
524.619722	0.226156
524.982213	0.227109
525.344647	0.226056
525.707025	0.226959
526.069345	0.225261
526.431608	0.226812
526.793815	0.224743
527.155964	0.228771
527.518057	0.227744
527.880093	0.228774
528.242072	0.227408
528.603995	0.229248
528.965860	0.230931
529.327669	0.229934
529.689421	0.230719
530.051117	0.231722
530.412755	0.229477
530.774337	0.231673
531.135862	0.231902
531.497331	0.231456
531.858743	0.234040
532.220098	0.231020
532.581396	0.233554
532.942638	0.234017
533.303824	0.234946
533.664953	0.234865
534.026025	0.236602
534.387040	0.234343
534.747999	0.234221
535.108902	0.233161
535.469748	0.238089
535.830537	0.235881
536.191270	0.236362
536.551947	0.236130
536.912567	0.235992
537.273131	0.238019
537.633638	0.237997
537.994089	0.238218
538.354483	0.239433
538.714821	0.236135
539.075103	0.236191
539.435328	0.236962
539.795497	0.240405
540.155609	0.237151
540.515665	0.235213
540.875665	0.240958
541.235609	0.239712
541.595496	0.239938
541.955328	0.236139
542.315102	0.239031
542.674821	0.239968
543.034483	0.239866
543.394090	0.239752
543.753640	0.241275
544.113134	0.236351
544.472571	0.239866
544.831953	0.236409
545.191278	0.240735
545.550548	0.240314
545.909761	0.237057
546.268918	0.237870
546.628019	0.236437
546.987064	0.238877
547.346053	0.240975
547.704986	0.238477
548.063863	0.238755
548.422684	0.239159
548.781449	0.240726
549.140158	0.238117
549.498811	0.241586
549.857408	0.244406
550.215949	0.239305
550.574434	0.242340
550.932864	0.240176
551.291237	0.238822
551.649555	0.240457
552.007817	0.239885
552.366022	0.240943
552.724173	0.241088
553.082267	0.241491
553.440305	0.238563
553.798288	0.242923
554.156215	0.239407
554.514086	0.240071
554.871902	0.243157
555.229661	0.242315
555.587365	0.243070
555.945014	0.245506
556.302606	0.242139
556.660143	0.245007
557.017625	0.241251
557.375050	0.243579
557.732421	0.240720
558.089735	0.242688
558.446994	0.242923
558.804197	0.242022
559.161345	0.241812
559.518437	0.245419
559.875474	0.242991
560.232455	0.242519
560.589381	0.243569
560.946251	0.243963
561.303065	0.241349
561.659825	0.242811
562.016528	0.244277
562.373177	0.247326
562.729770	0.244264
563.086307	0.246337
563.442789	0.244391
563.799216	0.247370
564.155587	0.245810
564.511904	0.246955
564.868164	0.247160
565.224370	0.247250
565.580520	0.248691
565.936615	0.248369
566.292654	0.251603
566.648638	0.248486
567.004567	0.249568
567.360441	0.249924
567.716260	0.252211
568.072023	0.250220
568.427732	0.250563
568.783385	0.253284
569.138982	0.251279
569.494525	0.250818
569.850013	0.253510
570.205445	0.252263
570.560823	0.254765
570.916145	0.256310
571.271412	0.254760
571.626625	0.256531
571.981782	0.256778
572.336884	0.257504
572.691931	0.257470
573.046923	0.258669
573.401860	0.259781
573.756743	0.261523
574.111570	0.260404
574.466342	0.260951
574.821059	0.260043
575.175722	0.262871
575.530330	0.262688
575.884882	0.262971
576.239380	0.264851
576.593823	0.265616
576.948211	0.265030
577.302544	0.268267
577.656823	0.267691
578.011047	0.267951
578.365216	0.268593
578.719330	0.270567
579.073389	0.270487
579.427394	0.271565
579.781344	0.272422
580.135239	0.273793
580.489080	0.273568
580.842866	0.276266
581.196597	0.276884
581.550273	0.275005
581.903895	0.275860
582.257463	0.274271
582.610975	0.277632
582.964434	0.276736
583.317837	0.279458
583.671186	0.279702
584.024481	0.279794
584.377721	0.282194
584.730906	0.283273
585.084037	0.281996
585.437113	0.283787
585.790135	0.283559
586.143103	0.286365
586.496016	0.287547
586.848874	0.284792
587.201679	0.285425
587.554428	0.289213
587.907124	0.287714
588.259765	0.288401
588.612352	0.288929
588.964884	0.292633
589.317362	0.292215
589.669786	0.292020
590.022155	0.290364
590.374470	0.289990
590.726731	0.292411
591.078937	0.296607
591.431090	0.292914
591.783188	0.297426
592.135232	0.297814
592.487222	0.297978
592.839157	0.295995
593.191038	0.298666
593.542866	0.300312
593.894639	0.303568
594.246358	0.301634
594.598022	0.300986
594.949633	0.304999
595.301190	0.305358
595.652692	0.304764
596.004141	0.300601
596.355535	0.308770
596.706876	0.309418
597.058162	0.311928
597.409395	0.308924
597.760573	0.306923
598.111698	0.309863
598.462768	0.310708
598.813785	0.312278
599.164748	0.313444
599.515657	0.313480
599.866511	0.316662
600.217312	0.311874
600.568060	0.317233
600.918753	0.313769
601.269392	0.314678
601.619978	0.317940
601.970510	0.315739
602.320988	0.315708
602.671412	0.313237
603.021783	0.315838
603.372100	0.317490
603.722363	0.316964
604.072572	0.317709
604.422728	0.317472
604.772830	0.319299
605.122878	0.319382
605.472872	0.319551
605.822813	0.317859
606.172701	0.320835
606.522534	0.318131
606.872314	0.318076
607.222041	0.319440
607.571714	0.317471
607.921333	0.318574
608.270899	0.318344
608.620411	0.314987
608.969870	0.319123
609.319276	0.319057
609.668627	0.319068
610.017926	0.317137
610.367171	0.315967
610.716362	0.316819
611.065500	0.317164
611.414585	0.315874
611.763616	0.316495
612.112594	0.316560
612.461518	0.316062
612.810389	0.313784
613.159207	0.316279
613.507971	0.317705
613.856682	0.313769
614.205340	0.315599
614.553945	0.311858
614.902496	0.316189
615.250994	0.314077
615.599439	0.314808
615.947830	0.314098
616.296169	0.315448
616.644454	0.314368
616.992686	0.314955
617.340864	0.312250
617.688990	0.316065
618.037063	0.312675
618.385082	0.314698
618.733048	0.311444
619.080961	0.313794
619.428821	0.313407
619.776628	0.312708
620.124382	0.315033
620.472083	0.315258
620.819731	0.314837
621.167326	0.318312
621.514868	0.317992
621.862357	0.322546
622.209793	0.322025
622.557176	0.324088
622.904506	0.325306
623.251783	0.327503
623.599007	0.329836
623.946179	0.329537
624.293297	0.331229
624.640363	0.334920
624.987376	0.335636
625.334336	0.338295
625.681243	0.340391
626.028097	0.340931
626.374899	0.341892
626.721647	0.342369
627.068343	0.345926
627.414987	0.346640
627.761577	0.348514
628.108115	0.347027
628.454600	0.351955
628.801032	0.349477
629.147412	0.351574
629.493739	0.351846
629.840014	0.355119
630.186236	0.352807
630.532405	0.357926
630.878521	0.355586
631.224585	0.358165
631.570597	0.361098
631.916556	0.359304
632.262462	0.359519
632.608316	0.361791
632.954117	0.362810
633.299866	0.363405
633.645562	0.364231
633.991206	0.368304
634.336797	0.371450
634.682336	0.373359
635.027823	0.375346
635.373257	0.375957
635.718639	0.379124
636.063968	0.378532
636.409245	0.384099
636.754470	0.384442
637.099642	0.387030
637.444762	0.390230
637.789829	0.389301
638.134845	0.393104
638.479808	0.394026
638.824719	0.393899
639.169577	0.397665
639.514383	0.396358
639.859137	0.401127
640.203839	0.400604
640.548489	0.400982
640.893086	0.402712
641.237632	0.404442
641.582125	0.402862
641.926566	0.403807
642.270955	0.404643
642.615292	0.404860
642.959576	0.403797
643.303809	0.404678
643.647990	0.403910
643.992118	0.404786
644.336195	0.408024
644.680219	0.406400
645.024192	0.406255
645.368112	0.400876
645.711981	0.399563
646.055797	0.394800
646.399562	0.397695
646.743274	0.389276
647.086935	0.386885
647.430544	0.386866
647.774101	0.385688
648.117606	0.385549
648.461059	0.385890
648.804460	0.388506
649.147810	0.393652
649.491108	0.395535
649.834354	0.396727
650.177548	0.402227
650.520690	0.407944
650.863781	0.408417
651.206820	0.407575
651.549807	0.412658
651.892742	0.416318
652.235626	0.415846
652.578458	0.417356
652.921238	0.423214
653.263967	0.420517
653.606644	0.424922
653.949269	0.424853
654.291843	0.428900
654.634365	0.425310
654.976836	0.428276
655.319255	0.428633
655.661622	0.430352
656.003938	0.430226
656.346203	0.433170
656.688416	0.431376
657.030577	0.434613
657.372687	0.436322
657.714746	0.437019
658.056753	0.434003
658.398708	0.438048
658.740612	0.439304
659.082465	0.435325
659.424266	0.436090
659.766016	0.435396
660.107715	0.438230
660.449362	0.437156
660.790958	0.437089
661.132503	0.438388
661.473996	0.435751
661.815438	0.436366
662.156829	0.436795
662.498168	0.437695
662.839456	0.438926
663.180693	0.436384
663.521879	0.437253
663.863013	0.437392
664.204097	0.436167
664.545129	0.433176
664.886110	0.433612
665.227040	0.430407
665.567918	0.433040
665.908746	0.431562
666.249522	0.430939
666.590248	0.431811
666.930922	0.429876
667.271545	0.429011
667.612118	0.428921
667.952639	0.431198
668.293109	0.428720
668.633528	0.432221
668.973896	0.431976
669.314213	0.432356
669.654480	0.434037
669.994695	0.434559
670.334859	0.435193
670.674973	0.435463
671.015035	0.435105
671.355047	0.435223
671.695008	0.436743
672.034918	0.438102
672.374777	0.437540
672.714585	0.438898
673.054342	0.438752
673.394049	0.439276
673.733705	0.435998
674.073310	0.437813
674.412864	0.440953
674.752368	0.441469
675.091820	0.441585
675.431223	0.445882
675.770574	0.446191
676.109875	0.448572
676.449125	0.448633
676.788324	0.451026
677.127473	0.456410
677.466571	0.456320
677.805619	0.458112
678.144616	0.458622
678.483562	0.460604
678.822458	0.462691
679.161303	0.464284
679.500098	0.464623
679.838842	0.466252
680.177535	0.465764
680.516179	0.464334
680.854771	0.463440
681.193314	0.456817
681.531805	0.448647
681.870247	0.436648
682.208638	0.428889
682.546978	0.428235
682.885268	0.430305
683.223508	0.436288
683.561697	0.439888
683.899836	0.442480
684.237925	0.445962
684.575963	0.448094
684.913951	0.451541
685.251889	0.446932
685.589776	0.449294
685.927614	0.451830
686.265401	0.446059
686.603137	0.447337
686.940824	0.441204
687.278460	0.440252
687.616046	0.438965
687.953582	0.433700
688.291068	0.435277
688.628504	0.430739
688.965889	0.433517
689.303224	0.437818
689.640510	0.440974
689.977745	0.447247
690.314930	0.454807
690.652065	0.459004
690.989150	0.467209
691.326185	0.473471
691.663170	0.477775
692.000105	0.485109
692.336990	0.491609
692.673825	0.494598
693.010610	0.501238
693.347345	0.506865
693.684030	0.508619
694.020665	0.513044
694.357251	0.522077
694.693786	0.521385
695.030272	0.525934
695.366707	0.528998
695.703093	0.532765
696.039429	0.530533
696.375716	0.532140
696.711952	0.534510
697.048139	0.537075
697.384276	0.538494
697.720363	0.537362
698.056400	0.536013
698.392388	0.541819
698.728326	0.544467
699.064214	0.547220
699.400053	0.548302
699.735842	0.551942
700.071581	0.554414
700.407270	0.557580
700.742910	0.560236
701.078501	0.566760
701.414042	0.567157
701.749533	0.569831
702.084974	0.579090
702.420366	0.571017
702.755709	0.578368
703.091002	0.586750
703.426246	0.579943
703.761440	0.586122
704.096584	0.590185
704.431679	0.586872
704.766725	0.589137
705.101721	0.590857
705.436668	0.587041
705.771565	0.593942
706.106413	0.591086
706.441212	0.586255
706.775961	0.584473
707.110661	0.588105
707.445311	0.583892
707.779913	0.581585
708.114465	0.580054
708.448967	0.576150
708.783421	0.568834
709.117825	0.563806
709.452180	0.563413
709.786485	0.556960
710.120742	0.546822
710.454949	0.549379
710.789107	0.541794
711.123216	0.532185
711.457275	0.533440
711.791286	0.524923
712.125247	0.523567
712.459159	0.534201
712.793023	0.527467
713.126837	0.530739
713.460602	0.531777
713.794318	0.540831
714.127985	0.539988
714.461602	0.549855
714.795171	0.552585
715.128691	0.561197
715.462162	0.567916
715.795584	0.573294
716.128957	0.576930
716.462281	0.583160
716.795556	0.587290
717.128782	0.592077
717.461960	0.601484
717.795088	0.599900
718.128167	0.606753
718.461198	0.614636
718.794180	0.614803
719.127113	0.618203
719.459997	0.621530
719.792833	0.627779
720.125619	0.629289
720.458357	0.634945
720.791046	0.634762
721.123686	0.638377
721.456278	0.645167
721.788821	0.642749
722.121315	0.646549
722.453761	0.650750
722.786158	0.648327
723.118506	0.644877
723.450805	0.652868
723.783056	0.648119
724.115259	0.646066
724.447412	0.645599
724.779518	0.647209
725.111574	0.645650
725.443582	0.641040
725.775542	0.643873
726.107453	0.636359
726.439315	0.635516
726.771129	0.634473
727.102895	0.627784
727.434612	0.620897
727.766281	0.618025
728.097901	0.617606
728.429473	0.617315
728.760996	0.616278
729.092471	0.614906
729.423897	0.620136
729.755276	0.619078
730.086606	0.619262
730.417887	0.613618
730.749120	0.604148
731.080305	0.595390
731.411442	0.590571
731.742530	0.596313
732.073570	0.595170
732.404562	0.587388
732.735506	0.588435
733.066401	0.593874
733.397249	0.602539
733.728048	0.614295
734.058798	0.626496
734.389501	0.637240
734.720156	0.646117
735.050762	0.655038
735.381320	0.655710
735.711831	0.665590
736.042293	0.670286
736.372707	0.665499
736.703073	0.670735
737.033391	0.672685
737.363661	0.669891
737.693883	0.665547
738.024056	0.663878
738.354182	0.663749
738.684260	0.653838
739.014290	0.649740
739.344272	0.650004
739.674207	0.643925
740.004093	0.643069
740.333931	0.643015
740.663722	0.643735
740.993464	0.644469
741.323159	0.648401
741.652806	0.653197
741.982405	0.657955
742.311956	0.661742
742.641460	0.664157
742.970915	0.668431
743.300323	0.674939
743.629683	0.682286
743.958996	0.684351
744.288260	0.688173
744.617477	0.694461
744.946647	0.696021
745.275768	0.700995
745.604842	0.700476
745.933869	0.711214
746.262847	0.711710
746.591778	0.704998
746.920662	0.711042
747.249498	0.717705
747.578286	0.707884
747.907027	0.704524
748.235720	0.705509
748.564365	0.700382
748.892963	0.701093
749.221514	0.703049
749.550017	0.708751
749.878473	0.708941
750.206881	0.715263
750.535242	0.715725
750.863555	0.715872
751.191821	0.716710
751.520039	0.720484
751.848210	0.724757
752.176334	0.718293
752.504411	0.716940
752.832440	0.724901
753.160421	0.728708
753.488356	0.726507
753.816243	0.724544
754.144082	0.732780
754.471875	0.736580
754.799620	0.730989
755.127318	0.733138
755.454969	0.733594
755.782572	0.731556
756.110129	0.737307
756.437638	0.739505
756.765100	0.736173
757.092515	0.734160
757.419882	0.732677
757.747203	0.738697
758.074477	0.738006
758.401703	0.735378
758.728882	0.730206
759.056014	0.728876
759.383099	0.728762
759.710138	0.729801
760.037129	0.725898
760.364073	0.719456
760.690970	0.721244
761.017820	0.728919
761.344623	0.723449
761.671379	0.714310
761.998088	0.702537
762.324751	0.679525
762.651366	0.638897
762.977935	0.571695
763.304456	0.519594
763.630931	0.510287
763.957359	0.549733
764.283740	0.593804
764.610074	0.620398
764.936362	0.652199
765.262602	0.678141
765.588796	0.699167
765.914943	0.717246
766.241044	0.735144
766.567097	0.741848
766.893104	0.751399
767.219064	0.758132
767.544978	0.765414
767.870845	0.778069
768.196665	0.781555
768.522438	0.780046
768.848165	0.780441
769.173846	0.790740
769.499479	0.794455
769.825066	0.797417
770.150607	0.802421
770.476101	0.797821
770.801548	0.798520
771.126949	0.810708
771.452303	0.813764
771.777611	0.813918
772.102872	0.813147
772.428087	0.817901
772.753256	0.820938
773.078378	0.823780
773.403453	0.832614
773.728482	0.836869
774.053465	0.830391
774.378401	0.833506
774.703291	0.842336
775.028135	0.841571
775.352932	0.843313
775.677683	0.845566
776.002388	0.847206
776.327046	0.845157
776.651658	0.849670
776.976224	0.852523
777.300743	0.852412
777.625216	0.855561
777.949643	0.856701
778.274024	0.857752
778.598359	0.858951
778.922647	0.857030
779.246889	0.857840
779.571086	0.862367
779.895236	0.864072
780.219339	0.861417
780.543397	0.858377
780.867409	0.856831
781.191374	0.860125
781.515294	0.860239
781.839167	0.858108
782.162995	0.863227
782.486776	0.859557
782.810511	0.860692
783.134201	0.864078
783.457844	0.861499
783.781441	0.864874
784.104993	0.870925
784.428498	0.870668
784.751958	0.865761
785.075372	0.868183
785.398739	0.872554
785.722061	0.868115
786.045337	0.864160
786.368568	0.869799
786.691752	0.871287
787.014891	0.856948
787.337983	0.849706
787.661030	0.840737
787.984031	0.823590
788.306987	0.810797
788.629897	0.813159
788.952760	0.817798
789.275579	0.821140
789.598351	0.836241
789.921078	0.849609
790.243759	0.851791
790.566395	0.856253
790.888984	0.864352
791.211529	0.868865
791.534027	0.871237
791.856480	0.874440
792.178888	0.879450
792.501249	0.882814
792.823566	0.882926
793.145836	0.882793
793.468062	0.885565
793.790241	0.883873
794.112375	0.883248
794.434464	0.878798
794.756507	0.876508
795.078505	0.877503
795.400457	0.873181
795.722364	0.859456
796.044226	0.853131
796.366042	0.852396
796.687812	0.855491
797.009538	0.852020
797.331218	0.854784
797.652852	0.859625
797.974442	0.864546
798.295986	0.863333
798.617484	0.867155
798.938938	0.871202
799.260346	0.875942
799.581709	0.878090
799.903026	0.880279
800.224299	0.880615
800.545526	0.884326
800.866708	0.889350
801.187845	0.892183
801.508936	0.892241
801.829983	0.889322
802.150984	0.892215
802.471940	0.897685
802.792851	0.897691
803.113717	0.898135
803.434538	0.894728
803.755314	0.898471
804.076045	0.899298
804.396731	0.899687
804.717372	0.899404
805.037967	0.901801
805.358518	0.899830
805.679024	0.896870
805.999485	0.896523
806.319901	0.897001
806.640272	0.898173
806.960598	0.896417
807.280879	0.894124
807.601115	0.892391
807.921306	0.896827
808.241453	0.896552
808.561554	0.894285
808.881611	0.893047
809.201623	0.896777
809.521590	0.896340
809.841513	0.897166
810.161390	0.895938
810.481223	0.897805
810.801011	0.901715
811.120755	0.903773
811.440453	0.901584
811.760107	0.899736
812.079716	0.899546
812.399281	0.903123
812.718801	0.906776
813.038276	0.907669
813.357707	0.905511
813.677093	0.903838
813.996434	0.906335
814.315731	0.909377
814.634983	0.909467
814.954191	0.908099
815.273354	0.904407
815.592473	0.900962
815.911547	0.901933
816.230577	0.898831
816.549562	0.897177
816.868502	0.896681
817.187399	0.893761
817.506250	0.887557
817.825058	0.890171
818.143821	0.886452
818.462539	0.882513
818.781213	0.873134
819.099843	0.862982
819.418429	0.847060
819.736970	0.829228
820.055466	0.810674
820.373919	0.784902
820.692327	0.752008
821.010691	0.717710
821.329011	0.640685
821.647286	0.526349
821.965517	0.412664
822.283704	0.369898
822.601847	0.371592
822.919945	0.407045
823.237999	0.440299
823.556010	0.487080
823.873976	0.542773
824.191897	0.592875
824.509775	0.635040
824.827609	0.680451
825.145398	0.701570
825.463144	0.706147
825.780845	0.688609
826.098502	0.670117
826.416116	0.624109
826.733685	0.580728
827.051210	0.571631
827.368692	0.586711
827.686129	0.623943
828.003522	0.677211
828.320872	0.724116
828.638177	0.766691
828.955439	0.800366
829.272656	0.823132
829.589830	0.839651
829.906960	0.854944
830.224046	0.866579
830.541088	0.878270
830.858086	0.881789
831.175041	0.888707
831.491952	0.887187
831.808819	0.883069
832.125642	0.877636
832.442421	0.862277
832.759157	0.840736
833.075849	0.794650
833.392497	0.731475
833.709101	0.691150
834.025662	0.700099
834.342179	0.731591
834.658653	0.770812
834.975083	0.806918
835.291469	0.832609
835.607811	0.854762
835.924110	0.870485
836.240366	0.888094
836.556578	0.902153
836.872746	0.909528
837.188871	0.913934
837.504952	0.920496
837.820990	0.923903
838.136984	0.927380
838.452935	0.930928
838.768842	0.931886
839.084706	0.923884
839.400526	0.899320
839.716303	0.860155
840.032037	0.836763
840.347727	0.840923
840.663373	0.858920
840.978977	0.879569
841.294537	0.902316
841.610054	0.918311
841.925527	0.926143
842.240957	0.932647
842.556344	0.940061
842.871687	0.945761
843.186987	0.950070
843.502244	0.950270
843.817458	0.951921
844.132629	0.955514
844.447756	0.961102
844.762840	0.960570
845.077881	0.959264
845.392879	0.958493
845.707833	0.962302
846.022745	0.964997
846.337613	0.964119
846.652438	0.966346
846.967221	0.963694
847.281960	0.965335
847.596656	0.966556
847.911309	0.967085
848.225919	0.966990
848.540485	0.967827
848.855009	0.969669
849.169490	0.968258
849.483928	0.969104
849.798323	0.970250
850.112675	0.969745
850.426984	0.970074
850.741251	0.970487
851.055474	0.970077
851.369654	0.969011
851.683792	0.969716
851.997887	0.970642
852.311938	0.970301
852.625947	0.970704
852.939914	0.968183
853.253837	0.969815
853.567718	0.970420
853.881555	0.971730
854.195350	0.967209
854.509103	0.968735
854.822812	0.969216
855.136479	0.970971
855.450103	0.969562
855.763685	0.967972
856.077224	0.969896
856.390720	0.971062
856.704173	0.969100
857.017584	0.968370
857.330953	0.966778
857.644278	0.967160
857.957561	0.968937
858.270802	0.968835
858.584000	0.969037
858.897155	0.966098
859.210268	0.967618
859.523339	0.968841
859.836367	0.970412
860.149352	0.971188
860.462295	0.967941
860.775195	0.969101
861.088054	0.970230
861.400869	0.969065
861.713642	0.970290
862.026373	0.970016
862.339062	0.970264
862.651708	0.967273
862.964312	0.968167
863.276873	0.969136
863.589392	0.967992
863.901869	0.967010
864.214303	0.965841
864.526696	0.963478
864.839045	0.963803
865.151353	0.962080
865.463619	0.963282
865.775842	0.962921
866.088023	0.962592
866.400162	0.962474
866.712258	0.962527
867.024313	0.962852
867.336325	0.962845
867.648296	0.963418
867.960224	0.962338
868.272110	0.962409
868.583954	0.963726
868.895755	0.964024
869.207515	0.960573
869.519233	0.958295
869.830909	0.960846
870.142542	0.962420
870.454134	0.962451
870.765684	0.961191
871.077191	0.958185
871.388657	0.959291
871.700081	0.958630
872.011463	0.957975
872.322803	0.959455
872.634101	0.957926
872.945357	0.954630
873.256571	0.953324
873.567744	0.953712
873.878874	0.954093
874.189963	0.951347
874.501010	0.952309
874.812015	0.950123
875.122979	0.951354
875.433900	0.953240
875.744780	0.954121
876.055618	0.951806
876.366415	0.950731
876.677169	0.949468
876.987882	0.952691
877.298554	0.950529
877.609183	0.947368
877.919771	0.945120
878.230317	0.942319
878.540822	0.939964
878.851285	0.934784
879.161707	0.927719
879.472087	0.915596
879.782425	0.900277
880.092722	0.866063
880.402977	0.814694
880.713191	0.753437
881.023363	0.695979
881.333494	0.662141
881.643583	0.634546
881.953631	0.633870
882.263637	0.662802
882.573602	0.701784
882.883526	0.726642
883.193408	0.750214
883.503248	0.773359
883.813048	0.799992
884.122806	0.829728
884.432522	0.851796
884.742197	0.871751
885.051831	0.882256
885.361424	0.892883
885.670975	0.904261
885.980485	0.914755
886.289954	0.920244
886.599382	0.926278
886.908768	0.929946
887.218113	0.935217
887.527417	0.939777
887.836680	0.942744
888.145901	0.944267
888.455082	0.947276
888.764221	0.951969
889.073319	0.953416
889.382376	0.953410
889.691392	0.953428
890.000366	0.953344
890.309300	0.953740
890.618193	0.953388
890.927044	0.951266
891.235855	0.951695
891.544625	0.952766
891.853353	0.951450
892.162041	0.949729
892.470687	0.943147
892.779293	0.938429
893.087858	0.935197
893.396381	0.926812
893.704864	0.914526
894.013306	0.890879
894.321707	0.863306
894.630068	0.850182
894.938387	0.844841
895.246665	0.846432
895.554903	0.859160
895.863100	0.870877
896.171256	0.889269
896.479371	0.908066
896.787446	0.919944
897.095480	0.926067
897.403473	0.929541
897.711425	0.932712
898.019336	0.940423
898.327207	0.943263
898.635038	0.945219
898.942827	0.946432
899.250576	0.948411
899.558284	0.953211
899.865952	0.954343
900.173579	0.955562
900.481165	0.956601
900.788711	0.960280
901.096216	0.961452
901.403681	0.961999
901.711105	0.963632
902.018489	0.964223
902.325832	0.962727
902.633135	0.961788
902.940397	0.956798
903.247619	0.944262
903.554800	0.919248
903.861941	0.880521
904.169041	0.845127
904.476101	0.828128
904.783121	0.829530
905.090100	0.844583
905.397039	0.866189
905.703938	0.887294
906.010796	0.907768
906.317614	0.923763
906.624391	0.935139
906.931129	0.944899
907.237826	0.953172
907.544483	0.959840
907.851099	0.962651
908.157675	0.968530
908.464211	0.970692
908.770707	0.973344
909.077163	0.975111
909.383578	0.975208
909.689954	0.975875
909.996289	0.976483
910.302584	0.978267
910.608839	0.979287
910.915054	0.979050
911.221229	0.978168
911.527363	0.976435
911.833458	0.977875
912.139513	0.978326
912.445527	0.975047
912.751502	0.974588
913.057436	0.973135
913.363331	0.971622
913.669186	0.966891
913.975000	0.961853
914.280775	0.955810
914.586510	0.950067
914.892205	0.935698
915.197859	0.914314
915.503475	0.887224
915.809050	0.868504
916.114585	0.863711
916.420081	0.861393
916.725536	0.858194
917.030952	0.865930
917.336328	0.877687
917.641665	0.893907
917.946961	0.908358
918.252218	0.919365
918.557435	0.928412
918.862612	0.937596
919.167750	0.942558
919.472848	0.947347
919.777906	0.952294
920.082925	0.958093
920.387904	0.961896
920.692843	0.964344
920.997743	0.964704
921.302603	0.967323
921.607423	0.969830
921.912204	0.971844
922.216946	0.972469
922.521647	0.973439
922.826310	0.975444
923.130932	0.976100
923.435516	0.978246
923.740059	0.979933
924.044564	0.978330
924.349028	0.981086
924.653454	0.983619
924.957840	0.984329
925.262186	0.984255
925.566493	0.983834
925.870761	0.984057
926.174989	0.986918
926.479178	0.988710
926.783328	0.988742
927.087438	0.989288
927.391509	0.988331
927.695541	0.989548
927.999533	0.990421
928.303486	0.990152
928.607400	0.991146
928.911275	0.990235
929.215110	0.989766
929.518906	0.990288
929.822663	0.989362
930.126381	0.989548
930.430060	0.989489
930.733699	0.990703
931.037299	0.988604
931.340861	0.990703
931.644383	0.990746
931.947866	0.988232
932.251309	0.991858
932.554714	0.989898
932.858080	0.990385
933.161407	0.989809
933.464694	0.990502
933.767943	0.989064
934.071153	0.990677
934.374323	0.990650
934.677455	0.990500
934.980548	0.990961
935.283602	0.991198
935.586617	0.991022
935.889593	0.990741
936.192530	0.990223
936.495428	0.990861
936.798287	0.990750
937.101108	0.990428
937.403890	0.988970
937.706632	0.988957
938.009336	0.986269
938.312002	0.986066
938.614628	0.984454
938.917216	0.982892
939.219765	0.981335
939.522275	0.983576
939.824747	0.983156
940.127179	0.984731
940.429573	0.984667
940.731929	0.984276
941.034246	0.984716
941.336524	0.985514
941.638763	0.985299
941.940964	0.985813
942.243126	0.987368
942.545250	0.986626
942.847335	0.988660
943.149381	0.989153
943.451389	0.988933
943.753359	0.989061
944.055290	0.989883
944.357182	0.989856
944.659036	0.988447
944.960851	0.990326
945.262628	0.990050
945.564367	0.991049
945.866067	0.989688
946.167729	0.990274
946.469352	0.990098
946.770937	0.989005
947.072484	0.991295
947.373992	0.990321
947.675462	0.990266
947.976893	0.989775
948.278286	0.989577
948.579641	0.991339
948.880958	0.991020
949.182236	0.991016
949.483476	0.991512
949.784678	0.989807
950.085841	0.991466
950.386967	0.991351
950.688054	0.990748
950.989103	0.991034
951.290114	0.989944
951.591087	0.989188
951.892021	0.988730
952.192917	0.988981
952.493776	0.987294
952.794596	0.988690
953.095378	0.986868
953.396122	0.987430
953.696828	0.987185
953.997496	0.990727
954.298126	0.991367
954.598718	0.991206
954.899272	0.989938
955.199788	0.990058
955.500266	0.992684
955.800706	0.993246
956.101108	0.993218
956.401472	0.993790
956.701798	0.993412
957.002087	0.993245
957.302337	0.992837
957.602550	0.995162
957.902724	0.994012
958.202861	0.994968
958.502960	0.995561
958.803022	0.994112
959.103045	0.995912
959.403031	0.995366
959.702979	0.995013
960.002889	0.996038
960.302762	0.994854
960.602596	0.995730
960.902393	0.994426
961.202153	0.996874
961.501875	0.995614
961.801559	0.994639
962.101205	0.995451
962.400814	0.996063
962.700385	0.995928
962.999918	0.996446
963.299414	0.996542
963.598873	0.995519
963.898293	0.996831
964.197677	0.994641
964.497022	0.995982
964.796331	0.998079
965.095601	0.996446
965.394835	0.996430
965.694030	0.996298
965.993189	0.996569
966.292309	0.996279
966.591393	0.997207
966.890439	0.996602
967.189447	0.996671
967.488419	0.996547
967.787353	0.996159
968.086249	0.994881
968.385108	0.996836
968.683930	0.996250
968.982714	0.997412
969.281462	0.996744
969.580172	0.996631
969.878844	0.995647
970.177480	0.995690
970.476078	0.996145
970.774639	0.997236
971.073162	0.997091
971.371649	0.995813
971.670098	0.995344
971.968510	0.997426
972.266885	0.996017
972.565223	0.996361
972.863524	0.995500
973.161788	0.995622
973.460014	0.998799
973.758204	0.994671
974.056356	0.996202
974.354471	0.994118
974.652550	0.996573
974.950591	0.996198
975.248595	0.996149
975.546563	0.996700
975.844493	0.997423
976.142386	0.996905
976.440243	0.996192
976.738062	0.996658
977.035845	0.998421
977.333590	0.996307
977.631299	0.997082
977.928971	0.996892
978.226606	0.996659
978.524204	0.995807
978.821765	0.997748
979.119290	0.996735
979.416777	0.995893
979.714228	0.997175
980.011642	0.995293
980.309020	0.997324
980.606360	0.996451
980.903664	0.998147
981.200931	0.995191
981.498162	0.995425
981.795356	0.995190
982.092513	0.994832
982.389633	0.995438
982.686717	0.991773
982.983764	0.992403
983.280775	0.990334
983.577749	0.991203
983.874686	0.991568
984.171587	0.991545
984.468451	0.993033
984.765279	0.995377
985.062070	0.994484
985.358824	0.994642
985.655543	0.994692
985.952224	0.995901
986.248869	0.996741
986.545478	0.996226
986.842050	0.997930
987.138586	0.994713
987.435086	0.996942
987.731549	0.998459
988.027975	0.997271
988.324366	0.997141
988.620719	0.998199
988.917037	0.997192
989.213318	0.998032
989.509563	0.998002
989.805772	0.997373
990.101944	0.997975
990.398080	0.996221
990.694180	0.997444
990.990244	0.997383
991.286271	0.998710
991.582262	0.998228
991.878217	0.997471
992.174136	0.999100
992.470019	0.997732
992.765865	0.998342
993.061676	0.997868
993.357450	0.997249
993.653188	0.996977
993.948890	0.997011
994.244556	0.997442
994.540186	0.997200
994.835780	0.996984
995.131337	0.997405
995.426859	0.995984
995.722345	0.997990
996.017795	0.996493
996.313208	0.996260
996.608586	0.996074
996.903928	0.996888
997.199234	0.995048
997.494504	0.996243
997.789738	0.995564
998.084936	0.996755
998.380099	0.997341
998.675225	0.997566
998.970316	0.998074
999.265371	0.998904
999.560390	0.997264
999.855373	0.998673
1000.150320	0.997839
1000.445232	0.997525
1000.740108	0.996902
1001.034948	0.996791
1001.329752	0.998983
1001.624521	0.997891
1001.919254	0.997673
1002.213951	0.997932
1002.508613	0.998911
1002.803239	0.998478
1003.097829	0.999384
1003.392384	0.999131
1003.686903	0.997836
1003.981386	0.997491
1004.275834	0.998366
1004.570246	0.999018
1004.864623	0.998729
1005.158964	0.998748
1005.453270	0.998291
1005.747540	0.997047
1006.041775	0.998442
1006.335974	0.999017
1006.630138	1.000145
1006.924266	0.999441
1007.218359	0.999636
1007.512416	0.999192
1007.806438	0.997865
1008.100425	0.998981
1008.394376	0.998319
1008.688292	0.997910
1008.982172	1.000275
1009.276017	0.997545
1009.569827	0.998461
1009.863602	0.998705
1010.157341	0.999667
1010.451045	0.998654
1010.744714	0.998324
1011.038347	0.999187
1011.331945	0.998540
1011.625508	0.997398
1011.919036	0.998095
1012.212528	0.998290
1012.505986	0.997696
1012.799408	0.998771
1013.092795	0.999968
1013.386147	0.998360
1013.679464	0.999135
1013.972745	0.998586
1014.265992	0.998067
1014.559204	0.999515
1014.852380	0.998311
1015.145521	0.999117
1015.438628	0.998830
1015.731699	0.997955
1016.024736	0.998458
1016.317737	0.998721
1016.610703	0.998778
1016.903635	0.998684
1017.196531	0.998396
1017.489393	0.998578
1017.782219	0.998656
1018.075011	0.998679
1018.367768	0.997462
1018.660490	0.999651
1018.953177	0.999651
1019.245829	0.999651
