Dividing Wavelength (nm)	Counts (n)	Blue Motor Position (mm): 0.000000	Red Motor Position (mm): 37.400000	
326.493990	1.001776
326.888308	1.001776
327.282561	1.001776
327.676750	1.000350
328.070874	0.999183
328.464933	1.000834
328.858929	1.000057
329.252859	1.000422
329.646726	1.000074
330.040528	0.999390
330.434265	0.999286
330.827938	1.000620
331.221547	1.000973
331.615091	1.000551
332.008571	1.000781
332.401986	1.000664
332.795338	0.999999
333.188625	0.998472
333.581847	1.000877
333.975006	0.999811
334.368100	0.998930
334.761129	1.000617
335.154095	1.000294
335.546996	0.999056
335.939833	0.997310
336.332606	0.997331
336.725315	0.998255
337.117960	0.997807
337.510540	0.997130
337.903056	0.998238
338.295508	0.996658
338.687896	0.998039
339.080220	0.998664
339.472480	0.997883
339.864676	0.998024
340.256807	0.998393
340.648875	0.998293
341.040879	0.998033
341.432818	0.997715
341.824694	0.996989
342.216506	0.997845
342.608253	0.998512
342.999937	0.997258
343.391557	0.996975
343.783113	0.997839
344.174605	0.997879
344.566033	0.997420
344.957397	0.997345
345.348697	0.997823
345.739934	0.997311
346.131106	0.996854
346.522215	0.997439
346.913260	0.997001
347.304241	0.997379
347.695159	0.997834
348.086012	0.996427
348.476802	0.998053
348.867528	0.997115
349.258191	0.996713
349.648789	0.998331
350.039324	0.997566
350.429796	0.998047
350.820203	0.997109
351.210548	0.997057
351.600828	0.998690
351.991045	0.998573
352.381198	0.996884
352.771288	0.997457
353.161314	0.997669
353.551276	0.998205
353.941175	0.996553
354.331010	0.997865
354.720782	0.997618
355.110490	0.998374
355.500135	0.997414
355.889717	0.997453
356.279235	0.997878
356.668689	0.997713
357.058080	0.997324
357.447408	0.998726
357.836672	0.998601
358.225873	0.997659
358.615010	0.997804
359.004084	0.998456
359.393095	0.997727
359.782043	0.997210
360.170927	0.998464
360.559748	0.997683
360.948505	0.996632
361.337199	0.997326
361.725830	0.997789
362.114398	0.997843
362.502903	0.998020
362.891344	0.998341
363.279722	0.997062
363.668037	0.998660
364.056289	0.996912
364.444478	0.998683
364.832603	0.997944
365.220665	0.997498
365.608665	0.997317
365.996601	0.997841
366.384474	0.998549
366.772284	0.997466
367.160031	0.996684
367.547715	0.996445
367.935336	0.998113
368.322893	0.996730
368.710388	0.996676
369.097820	0.996533
369.485189	0.997588
369.872495	0.997844
370.259738	0.994925
370.646918	0.998275
371.034035	0.997638
371.421090	0.997177
371.808081	0.998168
372.195010	0.997484
372.581875	0.997790
372.968678	0.997008
373.355418	0.997641
373.742096	0.996728
374.128710	0.998297
374.515262	0.996803
374.901751	0.997939
375.288177	0.997508
375.674540	0.998652
376.060841	0.996818
376.447079	0.998064
376.833254	0.997840
377.219367	0.998244
377.605417	0.998509
377.991404	0.998346
378.377329	0.998031
378.763191	0.997937
379.148991	0.999826
379.534727	0.997537
379.920402	0.998349
380.306013	0.998650
380.691563	0.998815
381.077049	0.998499
381.462474	0.998317
381.847835	0.998683
382.233134	0.998911
382.618371	0.998409
383.003545	0.998088
383.388657	0.999016
383.773706	0.999042
384.158693	0.999222
384.543618	0.998197
384.928480	0.998723
385.313280	0.999006
385.698017	1.000109
386.082692	0.999053
386.467305	0.999263
386.851856	0.999188
387.236344	0.999044
387.620770	0.998478
388.005133	0.999166
388.389435	0.999783
388.773674	0.998861
389.157851	0.998808
389.541965	0.999397
389.926018	0.998523
390.310008	0.999816
390.693936	0.998845
391.077802	0.999652
391.461606	0.999736
391.845348	0.999315
392.229027	1.000224
392.612645	0.999390
392.996200	1.000016
393.379694	0.999177
393.763125	1.000482
394.146494	1.000089
394.529801	0.999127
394.913047	0.998936
395.296230	0.998801
395.679351	0.999884
396.062410	0.998065
396.445408	1.000561
396.828343	0.999760
397.211217	0.998859
397.594028	0.999570
397.976778	0.999485
398.359466	0.999464
398.742092	0.998677
399.124656	0.999610
399.507158	0.999589
399.889598	0.999594
400.271977	0.999806
400.654294	1.000184
401.036549	1.000713
401.418742	1.000153
401.800874	0.999128
402.182944	1.000251
402.564952	0.998182
402.946898	1.000578
403.328783	1.000355
403.710606	0.999967
404.092367	1.000392
404.474067	0.999631
404.855705	1.000309
405.237282	1.000022
405.618797	0.998384
406.000250	0.998834
406.381642	1.000329
406.762972	1.000144
407.144240	1.000917
407.525447	1.000143
407.906593	1.000034
408.287677	0.999632
408.668700	1.000664
409.049661	0.999041
409.430560	0.999835
409.811399	0.999241
410.192176	0.999225
410.572891	0.999443
410.953545	0.998695
411.334138	0.998573
411.714669	1.000779
412.095139	0.999258
412.475547	1.000216
412.855894	0.999162
413.236180	0.999720
413.616405	0.999343
413.996568	1.000693
414.376670	0.999974
414.756711	0.998868
415.136691	0.999426
415.516609	1.000963
415.896466	0.999316
416.276262	0.999066
416.655997	0.999640
417.035670	0.999496
417.415283	1.000226
417.794834	0.999975
418.174324	0.999645
418.553753	1.000032
418.933121	0.999581
419.312428	0.999741
419.691674	0.999070
420.070859	1.000369
420.449983	1.000190
420.829045	0.999398
421.208047	1.000663
421.586988	1.000659
421.965867	0.999658
422.344686	1.000453
422.723444	0.999537
423.102141	1.000528
423.480777	1.000016
423.859352	0.999900
424.237866	0.999587
424.616319	1.000367
424.994712	1.000141
425.373044	1.000291
425.751314	1.000510
426.129524	1.000117
426.507673	1.000067
426.885762	1.001150
427.263789	0.999667
427.641756	0.999971
428.019662	1.001580
428.397508	0.999585
428.775292	0.998485
429.153016	1.000267
429.530679	0.999954
429.908282	0.999981
430.285824	1.000009
430.663305	0.999527
431.040726	0.998830
431.418086	1.001215
431.795385	1.000784
432.172624	0.999960
432.549802	1.000554
432.926920	0.999880
433.303977	0.998965
433.680974	1.000095
434.057910	0.999597
434.434786	1.000803
434.811601	1.000060
435.188355	0.999832
435.565050	0.999223
435.941683	0.999883
436.318257	1.001320
436.694770	0.998976
437.071222	1.000276
437.447614	1.000201
437.823946	1.000352
438.200218	1.000356
438.576429	1.000790
438.952580	1.001391
439.328670	0.999193
439.704700	1.000027
440.080670	1.000365
440.456580	0.999889
440.832429	1.000128
441.208218	0.999563
441.583947	1.000121
441.959616	1.000174
442.335224	0.999315
442.710773	1.000742
443.086261	1.000381
443.461689	1.000253
443.837057	0.999276
444.212365	1.000399
444.587612	0.999475
444.962800	0.999798
445.337927	1.000135
445.712995	1.001004
446.088002	1.001019
446.462949	0.999980
446.837837	1.000200
447.212664	1.001020
447.587431	1.000183
447.962139	1.000410
448.336786	1.000419
448.711374	1.000710
449.085901	1.000052
449.460369	1.001340
449.834776	0.999747
450.209124	1.000051
450.583412	1.000155
450.957640	0.999789
451.331808	0.999839
451.705917	1.000196
452.079965	0.999588
452.453954	1.000094
452.827883	1.000058
453.201752	1.000157
453.575562	1.000731
453.949311	1.000860
454.323001	1.000475
454.696632	1.000692
455.070202	0.999995
455.443713	0.999487
455.817164	1.000320
456.190556	1.000682
456.563888	0.999325
456.937160	1.000729
457.310373	1.000222
457.683526	0.999834
458.056619	0.999092
458.429653	1.001069
458.802628	1.000201
459.175542	0.999833
459.548398	1.000254
459.921194	0.999759
460.293930	1.000355
460.666607	0.999938
461.039224	0.998916
461.411782	0.999915
461.784280	0.999535
462.156719	1.001011
462.529099	1.000434
462.901419	1.000529
463.273680	1.000291
463.645882	1.000294
464.018024	0.999976
464.390106	1.000094
464.762130	1.000678
465.134094	0.999649
465.505999	1.001115
465.877845	1.000499
466.249631	1.000507
466.621358	1.000651
466.993026	1.000640
467.364634	1.000507
467.736184	1.000643
468.107674	0.999433
468.479105	0.999453
468.850477	1.000363
469.221790	1.000555
469.593043	1.000813
469.964238	1.001656
470.335373	1.000292
470.706449	1.000416
471.077467	1.000857
471.448425	0.999991
471.819324	1.000913
472.190164	1.000488
472.560945	1.000536
472.931667	1.000049
473.302330	1.000350
473.672934	1.000431
474.043479	1.000179
474.413965	0.999984
474.784393	1.000250
475.154761	0.999901
475.525070	0.999796
475.895321	1.000588
476.265513	1.000036
476.635645	1.000122
477.005719	1.000360
477.375734	0.999911
477.745691	1.000272
478.115588	1.000178
478.485427	1.000345
478.855207	1.000054
479.224928	1.000376
479.594591	1.000587
479.964194	1.000505
480.333739	1.000504
480.703226	1.000246
481.072653	1.000312
481.442022	1.001093
481.811333	1.000324
482.180584	1.001232
482.549777	0.999957
482.918912	1.000010
483.287988	1.000339
483.657005	1.000609
484.025964	1.000683
484.394864	1.001125
484.763706	1.000546
485.132489	1.000865
485.501213	1.000728
485.869879	1.000369
486.238487	1.000379
486.607036	1.001402
486.975527	1.000099
487.343959	0.999913
487.712333	1.000252
488.080648	1.000924
488.448905	1.000468
488.817104	1.001010
489.185244	1.001273
489.553326	1.000485
489.921350	1.000295
490.289315	1.000554
490.657222	1.000811
491.025070	1.000714
491.392861	1.000474
491.760593	1.000718
492.128267	1.000212
492.495883	1.000271
492.863440	1.000610
493.230939	1.001038
493.598380	1.000012
493.965763	0.999447
494.333088	1.000583
494.700354	0.999940
495.067563	1.000625
495.434713	1.000309
495.801805	1.000856
496.168839	1.000504
496.535815	1.000143
496.902733	1.000049
497.269593	1.000484
497.636395	0.999760
498.003139	1.000576
498.369825	1.000642
498.736453	1.000781
499.103023	1.000292
499.469535	1.000517
499.835989	0.999544
500.202385	0.999432
500.568723	0.999925
500.935003	1.000438
501.301226	1.000453
501.667390	1.000147
502.033497	1.000275
502.399546	1.000620
502.765537	0.999759
503.131470	1.000141
503.497345	0.999914
503.863163	1.000816
504.228923	1.000220
504.594625	1.000401
504.960269	1.000794
505.325856	1.000310
505.691385	0.999678
506.056856	1.000327
506.422270	0.999141
506.787625	1.000217
507.152924	1.000299
507.518164	0.999976
507.883347	0.999326
508.248472	0.999443
508.613540	0.999777
508.978550	1.000178
509.343503	0.998835
509.708398	1.000065
510.073236	0.999734
510.438016	1.000507
510.802738	1.000254
511.167403	0.999914
511.532010	0.999934
511.896561	0.999215
512.261053	1.000320
512.625488	0.999528
512.989866	0.999620
513.354186	0.999566
513.718449	0.999630
514.082655	0.999622
514.446803	0.999557
514.810894	0.999707
515.174927	0.999558
515.538904	0.998893
515.902822	0.999209
516.266684	0.999710
516.630488	1.000250
516.994235	0.998959
517.357925	0.999269
517.721558	0.999313
518.085133	0.998384
518.448651	1.000032
518.812112	0.998932
519.175516	0.998807
519.538863	0.999758
519.902152	0.998756
520.265385	0.998616
520.628560	0.998868
520.991678	0.999113
521.354739	0.998945
521.717743	0.999517
522.080690	0.999671
522.443580	0.998266
522.806413	0.998219
523.169189	0.998008
523.531908	0.998492
523.894569	0.998139
524.257174	0.998305
524.619722	0.998420
524.982213	0.997786
525.344647	0.998071
525.707025	0.997736
526.069345	0.996995
526.431608	0.996901
526.793815	0.997866
527.155964	0.996594
527.518057	0.997274
527.880093	0.996912
528.242072	0.997408
528.603995	0.995873
528.965860	0.997046
529.327669	0.996556
529.689421	0.995953
530.051117	0.996154
530.412755	0.995670
530.774337	0.996169
531.135862	0.995368
531.497331	0.995455
531.858743	0.994673
532.220098	0.994667
532.581396	0.994826
532.942638	0.994006
533.303824	0.993753
533.664953	0.993375
534.026025	0.993015
534.387040	0.992515
534.747999	0.992090
535.108902	0.992451
535.469748	0.991525
535.830537	0.990478
536.191270	0.990483
536.551947	0.990439
536.912567	0.989970
537.273131	0.989915
537.633638	0.988033
537.994089	0.988511
538.354483	0.987983
538.714821	0.987442
539.075103	0.987248
539.435328	0.986004
539.795497	0.985367
540.155609	0.984291
540.515665	0.983752
540.875665	0.983507
541.235609	0.982825
541.595496	0.981937
541.955328	0.980654
542.315102	0.980400
542.674821	0.980013
543.034483	0.978763
543.394090	0.977282
543.753640	0.977364
544.113134	0.976349
544.472571	0.975747
544.831953	0.974924
545.191278	0.974091
545.550548	0.973709
545.909761	0.971067
546.268918	0.969792
546.628019	0.969411
546.987064	0.967657
547.346053	0.967789
547.704986	0.965986
548.063863	0.964991
548.422684	0.964070
548.781449	0.963111
549.140158	0.960570
549.498811	0.960311
549.857408	0.959335
550.215949	0.956356
550.574434	0.955674
550.932864	0.953812
551.291237	0.953276
551.649555	0.951100
552.007817	0.949419
552.366022	0.948369
552.724173	0.946650
553.082267	0.944853
553.440305	0.941503
553.798288	0.941719
554.156215	0.939166
554.514086	0.937103
554.871902	0.935949
555.229661	0.934133
555.587365	0.931981
555.945014	0.931020
556.302606	0.926571
556.660143	0.926498
557.017625	0.923063
557.375050	0.921383
557.732421	0.918933
558.089735	0.917020
558.446994	0.915233
558.804197	0.912694
559.161345	0.910584
559.518437	0.909212
559.875474	0.904708
560.232455	0.902381
560.589381	0.901724
560.946251	0.896818
561.303065	0.895828
561.659825	0.893364
562.016528	0.890647
562.373177	0.889579
562.729770	0.884295
563.086307	0.883500
563.442789	0.880515
563.799216	0.876753
564.155587	0.873744
564.511904	0.871309
564.868164	0.867659
565.224370	0.866223
565.580520	0.862290
565.936615	0.860564
566.292654	0.857862
566.648638	0.854735
567.004567	0.850873
567.360441	0.849026
567.716260	0.845821
568.072023	0.842334
568.427732	0.838608
568.783385	0.837526
569.138982	0.832089
569.494525	0.829261
569.850013	0.826882
570.205445	0.822190
570.560823	0.820094
570.916145	0.816097
571.271412	0.812882
571.626625	0.809406
571.981782	0.806754
572.336884	0.803567
572.691931	0.801070
573.046923	0.795675
573.401860	0.793317
573.756743	0.790274
574.111570	0.786829
574.466342	0.784088
574.821059	0.779961
575.175722	0.776698
575.530330	0.773778
575.884882	0.769879
576.239380	0.766552
576.593823	0.763032
576.948211	0.759234
577.302544	0.757917
577.656823	0.752403
578.011047	0.749405
578.365216	0.745897
578.719330	0.743230
579.073389	0.739306
579.427394	0.737230
579.781344	0.734413
580.135239	0.730019
580.489080	0.726524
580.842866	0.723820
581.196597	0.719485
581.550273	0.715687
581.903895	0.712202
582.257463	0.708514
582.610975	0.704675
582.964434	0.701929
583.317837	0.699298
583.671186	0.696273
584.024481	0.692410
584.377721	0.690091
584.730906	0.686776
585.084037	0.682171
585.437113	0.681065
585.790135	0.675650
586.143103	0.673579
586.496016	0.671422
586.848874	0.665606
587.201679	0.663668
587.554428	0.660914
587.907124	0.656058
588.259765	0.653633
588.612352	0.649550
588.964884	0.649147
589.317362	0.644499
589.669786	0.640794
590.022155	0.637605
590.374470	0.632452
590.726731	0.631276
591.078937	0.628572
591.431090	0.622708
591.783188	0.623357
592.135232	0.618901
592.487222	0.616982
592.839157	0.611443
593.191038	0.610073
593.542866	0.607448
593.894639	0.606156
594.246358	0.601283
594.598022	0.597970
594.949633	0.596646
595.301190	0.593292
595.652692	0.589922
596.004141	0.583740
596.355535	0.585218
596.706876	0.582130
597.058162	0.580482
597.409395	0.576251
597.760573	0.571043
598.111698	0.570579
598.462768	0.566350
598.813785	0.566005
599.164748	0.562081
599.515657	0.560458
599.866511	0.558164
600.217312	0.553368
600.568060	0.553346
600.918753	0.548059
601.269392	0.545096
601.619978	0.544634
601.970510	0.539733
602.320988	0.537377
602.671412	0.531858
603.021783	0.531537
603.372100	0.529750
603.722363	0.525497
604.072572	0.524207
604.422728	0.521207
604.772830	0.520069
605.122878	0.516443
605.472872	0.514746
605.822813	0.509707
606.172701	0.509365
606.522534	0.505274
606.872314	0.502463
607.222041	0.499712
607.571714	0.496411
607.921333	0.494687
608.270899	0.491568
608.620411	0.486646
608.969870	0.487352
609.319276	0.485212
609.668627	0.482636
610.017926	0.479132
610.367171	0.475093
610.716362	0.473400
611.065500	0.471677
611.414585	0.467767
611.763616	0.466412
612.112594	0.464362
612.461518	0.461712
612.810389	0.457766
613.159207	0.456934
613.507971	0.456717
613.856682	0.451162
614.205340	0.450252
614.553945	0.445792
614.902496	0.446637
615.250994	0.442923
615.599439	0.441608
615.947830	0.438697
616.296169	0.438208
616.644454	0.435909
616.992686	0.434005
617.340864	0.430379
617.688990	0.431516
618.037063	0.427642
618.385082	0.427693
618.733048	0.423077
619.080961	0.423640
619.428821	0.421364
619.776628	0.419238
620.124382	0.419076
620.472083	0.417034
620.819731	0.415191
621.167326	0.416442
621.514868	0.414274
621.862357	0.416392
622.209793	0.414508
622.557176	0.414206
622.904506	0.413175
623.251783	0.413826
623.599007	0.414027
623.946179	0.411970
624.293297	0.411697
624.640363	0.413770
624.987376	0.412633
625.334336	0.414241
625.681243	0.414024
626.028097	0.413802
626.374899	0.413378
626.721647	0.411683
627.068343	0.413933
627.414987	0.413248
627.761577	0.413694
628.108115	0.411310
628.454600	0.415215
628.801032	0.411086
629.147412	0.412745
629.493739	0.411404
629.840014	0.413482
630.186236	0.409787
630.532405	0.413661
630.878521	0.410545
631.224585	0.411755
631.570597	0.414135
631.916556	0.411882
632.262462	0.411257
632.608316	0.412134
632.954117	0.411992
633.299866	0.411879
633.645562	0.411287
633.991206	0.414652
634.336797	0.415834
634.682336	0.416951
635.027823	0.417569
635.373257	0.417526
635.718639	0.419400
636.063968	0.418142
636.409245	0.422200
636.754470	0.421948
637.099642	0.424077
637.444762	0.426112
637.789829	0.424388
638.134845	0.427044
638.479808	0.427480
638.824719	0.426289
639.169577	0.429419
639.514383	0.427964
639.859137	0.430997
640.203839	0.430623
640.548489	0.430844
640.893086	0.431393
641.237632	0.432064
641.582125	0.430239
641.926566	0.431161
642.270955	0.430935
642.615292	0.430295
642.959576	0.429405
643.303809	0.429921
643.647990	0.428442
643.992118	0.428464
644.336195	0.431346
644.680219	0.428696
645.024192	0.429641
645.368112	0.423129
645.711981	0.421733
646.055797	0.416766
646.399562	0.419015
646.743274	0.410971
647.086935	0.408193
647.430544	0.408316
647.774101	0.406643
648.117606	0.405958
648.461059	0.406014
648.804460	0.407924
649.147810	0.412708
649.491108	0.413707
649.834354	0.414893
650.177548	0.419712
650.520690	0.424508
650.863781	0.425736
651.206820	0.424983
651.549807	0.428661
651.892742	0.432392
652.235626	0.431259
652.578458	0.432334
652.921238	0.437613
653.263967	0.435848
653.606644	0.438960
653.949269	0.438594
654.291843	0.442450
654.634365	0.438883
654.976836	0.441333
655.319255	0.441793
655.661622	0.443212
656.003938	0.442972
656.346203	0.445427
656.688416	0.442714
657.030577	0.446314
657.372687	0.447797
657.714746	0.448493
658.056753	0.445505
658.398708	0.449160
658.740612	0.449945
659.082465	0.445928
659.424266	0.446653
659.766016	0.445938
660.107715	0.448152
660.449362	0.447035
660.790958	0.447669
661.132503	0.447901
661.473996	0.445561
661.815438	0.446264
662.156829	0.446488
662.498168	0.447075
662.839456	0.447895
663.180693	0.445773
663.521879	0.445731
663.863013	0.446473
664.204097	0.444635
664.545129	0.441816
664.886110	0.441833
665.227040	0.439051
665.567918	0.441692
665.908746	0.439419
666.249522	0.439269
666.590248	0.440347
666.930922	0.438415
667.271545	0.436268
667.612118	0.437065
667.952639	0.438820
668.293109	0.437348
668.633528	0.440095
668.973896	0.439606
669.314213	0.439944
669.654480	0.441325
669.994695	0.441438
670.334859	0.442220
670.674973	0.442488
671.015035	0.442731
671.355047	0.442536
671.695008	0.443517
672.034918	0.445336
672.374777	0.445093
672.714585	0.445784
673.054342	0.445989
673.394049	0.445587
673.733705	0.443213
674.073310	0.444613
674.412864	0.447509
674.752368	0.447543
675.091820	0.447735
675.431223	0.452956
675.770574	0.451858
676.109875	0.454666
676.449125	0.455237
676.788324	0.457268
677.127473	0.462357
677.466571	0.462139
677.805619	0.463530
678.144616	0.465073
678.483562	0.466472
678.822458	0.469220
679.161303	0.469806
679.500098	0.469914
679.838842	0.471972
680.177535	0.471160
680.516179	0.470139
680.854771	0.468816
681.193314	0.463053
681.531805	0.454170
681.870247	0.442492
682.208638	0.434735
682.546978	0.433935
682.885268	0.435983
683.223508	0.441697
683.561697	0.445168
683.899836	0.447589
684.237925	0.451277
684.575963	0.453573
684.913951	0.456817
685.251889	0.452608
685.589776	0.454319
685.927614	0.457582
686.265401	0.451568
686.603137	0.452680
686.940824	0.446949
687.278460	0.444939
687.616046	0.443964
687.953582	0.439510
688.291068	0.440467
688.628504	0.436320
688.965889	0.438061
689.303224	0.442293
689.640510	0.446504
689.977745	0.451894
690.314930	0.459575
690.652065	0.464376
690.989150	0.472181
691.326185	0.478344
691.663170	0.482809
692.000105	0.489706
692.336990	0.497131
692.673825	0.499495
693.010610	0.506180
693.347345	0.511754
693.684030	0.512996
694.020665	0.518131
694.357251	0.526753
694.693786	0.526881
695.030272	0.530474
695.366707	0.533759
695.703093	0.537037
696.039429	0.535230
696.375716	0.536074
696.711952	0.539031
697.048139	0.541177
697.384276	0.543299
697.720363	0.541252
698.056400	0.540483
698.392388	0.546479
698.728326	0.548828
699.064214	0.551579
699.400053	0.552608
699.735842	0.556062
700.071581	0.558736
700.407270	0.561874
700.742910	0.563754
701.078501	0.570421
701.414042	0.571336
701.749533	0.574305
702.084974	0.582964
702.420366	0.574664
702.755709	0.583103
703.091002	0.590338
703.426246	0.583764
703.761440	0.589619
704.096584	0.594017
704.431679	0.591009
704.766725	0.593586
705.101721	0.595216
705.436668	0.590814
705.771565	0.598350
706.106413	0.594619
706.441212	0.590078
706.775961	0.588925
707.110661	0.591656
707.445311	0.588537
707.779913	0.585715
708.114465	0.584327
708.448967	0.580850
708.783421	0.572488
709.117825	0.567405
709.452180	0.567963
709.786485	0.560888
710.120742	0.551621
710.454949	0.552852
710.789107	0.545704
711.123216	0.537196
711.457275	0.538307
711.791286	0.529221
712.125247	0.528050
712.459159	0.538770
712.793023	0.532138
713.126837	0.535738
713.460602	0.535912
713.794318	0.545649
714.127985	0.543976
714.461602	0.554776
714.795171	0.557776
715.128691	0.564859
715.462162	0.572055
715.795584	0.578217
716.128957	0.580764
716.462281	0.587982
716.795556	0.591079
717.128782	0.596544
717.461960	0.605585
717.795088	0.603407
718.128167	0.609961
718.461198	0.618799
718.794180	0.619104
719.127113	0.622308
719.459997	0.625948
719.792833	0.631583
720.125619	0.632731
720.458357	0.639353
720.791046	0.638236
721.123686	0.641565
721.456278	0.649131
721.788821	0.645939
722.121315	0.649837
722.453761	0.654836
722.786158	0.652301
723.118506	0.648820
723.450805	0.656887
723.783056	0.652812
724.115259	0.650304
724.447412	0.649488
724.779518	0.650242
725.111574	0.649839
725.443582	0.645541
725.775542	0.647836
726.107453	0.640058
726.439315	0.639582
726.771129	0.638514
727.102895	0.631218
727.434612	0.624185
727.766281	0.621818
728.097901	0.621745
728.429473	0.621461
728.760996	0.619667
729.092471	0.620301
729.423897	0.623345
729.755276	0.622777
730.086606	0.623030
730.417887	0.617306
730.749120	0.608278
731.080305	0.598566
731.411442	0.595340
731.742530	0.599895
732.073570	0.599536
732.404562	0.591346
732.735506	0.593234
733.066401	0.597858
733.397249	0.607389
733.728048	0.618681
734.058798	0.630791
734.389501	0.640861
734.720156	0.650950
735.050762	0.658874
735.381320	0.659744
735.711831	0.668452
736.042293	0.674149
736.372707	0.669077
736.703073	0.674852
737.033391	0.676629
737.363661	0.673293
737.693883	0.668459
738.024056	0.668097
738.354182	0.668026
738.684260	0.657893
739.014290	0.653111
739.344272	0.654626
739.674207	0.647950
740.004093	0.647255
740.333931	0.647758
740.663722	0.647263
740.993464	0.647747
741.323159	0.652419
741.652806	0.656990
741.982405	0.660867
742.311956	0.666692
742.641460	0.668465
742.970915	0.672382
743.300323	0.679779
743.629683	0.685528
743.958996	0.688830
744.288260	0.692835
744.617477	0.698291
744.946647	0.699876
745.275768	0.705087
745.604842	0.705153
745.933869	0.715031
746.262847	0.714948
746.591778	0.708888
746.920662	0.714998
747.249498	0.721887
747.578286	0.712129
747.907027	0.709043
748.235720	0.709949
748.564365	0.704462
748.892963	0.704112
749.221514	0.706455
749.550017	0.712897
749.878473	0.712394
750.206881	0.718582
750.535242	0.719812
750.863555	0.719098
751.191821	0.720294
751.520039	0.723385
751.848210	0.728702
752.176334	0.720872
752.504411	0.719801
752.832440	0.728994
753.160421	0.732557
753.488356	0.730780
753.816243	0.727524
754.144082	0.735982
754.471875	0.739488
754.799620	0.734739
755.127318	0.736766
755.454969	0.736373
755.782572	0.736267
756.110129	0.741579
756.437638	0.743325
756.765100	0.740129
757.092515	0.737661
757.419882	0.736857
757.747203	0.741974
758.074477	0.740824
758.401703	0.739044
758.728882	0.733884
759.056014	0.733211
759.383099	0.731999
759.710138	0.733962
760.037129	0.730030
760.364073	0.723318
760.690970	0.725899
761.017820	0.731721
761.344623	0.726968
761.671379	0.717907
761.998088	0.707035
762.324751	0.684201
762.651366	0.643435
762.977935	0.576854
763.304456	0.525024
763.630931	0.515488
763.957359	0.554748
764.283740	0.598423
764.610074	0.625559
764.936362	0.656272
765.262602	0.682734
765.588796	0.704119
765.914943	0.721829
766.241044	0.739518
766.567097	0.745608
766.893104	0.754859
767.219064	0.761314
767.544978	0.768536
767.870845	0.781360
768.196665	0.785227
768.522438	0.783347
768.848165	0.784425
769.173846	0.792646
769.499479	0.797088
769.825066	0.800237
770.150607	0.806801
770.476101	0.801315
770.801548	0.802198
771.126949	0.813791
771.452303	0.816834
771.777611	0.816702
772.102872	0.814943
772.428087	0.821003
772.753256	0.824716
773.078378	0.826028
773.403453	0.835852
773.728482	0.840144
774.053465	0.832823
774.378401	0.837350
774.703291	0.845660
775.028135	0.844763
775.352932	0.846112
775.677683	0.849397
776.002388	0.849713
776.327046	0.849091
776.651658	0.852241
776.976224	0.855671
777.300743	0.855692
777.625216	0.857837
777.949643	0.860602
778.274024	0.860278
778.598359	0.861895
778.922647	0.860005
779.246889	0.860243
779.571086	0.864746
779.895236	0.867718
780.219339	0.863841
780.543397	0.861472
780.867409	0.859027
781.191374	0.862352
781.515294	0.862597
781.839167	0.863093
782.162995	0.865848
782.486776	0.862693
782.810511	0.862780
783.134201	0.866532
783.457844	0.864768
783.781441	0.868357
784.104993	0.873014
784.428498	0.873162
784.751958	0.868815
785.075372	0.871758
785.398739	0.875614
785.722061	0.871943
786.045337	0.867022
786.368568	0.872140
786.691752	0.875373
787.014891	0.860206
787.337983	0.851714
787.661030	0.844606
787.984031	0.827448
788.306987	0.813722
788.629897	0.816290
788.952760	0.821201
789.275579	0.825353
789.598351	0.839840
789.921078	0.852370
790.243759	0.854915
790.566395	0.860542
790.888984	0.867211
791.211529	0.872270
791.534027	0.874071
791.856480	0.877406
792.178888	0.883102
792.501249	0.883617
792.823566	0.885709
793.145836	0.885692
793.468062	0.888529
793.790241	0.888281
794.112375	0.885912
794.434464	0.881548
794.756507	0.880275
795.078505	0.880358
795.400457	0.875259
795.722364	0.863107
796.044226	0.856968
796.366042	0.855074
796.687812	0.858751
797.009538	0.856354
797.331218	0.856755
797.652852	0.863041
797.974442	0.867267
798.295986	0.867485
798.617484	0.869579
798.938938	0.874094
799.260346	0.879397
799.581709	0.880622
799.903026	0.883479
800.224299	0.883583
800.545526	0.887446
800.866708	0.891808
801.187845	0.894824
801.508936	0.895466
801.829983	0.893488
802.150984	0.895962
802.471940	0.900924
802.792851	0.899738
803.113717	0.900771
803.434538	0.898874
803.755314	0.901139
804.076045	0.902012
804.396731	0.902258
804.717372	0.902630
805.037967	0.903996
805.358518	0.902251
805.679024	0.899895
805.999485	0.900177
806.319901	0.899770
806.640272	0.900862
806.960598	0.899247
807.280879	0.896549
807.601115	0.895788
807.921306	0.899282
808.241453	0.899220
808.561554	0.896810
808.881611	0.896881
809.201623	0.898759
809.521590	0.899211
809.841513	0.900986
810.161390	0.900520
810.481223	0.900180
810.801011	0.904120
811.120755	0.906189
811.440453	0.905300
811.760107	0.903854
812.079716	0.902942
812.399281	0.906905
812.718801	0.908971
813.038276	0.909902
813.357707	0.910025
813.677093	0.906034
813.996434	0.909272
814.315731	0.911327
814.634983	0.911873
814.954191	0.910793
815.273354	0.908270
815.592473	0.904545
815.911547	0.903896
816.230577	0.902702
816.549562	0.899202
816.868502	0.900072
817.187399	0.895557
817.506250	0.891553
817.825058	0.893798
818.143821	0.889354
818.462539	0.884888
818.781213	0.876395
819.099843	0.866092
819.418429	0.850237
819.736970	0.834721
820.055466	0.814358
820.373919	0.788980
820.692327	0.756945
821.010691	0.723709
821.329011	0.649030
821.647286	0.535002
821.965517	0.423219
822.283704	0.380642
822.601847	0.382664
822.919945	0.418029
823.237999	0.450586
823.556010	0.496555
823.873976	0.551821
824.191897	0.600806
824.509775	0.643438
824.827609	0.687598
825.145398	0.709955
825.463144	0.712088
825.780845	0.695570
826.098502	0.676421
826.416116	0.631425
826.733685	0.588894
827.051210	0.581234
827.368692	0.595322
827.686129	0.631564
828.003522	0.683119
828.320872	0.730388
828.638177	0.773309
828.955439	0.804814
829.272656	0.827106
829.589830	0.843338
829.906960	0.859321
830.224046	0.870776
830.541088	0.881541
830.858086	0.886245
831.175041	0.891895
831.491952	0.890537
831.808819	0.887748
832.125642	0.880587
832.442421	0.866165
832.759157	0.845267
833.075849	0.800055
833.392497	0.737650
833.709101	0.696363
834.025662	0.707090
834.342179	0.737748
834.658653	0.776456
834.975083	0.811720
835.291469	0.836889
835.607811	0.858755
835.924110	0.873977
836.240366	0.892208
836.556578	0.904753
836.872746	0.912046
837.188871	0.918527
837.504952	0.923403
837.820990	0.926950
838.136984	0.931201
838.452935	0.932688
838.768842	0.933826
839.084706	0.927512
839.400526	0.903412
839.716303	0.863389
840.032037	0.841950
840.347727	0.845156
840.663373	0.863371
840.978977	0.884631
841.294537	0.905679
841.610054	0.921668
841.925527	0.929115
842.240957	0.935775
842.556344	0.943047
842.871687	0.948543
843.186987	0.953500
843.502244	0.953262
843.817458	0.954688
844.132629	0.958483
844.447756	0.963939
844.762840	0.963127
845.077881	0.961814
845.392879	0.962667
845.707833	0.965347
846.022745	0.966601
846.337613	0.967176
846.652438	0.968888
846.967221	0.966083
847.281960	0.967274
847.596656	0.969456
847.911309	0.967828
848.225919	0.969536
848.540485	0.969972
848.855009	0.970835
849.169490	0.969471
849.483928	0.971389
849.798323	0.970468
850.112675	0.971525
850.426984	0.971521
850.741251	0.971677
851.055474	0.972896
851.369654	0.970929
851.683792	0.972250
851.997887	0.970376
852.311938	0.972206
852.625947	0.972879
852.939914	0.969919
853.253837	0.971638
853.567718	0.973289
853.881555	0.971866
854.195350	0.970604
854.509103	0.972249
854.822812	0.972000
855.136479	0.972362
855.450103	0.971794
855.763685	0.971015
856.077224	0.970774
856.390720	0.973383
856.704173	0.972248
857.017584	0.970795
857.330953	0.969699
857.644278	0.968998
857.957561	0.970723
858.270802	0.970142
858.584000	0.970684
858.897155	0.967804
859.210268	0.969018
859.523339	0.970399
859.836367	0.972564
860.149352	0.973545
860.462295	0.970375
860.775195	0.972413
861.088054	0.971739
861.400869	0.971279
861.713642	0.972195
862.026373	0.972948
862.339062	0.972169
862.651708	0.970555
862.964312	0.969212
863.276873	0.971415
863.589392	0.970044
863.901869	0.968775
864.214303	0.966606
864.526696	0.966852
864.839045	0.965156
865.151353	0.964768
865.463619	0.964399
865.775842	0.965595
866.088023	0.965279
866.400162	0.964377
866.712258	0.964039
867.024313	0.964426
867.336325	0.965447
867.648296	0.965687
867.960224	0.964797
868.272110	0.963835
868.583954	0.967275
868.895755	0.965694
869.207515	0.965130
869.519233	0.962755
869.830909	0.963225
870.142542	0.964382
870.454134	0.963984
870.765684	0.963368
871.077191	0.961454
871.388657	0.962519
871.700081	0.960596
872.011463	0.961287
872.322803	0.960477
872.634101	0.959267
872.945357	0.957825
873.256571	0.955452
873.567744	0.956526
873.878874	0.956138
874.189963	0.954930
874.501010	0.954642
874.812015	0.952302
875.122979	0.953665
875.433900	0.955607
875.744780	0.956757
876.055618	0.954837
876.366415	0.952693
876.677169	0.953715
876.987882	0.954614
877.298554	0.953970
877.609183	0.951831
877.919771	0.948562
878.230317	0.946530
878.540822	0.944553
878.851285	0.939068
879.161707	0.931060
879.472087	0.919758
879.782425	0.904199
880.092722	0.871863
880.402977	0.821674
880.713191	0.763667
881.023363	0.706634
881.333494	0.673928
881.643583	0.646155
881.953631	0.645790
882.263637	0.674967
882.573602	0.713643
882.883526	0.737113
883.193408	0.760287
883.503248	0.780650
883.813048	0.807889
884.122806	0.836322
884.432522	0.859682
884.742197	0.877124
885.051831	0.888473
885.361424	0.896842
885.670975	0.909697
885.980485	0.918364
886.289954	0.924055
886.599382	0.929390
886.908768	0.933165
887.218113	0.938038
887.527417	0.942865
887.836680	0.946084
888.145901	0.947012
888.455082	0.949525
888.764221	0.954334
889.073319	0.955993
889.382376	0.955409
889.691392	0.957555
890.000366	0.955945
890.309300	0.957453
890.618193	0.956387
890.927044	0.954406
891.235855	0.955238
891.544625	0.956084
891.853353	0.955214
892.162041	0.953435
892.470687	0.946850
892.779293	0.942128
893.087858	0.938259
893.396381	0.932103
893.704864	0.919287
894.013306	0.895389
894.321707	0.869888
894.630068	0.856414
894.938387	0.852975
895.246665	0.853171
895.554903	0.865143
895.863100	0.877528
896.171256	0.893614
896.479371	0.911927
896.787446	0.925237
897.095480	0.930871
897.403473	0.933247
897.711425	0.936730
898.019336	0.943725
898.327207	0.946691
898.635038	0.950179
898.942827	0.948319
899.250576	0.952563
899.558284	0.955985
899.865952	0.958127
900.173579	0.958463
900.481165	0.959184
900.788711	0.962868
901.096216	0.965458
901.403681	0.965518
901.711105	0.966395
902.018489	0.965708
902.325832	0.965245
902.633135	0.965177
902.940397	0.960476
903.247619	0.948035
903.554800	0.923442
903.861941	0.886144
904.169041	0.853810
904.476101	0.835979
904.783121	0.837908
905.090100	0.853104
905.397039	0.873722
905.703938	0.893912
906.010796	0.911639
906.317614	0.929401
906.624391	0.939239
906.931129	0.948548
907.237826	0.956535
907.544483	0.962457
907.851099	0.966366
908.157675	0.970208
908.464211	0.972191
908.770707	0.975917
909.077163	0.976891
909.383578	0.977531
909.689954	0.977918
909.996289	0.977931
910.302584	0.980346
910.608839	0.982047
910.915054	0.980838
911.221229	0.980501
911.527363	0.979605
911.833458	0.979340
912.139513	0.978843
912.445527	0.978396
912.751502	0.976404
913.057436	0.974680
913.363331	0.974078
913.669186	0.969727
913.975000	0.964755
914.280775	0.959830
914.586510	0.953297
914.892205	0.940536
915.197859	0.920251
915.503475	0.894579
915.809050	0.876180
916.114585	0.872176
916.420081	0.871262
916.725536	0.865949
917.030952	0.873184
917.336328	0.885800
917.641665	0.899093
917.946961	0.915199
918.252218	0.926572
918.557435	0.933931
918.862612	0.941015
919.167750	0.947804
919.472848	0.951587
919.777906	0.957764
920.082925	0.962879
920.387904	0.965780
920.692843	0.966472
920.997743	0.968117
921.302603	0.970900
921.607423	0.972271
921.912204	0.974808
922.216946	0.974422
922.521647	0.975972
922.826310	0.977685
923.130932	0.979628
923.435516	0.981315
923.740059	0.981743
924.044564	0.981551
924.349028	0.983187
924.653454	0.985641
924.957840	0.986871
925.262186	0.985892
925.566493	0.985499
925.870761	0.986076
926.174989	0.988263
926.479178	0.991316
926.783328	0.990530
927.087438	0.989445
927.391509	0.989469
927.695541	0.991639
927.999533	0.991667
928.303486	0.991809
928.607400	0.993081
928.911275	0.990813
929.215110	0.992274
929.518906	0.992782
929.822663	0.991277
930.126381	0.994111
930.430060	0.991826
930.733699	0.991733
931.037299	0.990359
931.340861	0.992839
931.644383	0.990623
931.947866	0.990145
932.251309	0.992351
932.554714	0.992475
932.858080	0.991096
933.161407	0.993018
933.464694	0.992513
933.767943	0.991314
934.071153	0.992690
934.374323	0.993045
934.677455	0.993013
934.980548	0.993693
935.283602	0.992695
935.586617	0.992196
935.889593	0.992267
936.192530	0.993107
936.495428	0.991914
936.798287	0.992200
937.101108	0.991955
937.403890	0.990263
937.706632	0.990030
938.009336	0.988274
938.312002	0.986358
938.614628	0.986005
938.917216	0.986605
939.219765	0.984641
939.522275	0.985914
939.824747	0.984928
940.127179	0.985771
940.429573	0.986005
940.731929	0.986098
941.034246	0.986967
941.336524	0.987306
941.638763	0.988476
941.940964	0.988848
942.243126	0.989079
942.545250	0.989348
942.847335	0.989106
943.149381	0.989261
943.451389	0.990167
943.753359	0.990067
944.055290	0.992223
944.357182	0.991636
944.659036	0.990523
944.960851	0.991480
945.262628	0.991446
945.564367	0.992305
945.866067	0.991457
946.167729	0.990114
946.469352	0.992455
946.770937	0.989670
947.072484	0.992541
947.373992	0.991917
947.675462	0.991220
947.976893	0.991506
948.278286	0.992036
948.579641	0.993389
948.880958	0.992577
949.182236	0.993493
949.483476	0.992471
949.784678	0.991691
950.085841	0.993625
950.386967	0.993474
950.688054	0.992701
950.989103	0.992186
951.290114	0.991120
951.591087	0.991430
951.892021	0.990710
952.192917	0.990400
952.493776	0.990174
952.794596	0.990319
953.095378	0.989552
953.396122	0.990125
953.696828	0.988711
953.997496	0.991795
954.298126	0.991903
954.598718	0.992289
954.899272	0.993440
955.199788	0.991908
955.500266	0.992889
955.800706	0.993953
956.101108	0.994724
956.401472	0.995418
956.701798	0.994428
957.002087	0.994300
957.302337	0.995145
957.602550	0.996398
957.902724	0.996361
958.202861	0.996296
958.502960	0.996863
958.803022	0.994124
959.103045	0.997146
959.403031	0.996473
959.702979	0.996677
960.002889	0.997217
960.302762	0.995134
960.602596	0.997155
960.902393	0.996606
961.202153	0.997730
961.501875	0.997235
961.801559	0.996905
962.101205	0.996929
962.400814	0.997934
962.700385	0.997511
962.999918	0.997557
963.299414	0.997496
963.598873	0.996535
963.898293	0.997400
964.197677	0.996441
964.497022	0.998048
964.796331	0.998324
965.095601	0.998808
965.394835	0.997344
965.694030	0.998258
965.993189	0.998067
966.292309	0.998340
966.591393	0.998987
966.890439	0.997942
967.189447	0.997951
967.488419	0.998072
967.787353	0.996939
968.086249	0.997978
968.385108	0.997958
968.683930	0.998317
968.982714	0.997868
969.281462	0.998953
969.580172	0.997010
969.878844	0.997629
970.177480	0.998413
970.476078	0.997324
970.774639	0.997893
971.073162	0.997509
971.371649	0.998005
971.670098	0.997857
971.968510	1.000088
972.266885	0.997896
972.565223	0.997725
972.863524	0.996314
973.161788	0.997367
973.460014	0.998534
973.758204	0.996305
974.056356	0.997986
974.354471	0.996362
974.652550	0.997694
974.950591	0.997234
975.248595	0.997240
975.546563	0.998332
975.844493	0.998579
976.142386	0.998241
976.440243	0.998311
976.738062	0.996630
977.035845	0.999346
977.333590	0.998741
977.631299	0.997057
977.928971	0.997024
978.226606	0.997039
978.524204	0.996963
978.821765	0.998364
979.119290	0.996017
979.416777	0.998451
979.714228	0.996902
980.011642	0.996958
980.309020	0.998083
980.606360	0.997022
980.903664	0.998458
981.200931	0.997472
981.498162	0.996682
981.795356	0.996716
982.092513	0.995656
982.389633	0.995423
982.686717	0.993661
982.983764	0.992425
983.280775	0.991368
983.577749	0.992407
983.874686	0.992797
984.171587	0.993445
984.468451	0.995819
984.765279	0.995002
985.062070	0.994962
985.358824	0.996185
985.655543	0.996417
985.952224	0.997383
986.248869	0.997147
986.545478	0.998138
986.842050	0.999020
987.138586	0.995950
987.435086	0.998706
987.731549	0.999993
988.027975	0.998314
988.324366	0.999347
988.620719	0.996660
988.917037	0.997302
989.213318	0.998870
989.509563	0.999345
989.805772	0.999973
990.101944	0.998958
990.398080	0.997928
990.694180	0.999071
990.990244	0.998489
991.286271	0.999410
991.582262	0.998762
991.878217	0.999204
992.174136	0.999196
992.470019	0.999351
992.765865	0.998567
993.061676	0.999837
993.357450	0.997674
993.653188	0.997757
993.948890	0.997702
994.244556	0.998485
994.540186	0.998752
994.835780	0.997064
995.131337	0.998398
995.426859	0.997121
995.722345	0.998149
996.017795	0.996300
996.313208	0.996279
996.608586	0.996158
996.903928	0.996199
997.199234	0.996422
997.494504	0.998006
997.789738	0.997185
998.084936	0.996257
998.380099	0.999079
998.675225	0.997720
998.970316	0.998863
999.265371	0.999664
999.560390	0.998918
999.855373	0.998890
1000.150320	0.999162
1000.445232	0.998427
1000.740108	0.999079
1001.034948	0.999673
1001.329752	0.999351
1001.624521	0.999540
1001.919254	0.998860
1002.213951	0.999266
1002.508613	0.998255
1002.803239	0.998824
1003.097829	1.000759
1003.392384	0.999923
1003.686903	0.998825
1003.981386	0.999783
1004.275834	0.999471
1004.570246	0.998932
1004.864623	0.999533
1005.158964	1.000406
1005.453270	0.999753
1005.747540	0.998308
1006.041775	0.998531
1006.335974	0.999059
1006.630138	1.000637
1006.924266	1.000115
1007.218359	1.001133
1007.512416	0.999767
1007.806438	0.999038
1008.100425	0.999512
1008.394376	0.998719
1008.688292	0.998817
1008.982172	1.001630
1009.276017	1.000054
1009.569827	0.998846
1009.863602	0.999965
1010.157341	1.000912
1010.451045	1.000221
1010.744714	1.000602
1011.038347	0.999295
1011.331945	0.999446
1011.625508	0.999122
1011.919036	0.998634
1012.212528	0.999073
1012.505986	0.998166
1012.799408	0.999031
1013.092795	0.999825
1013.386147	1.000787
1013.679464	0.998864
1013.972745	0.998732
1014.265992	0.996687
1014.559204	0.999705
1014.852380	0.999084
1015.145521	0.998822
1015.438628	0.999935
1015.731699	0.998707
1016.024736	0.999530
1016.317737	0.999076
1016.610703	0.999695
1016.903635	0.999900
1017.196531	0.997927
1017.489393	1.000648
1017.782219	0.999175
1018.075011	0.999192
1018.367768	0.999622
1018.660490	1.000096
1018.953177	1.000096
1019.245829	1.000096
