Dividing Wavelength (nm)	Counts (n)	Blue Motor Position (mm): 0.000000	Red Motor Position (mm): 10.300000	
326.493990	0.999203
326.888308	0.999203
327.282561	0.999203
327.676750	0.999051
328.070874	0.999976
328.464933	0.999928
328.858929	0.998989
329.252859	1.000178
329.646726	0.998599
330.040528	0.999644
330.434265	0.997749
330.827938	0.999865
331.221547	1.001959
331.615091	1.000614
332.008571	0.999182
332.401986	0.999880
332.795338	1.000211
333.188625	0.999344
333.581847	1.000612
333.975006	0.998812
334.368100	0.998997
334.761129	1.000088
335.154095	1.000461
335.546996	0.997319
335.939833	0.993167
336.332606	0.992860
336.725315	0.994803
337.117960	0.994302
337.510540	0.992974
337.903056	0.994656
338.295508	0.992617
338.687896	0.994534
339.080220	0.993380
339.472480	0.993737
339.864676	0.993233
340.256807	0.994215
340.648875	0.994903
341.040879	0.993578
341.432818	0.993894
341.824694	0.993806
342.216506	0.992920
342.608253	0.992914
342.999937	0.993271
343.391557	0.993646
343.783113	0.994009
344.174605	0.994239
344.566033	0.995503
344.957397	0.992980
345.348697	0.994189
345.739934	0.993348
346.131106	0.994144
346.522215	0.992949
346.913260	0.993437
347.304241	0.993872
347.695159	0.993466
348.086012	0.992474
348.476802	0.993243
348.867528	0.993953
349.258191	0.992223
349.648789	0.993754
350.039324	0.993482
350.429796	0.995654
350.820203	0.993520
351.210548	0.992635
351.600828	0.993157
351.991045	0.992509
352.381198	0.992541
352.771288	0.994117
353.161314	0.993424
353.551276	0.994645
353.941175	0.994066
354.331010	0.993207
354.720782	0.993044
355.110490	0.993638
355.500135	0.993255
355.889717	0.993116
356.279235	0.992811
356.668689	0.992731
357.058080	0.993325
357.447408	0.994573
357.836672	0.994044
358.225873	0.994241
358.615010	0.993626
359.004084	0.993799
359.393095	0.993440
359.782043	0.992655
360.170927	0.994297
360.559748	0.993716
360.948505	0.992686
361.337199	0.992756
361.725830	0.993415
362.114398	0.992398
362.502903	0.993157
362.891344	0.994003
363.279722	0.993176
363.668037	0.993264
364.056289	0.992379
364.444478	0.993901
364.832603	0.993231
365.220665	0.992791
365.608665	0.991851
365.996601	0.991490
366.384474	0.992649
366.772284	0.992940
367.160031	0.989979
367.547715	0.990961
367.935336	0.992023
368.322893	0.992423
368.710388	0.991435
369.097820	0.991857
369.485189	0.991414
369.872495	0.992200
370.259738	0.990703
370.646918	0.992955
371.034035	0.992704
371.421090	0.991243
371.808081	0.991378
372.195010	0.992396
372.581875	0.991612
372.968678	0.991825
373.355418	0.993284
373.742096	0.991776
374.128710	0.993084
374.515262	0.991508
374.901751	0.991831
375.288177	0.991440
375.674540	0.992703
376.060841	0.991082
376.447079	0.992754
376.833254	0.990606
377.219367	0.992321
377.605417	0.992844
377.991404	0.992457
378.377329	0.992048
378.763191	0.991988
379.148991	0.992432
379.534727	0.990125
379.920402	0.990050
380.306013	0.990135
380.691563	0.988915
381.077049	0.986973
381.462474	0.985113
381.847835	0.983473
382.233134	0.980471
382.618371	0.979470
383.003545	0.975287
383.388657	0.971517
383.773706	0.969213
384.158693	0.965396
384.543618	0.961579
384.928480	0.957007
385.313280	0.951128
385.698017	0.946576
386.082692	0.941331
386.467305	0.934603
386.851856	0.928939
387.236344	0.922665
387.620770	0.914777
388.005133	0.908480
388.389435	0.901368
388.773674	0.892934
389.157851	0.884839
389.541965	0.877298
389.926018	0.872581
390.310008	0.861055
390.693936	0.852447
391.077802	0.842825
391.461606	0.835396
391.845348	0.822376
392.229027	0.815401
392.612645	0.806754
392.996200	0.792737
393.379694	0.780893
393.763125	0.767115
394.146494	0.762705
394.529801	0.748862
394.913047	0.736376
395.296230	0.732872
395.679351	0.719213
396.062410	0.709532
396.445408	0.705115
396.828343	0.694241
397.211217	0.684313
397.594028	0.688878
397.976778	0.674618
398.359466	0.665785
398.742092	0.656408
399.124656	0.662370
399.507158	0.647784
399.889598	0.640768
400.271977	0.629331
400.654294	0.629349
401.036549	0.623555
401.418742	0.624400
401.800874	0.607601
402.182944	0.602665
402.564952	0.591034
402.946898	0.590767
403.328783	0.589003
403.710606	0.597977
404.092367	0.572033
404.474067	0.575558
404.855705	0.572178
405.237282	0.580293
405.618797	0.565875
406.000250	0.560244
406.381642	0.550484
406.762972	0.554285
407.144240	0.552354
407.525447	0.552569
407.906593	0.543781
408.287677	0.539282
408.668700	0.547433
409.049661	0.539930
409.430560	0.535564
409.811399	0.544136
410.192176	0.525711
410.572891	0.532662
410.953545	0.520169
411.334138	0.534072
411.714669	0.526496
412.095139	0.537923
412.475547	0.521666
412.855894	0.524463
413.236180	0.523278
413.616405	0.528878
413.996568	0.519047
414.376670	0.525304
414.756711	0.530130
415.136691	0.526711
415.516609	0.518908
415.896466	0.513757
416.276262	0.510079
416.655997	0.512335
417.035670	0.493131
417.415283	0.486384
417.794834	0.490484
418.174324	0.495602
418.553753	0.504671
418.933121	0.486556
419.312428	0.480713
419.691674	0.486244
420.070859	0.474908
420.449983	0.482683
420.829045	0.472313
421.208047	0.481488
421.586988	0.474794
421.965867	0.473587
422.344686	0.462062
422.723444	0.474648
423.102141	0.491176
423.480777	0.464175
423.859352	0.484501
424.237866	0.461995
424.616319	0.462773
424.994712	0.453540
425.373044	0.464172
425.751314	0.452483
426.129524	0.468545
426.507673	0.452106
426.885762	0.445976
427.263789	0.451712
427.641756	0.461168
428.019662	0.451525
428.397508	0.450049
428.775292	0.454543
429.153016	0.446745
429.530679	0.452763
429.908282	0.446202
430.285824	0.456308
430.663305	0.434585
431.040726	0.455746
431.418086	0.456470
431.795385	0.447904
432.172624	0.445791
432.549802	0.446949
432.926920	0.445851
433.303977	0.445097
433.680974	0.442744
434.057910	0.440751
434.434786	0.440434
434.811601	0.442708
435.188355	0.425054
435.565050	0.434350
435.941683	0.435358
436.318257	0.420718
436.694770	0.420591
437.071222	0.419047
437.447614	0.423346
437.823946	0.430058
438.200218	0.419367
438.576429	0.429110
438.952580	0.422605
439.328670	0.418665
439.704700	0.425512
440.080670	0.426430
440.456580	0.407858
440.832429	0.415536
441.208218	0.426331
441.583947	0.415865
441.959616	0.415756
442.335224	0.420236
442.710773	0.410985
443.086261	0.409023
443.461689	0.423430
443.837057	0.413178
444.212365	0.402869
444.587612	0.410164
444.962800	0.399893
445.337927	0.401019
445.712995	0.427568
446.088002	0.389788
446.462949	0.399833
446.837837	0.404790
447.212664	0.393970
447.587431	0.385299
447.962139	0.356083
448.336786	0.315683
448.711374	0.325614
449.085901	0.369463
449.460369	0.373917
449.834776	0.377668
450.209124	0.356440
450.583412	0.349669
450.957640	0.342355
451.331808	0.353590
451.705917	0.377419
452.079965	0.381347
452.453954	0.369850
452.827883	0.376424
453.201752	0.371187
453.575562	0.383237
453.949311	0.371526
454.323001	0.377610
454.696632	0.373489
455.070202	0.366460
455.443713	0.357823
455.817164	0.352696
456.190556	0.348691
456.563888	0.345098
456.937160	0.343449
457.310373	0.359893
457.683526	0.359013
458.056619	0.364876
458.429653	0.365208
458.802628	0.368208
459.175542	0.362580
459.548398	0.345794
459.921194	0.338339
460.293930	0.338063
460.666607	0.315820
461.039224	0.304050
461.411782	0.299583
461.784280	0.298943
462.156719	0.303251
462.529099	0.307768
462.901419	0.323660
463.273680	0.328434
463.645882	0.327330
464.018024	0.333159
464.390106	0.325913
464.762130	0.311046
465.134094	0.293953
465.505999	0.263177
465.877845	0.233686
466.249631	0.220782
466.621358	0.228276
466.993026	0.242124
467.364634	0.248136
467.736184	0.256935
468.107674	0.265487
468.479105	0.264469
468.850477	0.271606
469.221790	0.278091
469.593043	0.288549
469.964238	0.293396
470.335373	0.292720
470.706449	0.290739
471.077467	0.291693
471.448425	0.253549
471.819324	0.229459
472.190164	0.228443
472.560945	0.257506
472.931667	0.279708
473.302330	0.283550
473.672934	0.295542
474.043479	0.283758
474.413965	0.285597
474.784393	0.288753
475.154761	0.284120
475.525070	0.280935
475.895321	0.286691
476.265513	0.281010
476.635645	0.276154
477.005719	0.276341
477.375734	0.272944
477.745691	0.266153
478.115588	0.262594
478.485427	0.256172
478.855207	0.242923
479.224928	0.225390
479.594591	0.214013
479.964194	0.217012
480.333739	0.218364
480.703226	0.219988
481.072653	0.218249
481.442022	0.213797
481.811333	0.210611
482.180584	0.213835
482.549777	0.219304
482.918912	0.222521
483.287988	0.222211
483.657005	0.221728
484.025964	0.228432
484.394864	0.225671
484.763706	0.226284
485.132489	0.231266
485.501213	0.232040
485.869879	0.230294
486.238487	0.233759
486.607036	0.231532
486.975527	0.236179
487.343959	0.231850
487.712333	0.230953
488.080648	0.232586
488.448905	0.231748
488.817104	0.232750
489.185244	0.227543
489.553326	0.224356
489.921350	0.214084
490.289315	0.197107
490.657222	0.192076
491.025070	0.193017
491.392861	0.194954
491.760593	0.200597
492.128267	0.206324
492.495883	0.212108
492.863440	0.217971
493.230939	0.224540
493.598380	0.225799
493.965763	0.227918
494.333088	0.230216
494.700354	0.231695
495.067563	0.230798
495.434713	0.233800
495.801805	0.231787
496.168839	0.233259
496.535815	0.234864
496.902733	0.234886
497.269593	0.236023
497.636395	0.234088
498.003139	0.234296
498.369825	0.237251
498.736453	0.233823
499.103023	0.235319
499.469535	0.234931
499.835989	0.234996
500.202385	0.235798
500.568723	0.239155
500.935003	0.234417
501.301226	0.238541
501.667390	0.232983
502.033497	0.230731
502.399546	0.233815
502.765537	0.235866
503.131470	0.234291
503.497345	0.230609
503.863163	0.239367
504.228923	0.232099
504.594625	0.230679
504.960269	0.236375
505.325856	0.231512
505.691385	0.235882
506.056856	0.232558
506.422270	0.232159
506.787625	0.234212
507.152924	0.231832
507.518164	0.232144
507.883347	0.233753
508.248472	0.235938
508.613540	0.230974
508.978550	0.233311
509.343503	0.233841
509.708398	0.231635
510.073236	0.229115
510.438016	0.228959
510.802738	0.230010
511.167403	0.229053
511.532010	0.230879
511.896561	0.226333
512.261053	0.225101
512.625488	0.227354
512.989866	0.227546
513.354186	0.228069
513.718449	0.229825
514.082655	0.226203
514.446803	0.228567
514.810894	0.226021
515.174927	0.228698
515.538904	0.228051
515.902822	0.224709
516.266684	0.227258
516.630488	0.228648
516.994235	0.227207
517.357925	0.226042
517.721558	0.224346
518.085133	0.223770
518.448651	0.224134
518.812112	0.225929
519.175516	0.225612
519.538863	0.223770
519.902152	0.225223
520.265385	0.221926
520.628560	0.223789
520.991678	0.224056
521.354739	0.222829
521.717743	0.224223
522.080690	0.224752
522.443580	0.221934
522.806413	0.222979
523.169189	0.222294
523.531908	0.221160
523.894569	0.224846
524.257174	0.224497
524.619722	0.222595
524.982213	0.223497
525.344647	0.222479
525.707025	0.222999
526.069345	0.221307
526.431608	0.223125
526.793815	0.221159
527.155964	0.224974
527.518057	0.224180
527.880093	0.225190
528.242072	0.223512
528.603995	0.225333
528.965860	0.227212
529.327669	0.226224
529.689421	0.227153
530.051117	0.227985
530.412755	0.225515
530.774337	0.227963
531.135862	0.228158
531.497331	0.227640
531.858743	0.230239
532.220098	0.227111
532.581396	0.229610
532.942638	0.230236
533.303824	0.231020
533.664953	0.230814
534.026025	0.232667
534.387040	0.230609
534.747999	0.230447
535.108902	0.229502
535.469748	0.234218
535.830537	0.232011
536.191270	0.232495
536.551947	0.232171
536.912567	0.232449
537.273131	0.234044
537.633638	0.233960
537.994089	0.234553
538.354483	0.235481
538.714821	0.232592
539.075103	0.232434
539.435328	0.232988
539.795497	0.236784
540.155609	0.233551
540.515665	0.231377
540.875665	0.237039
541.235609	0.235781
541.595496	0.236013
541.955328	0.232294
542.315102	0.234909
542.674821	0.236056
543.034483	0.235931
543.394090	0.235815
543.753640	0.237652
544.113134	0.232521
544.472571	0.235935
544.831953	0.232915
545.191278	0.237062
545.550548	0.236658
545.909761	0.233214
546.268918	0.234035
546.628019	0.232175
546.987064	0.234948
547.346053	0.237119
547.704986	0.234681
548.063863	0.235027
548.422684	0.235085
548.781449	0.237142
549.140158	0.234667
549.498811	0.237629
549.857408	0.240441
550.215949	0.235294
550.574434	0.238219
550.932864	0.236391
551.291237	0.234834
551.649555	0.236465
552.007817	0.236289
552.366022	0.237065
552.724173	0.237256
553.082267	0.237491
553.440305	0.234339
553.798288	0.239022
554.156215	0.235612
554.514086	0.236157
554.871902	0.239264
555.229661	0.238482
555.587365	0.238884
555.945014	0.241586
556.302606	0.238603
556.660143	0.241109
557.017625	0.237376
557.375050	0.239838
557.732421	0.236753
558.089735	0.238876
558.446994	0.238796
558.804197	0.237911
559.161345	0.237986
559.518437	0.241561
559.875474	0.239098
560.232455	0.238489
560.589381	0.239721
560.946251	0.239745
561.303065	0.237536
561.659825	0.239114
562.016528	0.240555
562.373177	0.243210
562.729770	0.240478
563.086307	0.242552
563.442789	0.240195
563.799216	0.243247
564.155587	0.242088
564.511904	0.243072
564.868164	0.243058
565.224370	0.243191
565.580520	0.244792
565.936615	0.244508
566.292654	0.247392
566.648638	0.244710
567.004567	0.245457
567.360441	0.246025
567.716260	0.247993
568.072023	0.246018
568.427732	0.246869
568.783385	0.249104
569.138982	0.247091
569.494525	0.246860
569.850013	0.249794
570.205445	0.247965
570.560823	0.250471
570.916145	0.252574
571.271412	0.251149
571.626625	0.252303
571.981782	0.252834
572.336884	0.253897
572.691931	0.253676
573.046923	0.254830
573.401860	0.256250
573.756743	0.257533
574.111570	0.256394
574.466342	0.256852
574.821059	0.256139
575.175722	0.258832
575.530330	0.258716
575.884882	0.258807
576.239380	0.260857
576.593823	0.261441
576.948211	0.260965
577.302544	0.264431
577.656823	0.263828
578.011047	0.263728
578.365216	0.264492
578.719330	0.266580
579.073389	0.266164
579.427394	0.267656
579.781344	0.268391
580.135239	0.269803
580.489080	0.269665
580.842866	0.272634
581.196597	0.272550
581.550273	0.271148
581.903895	0.271985
582.257463	0.269966
582.610975	0.273591
582.964434	0.272900
583.317837	0.275536
583.671186	0.275806
584.024481	0.275860
584.377721	0.278345
584.730906	0.278929
585.084037	0.278124
585.437113	0.280177
585.790135	0.279278
586.143103	0.282354
586.496016	0.283783
586.848874	0.281245
587.201679	0.281699
587.554428	0.285174
587.907124	0.283851
588.259765	0.284143
588.612352	0.284896
588.964884	0.288837
589.317362	0.288360
589.669786	0.288761
590.022155	0.286928
590.374470	0.285926
590.726731	0.288220
591.078937	0.292968
591.431090	0.289218
591.783188	0.293485
592.135232	0.294098
592.487222	0.293969
592.839157	0.292269
593.191038	0.294421
593.542866	0.296434
593.894639	0.300178
594.246358	0.297878
594.598022	0.297540
594.949633	0.301013
595.301190	0.301888
595.652692	0.300607
596.004141	0.296766
596.355535	0.305203
596.706876	0.305511
597.058162	0.307953
597.409395	0.305059
597.760573	0.302957
598.111698	0.306362
598.462768	0.306373
598.813785	0.307916
599.164748	0.309249
599.515657	0.309573
599.866511	0.313128
600.217312	0.308081
600.568060	0.313837
600.918753	0.309779
601.269392	0.310990
601.619978	0.314490
601.970510	0.311852
602.320988	0.311935
602.671412	0.309740
603.021783	0.312222
603.372100	0.313369
603.722363	0.313050
604.072572	0.314037
604.422728	0.313815
604.772830	0.315809
605.122878	0.315575
605.472872	0.315712
605.822813	0.314697
606.172701	0.317376
606.522534	0.314206
606.872314	0.314537
607.222041	0.315245
607.571714	0.313620
607.921333	0.314715
608.270899	0.314745
608.620411	0.311414
608.969870	0.315259
609.319276	0.315476
609.668627	0.315137
610.017926	0.313844
610.367171	0.312102
610.716362	0.313024
611.065500	0.313255
611.414585	0.311874
611.763616	0.313023
612.112594	0.313054
612.461518	0.312632
612.810389	0.310043
613.159207	0.312623
613.507971	0.314275
613.856682	0.309885
614.205340	0.311685
614.553945	0.308314
614.902496	0.312345
615.250994	0.310410
615.599439	0.310919
615.947830	0.310450
616.296169	0.311322
616.644454	0.310860
616.992686	0.311169
617.340864	0.308817
617.688990	0.312645
618.037063	0.309334
618.385082	0.310758
618.733048	0.307762
619.080961	0.310184
619.428821	0.309664
619.776628	0.309006
620.124382	0.311023
620.472083	0.311440
620.819731	0.310872
621.167326	0.314447
621.514868	0.314357
621.862357	0.318582
622.209793	0.318730
622.557176	0.320616
622.904506	0.321509
623.251783	0.323588
623.599007	0.326136
623.946179	0.325980
624.293297	0.327884
624.640363	0.331289
624.987376	0.332172
625.334336	0.334586
625.681243	0.336772
626.028097	0.337347
626.374899	0.338449
626.721647	0.338860
627.068343	0.342349
627.414987	0.343009
627.761577	0.345017
628.108115	0.343214
628.454600	0.348690
628.801032	0.346212
629.147412	0.347853
629.493739	0.348402
629.840014	0.351521
630.186236	0.348837
630.532405	0.354574
630.878521	0.351871
631.224585	0.354379
631.570597	0.357641
631.916556	0.356074
632.262462	0.356192
632.608316	0.358348
632.954117	0.359417
633.299866	0.359888
633.645562	0.360297
633.991206	0.364853
634.336797	0.367453
634.682336	0.369939
635.027823	0.371723
635.373257	0.372322
635.718639	0.375738
636.063968	0.375040
636.409245	0.381231
636.754470	0.381217
637.099642	0.383882
637.444762	0.387351
637.789829	0.386091
638.134845	0.389388
638.479808	0.390848
638.824719	0.390387
639.169577	0.394624
639.514383	0.393380
639.859137	0.397653
640.203839	0.397328
640.548489	0.397527
640.893086	0.399171
641.237632	0.400723
641.582125	0.399280
641.926566	0.400783
642.270955	0.401026
642.615292	0.401465
642.959576	0.400684
643.303809	0.401233
643.647990	0.400331
643.992118	0.401263
644.336195	0.404677
644.680219	0.402538
645.024192	0.403810
645.368112	0.397530
645.711981	0.395981
646.055797	0.391872
646.399562	0.394359
646.743274	0.385898
647.086935	0.383755
647.430544	0.383201
647.774101	0.382516
648.117606	0.381649
648.461059	0.382764
648.804460	0.384615
649.147810	0.390428
649.491108	0.391690
649.834354	0.393726
650.177548	0.398802
650.520690	0.404085
650.863781	0.405551
651.206820	0.404746
651.549807	0.409124
651.892742	0.413449
652.235626	0.412899
652.578458	0.413862
652.921238	0.419908
653.263967	0.417440
653.606644	0.421540
653.949269	0.421187
654.291843	0.425161
654.634365	0.421994
654.976836	0.425177
655.319255	0.425321
655.661622	0.426987
656.003938	0.426887
656.346203	0.429874
656.688416	0.428056
657.030577	0.431262
657.372687	0.433095
657.714746	0.434232
658.056753	0.431291
658.398708	0.434734
658.740612	0.436089
659.082465	0.432062
659.424266	0.432182
659.766016	0.431878
660.107715	0.434702
660.449362	0.433210
660.790958	0.434284
661.132503	0.434477
661.473996	0.432495
661.815438	0.433368
662.156829	0.433325
662.498168	0.434078
662.839456	0.435895
663.180693	0.433299
663.521879	0.433946
663.863013	0.434231
664.204097	0.433325
664.545129	0.428918
664.886110	0.430203
665.227040	0.427582
665.567918	0.430180
665.908746	0.428445
666.249522	0.428430
666.590248	0.428678
666.930922	0.426615
667.271545	0.426040
667.612118	0.425883
667.952639	0.427262
668.293109	0.426282
668.633528	0.429129
668.973896	0.429034
669.314213	0.429182
669.654480	0.430730
669.994695	0.431111
670.334859	0.431846
670.674973	0.432764
671.015035	0.432210
671.355047	0.432523
671.695008	0.433705
672.034918	0.435494
672.374777	0.434234
672.714585	0.435974
673.054342	0.435593
673.394049	0.435984
673.733705	0.433752
674.073310	0.434213
674.412864	0.437560
674.752368	0.438617
675.091820	0.438470
675.431223	0.442848
675.770574	0.442858
676.109875	0.445640
676.449125	0.446030
676.788324	0.448148
677.127473	0.453866
677.466571	0.453262
677.805619	0.454853
678.144616	0.456058
678.483562	0.457358
678.822458	0.460177
679.161303	0.461271
679.500098	0.461471
679.838842	0.463620
680.177535	0.462594
680.516179	0.460857
680.854771	0.460781
681.193314	0.453811
681.531805	0.445471
681.870247	0.433081
682.208638	0.425815
682.546978	0.425098
682.885268	0.426846
683.223508	0.433007
683.561697	0.436663
683.899836	0.439404
684.237925	0.442757
684.575963	0.445456
684.913951	0.448787
685.251889	0.444718
685.589776	0.446491
685.927614	0.449007
686.265401	0.442585
686.603137	0.444246
686.940824	0.438156
687.278460	0.436545
687.616046	0.435717
687.953582	0.430627
688.291068	0.432375
688.628504	0.427864
688.965889	0.429446
689.303224	0.434538
689.640510	0.438282
689.977745	0.444228
690.314930	0.451250
690.652065	0.455963
690.989150	0.463748
691.326185	0.470816
691.663170	0.475193
692.000105	0.482025
692.336990	0.489455
692.673825	0.491798
693.010610	0.498697
693.347345	0.503805
693.684030	0.505318
694.020665	0.510393
694.357251	0.518846
694.693786	0.519447
695.030272	0.522979
695.366707	0.526377
695.703093	0.530083
696.039429	0.527645
696.375716	0.529002
696.711952	0.532133
697.048139	0.533818
697.384276	0.535971
697.720363	0.533628
698.056400	0.533279
698.392388	0.539201
698.728326	0.541811
699.064214	0.544878
699.400053	0.545664
699.735842	0.548948
700.071581	0.551939
700.407270	0.554865
700.742910	0.557229
701.078501	0.563762
701.414042	0.564662
701.749533	0.566836
702.084974	0.576282
702.420366	0.568616
702.755709	0.575317
703.091002	0.583370
703.426246	0.576959
703.761440	0.583338
704.096584	0.588064
704.431679	0.584698
704.766725	0.586797
705.101721	0.588652
705.436668	0.584618
705.771565	0.591649
706.106413	0.588561
706.441212	0.584316
706.775961	0.582559
707.110661	0.585024
707.445311	0.581997
707.779913	0.579272
708.114465	0.577370
708.448967	0.574089
708.783421	0.565596
709.117825	0.560320
709.452180	0.560679
709.786485	0.554536
710.120742	0.544325
710.454949	0.546049
710.789107	0.538403
711.123216	0.528978
711.457275	0.531094
711.791286	0.522136
712.125247	0.520785
712.459159	0.531542
712.793023	0.523996
713.126837	0.528179
713.460602	0.529312
713.794318	0.537909
714.127985	0.536840
714.461602	0.547088
714.795171	0.550646
715.128691	0.558117
715.462162	0.565512
715.795584	0.570902
716.128957	0.574501
716.462281	0.580609
716.795556	0.584436
717.128782	0.589039
717.461960	0.598827
717.795088	0.597195
718.128167	0.603541
718.461198	0.612431
718.794180	0.613021
719.127113	0.615271
719.459997	0.619412
719.792833	0.625335
720.125619	0.626467
720.458357	0.632399
720.791046	0.632219
721.123686	0.635156
721.456278	0.642367
721.788821	0.639842
722.121315	0.644165
722.453761	0.648116
722.786158	0.646470
723.118506	0.642439
723.450805	0.650711
723.783056	0.646491
724.115259	0.643408
724.447412	0.643594
724.779518	0.644585
725.111574	0.643340
725.443582	0.639063
725.775542	0.641124
726.107453	0.633477
726.439315	0.633037
726.771129	0.630860
727.102895	0.625000
727.434612	0.618266
727.766281	0.616244
728.097901	0.615442
728.429473	0.614852
728.760996	0.613369
729.092471	0.613493
729.423897	0.616944
729.755276	0.616616
730.086606	0.617088
730.417887	0.611207
730.749120	0.601956
731.080305	0.592604
731.411442	0.588460
731.742530	0.593694
732.073570	0.591928
732.404562	0.585222
732.735506	0.586558
733.066401	0.590712
733.397249	0.600121
733.728048	0.611328
734.058798	0.624363
734.389501	0.635138
734.720156	0.644558
735.050762	0.652861
735.381320	0.653373
735.711831	0.662905
736.042293	0.667573
736.372707	0.663483
736.703073	0.668579
737.033391	0.669924
737.363661	0.667119
737.693883	0.662487
738.024056	0.661648
738.354182	0.662380
738.684260	0.650871
739.014290	0.646420
739.344272	0.647838
739.674207	0.641046
740.004093	0.641171
740.333931	0.641237
740.663722	0.640501
740.993464	0.641771
741.323159	0.645285
741.652806	0.650312
741.982405	0.655204
742.311956	0.659931
742.641460	0.662170
742.970915	0.666237
743.300323	0.673389
743.629683	0.679527
743.958996	0.681534
744.288260	0.685913
744.617477	0.692485
744.946647	0.693265
745.275768	0.698681
745.604842	0.698867
745.933869	0.708631
746.262847	0.709855
746.591778	0.703245
746.920662	0.709043
747.249498	0.716209
747.578286	0.706672
747.907027	0.703142
748.235720	0.702869
748.564365	0.698498
748.892963	0.698866
749.221514	0.702217
749.550017	0.705983
749.878473	0.706236
750.206881	0.712899
750.535242	0.714730
750.863555	0.712836
751.191821	0.715478
751.520039	0.718099
751.848210	0.722608
752.176334	0.714797
752.504411	0.714138
752.832440	0.722107
753.160421	0.726821
753.488356	0.724852
753.816243	0.722421
754.144082	0.729964
754.471875	0.734043
754.799620	0.729407
755.127318	0.731008
755.454969	0.731173
755.782572	0.730305
756.110129	0.734661
756.437638	0.737980
756.765100	0.733906
757.092515	0.732464
757.419882	0.731495
757.747203	0.735983
758.074477	0.735868
758.401703	0.732391
758.728882	0.728207
759.056014	0.727663
759.383099	0.724611
759.710138	0.727584
760.037129	0.723306
760.364073	0.717835
760.690970	0.719198
761.017820	0.725377
761.344623	0.720649
761.671379	0.712308
761.998088	0.700166
762.324751	0.678143
762.651366	0.635547
762.977935	0.568088
763.304456	0.516339
763.630931	0.506869
763.957359	0.545494
764.283740	0.590233
764.610074	0.617643
764.936362	0.648560
765.262602	0.675573
765.588796	0.697068
765.914943	0.714754
766.241044	0.732984
766.567097	0.740112
766.893104	0.749711
767.219064	0.755447
767.544978	0.762307
767.870845	0.776512
768.196665	0.779445
768.522438	0.777911
768.848165	0.779168
769.173846	0.787712
769.499479	0.792384
769.825066	0.795397
770.150607	0.800620
770.476101	0.795751
770.801548	0.797893
771.126949	0.809826
771.452303	0.813065
771.777611	0.812409
772.102872	0.811033
772.428087	0.816760
772.753256	0.819685
773.078378	0.821803
773.403453	0.830253
773.728482	0.835385
774.053465	0.829782
774.378401	0.832402
774.703291	0.840818
775.028135	0.840232
775.352932	0.841128
775.677683	0.843440
776.002388	0.845697
776.327046	0.843604
776.651658	0.847794
776.976224	0.850823
777.300743	0.851807
777.625216	0.853877
777.949643	0.855492
778.274024	0.855168
778.598359	0.857417
778.922647	0.857028
779.246889	0.855833
779.571086	0.860711
779.895236	0.862810
780.219339	0.859277
780.543397	0.856672
780.867409	0.854494
781.191374	0.857712
781.515294	0.858828
781.839167	0.857939
782.162995	0.861407
782.486776	0.857857
782.810511	0.859236
783.134201	0.863335
783.457844	0.860340
783.781441	0.863074
784.104993	0.869569
784.428498	0.868966
784.751958	0.865388
785.075372	0.866928
785.398739	0.871752
785.722061	0.868121
786.045337	0.862902
786.368568	0.868179
786.691752	0.870709
787.014891	0.855648
787.337983	0.846926
787.661030	0.839074
787.984031	0.821655
788.306987	0.809257
788.629897	0.811425
788.952760	0.814862
789.275579	0.820388
789.598351	0.834502
789.921078	0.848401
790.243759	0.849783
790.566395	0.855329
790.888984	0.862227
791.211529	0.867182
791.534027	0.869805
791.856480	0.872729
792.178888	0.876869
792.501249	0.880475
792.823566	0.881256
793.145836	0.881467
793.468062	0.883334
793.790241	0.883463
794.112375	0.882108
794.434464	0.877522
794.756507	0.875741
795.078505	0.875877
795.400457	0.872046
795.722364	0.858819
796.044226	0.851525
796.366042	0.850460
796.687812	0.853493
797.009538	0.850588
797.331218	0.852003
797.652852	0.858536
797.974442	0.862663
798.295986	0.861834
798.617484	0.865280
798.938938	0.870237
799.260346	0.873986
799.581709	0.877189
799.903026	0.877961
800.224299	0.877999
800.545526	0.883014
800.866708	0.887226
801.187845	0.891395
801.508936	0.890202
801.829983	0.889129
802.150984	0.891123
802.471940	0.896445
802.792851	0.894978
803.113717	0.896929
803.434538	0.895143
803.755314	0.897693
804.076045	0.899152
804.396731	0.898506
804.717372	0.899243
805.037967	0.900269
805.358518	0.899084
805.679024	0.895464
805.999485	0.896086
806.319901	0.895350
806.640272	0.896932
806.960598	0.894887
807.280879	0.893030
807.601115	0.891348
807.921306	0.894473
808.241453	0.894486
808.561554	0.893072
808.881611	0.892808
809.201623	0.893883
809.521590	0.894255
809.841513	0.895785
810.161390	0.894971
810.481223	0.896197
810.801011	0.899406
811.120755	0.901230
811.440453	0.901152
811.760107	0.898518
812.079716	0.899182
812.399281	0.902941
812.718801	0.905614
813.038276	0.906711
813.357707	0.905471
813.677093	0.903338
813.996434	0.905813
814.315731	0.907497
814.634983	0.908332
814.954191	0.906715
815.273354	0.902543
815.592473	0.899980
815.911547	0.900082
816.230577	0.897906
816.549562	0.894004
816.868502	0.895851
817.187399	0.892212
817.506250	0.886935
817.825058	0.889105
818.143821	0.884627
818.462539	0.879576
818.781213	0.870971
819.099843	0.860550
819.418429	0.844432
819.736970	0.827675
820.055466	0.807193
820.373919	0.781648
820.692327	0.747694
821.010691	0.713000
821.329011	0.634977
821.647286	0.518359
821.965517	0.403848
822.283704	0.361012
822.601847	0.361532
822.919945	0.397313
823.237999	0.431558
823.556010	0.478991
823.873976	0.534977
824.191897	0.586204
824.509775	0.628974
824.827609	0.674752
825.145398	0.697924
825.463144	0.700588
825.780845	0.683844
826.098502	0.664685
826.416116	0.618680
826.733685	0.573957
827.051210	0.565850
827.368692	0.580592
827.686129	0.618782
828.003522	0.671632
828.320872	0.719350
828.638177	0.764351
828.955439	0.796885
829.272656	0.818284
829.589830	0.837238
829.906960	0.852228
830.224046	0.865499
830.541088	0.874524
830.858086	0.879797
831.175041	0.885865
831.491952	0.885780
831.808819	0.881594
832.125642	0.875098
832.442421	0.859216
832.759157	0.837362
833.075849	0.790419
833.392497	0.726370
833.709101	0.685820
834.025662	0.695717
834.342179	0.726709
834.658653	0.766293
834.975083	0.803137
835.291469	0.829543
835.607811	0.852335
835.924110	0.868451
836.240366	0.884735
836.556578	0.899489
836.872746	0.906122
837.188871	0.913014
837.504952	0.918571
837.820990	0.922434
838.136984	0.925667
838.452935	0.928683
838.768842	0.930183
839.084706	0.923386
839.400526	0.898372
839.716303	0.856958
840.032037	0.833921
840.347727	0.837561
840.663373	0.855665
840.978977	0.879113
841.294537	0.900088
841.610054	0.916404
841.925527	0.924364
842.240957	0.930824
842.556344	0.938262
842.871687	0.945517
843.186987	0.948899
843.502244	0.949192
843.817458	0.950769
844.132629	0.955107
844.447756	0.960261
844.762840	0.959756
845.077881	0.958518
845.392879	0.958898
845.707833	0.961939
846.022745	0.963705
846.337613	0.964620
846.652438	0.965587
846.967221	0.964280
847.281960	0.963690
847.596656	0.966599
847.911309	0.965871
848.225919	0.966563
848.540485	0.967155
848.855009	0.968184
849.169490	0.967447
849.483928	0.968102
849.798323	0.968196
850.112675	0.969065
850.426984	0.969669
850.741251	0.969980
851.055474	0.970174
851.369654	0.967866
851.683792	0.969857
851.997887	0.969176
852.311938	0.970275
852.625947	0.970045
852.939914	0.966486
853.253837	0.968841
853.567718	0.968942
853.881555	0.970320
854.195350	0.967838
854.509103	0.969160
854.822812	0.968939
855.136479	0.969465
855.450103	0.968762
855.763685	0.967124
856.077224	0.968267
856.390720	0.970690
856.704173	0.969472
857.017584	0.967579
857.330953	0.966970
857.644278	0.967035
857.957561	0.967288
858.270802	0.968397
858.584000	0.968100
858.897155	0.966379
859.210268	0.967195
859.523339	0.967596
859.836367	0.970093
860.149352	0.969222
860.462295	0.967592
860.775195	0.968716
861.088054	0.968086
861.400869	0.969263
861.713642	0.969889
862.026373	0.969043
862.339062	0.969872
862.651708	0.968743
862.964312	0.967272
863.276873	0.968852
863.589392	0.967858
863.901869	0.965864
864.214303	0.963977
864.526696	0.963493
864.839045	0.962445
865.151353	0.960990
865.463619	0.962513
865.775842	0.960491
866.088023	0.961166
866.400162	0.961488
866.712258	0.962087
867.024313	0.961619
867.336325	0.963053
867.648296	0.962233
867.960224	0.961796
868.272110	0.960885
868.583954	0.963302
868.895755	0.962666
869.207515	0.960696
869.519233	0.957830
869.830909	0.959300
870.142542	0.961664
870.454134	0.960799
870.765684	0.959935
871.077191	0.956810
871.388657	0.957797
871.700081	0.957711
872.011463	0.956700
872.322803	0.957835
872.634101	0.955824
872.945357	0.953277
873.256571	0.952442
873.567744	0.952164
873.878874	0.952955
874.189963	0.950256
874.501010	0.949067
874.812015	0.948235
875.122979	0.950829
875.433900	0.951910
875.744780	0.952455
876.055618	0.950144
876.366415	0.949426
876.677169	0.948757
876.987882	0.950926
877.298554	0.949294
877.609183	0.946430
877.919771	0.943619
878.230317	0.941688
878.540822	0.938337
878.851285	0.934750
879.161707	0.925122
879.472087	0.913937
879.782425	0.896693
880.092722	0.862148
880.402977	0.808582
880.713191	0.746358
881.023363	0.685965
881.333494	0.651322
881.643583	0.623638
881.953631	0.624473
882.263637	0.652379
882.573602	0.691787
882.883526	0.717882
883.193408	0.741582
883.503248	0.765734
883.813048	0.793185
884.122806	0.823176
884.432522	0.847048
884.742197	0.867748
885.051831	0.879350
885.361424	0.889090
885.670975	0.901144
885.980485	0.911338
886.289954	0.917802
886.599382	0.923168
886.908768	0.926699
887.218113	0.932548
887.527417	0.936119
887.836680	0.940727
888.145901	0.942183
888.455082	0.944872
888.764221	0.949562
889.073319	0.951577
889.382376	0.951558
889.691392	0.951892
890.000366	0.951277
890.309300	0.953191
890.618193	0.951832
890.927044	0.950237
891.235855	0.950612
891.544625	0.950238
891.853353	0.950021
892.162041	0.948554
892.470687	0.940201
892.779293	0.935373
893.087858	0.931859
893.396381	0.924315
893.704864	0.911319
894.013306	0.885916
894.321707	0.859606
894.630068	0.842888
894.938387	0.839681
895.246665	0.840232
895.554903	0.853051
895.863100	0.866820
896.171256	0.885095
896.479371	0.902843
896.787446	0.916592
897.095480	0.923063
897.403473	0.926744
897.711425	0.931044
898.019336	0.939202
898.327207	0.941328
898.635038	0.943903
898.942827	0.943191
899.250576	0.946915
899.558284	0.951521
899.865952	0.952560
900.173579	0.954606
900.481165	0.953711
900.788711	0.958587
901.096216	0.960581
901.403681	0.959776
901.711105	0.962118
902.018489	0.962442
902.325832	0.961812
902.633135	0.959647
902.940397	0.954459
903.247619	0.941326
903.554800	0.914891
903.861941	0.875917
904.169041	0.839120
904.476101	0.819704
904.783121	0.821639
905.090100	0.837917
905.397039	0.860318
905.703938	0.882679
906.010796	0.903931
906.317614	0.919710
906.624391	0.932385
906.931129	0.942729
907.237826	0.949580
907.544483	0.957014
907.851099	0.960262
908.157675	0.966211
908.464211	0.968720
908.770707	0.970215
909.077163	0.973072
909.383578	0.973065
909.689954	0.973496
909.996289	0.974754
910.302584	0.976815
910.608839	0.978318
910.915054	0.977081
911.221229	0.977125
911.527363	0.976590
911.833458	0.976935
912.139513	0.976508
912.445527	0.974670
912.751502	0.972758
913.057436	0.971028
913.363331	0.969483
913.669186	0.964662
913.975000	0.959678
914.280775	0.953889
914.586510	0.946292
914.892205	0.932363
915.197859	0.910860
915.503475	0.882567
915.809050	0.863541
916.114585	0.856187
916.420081	0.854055
916.725536	0.850212
917.030952	0.860212
917.336328	0.873017
917.641665	0.888220
917.946961	0.903918
918.252218	0.916163
918.557435	0.924778
918.862612	0.933528
919.167750	0.939353
919.472848	0.943635
919.777906	0.950862
920.082925	0.955988
920.387904	0.960456
920.692843	0.962181
920.997743	0.962455
921.302603	0.965873
921.607423	0.968224
921.912204	0.970178
922.216946	0.970711
922.521647	0.971342
922.826310	0.973991
923.130932	0.976148
923.435516	0.976828
923.740059	0.979063
924.044564	0.977660
924.349028	0.980725
924.653454	0.982404
924.957840	0.983755
925.262186	0.984186
925.566493	0.982715
925.870761	0.984221
926.174989	0.986179
926.479178	0.987322
926.783328	0.987648
927.087438	0.988182
927.391509	0.988042
927.695541	0.990040
927.999533	0.989090
928.303486	0.988696
928.607400	0.990467
928.911275	0.988984
929.215110	0.989642
929.518906	0.990134
929.822663	0.990157
930.126381	0.989670
930.430060	0.990502
930.733699	0.988991
931.037299	0.989083
931.340861	0.990451
931.644383	0.989546
931.947866	0.987955
932.251309	0.991844
932.554714	0.989248
932.858080	0.990084
933.161407	0.989941
933.464694	0.990960
933.767943	0.988615
934.071153	0.989849
934.374323	0.991257
934.677455	0.991637
934.980548	0.990577
935.283602	0.990328
935.586617	0.990877
935.889593	0.989954
936.192530	0.989510
936.495428	0.990305
936.798287	0.990099
937.101108	0.990679
937.403890	0.988916
937.706632	0.987550
938.009336	0.986741
938.312002	0.984828
938.614628	0.983564
938.917216	0.982731
939.219765	0.980895
939.522275	0.982928
939.824747	0.981187
940.127179	0.983310
940.429573	0.983907
940.731929	0.982538
941.034246	0.983525
941.336524	0.985261
941.638763	0.985798
941.940964	0.986260
942.243126	0.985235
942.545250	0.986812
942.847335	0.988490
943.149381	0.987825
943.451389	0.987844
943.753359	0.988358
944.055290	0.990332
944.357182	0.988828
944.659036	0.988507
944.960851	0.989088
945.262628	0.989050
945.564367	0.989690
945.866067	0.989338
946.167729	0.989527
946.469352	0.988462
946.770937	0.987672
947.072484	0.989705
947.373992	0.988587
947.675462	0.988950
947.976893	0.988589
948.278286	0.989839
948.579641	0.991749
948.880958	0.989440
949.182236	0.990170
949.483476	0.991261
949.784678	0.990249
950.085841	0.990826
950.386967	0.989307
950.688054	0.989828
950.989103	0.990977
951.290114	0.988267
951.591087	0.989502
951.892021	0.989787
952.192917	0.988445
952.493776	0.987948
952.794596	0.987855
953.095378	0.986204
953.396122	0.987207
953.696828	0.986627
953.997496	0.989077
954.298126	0.990018
954.598718	0.989896
954.899272	0.990637
955.199788	0.990530
955.500266	0.991367
955.800706	0.991602
956.101108	0.993439
956.401472	0.992258
956.701798	0.993500
957.002087	0.992953
957.302337	0.992501
957.602550	0.994558
957.902724	0.994558
958.202861	0.995171
958.502960	0.994155
958.803022	0.992854
959.103045	0.996172
959.403031	0.994669
959.702979	0.994260
960.002889	0.996330
960.302762	0.993280
960.602596	0.995770
960.902393	0.994071
961.202153	0.996702
961.501875	0.996120
961.801559	0.994639
962.101205	0.995628
962.400814	0.996732
962.700385	0.996082
962.999918	0.995689
963.299414	0.996306
963.598873	0.995679
963.898293	0.996734
964.197677	0.996691
964.497022	0.996234
964.796331	0.996983
965.095601	0.996552
965.394835	0.997361
965.694030	0.996571
965.993189	0.996755
966.292309	0.995901
966.591393	0.997388
966.890439	0.996623
967.189447	0.996254
967.488419	0.997550
967.787353	0.996368
968.086249	0.995949
968.385108	0.997618
968.683930	0.996643
968.982714	0.997768
969.281462	0.996411
969.580172	0.996080
969.878844	0.998162
970.177480	0.996938
970.476078	0.997900
970.774639	0.996725
971.073162	0.996863
971.371649	0.995313
971.670098	0.995727
971.968510	0.997177
972.266885	0.995989
972.565223	0.996603
972.863524	0.996469
973.161788	0.995855
973.460014	0.996944
973.758204	0.995691
974.056356	0.996273
974.354471	0.994736
974.652550	0.995736
974.950591	0.996045
975.248595	0.996234
975.546563	0.996326
975.844493	0.997667
976.142386	0.996962
976.440243	0.997596
976.738062	0.996701
977.035845	0.997604
977.333590	0.996425
977.631299	0.997429
977.928971	0.997514
978.226606	0.995789
978.524204	0.994841
978.821765	0.997724
979.119290	0.995901
979.416777	0.996913
979.714228	0.997830
980.011642	0.995484
980.309020	0.996964
980.606360	0.995777
980.903664	0.998765
981.200931	0.995852
981.498162	0.994162
981.795356	0.996034
982.092513	0.993139
982.389633	0.994404
982.686717	0.991283
982.983764	0.991084
983.280775	0.989353
983.577749	0.990298
983.874686	0.991133
984.171587	0.991644
984.468451	0.993367
984.765279	0.994863
985.062070	0.994038
985.358824	0.995857
985.655543	0.994412
985.952224	0.996982
986.248869	0.996262
986.545478	0.997459
986.842050	0.998342
987.138586	0.995607
987.435086	0.996879
987.731549	0.999566
988.027975	0.997330
988.324366	0.997594
988.620719	0.998150
988.917037	0.996463
989.213318	0.997532
989.509563	0.999098
989.805772	0.998344
990.101944	0.998379
990.398080	0.996425
990.694180	0.995817
990.990244	0.998019
991.286271	0.998049
991.582262	0.998319
991.878217	0.997488
992.174136	0.999084
992.470019	0.999063
992.765865	0.997490
993.061676	0.998006
993.357450	0.997196
993.653188	0.997231
993.948890	0.998117
994.244556	0.997488
994.540186	0.996904
994.835780	0.995790
995.131337	0.996623
995.426859	0.996159
995.722345	0.997222
996.017795	0.997338
996.313208	0.996603
996.608586	0.995579
996.903928	0.996063
997.199234	0.995562
997.494504	0.997077
997.789738	0.996103
998.084936	0.995926
998.380099	0.997801
998.675225	0.997803
998.970316	0.997841
999.265371	0.997429
999.560390	0.997528
999.855373	0.999276
1000.150320	0.997736
1000.445232	0.998209
1000.740108	0.998835
1001.034948	0.998652
1001.329752	0.998104
1001.624521	0.999260
1001.919254	0.996313
1002.213951	0.997428
1002.508613	0.997918
1002.803239	0.999094
1003.097829	0.998874
1003.392384	0.999498
1003.686903	0.998128
1003.981386	0.998404
1004.275834	0.998820
1004.570246	0.998421
1004.864623	0.999336
1005.158964	0.999816
1005.453270	0.999367
1005.747540	0.997199
1006.041775	0.997944
1006.335974	0.998994
1006.630138	0.998040
1006.924266	1.000037
1007.218359	0.999720
1007.512416	1.000024
1007.806438	0.998670
1008.100425	0.999165
1008.394376	0.999540
1008.688292	0.998639
1008.982172	1.000766
1009.276017	0.999138
1009.569827	0.999021
1009.863602	0.998127
1010.157341	0.998888
1010.451045	0.999282
1010.744714	0.999194
1011.038347	0.999773
1011.331945	0.998925
1011.625508	0.997330
1011.919036	0.998058
1012.212528	0.998999
1012.505986	0.997391
1012.799408	0.998238
1013.092795	0.998908
1013.386147	0.998000
1013.679464	0.998799
1013.972745	0.998572
1014.265992	0.996789
1014.559204	0.998784
1014.852380	0.999395
1015.145521	0.998018
1015.438628	0.999793
1015.731699	0.998149
1016.024736	0.998935
1016.317737	0.998939
1016.610703	0.998999
1016.903635	0.999507
1017.196531	0.998347
1017.489393	1.000171
1017.782219	0.999523
1018.075011	0.998399
1018.367768	0.998225
1018.660490	0.999836
1018.953177	0.999836
1019.245829	0.999836
