Dividing Wavelength (nm)	Counts (n)	Blue Motor Position (mm): 0.000000	Red Motor Position (mm): 30.100000	
326.493990	1.000162
326.888308	1.000162
327.282561	1.000162
327.676750	1.000291
328.070874	0.998679
328.464933	1.000610
328.858929	0.999972
329.252859	1.000396
329.646726	0.998855
330.040528	0.999746
330.434265	0.998618
330.827938	1.000631
331.221547	0.999604
331.615091	0.999945
332.008571	0.999448
332.401986	0.998905
332.795338	0.999189
333.188625	0.998899
333.581847	0.999982
333.975006	1.000092
334.368100	0.998810
334.761129	1.000081
335.154095	1.000661
335.546996	0.997253
335.939833	0.994219
336.332606	0.994817
336.725315	0.995926
337.117960	0.996008
337.510540	0.995672
337.903056	0.997083
338.295508	0.996080
338.687896	0.993698
339.080220	0.996037
339.472480	0.995232
339.864676	0.995223
340.256807	0.995306
340.648875	0.996616
341.040879	0.995241
341.432818	0.995362
341.824694	0.994762
342.216506	0.995717
342.608253	0.995566
342.999937	0.995318
343.391557	0.995138
343.783113	0.995323
344.174605	0.996074
344.566033	0.995609
344.957397	0.994794
345.348697	0.993643
345.739934	0.995119
346.131106	0.995044
346.522215	0.994240
346.913260	0.995572
347.304241	0.995159
347.695159	0.994950
348.086012	0.993846
348.476802	0.994992
348.867528	0.994752
349.258191	0.993637
349.648789	0.995825
350.039324	0.995410
350.429796	0.996778
350.820203	0.995744
351.210548	0.995429
351.600828	0.994809
351.991045	0.994932
352.381198	0.994407
352.771288	0.994988
353.161314	0.995643
353.551276	0.995698
353.941175	0.994808
354.331010	0.995504
354.720782	0.995978
355.110490	0.995073
355.500135	0.995774
355.889717	0.994553
356.279235	0.995230
356.668689	0.994553
357.058080	0.995047
357.447408	0.997089
357.836672	0.995787
358.225873	0.995644
358.615010	0.995967
359.004084	0.996281
359.393095	0.995621
359.782043	0.995363
360.170927	0.995900
360.559748	0.996754
360.948505	0.995076
361.337199	0.994918
361.725830	0.994856
362.114398	0.995187
362.502903	0.996998
362.891344	0.995247
363.279722	0.994692
363.668037	0.996109
364.056289	0.995655
364.444478	0.997532
364.832603	0.996260
365.220665	0.994294
365.608665	0.995532
365.996601	0.994386
366.384474	0.995814
366.772284	0.995564
367.160031	0.994705
367.547715	0.994996
367.935336	0.995833
368.322893	0.994773
368.710388	0.994798
369.097820	0.994785
369.485189	0.994323
369.872495	0.993811
370.259738	0.994379
370.646918	0.995690
371.034035	0.995591
371.421090	0.995321
371.808081	0.994888
372.195010	0.996652
372.581875	0.995846
372.968678	0.995060
373.355418	0.995346
373.742096	0.995189
374.128710	0.996179
374.515262	0.995576
374.901751	0.995669
375.288177	0.995490
375.674540	0.996315
376.060841	0.994907
376.447079	0.995851
376.833254	0.995353
377.219367	0.995432
377.605417	0.996058
377.991404	0.996030
378.377329	0.995116
378.763191	0.995852
379.148991	0.996475
379.534727	0.995684
379.920402	0.995615
380.306013	0.996109
380.691563	0.996755
381.077049	0.994974
381.462474	0.996455
381.847835	0.996599
382.233134	0.996429
382.618371	0.996196
383.003545	0.997249
383.388657	0.996758
383.773706	0.997378
384.158693	0.996796
384.543618	0.996189
384.928480	0.997049
385.313280	0.996820
385.698017	0.997608
386.082692	0.997430
386.467305	0.996883
386.851856	0.996868
387.236344	0.996535
387.620770	0.996395
388.005133	0.996998
388.389435	0.998061
388.773674	0.996042
389.157851	0.996559
389.541965	0.996312
389.926018	0.996272
390.310008	0.997901
390.693936	0.996404
391.077802	0.997429
391.461606	0.996521
391.845348	0.997313
392.229027	0.997821
392.612645	0.997414
392.996200	0.998259
393.379694	0.997223
393.763125	0.998869
394.146494	0.997633
394.529801	0.997342
394.913047	0.997990
395.296230	0.996907
395.679351	0.997733
396.062410	0.997049
396.445408	0.997646
396.828343	0.998048
397.211217	0.996834
397.594028	0.997775
397.976778	0.998113
398.359466	0.997531
398.742092	0.997931
399.124656	0.996562
399.507158	0.997233
399.889598	0.997057
400.271977	0.997327
400.654294	0.997608
401.036549	0.996683
401.418742	0.997787
401.800874	0.997080
402.182944	0.997077
402.564952	0.995593
402.946898	0.997940
403.328783	0.997473
403.710606	0.997273
404.092367	0.997080
404.474067	0.998368
404.855705	0.996787
405.237282	0.997428
405.618797	0.996865
406.000250	0.996699
406.381642	0.997500
406.762972	0.997030
407.144240	0.998131
407.525447	0.997588
407.906593	0.997468
408.287677	0.997625
408.668700	0.998409
409.049661	0.996342
409.430560	0.998477
409.811399	0.997148
410.192176	0.997572
410.572891	0.997723
410.953545	0.998071
411.334138	0.996798
411.714669	0.997847
412.095139	0.996950
412.475547	0.998375
412.855894	0.997937
413.236180	0.998694
413.616405	0.998336
413.996568	0.998478
414.376670	0.997862
414.756711	0.997202
415.136691	0.997802
415.516609	0.997178
415.896466	0.997431
416.276262	0.996652
416.655997	0.998696
417.035670	0.997655
417.415283	0.997749
417.794834	0.997085
418.174324	0.997708
418.553753	0.997908
418.933121	0.997988
419.312428	0.998118
419.691674	0.997869
420.070859	0.998344
420.449983	0.998082
420.829045	0.997878
421.208047	0.997633
421.586988	0.998640
421.965867	0.998212
422.344686	0.998525
422.723444	0.998257
423.102141	0.997843
423.480777	0.998296
423.859352	0.997681
424.237866	0.997288
424.616319	0.997302
424.994712	0.998257
425.373044	0.998424
425.751314	0.997882
426.129524	0.997666
426.507673	0.998152
426.885762	0.998950
427.263789	0.997508
427.641756	0.998251
428.019662	0.999097
428.397508	0.997778
428.775292	0.997183
429.153016	0.997832
429.530679	0.998128
429.908282	0.998507
430.285824	0.997253
430.663305	0.997895
431.040726	0.997961
431.418086	0.998576
431.795385	0.998996
432.172624	0.997318
432.549802	0.998014
432.926920	0.998696
433.303977	0.996908
433.680974	0.998656
434.057910	0.998140
434.434786	0.998440
434.811601	0.998164
435.188355	0.998072
435.565050	0.997736
435.941683	0.997495
436.318257	0.998951
436.694770	0.998001
437.071222	0.998246
437.447614	0.997918
437.823946	0.998255
438.200218	0.998176
438.576429	0.998366
438.952580	0.998532
439.328670	0.997149
439.704700	0.998556
440.080670	0.998591
440.456580	0.997559
440.832429	0.996950
441.208218	0.998077
441.583947	0.998629
441.959616	0.998340
442.335224	0.997324
442.710773	0.999063
443.086261	0.997316
443.461689	0.997327
443.837057	0.998081
444.212365	0.998617
444.587612	0.997345
444.962800	0.997126
445.337927	0.998145
445.712995	0.998358
446.088002	0.998339
446.462949	0.998026
446.837837	0.997749
447.212664	0.998522
447.587431	0.997967
447.962139	0.997922
448.336786	0.998193
448.711374	0.998446
449.085901	0.997579
449.460369	0.998151
449.834776	0.997152
450.209124	0.998971
450.583412	0.997893
450.957640	0.998302
451.331808	0.997633
451.705917	0.997482
452.079965	0.997458
452.453954	0.998482
452.827883	0.998204
453.201752	0.997621
453.575562	0.998329
453.949311	0.998046
454.323001	0.997501
454.696632	0.997233
455.070202	0.997656
455.443713	0.997577
455.817164	0.998039
456.190556	0.997832
456.563888	0.997183
456.937160	0.997445
457.310373	0.997544
457.683526	0.997057
458.056619	0.997216
458.429653	0.997499
458.802628	0.996592
459.175542	0.996718
459.548398	0.997594
459.921194	0.996425
460.293930	0.996824
460.666607	0.995985
461.039224	0.995298
461.411782	0.995752
461.784280	0.995893
462.156719	0.997090
462.529099	0.996832
462.901419	0.995420
463.273680	0.994649
463.645882	0.994775
464.018024	0.995278
464.390106	0.994388
464.762130	0.995058
465.134094	0.993373
465.505999	0.992239
465.877845	0.991385
466.249631	0.991332
466.621358	0.990503
466.993026	0.990205
467.364634	0.990030
467.736184	0.989466
468.107674	0.987930
468.479105	0.986492
468.850477	0.986775
469.221790	0.985073
469.593043	0.984836
469.964238	0.984190
470.335373	0.982404
470.706449	0.981264
471.077467	0.980739
471.448425	0.976725
471.819324	0.975476
472.190164	0.973402
472.560945	0.973931
472.931667	0.971893
473.302330	0.971282
473.672934	0.970088
474.043479	0.966836
474.413965	0.964646
474.784393	0.963742
475.154761	0.960963
475.525070	0.957913
475.895321	0.957129
476.265513	0.954409
476.635645	0.952049
477.005719	0.948849
477.375734	0.946420
477.745691	0.943119
478.115588	0.939695
478.485427	0.936324
478.855207	0.930671
479.224928	0.923888
479.594591	0.920006
479.964194	0.917281
480.333739	0.914931
480.703226	0.911122
481.072653	0.907755
481.442022	0.901094
481.811333	0.895457
482.180584	0.892817
482.549777	0.888707
482.918912	0.884274
483.287988	0.879008
483.657005	0.874830
484.025964	0.871583
484.394864	0.866057
484.763706	0.860781
485.132489	0.857202
485.501213	0.851171
485.869879	0.846742
486.238487	0.840910
486.607036	0.836015
486.975527	0.829303
487.343959	0.823255
487.712333	0.816554
488.080648	0.811599
488.448905	0.804650
488.817104	0.798797
489.185244	0.791690
489.553326	0.783036
489.921350	0.772797
490.289315	0.757612
490.657222	0.750784
491.025070	0.744110
491.392861	0.738955
491.760593	0.735161
492.128267	0.730390
492.495883	0.725733
492.863440	0.720951
493.230939	0.715648
493.598380	0.708775
493.965763	0.701735
494.333088	0.697197
494.700354	0.688435
495.067563	0.682894
495.434713	0.676166
495.801805	0.668442
496.168839	0.661736
496.535815	0.654057
496.902733	0.648078
497.269593	0.641103
497.636395	0.633847
498.003139	0.625585
498.369825	0.621398
498.736453	0.611283
499.103023	0.605583
499.469535	0.597355
499.835989	0.591596
500.202385	0.583836
500.568723	0.578975
500.935003	0.570718
501.301226	0.563601
501.667390	0.555097
502.033497	0.546865
502.399546	0.542217
502.765537	0.535820
503.131470	0.527961
503.497345	0.518688
503.863163	0.518319
504.228923	0.506287
504.594625	0.499262
504.960269	0.496384
505.325856	0.486515
505.691385	0.482858
506.056856	0.474697
506.422270	0.467568
506.787625	0.464473
507.152924	0.455529
507.518164	0.450693
507.883347	0.445315
508.248472	0.441325
508.613540	0.432408
508.978550	0.428661
509.343503	0.423262
509.708398	0.415765
510.073236	0.408708
510.438016	0.403505
510.802738	0.399004
511.167403	0.393303
511.532010	0.389565
511.896561	0.381719
512.261053	0.376151
512.625488	0.372611
512.989866	0.367931
513.354186	0.363595
513.718449	0.360611
514.082655	0.354036
514.446803	0.351317
514.810894	0.345383
515.174927	0.342915
515.538904	0.339003
515.902822	0.332081
516.266684	0.330710
516.630488	0.328115
516.994235	0.323550
517.357925	0.318249
517.721558	0.313889
518.085133	0.309978
518.448651	0.306993
518.812112	0.305949
519.175516	0.302058
519.538863	0.297070
519.902152	0.295806
520.265385	0.289787
520.628560	0.289501
520.991678	0.286751
521.354739	0.283549
521.717743	0.282372
522.080690	0.280359
522.443580	0.275056
522.806413	0.274203
523.169189	0.271605
523.531908	0.268253
523.894569	0.269917
524.257174	0.267849
524.619722	0.263748
524.982213	0.263770
525.344647	0.260476
525.707025	0.259795
526.069345	0.256414
526.431608	0.256374
526.793815	0.253187
527.155964	0.255850
527.518057	0.253766
527.880093	0.253090
528.242072	0.250907
528.603995	0.251303
528.965860	0.252119
529.327669	0.249679
529.689421	0.249916
530.051117	0.249916
530.412755	0.246609
530.774337	0.248390
531.135862	0.247609
531.497331	0.246223
531.858743	0.248443
532.220098	0.244583
532.581396	0.246662
532.942638	0.246275
533.303824	0.246888
533.664953	0.245969
534.026025	0.247135
534.387040	0.244523
534.747999	0.244288
535.108902	0.242581
535.469748	0.247298
535.830537	0.244826
536.191270	0.244795
536.551947	0.243906
536.912567	0.243801
537.273131	0.245423
537.633638	0.245109
537.994089	0.245203
538.354483	0.246222
538.714821	0.242961
539.075103	0.242446
539.435328	0.243177
539.795497	0.246534
540.155609	0.242998
540.515665	0.240893
540.875665	0.246605
541.235609	0.244694
541.595496	0.244676
541.955328	0.241240
542.315102	0.243688
542.674821	0.244507
543.034483	0.244390
543.394090	0.243918
543.753640	0.245937
544.113134	0.240681
544.472571	0.244186
544.831953	0.240855
545.191278	0.244826
545.550548	0.244040
545.909761	0.240796
546.268918	0.241604
546.628019	0.239892
546.987064	0.242448
547.346053	0.243899
547.704986	0.241842
548.063863	0.242125
548.422684	0.242327
548.781449	0.244129
549.140158	0.241710
549.498811	0.244478
549.857408	0.247612
550.215949	0.242220
550.574434	0.245308
550.932864	0.243180
551.291237	0.241953
551.649555	0.243226
552.007817	0.243084
552.366022	0.243350
552.724173	0.243868
553.082267	0.244084
553.440305	0.241159
553.798288	0.245654
554.156215	0.241842
554.514086	0.242489
554.871902	0.245639
555.229661	0.244706
555.587365	0.245501
555.945014	0.247931
556.302606	0.244649
556.660143	0.247592
557.017625	0.243700
557.375050	0.245823
557.732421	0.243056
558.089735	0.244965
558.446994	0.244993
558.804197	0.244355
559.161345	0.244232
559.518437	0.247735
559.875474	0.245159
560.232455	0.244664
560.589381	0.245825
560.946251	0.246063
561.303065	0.243448
561.659825	0.244981
562.016528	0.246212
562.373177	0.249445
562.729770	0.246563
563.086307	0.248355
563.442789	0.246357
563.799216	0.249298
564.155587	0.248252
564.511904	0.248828
564.868164	0.249136
565.224370	0.248947
565.580520	0.250412
565.936615	0.250486
566.292654	0.253422
566.648638	0.250520
567.004567	0.251234
567.360441	0.251944
567.716260	0.254141
568.072023	0.251874
568.427732	0.252397
568.783385	0.254926
569.138982	0.253202
569.494525	0.252451
569.850013	0.255926
570.205445	0.254098
570.560823	0.256443
570.916145	0.258582
571.271412	0.256837
571.626625	0.258140
571.981782	0.258491
572.336884	0.259539
572.691931	0.259367
573.046923	0.260432
573.401860	0.261709
573.756743	0.263487
574.111570	0.262182
574.466342	0.262694
574.821059	0.261841
575.175722	0.264328
575.530330	0.264450
575.884882	0.264699
576.239380	0.266761
576.593823	0.267165
576.948211	0.266521
577.302544	0.269987
577.656823	0.269671
578.011047	0.269466
578.365216	0.270084
578.719330	0.272242
579.073389	0.271861
579.427394	0.273323
579.781344	0.274008
580.135239	0.275714
580.489080	0.275143
580.842866	0.278395
581.196597	0.277833
581.550273	0.276555
581.903895	0.277807
582.257463	0.275859
582.610975	0.278993
582.964434	0.278402
583.317837	0.281170
583.671186	0.281362
584.024481	0.281662
584.377721	0.283626
584.730906	0.284614
585.084037	0.283658
585.437113	0.285775
585.790135	0.285131
586.143103	0.288113
586.496016	0.289213
586.848874	0.286841
587.201679	0.287307
587.554428	0.290829
587.907124	0.289311
588.259765	0.289994
588.612352	0.290565
588.964884	0.294178
589.317362	0.293915
589.669786	0.293906
590.022155	0.292414
590.374470	0.291361
590.726731	0.293831
591.078937	0.298523
591.431090	0.294726
591.783188	0.298971
592.135232	0.299308
592.487222	0.299251
592.839157	0.297753
593.191038	0.300112
593.542866	0.301936
593.894639	0.305431
594.246358	0.303186
594.598022	0.302680
594.949633	0.306265
595.301190	0.306698
595.652692	0.306318
596.004141	0.302514
596.355535	0.310631
596.706876	0.310780
597.058162	0.313466
597.409395	0.310623
597.760573	0.308719
598.111698	0.311584
598.462768	0.312023
598.813785	0.313404
599.164748	0.314865
599.515657	0.314847
599.866511	0.318622
600.217312	0.313790
600.568060	0.319229
600.918753	0.315548
601.269392	0.316258
601.619978	0.319265
601.970510	0.317121
602.320988	0.317575
602.671412	0.314837
603.021783	0.317732
603.372100	0.318731
603.722363	0.318534
604.072572	0.319446
604.422728	0.319069
604.772830	0.321352
605.122878	0.320884
605.472872	0.321440
605.822813	0.319648
606.172701	0.322395
606.522534	0.319492
606.872314	0.320113
607.222041	0.320596
607.571714	0.318911
607.921333	0.320078
608.270899	0.320036
608.620411	0.316959
608.969870	0.320517
609.319276	0.320634
609.668627	0.320511
610.017926	0.319010
610.367171	0.317498
610.716362	0.318684
611.065500	0.318652
611.414585	0.317605
611.763616	0.318105
612.112594	0.318564
612.461518	0.318006
612.810389	0.315391
613.159207	0.317788
613.507971	0.319650
613.856682	0.315098
614.205340	0.317162
614.553945	0.313472
614.902496	0.317833
615.250994	0.315726
615.599439	0.316519
615.947830	0.315814
616.296169	0.316857
616.644454	0.316219
616.992686	0.316518
617.340864	0.314280
617.688990	0.317863
618.037063	0.314709
618.385082	0.316496
618.733048	0.313547
619.080961	0.315436
619.428821	0.315310
619.776628	0.314657
620.124382	0.316671
620.472083	0.316630
620.819731	0.316493
621.167326	0.320066
621.514868	0.319511
621.862357	0.323778
622.209793	0.323235
622.557176	0.325952
622.904506	0.326757
623.251783	0.329195
623.599007	0.331866
623.946179	0.331386
624.293297	0.332670
624.640363	0.336875
624.987376	0.337661
625.334336	0.340017
625.681243	0.342121
626.028097	0.342824
626.374899	0.343819
626.721647	0.344497
627.068343	0.347485
627.414987	0.348403
627.761577	0.350564
628.108115	0.348832
628.454600	0.353799
628.801032	0.351481
629.147412	0.353091
629.493739	0.353596
629.840014	0.356730
630.186236	0.354609
630.532405	0.359773
630.878521	0.357280
631.224585	0.359339
631.570597	0.362732
631.916556	0.361222
632.262462	0.361577
632.608316	0.363838
632.954117	0.364600
633.299866	0.364940
633.645562	0.365697
633.991206	0.370111
634.336797	0.372940
634.682336	0.375003
635.027823	0.377106
635.373257	0.377385
635.718639	0.380708
636.063968	0.380275
636.409245	0.385668
636.754470	0.386644
637.099642	0.388638
637.444762	0.392120
637.789829	0.391055
638.134845	0.394711
638.479808	0.395929
638.824719	0.395656
639.169577	0.399296
639.514383	0.398486
639.859137	0.403023
640.203839	0.402625
640.548489	0.402792
640.893086	0.403939
641.237632	0.405694
641.582125	0.404656
641.926566	0.406127
642.270955	0.405961
642.615292	0.406213
642.959576	0.405312
643.303809	0.406388
643.647990	0.405095
643.992118	0.406074
644.336195	0.409742
644.680219	0.408062
645.024192	0.409148
645.368112	0.402263
645.711981	0.401327
646.055797	0.396462
646.399562	0.399590
646.743274	0.391264
647.086935	0.388267
647.430544	0.388804
647.774101	0.387944
648.117606	0.387119
648.461059	0.387730
648.804460	0.390394
649.147810	0.394898
649.491108	0.397422
649.834354	0.398907
650.177548	0.403550
650.520690	0.409258
650.863781	0.410882
651.206820	0.409620
651.549807	0.414349
651.892742	0.418164
652.235626	0.417638
652.578458	0.419185
652.921238	0.425272
653.263967	0.422382
653.606644	0.426997
653.949269	0.426164
654.291843	0.430433
654.634365	0.426698
654.976836	0.430280
655.319255	0.430533
655.661622	0.431512
656.003938	0.432337
656.346203	0.434955
656.688416	0.432593
657.030577	0.436378
657.372687	0.437791
657.714746	0.439171
658.056753	0.435957
658.398708	0.439774
658.740612	0.441490
659.082465	0.437406
659.424266	0.437702
659.766016	0.436883
660.107715	0.439463
660.449362	0.438528
660.790958	0.438977
661.132503	0.440007
661.473996	0.437292
661.815438	0.438762
662.156829	0.438728
662.498168	0.439335
662.839456	0.440943
663.180693	0.438765
663.521879	0.438216
663.863013	0.439755
664.204097	0.437659
664.545129	0.434992
664.886110	0.435187
665.227040	0.432499
665.567918	0.434824
665.908746	0.433376
666.249522	0.432775
666.590248	0.433516
666.930922	0.431859
667.271545	0.431146
667.612118	0.430837
667.952639	0.432858
668.293109	0.431053
668.633528	0.434491
668.973896	0.433869
669.314213	0.434431
669.654480	0.435950
669.994695	0.436446
670.334859	0.437379
670.674973	0.437102
671.015035	0.437350
671.355047	0.437336
671.695008	0.438842
672.034918	0.440777
672.374777	0.439727
672.714585	0.440269
673.054342	0.440486
673.394049	0.441216
673.733705	0.437960
674.073310	0.439655
674.412864	0.442632
674.752368	0.443602
675.091820	0.443402
675.431223	0.447787
675.770574	0.447512
676.109875	0.450578
676.449125	0.450614
676.788324	0.452768
677.127473	0.458380
677.466571	0.458183
677.805619	0.459786
678.144616	0.460537
678.483562	0.462694
678.822458	0.465254
679.161303	0.466201
679.500098	0.466096
679.838842	0.468203
680.177535	0.467681
680.516179	0.466337
680.854771	0.465960
681.193314	0.458744
681.531805	0.449962
681.870247	0.438828
682.208638	0.431566
682.546978	0.430109
682.885268	0.431774
683.223508	0.437888
683.561697	0.441646
683.899836	0.444514
684.237925	0.447722
684.575963	0.449933
684.913951	0.453905
685.251889	0.449570
685.589776	0.451248
685.927614	0.453346
686.265401	0.447559
686.603137	0.449294
686.940824	0.443592
687.278460	0.441700
687.616046	0.440743
687.953582	0.436181
688.291068	0.437042
688.628504	0.432830
688.965889	0.435357
689.303224	0.439385
689.640510	0.443468
689.977745	0.449397
690.314930	0.456798
690.652065	0.461104
690.989150	0.468943
691.326185	0.475018
691.663170	0.479781
692.000105	0.486798
692.336990	0.493560
692.673825	0.496534
693.010610	0.503260
693.347345	0.508794
693.684030	0.510215
694.020665	0.515070
694.357251	0.523575
694.693786	0.523470
695.030272	0.528211
695.366707	0.530508
695.703093	0.534477
696.039429	0.532447
696.375716	0.533543
696.711952	0.536935
697.048139	0.538813
697.384276	0.541228
697.720363	0.538653
698.056400	0.537874
698.392388	0.543296
698.728326	0.546675
699.064214	0.549507
699.400053	0.549630
699.735842	0.554198
700.071581	0.555991
700.407270	0.558966
700.742910	0.561450
701.078501	0.567874
701.414042	0.568743
701.749533	0.571095
702.084974	0.580627
702.420366	0.572333
702.755709	0.580374
703.091002	0.588335
703.426246	0.581021
703.761440	0.586751
704.096584	0.592733
704.431679	0.588883
704.766725	0.591350
705.101721	0.592752
705.436668	0.589212
705.771565	0.595591
706.106413	0.592324
706.441212	0.587871
706.775961	0.586708
707.110661	0.589609
707.445311	0.585906
707.779913	0.583052
708.114465	0.581305
708.448967	0.578185
708.783421	0.570657
709.117825	0.565169
709.452180	0.565288
709.786485	0.558820
710.120742	0.548599
710.454949	0.550954
710.789107	0.543065
711.123216	0.534304
711.457275	0.535724
711.791286	0.526851
712.125247	0.525533
712.459159	0.536724
712.793023	0.529279
713.126837	0.533228
713.460602	0.533591
713.794318	0.542452
714.127985	0.541878
714.461602	0.551890
714.795171	0.554446
715.128691	0.562637
715.462162	0.570590
715.795584	0.575602
716.128957	0.578298
716.462281	0.584689
716.795556	0.588883
717.128782	0.593724
717.461960	0.603328
717.795088	0.601275
718.128167	0.607190
718.461198	0.616145
718.794180	0.616938
719.127113	0.619599
719.459997	0.623547
719.792833	0.629374
720.125619	0.631014
720.458357	0.636843
720.791046	0.636551
721.123686	0.639686
721.456278	0.646801
721.788821	0.644257
722.121315	0.647542
722.453761	0.652246
722.786158	0.650340
723.118506	0.647379
723.450805	0.654226
723.783056	0.650670
724.115259	0.647681
724.447412	0.647223
724.779518	0.649493
725.111574	0.647484
725.443582	0.643477
725.775542	0.645433
726.107453	0.637300
726.439315	0.636993
726.771129	0.635488
727.102895	0.629527
727.434612	0.621515
727.766281	0.620180
728.097901	0.619322
728.429473	0.619308
728.760996	0.618288
729.092471	0.617214
729.423897	0.621306
729.755276	0.621542
730.086606	0.620021
730.417887	0.614767
730.749120	0.605774
731.080305	0.597228
731.411442	0.593548
731.742530	0.598048
732.073570	0.596631
732.404562	0.589390
732.735506	0.591321
733.066401	0.595459
733.397249	0.605399
733.728048	0.615842
734.058798	0.628749
734.389501	0.638614
734.720156	0.648714
735.050762	0.657137
735.381320	0.657727
735.711831	0.666349
736.042293	0.671350
736.372707	0.667120
736.703073	0.672228
737.033391	0.674087
737.363661	0.671752
737.693883	0.666996
738.024056	0.664866
738.354182	0.665646
738.684260	0.655318
739.014290	0.651458
739.344272	0.651949
739.674207	0.645380
740.004093	0.645236
740.333931	0.645363
740.663722	0.645668
740.993464	0.646234
741.323159	0.650340
741.652806	0.654917
741.982405	0.659469
742.311956	0.663787
742.641460	0.666145
742.970915	0.669826
743.300323	0.677184
743.629683	0.684343
743.958996	0.685714
744.288260	0.690155
744.617477	0.696364
744.946647	0.697238
745.275768	0.702745
745.604842	0.702604
745.933869	0.713184
746.262847	0.713596
746.591778	0.707047
746.920662	0.714222
747.249498	0.719465
747.578286	0.710459
747.907027	0.706230
748.235720	0.707782
748.564365	0.702242
748.892963	0.702059
749.221514	0.705230
749.550017	0.710397
749.878473	0.709319
750.206881	0.716959
750.535242	0.718020
750.863555	0.717910
751.191821	0.718727
751.520039	0.721959
751.848210	0.725823
752.176334	0.719650
752.504411	0.717666
752.832440	0.725913
753.160421	0.730041
753.488356	0.728423
753.816243	0.725850
754.144082	0.734289
754.471875	0.737522
754.799620	0.733157
755.127318	0.735076
755.454969	0.734990
755.782572	0.734768
756.110129	0.739299
756.437638	0.741471
756.765100	0.737804
757.092515	0.736168
757.419882	0.735413
757.747203	0.740123
758.074477	0.739243
758.401703	0.736488
758.728882	0.731719
759.056014	0.730314
759.383099	0.729762
759.710138	0.731776
760.037129	0.727254
760.364073	0.721206
760.690970	0.723503
761.017820	0.729336
761.344623	0.725287
761.671379	0.715844
761.998088	0.704150
762.324751	0.682354
762.651366	0.640960
762.977935	0.574534
763.304456	0.522650
763.630931	0.513220
763.957359	0.551877
764.283740	0.595934
764.610074	0.623090
764.936362	0.653182
765.262602	0.679890
765.588796	0.701964
765.914943	0.719450
766.241044	0.736772
766.567097	0.744009
766.893104	0.753176
767.219064	0.760038
767.544978	0.766531
767.870845	0.778940
768.196665	0.783556
768.522438	0.781384
768.848165	0.782951
769.173846	0.790952
769.499479	0.795768
769.825066	0.799836
770.150607	0.804463
770.476101	0.799179
770.801548	0.800051
771.126949	0.812513
771.452303	0.816568
771.777611	0.815065
772.102872	0.813800
772.428087	0.819022
772.753256	0.822236
773.078378	0.824176
773.403453	0.833411
773.728482	0.837843
774.053465	0.832149
774.378401	0.834690
774.703291	0.843526
775.028135	0.842417
775.352932	0.844688
775.677683	0.847348
776.002388	0.848137
776.327046	0.847307
776.651658	0.850981
776.976224	0.853578
777.300743	0.854051
777.625216	0.855799
777.949643	0.857900
778.274024	0.857655
778.598359	0.859345
778.922647	0.857800
779.246889	0.858531
779.571086	0.862422
779.895236	0.865477
780.219339	0.863690
780.543397	0.859752
780.867409	0.858596
781.191374	0.859551
781.515294	0.861654
781.839167	0.860244
782.162995	0.864071
782.486776	0.860788
782.810511	0.861555
783.134201	0.865600
783.457844	0.862530
783.781441	0.864730
784.104993	0.872347
784.428498	0.872225
784.751958	0.867426
785.075372	0.869920
785.398739	0.873246
785.722061	0.869834
786.045337	0.865517
786.368568	0.871496
786.691752	0.873210
787.014891	0.858156
787.337983	0.849218
787.661030	0.841976
787.984031	0.824678
788.306987	0.812371
788.629897	0.815098
788.952760	0.818279
789.275579	0.822624
789.598351	0.837748
789.921078	0.850057
790.243759	0.853250
790.566395	0.857972
790.888984	0.864748
791.211529	0.871056
791.534027	0.873602
791.856480	0.874641
792.178888	0.880541
792.501249	0.883295
792.823566	0.883276
793.145836	0.884540
793.468062	0.885826
793.790241	0.886700
794.112375	0.883600
794.434464	0.880116
794.756507	0.879469
795.078505	0.878018
795.400457	0.874054
795.722364	0.862273
796.044226	0.854280
796.366042	0.853333
796.687812	0.856820
797.009538	0.853308
797.331218	0.855868
797.652852	0.861203
797.974442	0.865941
798.295986	0.865806
798.617484	0.868173
798.938938	0.872090
799.260346	0.877112
799.581709	0.879592
799.903026	0.881709
800.224299	0.881347
800.545526	0.886326
800.866708	0.889241
801.187845	0.892825
801.508936	0.893251
801.829983	0.891560
802.150984	0.894001
802.471940	0.899180
802.792851	0.897816
803.113717	0.899056
803.434538	0.896721
803.755314	0.899228
804.076045	0.900233
804.396731	0.901248
804.717372	0.899874
805.037967	0.902695
805.358518	0.901350
805.679024	0.898319
805.999485	0.897885
806.319901	0.896915
806.640272	0.899084
806.960598	0.897241
807.280879	0.894184
807.601115	0.892843
807.921306	0.898032
808.241453	0.897389
808.561554	0.895313
808.881611	0.894750
809.201623	0.897120
809.521590	0.897234
809.841513	0.898518
810.161390	0.897965
810.481223	0.897989
810.801011	0.902885
811.120755	0.903931
811.440453	0.902475
811.760107	0.901752
812.079716	0.901821
812.399281	0.905002
812.718801	0.907813
813.038276	0.908349
813.357707	0.906920
813.677093	0.903716
813.996434	0.908040
814.315731	0.909902
814.634983	0.910983
814.954191	0.909126
815.273354	0.906829
815.592473	0.902181
815.911547	0.903117
816.230577	0.900258
816.549562	0.896950
816.868502	0.898936
817.187399	0.894118
817.506250	0.889053
817.825058	0.892341
818.143821	0.888193
818.462539	0.882952
818.781213	0.875100
819.099843	0.862750
819.418429	0.847995
819.736970	0.831523
820.055466	0.812202
820.373919	0.787697
820.692327	0.754074
821.010691	0.719562
821.329011	0.644451
821.647286	0.531185
821.965517	0.418560
822.283704	0.376278
822.601847	0.377812
822.919945	0.413671
823.237999	0.446292
823.556010	0.491941
823.873976	0.547253
824.191897	0.597137
824.509775	0.639111
824.827609	0.683369
825.145398	0.706064
825.463144	0.709033
825.780845	0.691760
826.098502	0.673575
826.416116	0.628805
826.733685	0.584579
827.051210	0.577678
827.368692	0.591640
827.686129	0.628179
828.003522	0.680421
828.320872	0.727688
828.638177	0.770286
828.955439	0.802347
829.272656	0.823727
829.589830	0.841890
829.906960	0.856499
830.224046	0.868797
830.541088	0.878728
830.858086	0.883256
831.175041	0.889789
831.491952	0.889017
831.808819	0.885123
832.125642	0.878132
832.442421	0.863992
832.759157	0.843279
833.075849	0.797230
833.392497	0.734330
833.709101	0.693354
834.025662	0.702785
834.342179	0.735430
834.658653	0.773317
834.975083	0.808770
835.291469	0.835381
835.607811	0.858201
835.924110	0.872104
836.240366	0.888922
836.556578	0.903788
836.872746	0.910185
837.188871	0.916879
837.504952	0.921661
837.820990	0.925499
838.136984	0.927708
838.452935	0.930695
838.768842	0.933306
839.084706	0.925453
839.400526	0.900285
839.716303	0.861470
840.032037	0.838975
840.347727	0.842930
840.663373	0.861682
840.978977	0.882339
841.294537	0.903198
841.610054	0.920055
841.925527	0.927683
842.240957	0.934232
842.556344	0.940981
842.871687	0.946494
843.186987	0.951746
843.502244	0.951596
843.817458	0.952980
844.132629	0.956175
844.447756	0.962229
844.762840	0.961703
845.077881	0.959928
845.392879	0.961241
845.707833	0.962349
846.022745	0.965443
846.337613	0.964919
846.652438	0.966969
846.967221	0.964512
847.281960	0.965379
847.596656	0.968061
847.911309	0.966343
848.225919	0.969132
848.540485	0.969231
848.855009	0.968936
849.169490	0.967917
849.483928	0.969728
849.798323	0.969880
850.112675	0.971414
850.426984	0.970186
850.741251	0.970617
851.055474	0.970510
851.369654	0.969178
851.683792	0.970098
851.997887	0.971054
852.311938	0.970710
852.625947	0.969378
852.939914	0.968576
853.253837	0.969892
853.567718	0.972108
853.881555	0.971749
854.195350	0.969240
854.509103	0.970338
854.822812	0.969677
855.136479	0.970351
855.450103	0.971167
855.763685	0.968968
856.077224	0.969625
856.390720	0.970978
856.704173	0.971387
857.017584	0.968434
857.330953	0.966877
857.644278	0.968240
857.957561	0.969228
858.270802	0.969050
858.584000	0.967778
858.897155	0.967213
859.210268	0.967660
859.523339	0.969023
859.836367	0.970442
860.149352	0.971538
860.462295	0.969694
860.775195	0.970087
861.088054	0.969500
861.400869	0.969844
861.713642	0.970991
862.026373	0.971117
862.339062	0.972522
862.651708	0.968372
862.964312	0.969470
863.276873	0.969983
863.589392	0.969437
863.901869	0.967470
864.214303	0.965172
864.526696	0.963765
864.839045	0.964455
865.151353	0.961070
865.463619	0.962905
865.775842	0.962580
866.088023	0.963914
866.400162	0.964812
866.712258	0.962886
867.024313	0.963080
867.336325	0.964127
867.648296	0.963889
867.960224	0.962856
868.272110	0.962252
868.583954	0.964526
868.895755	0.964919
869.207515	0.962639
869.519233	0.959677
869.830909	0.961855
870.142542	0.962684
870.454134	0.962079
870.765684	0.961785
871.077191	0.959568
871.388657	0.960703
871.700081	0.959268
872.011463	0.959484
872.322803	0.959049
872.634101	0.957570
872.945357	0.955707
873.256571	0.953292
873.567744	0.954697
873.878874	0.954474
874.189963	0.952924
874.501010	0.952272
874.812015	0.950281
875.122979	0.953212
875.433900	0.954377
875.744780	0.954446
876.055618	0.951155
876.366415	0.950094
876.677169	0.950811
876.987882	0.951803
877.298554	0.951187
877.609183	0.948924
877.919771	0.946768
878.230317	0.944894
878.540822	0.941894
878.851285	0.936236
879.161707	0.929619
879.472087	0.916843
879.782425	0.901965
880.092722	0.867941
880.402977	0.818232
880.713191	0.758161
881.023363	0.701788
881.333494	0.668650
881.643583	0.640663
881.953631	0.639848
882.263637	0.667905
882.573602	0.708286
882.883526	0.733142
883.193408	0.754516
883.503248	0.776470
883.813048	0.804111
884.122806	0.832486
884.432522	0.856507
884.742197	0.873827
885.051831	0.885006
885.361424	0.895503
885.670975	0.907306
885.980485	0.916044
886.289954	0.921036
886.599382	0.925877
886.908768	0.931107
887.218113	0.937180
887.527417	0.940294
887.836680	0.942795
888.145901	0.945094
888.455082	0.947377
888.764221	0.952560
889.073319	0.954854
889.382376	0.953977
889.691392	0.953634
890.000366	0.953686
890.309300	0.955139
890.618193	0.954435
890.927044	0.952364
891.235855	0.952179
891.544625	0.952242
891.853353	0.953753
892.162041	0.950435
892.470687	0.944282
892.779293	0.939398
893.087858	0.936114
893.396381	0.929354
893.704864	0.916073
894.013306	0.892546
894.321707	0.866271
894.630068	0.852036
894.938387	0.848742
895.246665	0.850241
895.554903	0.861393
895.863100	0.874345
896.171256	0.891770
896.479371	0.910078
896.787446	0.921547
897.095480	0.929151
897.403473	0.930811
897.711425	0.934729
898.019336	0.942228
898.327207	0.945184
898.635038	0.947897
898.942827	0.946152
899.250576	0.949409
899.558284	0.952872
899.865952	0.956194
900.173579	0.956312
900.481165	0.956889
900.788711	0.960978
901.096216	0.962948
901.403681	0.962450
901.711105	0.964048
902.018489	0.965166
902.325832	0.962610
902.633135	0.964115
902.940397	0.957481
903.247619	0.945804
903.554800	0.920256
903.861941	0.883210
904.169041	0.848500
904.476101	0.831747
904.783121	0.833342
905.090100	0.848067
905.397039	0.869940
905.703938	0.889955
906.010796	0.910542
906.317614	0.925472
906.624391	0.936609
906.931129	0.946316
907.237826	0.953555
907.544483	0.960256
907.851099	0.963113
908.157675	0.969155
908.464211	0.971249
908.770707	0.973849
909.077163	0.974877
909.383578	0.975123
909.689954	0.975193
909.996289	0.976296
910.302584	0.976745
910.608839	0.980141
910.915054	0.979678
911.221229	0.978891
911.527363	0.978560
911.833458	0.977115
912.139513	0.977868
912.445527	0.976307
912.751502	0.973717
913.057436	0.973473
913.363331	0.971707
913.669186	0.967798
913.975000	0.962407
914.280775	0.956930
914.586510	0.951012
914.892205	0.938391
915.197859	0.917418
915.503475	0.891200
915.809050	0.872148
916.114585	0.868487
916.420081	0.864350
916.725536	0.862229
917.030952	0.869968
917.336328	0.882705
917.641665	0.894985
917.946961	0.911728
918.252218	0.922964
918.557435	0.930694
918.862612	0.938720
919.167750	0.944143
919.472848	0.948950
919.777906	0.954305
920.082925	0.959353
920.387904	0.963671
920.692843	0.964376
920.997743	0.966066
921.302603	0.969170
921.607423	0.970616
921.912204	0.971891
922.216946	0.973866
922.521647	0.974516
922.826310	0.975944
923.130932	0.978252
923.435516	0.978185
923.740059	0.979947
924.044564	0.979110
924.349028	0.980830
924.653454	0.984089
924.957840	0.985406
925.262186	0.984885
925.566493	0.982926
925.870761	0.985717
926.174989	0.986448
926.479178	0.988696
926.783328	0.988509
927.087438	0.988933
927.391509	0.988348
927.695541	0.989914
927.999533	0.989017
928.303486	0.989458
928.607400	0.991619
928.911275	0.989628
929.215110	0.990316
929.518906	0.991496
929.822663	0.990137
930.126381	0.990709
930.430060	0.989527
930.733699	0.990708
931.037299	0.989029
931.340861	0.991088
931.644383	0.990406
931.947866	0.990353
932.251309	0.990581
932.554714	0.989926
932.858080	0.990933
933.161407	0.990717
933.464694	0.991196
933.767943	0.989576
934.071153	0.990992
934.374323	0.991930
934.677455	0.991000
934.980548	0.991969
935.283602	0.989944
935.586617	0.990771
935.889593	0.990843
936.192530	0.991185
936.495428	0.990835
936.798287	0.991349
937.101108	0.990665
937.403890	0.989621
937.706632	0.989355
938.009336	0.987976
938.312002	0.985518
938.614628	0.984283
938.917216	0.983543
939.219765	0.981577
939.522275	0.984572
939.824747	0.983868
940.127179	0.984106
940.429573	0.984405
940.731929	0.984528
941.034246	0.984902
941.336524	0.985751
941.638763	0.986114
941.940964	0.987618
942.243126	0.987478
942.545250	0.988098
942.847335	0.989519
943.149381	0.989017
943.451389	0.988646
943.753359	0.989492
944.055290	0.991783
944.357182	0.990200
944.659036	0.989282
944.960851	0.989481
945.262628	0.988750
945.564367	0.990093
945.866067	0.990626
946.167729	0.990425
946.469352	0.988881
946.770937	0.988274
947.072484	0.990977
947.373992	0.990148
947.675462	0.989993
947.976893	0.990732
948.278286	0.991161
948.579641	0.992038
948.880958	0.991586
949.182236	0.991714
949.483476	0.991278
949.784678	0.990237
950.085841	0.990119
950.386967	0.991065
950.688054	0.990539
950.989103	0.991580
951.290114	0.989469
951.591087	0.990774
951.892021	0.990015
952.192917	0.990073
952.493776	0.988164
952.794596	0.988211
953.095378	0.988319
953.396122	0.989071
953.696828	0.989021
953.997496	0.988997
954.298126	0.991127
954.598718	0.990991
954.899272	0.990714
955.199788	0.989740
955.500266	0.992642
955.800706	0.992862
956.101108	0.993117
956.401472	0.993504
956.701798	0.992649
957.002087	0.993317
957.302337	0.993165
957.602550	0.995068
957.902724	0.994731
958.202861	0.995558
958.502960	0.995176
958.803022	0.993755
959.103045	0.996301
959.403031	0.995333
959.702979	0.996572
960.002889	0.995967
960.302762	0.994638
960.602596	0.996296
960.902393	0.994934
961.202153	0.996426
961.501875	0.997073
961.801559	0.995736
962.101205	0.995180
962.400814	0.996754
962.700385	0.996616
962.999918	0.995395
963.299414	0.996253
963.598873	0.995606
963.898293	0.997035
964.197677	0.995905
964.497022	0.996059
964.796331	0.997210
965.095601	0.997436
965.394835	0.995875
965.694030	0.996704
965.993189	0.998223
966.292309	0.997122
966.591393	0.997129
966.890439	0.998005
967.189447	0.996376
967.488419	0.996606
967.787353	0.997155
968.086249	0.996643
968.385108	0.996259
968.683930	0.997020
968.982714	0.996657
969.281462	0.996819
969.580172	0.994980
969.878844	0.997419
970.177480	0.996647
970.476078	0.997507
970.774639	0.997656
971.073162	0.996841
971.371649	0.996577
971.670098	0.995968
971.968510	0.997751
972.266885	0.995286
972.565223	0.996524
972.863524	0.995250
973.161788	0.995753
973.460014	0.997032
973.758204	0.996519
974.056356	0.997048
974.354471	0.994308
974.652550	0.996134
974.950591	0.996676
975.248595	0.996232
975.546563	0.997436
975.844493	0.996585
976.142386	0.996308
976.440243	0.997789
976.738062	0.997658
977.035845	0.996366
977.333590	0.997311
977.631299	0.997976
977.928971	0.996836
978.226606	0.995768
978.524204	0.995312
978.821765	0.998798
979.119290	0.996283
979.416777	0.995436
979.714228	0.996725
980.011642	0.996555
980.309020	0.997130
980.606360	0.996852
980.903664	0.997419
981.200931	0.996095
981.498162	0.994678
981.795356	0.994194
982.092513	0.993858
982.389633	0.994803
982.686717	0.991718
982.983764	0.991829
983.280775	0.990562
983.577749	0.990725
983.874686	0.992637
984.171587	0.991549
984.468451	0.994761
984.765279	0.994516
985.062070	0.994875
985.358824	0.995124
985.655543	0.995152
985.952224	0.996399
986.248869	0.996459
986.545478	0.996064
986.842050	0.998575
987.138586	0.995334
987.435086	0.997242
987.731549	0.998849
988.027975	0.997602
988.324366	0.997102
988.620719	0.995837
988.917037	0.996432
989.213318	0.997721
989.509563	0.997852
989.805772	0.997733
990.101944	0.998323
990.398080	0.996701
990.694180	0.997267
990.990244	0.995798
991.286271	0.997762
991.582262	0.997059
991.878217	0.998744
992.174136	0.998087
992.470019	0.998145
992.765865	0.997842
993.061676	0.997944
993.357450	0.997599
993.653188	0.996692
993.948890	0.997120
994.244556	0.998440
994.540186	0.997185
994.835780	0.995482
995.131337	0.997392
995.426859	0.995698
995.722345	0.997374
996.017795	0.996224
996.313208	0.995026
996.608586	0.996519
996.903928	0.996517
997.199234	0.996473
997.494504	0.995987
997.789738	0.995785
998.084936	0.995988
998.380099	0.996878
998.675225	0.996820
998.970316	0.997285
999.265371	0.998156
999.560390	0.997507
999.855373	0.998059
1000.150320	0.997809
1000.445232	0.998301
1000.740108	0.997997
1001.034948	0.997926
1001.329752	0.998170
1001.624521	0.999048
1001.919254	0.998678
1002.213951	0.997119
1002.508613	0.998730
1002.803239	0.999112
1003.097829	0.997919
1003.392384	0.999405
1003.686903	0.998755
1003.981386	0.999484
1004.275834	0.999323
1004.570246	0.996818
1004.864623	0.998067
1005.158964	0.998220
1005.453270	0.998060
1005.747540	0.996734
1006.041775	0.997825
1006.335974	0.998378
1006.630138	0.998496
1006.924266	0.999765
1007.218359	0.999865
1007.512416	0.999356
1007.806438	0.999350
1008.100425	0.998027
1008.394376	0.998474
1008.688292	0.998378
1008.982172	1.001203
1009.276017	0.998549
1009.569827	0.998641
1009.863602	0.999801
1010.157341	0.998825
1010.451045	0.997830
1010.744714	0.998423
1011.038347	0.998462
1011.331945	0.998870
1011.625508	0.996761
1011.919036	0.998734
1012.212528	0.999334
1012.505986	0.997472
1012.799408	0.998696
1013.092795	0.998726
1013.386147	0.999201
1013.679464	0.999356
1013.972745	0.998119
1014.265992	0.997264
1014.559204	0.997905
1014.852380	0.998812
1015.145521	0.998138
1015.438628	0.998097
1015.731699	0.998248
1016.024736	0.998291
1016.317737	0.999353
1016.610703	0.998811
1016.903635	0.999357
1017.196531	0.997990
1017.489393	0.999112
1017.782219	0.997666
1018.075011	0.997537
1018.367768	0.998495
1018.660490	0.998960
1018.953177	0.998960
1019.245829	0.998960
