Dividing Wavelength (nm)	Counts (n)	Blue Motor Position (mm): 0.000000	Red Motor Position (mm): 26.200000	
326.493990	1.001437
326.888308	1.001437
327.282561	1.001437
327.676750	0.998826
328.070874	0.999198
328.464933	1.000485
328.858929	0.998439
329.252859	0.997948
329.646726	0.999541
330.040528	0.999779
330.434265	0.998836
330.827938	1.000180
331.221547	0.999216
331.615091	1.000884
332.008571	1.000479
332.401986	0.999339
332.795338	0.999324
333.188625	0.997625
333.581847	1.000812
333.975006	0.998444
334.368100	0.998383
334.761129	1.000153
335.154095	1.000844
335.546996	0.997345
335.939833	0.993508
336.332606	0.993932
336.725315	0.994220
337.117960	0.994951
337.510540	0.992929
337.903056	0.994720
338.295508	0.992876
338.687896	0.994955
339.080220	0.994287
339.472480	0.994556
339.864676	0.993757
340.256807	0.993650
340.648875	0.995040
341.040879	0.994308
341.432818	0.994071
341.824694	0.994371
342.216506	0.995612
342.608253	0.993824
342.999937	0.993666
343.391557	0.993893
343.783113	0.993789
344.174605	0.995374
344.566033	0.994967
344.957397	0.993280
345.348697	0.994253
345.739934	0.995202
346.131106	0.992730
346.522215	0.994975
346.913260	0.994007
347.304241	0.994309
347.695159	0.993594
348.086012	0.993788
348.476802	0.994717
348.867528	0.994268
349.258191	0.992487
349.648789	0.995349
350.039324	0.993969
350.429796	0.995398
350.820203	0.993976
351.210548	0.993567
351.600828	0.994524
351.991045	0.994254
352.381198	0.994470
352.771288	0.994151
353.161314	0.993855
353.551276	0.995473
353.941175	0.995070
354.331010	0.993970
354.720782	0.994899
355.110490	0.993953
355.500135	0.994532
355.889717	0.994384
356.279235	0.994010
356.668689	0.993127
357.058080	0.994164
357.447408	0.994907
357.836672	0.995484
358.225873	0.995060
358.615010	0.994699
359.004084	0.995069
359.393095	0.994625
359.782043	0.994617
360.170927	0.995462
360.559748	0.994741
360.948505	0.994851
361.337199	0.994552
361.725830	0.994944
362.114398	0.993746
362.502903	0.995083
362.891344	0.995215
363.279722	0.994575
363.668037	0.994867
364.056289	0.994275
364.444478	0.995982
364.832603	0.994087
365.220665	0.993837
365.608665	0.994449
365.996601	0.993846
366.384474	0.994582
366.772284	0.994682
367.160031	0.992999
367.547715	0.993778
367.935336	0.994470
368.322893	0.993773
368.710388	0.993216
369.097820	0.994852
369.485189	0.994355
369.872495	0.993896
370.259738	0.993707
370.646918	0.994481
371.034035	0.994210
371.421090	0.994671
371.808081	0.994280
372.195010	0.995190
372.581875	0.994562
372.968678	0.994913
373.355418	0.995359
373.742096	0.994791
374.128710	0.996413
374.515262	0.993958
374.901751	0.994675
375.288177	0.995437
375.674540	0.995240
376.060841	0.994317
376.447079	0.995170
376.833254	0.995342
377.219367	0.995412
377.605417	0.996080
377.991404	0.995102
378.377329	0.995223
378.763191	0.995118
379.148991	0.996124
379.534727	0.996352
379.920402	0.996048
380.306013	0.995932
380.691563	0.996131
381.077049	0.995052
381.462474	0.995517
381.847835	0.996265
382.233134	0.995463
382.618371	0.994674
383.003545	0.995308
383.388657	0.995648
383.773706	0.996457
384.158693	0.995401
384.543618	0.995733
384.928480	0.996393
385.313280	0.996154
385.698017	0.996809
386.082692	0.996563
386.467305	0.996032
386.851856	0.995682
387.236344	0.995408
387.620770	0.995112
388.005133	0.996400
388.389435	0.996523
388.773674	0.996440
389.157851	0.996837
389.541965	0.996376
389.926018	0.996034
390.310008	0.997282
390.693936	0.996445
391.077802	0.997407
391.461606	0.997255
391.845348	0.995989
392.229027	0.997212
392.612645	0.996729
392.996200	0.996943
393.379694	0.995923
393.763125	0.997622
394.146494	0.996202
394.529801	0.996087
394.913047	0.997261
395.296230	0.996567
395.679351	0.996997
396.062410	0.996541
396.445408	0.996961
396.828343	0.997152
397.211217	0.996437
397.594028	0.996787
397.976778	0.996989
398.359466	0.996802
398.742092	0.996828
399.124656	0.997102
399.507158	0.996404
399.889598	0.996499
400.271977	0.996833
400.654294	0.996595
401.036549	0.996685
401.418742	0.996917
401.800874	0.996240
402.182944	0.997015
402.564952	0.995673
402.946898	0.997516
403.328783	0.997454
403.710606	0.997847
404.092367	0.997373
404.474067	0.996571
404.855705	0.996828
405.237282	0.997396
405.618797	0.996428
406.000250	0.996086
406.381642	0.996627
406.762972	0.996877
407.144240	0.997786
407.525447	0.997005
407.906593	0.997787
408.287677	0.997023
408.668700	0.996580
409.049661	0.996609
409.430560	0.997058
409.811399	0.996656
410.192176	0.995950
410.572891	0.995904
410.953545	0.996820
411.334138	0.995734
411.714669	0.997199
412.095139	0.996013
412.475547	0.997664
412.855894	0.997077
413.236180	0.997082
413.616405	0.997604
413.996568	0.998218
414.376670	0.996833
414.756711	0.997506
415.136691	0.997326
415.516609	0.996466
415.896466	0.996769
416.276262	0.995698
416.655997	0.997305
417.035670	0.996265
417.415283	0.997398
417.794834	0.997517
418.174324	0.997186
418.553753	0.997121
418.933121	0.996272
419.312428	0.996669
419.691674	0.997168
420.070859	0.996971
420.449983	0.995897
420.829045	0.997538
421.208047	0.997443
421.586988	0.997757
421.965867	0.996548
422.344686	0.997741
422.723444	0.997026
423.102141	0.996736
423.480777	0.996724
423.859352	0.996969
424.237866	0.996811
424.616319	0.997555
424.994712	0.996883
425.373044	0.997207
425.751314	0.997021
426.129524	0.996854
426.507673	0.997053
426.885762	0.997652
427.263789	0.996838
427.641756	0.997491
428.019662	0.996734
428.397508	0.996230
428.775292	0.996173
429.153016	0.996893
429.530679	0.997342
429.908282	0.997025
430.285824	0.996285
430.663305	0.996828
431.040726	0.997144
431.418086	0.998445
431.795385	0.996372
432.172624	0.995792
432.549802	0.997457
432.926920	0.996192
433.303977	0.995360
433.680974	0.996940
434.057910	0.996359
434.434786	0.996918
434.811601	0.995949
435.188355	0.995557
435.565050	0.995486
435.941683	0.995532
436.318257	0.996815
436.694770	0.995382
437.071222	0.995408
437.447614	0.995651
437.823946	0.995331
438.200218	0.995223
438.576429	0.994304
438.952580	0.994585
439.328670	0.993135
439.704700	0.993358
440.080670	0.993316
440.456580	0.992056
440.832429	0.990985
441.208218	0.990935
441.583947	0.990586
441.959616	0.989452
442.335224	0.988274
442.710773	0.988731
443.086261	0.985561
443.461689	0.985117
443.837057	0.984157
444.212365	0.983147
444.587612	0.982058
444.962800	0.978895
445.337927	0.978337
445.712995	0.976725
446.088002	0.975352
446.462949	0.973115
446.837837	0.971891
447.212664	0.969135
447.587431	0.966488
447.962139	0.961471
448.336786	0.956208
448.711374	0.954559
449.085901	0.955014
449.460369	0.953459
449.834776	0.949615
450.209124	0.945020
450.583412	0.939876
450.957640	0.936670
451.331808	0.934588
451.705917	0.932864
452.079965	0.929118
452.453954	0.924328
452.827883	0.920581
453.201752	0.917583
453.575562	0.914474
453.949311	0.906646
454.323001	0.903764
454.696632	0.898558
455.070202	0.891696
455.443713	0.885026
455.817164	0.878633
456.190556	0.872191
456.563888	0.866232
456.937160	0.860091
457.310373	0.857467
457.683526	0.851098
458.056619	0.846751
458.429653	0.839966
458.802628	0.834516
459.175542	0.826661
459.548398	0.814947
459.921194	0.805815
460.293930	0.797922
460.666607	0.781383
461.039224	0.769878
461.411782	0.761480
461.784280	0.754145
462.156719	0.749501
462.529099	0.742774
462.901419	0.740208
463.273680	0.734454
463.645882	0.727498
464.018024	0.720349
464.390106	0.709407
464.762130	0.695268
465.134094	0.678761
465.505999	0.655837
465.877845	0.633245
466.249631	0.620336
466.621358	0.615033
466.993026	0.612128
467.364634	0.606624
467.736184	0.602043
468.107674	0.597321
468.479105	0.586563
468.850477	0.584284
469.221790	0.579024
469.593043	0.575844
469.964238	0.569516
470.335373	0.561063
470.706449	0.551969
471.077467	0.545481
471.448425	0.512875
471.819324	0.489399
472.190164	0.481947
472.560945	0.493230
472.931667	0.499840
473.302330	0.495391
473.672934	0.497182
474.043479	0.481102
474.413965	0.475817
474.784393	0.471157
475.154761	0.461150
475.525070	0.451517
475.895321	0.450566
476.265513	0.440038
476.635645	0.430309
477.005719	0.423949
477.375734	0.415965
477.745691	0.404430
478.115588	0.395859
478.485427	0.384716
478.855207	0.369422
479.224928	0.350755
479.594591	0.336159
479.964194	0.332969
480.333739	0.328007
480.703226	0.322679
481.072653	0.317317
481.442022	0.309483
481.811333	0.302517
482.180584	0.300864
482.549777	0.300837
482.918912	0.300002
483.287988	0.295964
483.657005	0.292187
484.025964	0.293909
484.394864	0.287598
484.763706	0.284945
485.132489	0.286614
485.501213	0.284205
485.869879	0.280136
486.238487	0.280112
486.607036	0.275511
486.975527	0.277292
487.343959	0.271053
487.712333	0.267942
488.080648	0.267171
488.448905	0.264315
488.817104	0.263850
489.185244	0.256545
489.553326	0.252036
489.921350	0.240947
490.289315	0.222600
490.657222	0.216568
491.025070	0.216261
491.392861	0.217147
491.760593	0.221285
492.128267	0.225360
492.495883	0.229704
492.863440	0.235147
493.230939	0.240314
493.598380	0.240863
493.965763	0.242470
494.333088	0.244021
494.700354	0.244730
495.067563	0.243380
495.434713	0.246110
495.801805	0.243774
496.168839	0.244644
496.535815	0.245447
496.902733	0.244997
497.269593	0.246178
497.636395	0.243838
498.003139	0.243476
498.369825	0.246250
498.736453	0.242484
499.103023	0.244095
499.469535	0.242858
499.835989	0.243075
500.202385	0.243908
500.568723	0.246709
500.935003	0.241915
501.301226	0.245843
501.667390	0.239991
502.033497	0.237972
502.399546	0.240966
502.765537	0.242594
503.131470	0.241015
503.497345	0.237093
503.863163	0.246068
504.228923	0.238401
504.594625	0.237456
504.960269	0.242413
505.325856	0.237464
505.691385	0.242117
506.056856	0.238639
506.422270	0.237785
506.787625	0.240423
507.152924	0.237617
507.518164	0.238009
507.883347	0.239811
508.248472	0.241033
508.613540	0.236264
508.978550	0.238782
509.343503	0.239251
509.708398	0.236398
510.073236	0.234154
510.438016	0.234460
510.802738	0.235318
511.167403	0.234134
511.532010	0.236171
511.896561	0.231482
512.261053	0.230122
512.625488	0.232356
512.989866	0.232512
513.354186	0.232569
513.718449	0.234402
514.082655	0.231029
514.446803	0.232989
514.810894	0.230775
515.174927	0.233260
515.538904	0.232704
515.902822	0.229587
516.266684	0.231954
516.630488	0.233124
516.994235	0.231851
517.357925	0.230798
517.721558	0.229184
518.085133	0.228537
518.448651	0.228554
518.812112	0.230721
519.175516	0.230364
519.538863	0.228102
519.902152	0.229506
520.265385	0.226399
520.628560	0.228306
520.991678	0.228868
521.354739	0.227518
521.717743	0.228820
522.080690	0.229366
522.443580	0.226766
522.806413	0.227381
523.169189	0.226762
523.531908	0.225675
523.894569	0.229078
524.257174	0.229304
524.619722	0.226896
524.982213	0.228097
525.344647	0.227108
525.707025	0.227675
526.069345	0.225740
526.431608	0.227409
526.793815	0.225401
527.155964	0.229623
527.518057	0.228475
527.880093	0.229726
528.242072	0.228015
528.603995	0.229725
528.965860	0.231778
529.327669	0.230531
529.689421	0.231525
530.051117	0.232340
530.412755	0.230102
530.774337	0.232309
531.135862	0.232788
531.497331	0.232388
531.858743	0.234642
532.220098	0.231682
532.581396	0.234211
532.942638	0.234726
533.303824	0.235645
533.664953	0.235476
534.026025	0.236882
534.387040	0.235091
534.747999	0.234863
535.108902	0.233822
535.469748	0.238793
535.830537	0.236797
536.191270	0.237006
536.551947	0.236641
536.912567	0.236574
537.273131	0.238515
537.633638	0.238416
537.994089	0.238816
538.354483	0.239820
538.714821	0.236810
539.075103	0.236726
539.435328	0.237327
539.795497	0.240955
540.155609	0.237768
540.515665	0.236015
540.875665	0.241530
541.235609	0.240028
541.595496	0.240223
541.955328	0.236815
542.315102	0.239552
542.674821	0.240381
543.034483	0.240468
543.394090	0.239966
543.753640	0.242230
544.113134	0.237067
544.472571	0.240563
544.831953	0.237041
545.191278	0.241478
545.550548	0.240754
545.909761	0.237671
546.268918	0.238167
546.628019	0.236840
546.987064	0.239428
547.346053	0.241311
547.704986	0.239200
548.063863	0.239172
548.422684	0.239615
548.781449	0.241663
549.140158	0.239038
549.498811	0.241771
549.857408	0.245061
550.215949	0.240033
550.574434	0.242767
550.932864	0.241047
551.291237	0.239526
551.649555	0.240915
552.007817	0.240633
552.366022	0.241435
552.724173	0.241450
553.082267	0.242237
553.440305	0.238882
553.798288	0.243211
554.156215	0.239755
554.514086	0.240393
554.871902	0.243724
555.229661	0.243020
555.587365	0.243458
555.945014	0.245888
556.302606	0.243060
556.660143	0.245628
557.017625	0.241981
557.375050	0.244314
557.732421	0.241299
558.089735	0.243295
558.446994	0.243222
558.804197	0.242329
559.161345	0.242636
559.518437	0.245975
559.875474	0.243690
560.232455	0.242968
560.589381	0.244424
560.946251	0.244161
561.303065	0.242023
561.659825	0.243621
562.016528	0.244791
562.373177	0.247725
562.729770	0.245068
563.086307	0.247105
563.442789	0.244922
563.799216	0.247721
564.155587	0.246647
564.511904	0.247361
564.868164	0.247841
565.224370	0.247848
565.580520	0.249585
565.936615	0.249300
566.292654	0.252142
566.648638	0.249007
567.004567	0.250037
567.360441	0.250413
567.716260	0.252723
568.072023	0.250395
568.427732	0.251137
568.783385	0.253803
569.138982	0.251709
569.494525	0.251373
569.850013	0.254426
570.205445	0.252665
570.560823	0.255465
570.916145	0.257308
571.271412	0.255593
571.626625	0.256891
571.981782	0.257391
572.336884	0.258249
572.691931	0.257887
573.046923	0.259199
573.401860	0.260441
573.756743	0.262064
574.111570	0.260905
574.466342	0.261452
574.821059	0.260722
575.175722	0.263292
575.530330	0.263102
575.884882	0.263694
576.239380	0.265500
576.593823	0.265920
576.948211	0.265332
577.302544	0.268793
577.656823	0.268290
578.011047	0.268489
578.365216	0.269033
578.719330	0.271094
579.073389	0.270969
579.427394	0.272338
579.781344	0.272986
580.135239	0.274349
580.489080	0.274247
580.842866	0.276775
581.196597	0.277136
581.550273	0.275831
581.903895	0.276477
582.257463	0.274583
582.610975	0.278172
582.964434	0.277464
583.317837	0.279871
583.671186	0.280269
584.024481	0.280399
584.377721	0.282707
584.730906	0.283312
585.084037	0.282511
585.437113	0.284470
585.790135	0.283944
586.143103	0.287098
586.496016	0.287949
586.848874	0.285518
587.201679	0.286144
587.554428	0.289454
587.907124	0.288092
588.259765	0.289004
588.612352	0.289572
588.964884	0.293073
589.317362	0.292754
589.669786	0.292808
590.022155	0.291240
590.374470	0.290544
590.726731	0.292635
591.078937	0.297538
591.431090	0.293778
591.783188	0.297952
592.135232	0.298470
592.487222	0.298458
592.839157	0.296598
593.191038	0.298748
593.542866	0.300752
593.894639	0.304524
594.246358	0.302176
594.598022	0.301640
594.949633	0.305181
595.301190	0.306290
595.652692	0.305633
596.004141	0.301683
596.355535	0.309449
596.706876	0.310059
597.058162	0.312496
597.409395	0.309792
597.760573	0.307303
598.111698	0.310471
598.462768	0.311047
598.813785	0.312261
599.164748	0.313461
599.515657	0.313866
599.866511	0.317357
600.217312	0.312571
600.568060	0.318229
600.918753	0.314524
601.269392	0.315532
601.619978	0.318416
601.970510	0.316463
602.320988	0.316462
602.671412	0.314185
603.021783	0.316481
603.372100	0.317934
603.722363	0.317508
604.072572	0.318515
604.422728	0.318040
604.772830	0.320254
605.122878	0.319832
605.472872	0.320357
605.822813	0.318378
606.172701	0.321314
606.522534	0.318849
606.872314	0.318693
607.222041	0.319581
607.571714	0.318021
607.921333	0.319290
608.270899	0.319025
608.620411	0.315935
608.969870	0.319531
609.319276	0.319890
609.668627	0.319673
610.017926	0.318254
610.367171	0.316894
610.716362	0.317340
611.065500	0.317973
611.414585	0.316307
611.763616	0.317000
612.112594	0.317572
612.461518	0.316991
612.810389	0.314404
613.159207	0.316761
613.507971	0.318890
613.856682	0.314426
614.205340	0.316171
614.553945	0.312782
614.902496	0.316777
615.250994	0.314539
615.599439	0.315636
615.947830	0.315016
616.296169	0.316277
616.644454	0.315142
616.992686	0.315563
617.340864	0.313531
617.688990	0.316867
618.037063	0.313664
618.385082	0.315161
618.733048	0.312177
619.080961	0.314559
619.428821	0.314199
619.776628	0.313637
620.124382	0.315464
620.472083	0.315789
620.819731	0.315287
621.167326	0.318894
621.514868	0.319105
621.862357	0.323056
622.209793	0.322770
622.557176	0.325060
622.904506	0.325821
623.251783	0.328471
623.599007	0.330545
623.946179	0.330367
624.293297	0.331954
624.640363	0.335840
624.987376	0.336234
625.334336	0.339048
625.681243	0.341542
626.028097	0.341594
626.374899	0.342846
626.721647	0.343160
627.068343	0.346048
627.414987	0.347367
627.761577	0.349709
628.108115	0.347741
628.454600	0.353160
628.801032	0.350139
629.147412	0.352218
629.493739	0.352455
629.840014	0.356042
630.186236	0.353624
630.532405	0.358521
630.878521	0.356364
631.224585	0.358216
631.570597	0.362078
631.916556	0.360543
632.262462	0.360714
632.608316	0.362496
632.954117	0.363943
633.299866	0.364557
633.645562	0.364658
633.991206	0.369213
634.336797	0.372329
634.682336	0.374337
635.027823	0.375693
635.373257	0.376443
635.718639	0.380012
636.063968	0.379194
636.409245	0.385290
636.754470	0.385307
637.099642	0.387690
637.444762	0.390985
637.789829	0.390169
638.134845	0.393854
638.479808	0.394704
638.824719	0.394107
639.169577	0.398455
639.514383	0.397596
639.859137	0.401627
640.203839	0.401085
640.548489	0.401753
640.893086	0.403257
641.237632	0.404791
641.582125	0.403142
641.926566	0.404647
642.270955	0.404863
642.615292	0.405336
642.959576	0.404639
643.303809	0.405269
643.647990	0.404416
643.992118	0.405134
644.336195	0.408924
644.680219	0.407181
645.024192	0.407358
645.368112	0.401330
645.711981	0.400728
646.055797	0.395641
646.399562	0.397938
646.743274	0.390441
647.086935	0.387375
647.430544	0.387762
647.774101	0.386535
648.117606	0.386391
648.461059	0.386590
648.804460	0.389008
649.147810	0.394125
649.491108	0.396148
649.834354	0.397632
650.177548	0.403014
650.520690	0.407949
650.863781	0.409175
651.206820	0.408769
651.549807	0.413570
651.892742	0.417694
652.235626	0.416747
652.578458	0.417725
652.921238	0.423918
653.263967	0.421836
653.606644	0.425797
653.949269	0.425457
654.291843	0.429034
654.634365	0.426144
654.976836	0.429292
655.319255	0.428721
655.661622	0.430880
656.003938	0.431199
656.346203	0.433989
656.688416	0.431450
657.030577	0.435016
657.372687	0.436877
657.714746	0.438142
658.056753	0.434868
658.398708	0.438751
658.740612	0.439906
659.082465	0.436005
659.424266	0.436890
659.766016	0.435923
660.107715	0.438462
660.449362	0.437539
660.790958	0.438823
661.132503	0.438747
661.473996	0.436447
661.815438	0.437473
662.156829	0.437643
662.498168	0.437977
662.839456	0.439318
663.180693	0.437246
663.521879	0.437272
663.863013	0.438413
664.204097	0.436768
664.545129	0.433940
664.886110	0.434398
665.227040	0.431311
665.567918	0.433791
665.908746	0.431616
666.249522	0.431493
666.590248	0.432526
666.930922	0.431280
667.271545	0.429802
667.612118	0.430105
667.952639	0.431404
668.293109	0.430163
668.633528	0.433243
668.973896	0.432614
669.314213	0.433377
669.654480	0.434542
669.994695	0.435652
670.334859	0.436074
670.674973	0.436247
671.015035	0.436406
671.355047	0.435716
671.695008	0.437186
672.034918	0.439192
672.374777	0.438482
672.714585	0.439599
673.054342	0.439876
673.394049	0.439675
673.733705	0.437122
674.073310	0.438553
674.412864	0.441551
674.752368	0.442031
675.091820	0.442414
675.431223	0.447126
675.770574	0.446634
676.109875	0.450127
676.449125	0.449978
676.788324	0.451699
677.127473	0.457240
677.466571	0.456845
677.805619	0.458479
678.144616	0.459705
678.483562	0.461168
678.822458	0.464272
679.161303	0.465105
679.500098	0.465266
679.838842	0.467309
680.177535	0.466555
680.516179	0.465366
680.854771	0.464352
681.193314	0.457387
681.531805	0.448744
681.870247	0.437673
682.208638	0.429892
682.546978	0.429253
682.885268	0.431025
683.223508	0.436658
683.561697	0.440577
683.899836	0.442964
684.237925	0.446684
684.575963	0.449502
684.913951	0.451976
685.251889	0.448084
685.589776	0.450177
685.927614	0.452327
686.265401	0.446949
686.603137	0.448228
686.940824	0.441650
687.278460	0.440740
687.616046	0.439414
687.953582	0.434631
688.291068	0.436260
688.628504	0.431825
688.965889	0.433872
689.303224	0.438407
689.640510	0.442156
689.977745	0.447540
690.314930	0.455639
690.652065	0.459968
690.989150	0.468033
691.326185	0.474340
691.663170	0.478390
692.000105	0.486262
692.336990	0.493064
692.673825	0.495455
693.010610	0.502350
693.347345	0.507439
693.684030	0.508749
694.020665	0.513722
694.357251	0.522789
694.693786	0.522266
695.030272	0.526043
695.366707	0.529983
695.703093	0.533348
696.039429	0.531056
696.375716	0.532529
696.711952	0.535183
697.048139	0.537544
697.384276	0.539414
697.720363	0.537456
698.056400	0.537336
698.392388	0.542277
698.728326	0.545294
699.064214	0.548709
699.400053	0.548323
699.735842	0.552438
700.071581	0.554977
700.407270	0.557849
700.742910	0.559958
701.078501	0.567636
701.414042	0.567095
701.749533	0.569930
702.084974	0.579039
702.420366	0.571426
702.755709	0.579592
703.091002	0.586557
703.426246	0.580612
703.761440	0.586421
704.096584	0.590651
704.431679	0.588243
704.766725	0.589990
705.101721	0.591668
705.436668	0.587219
705.771565	0.594592
706.106413	0.591683
706.441212	0.586619
706.775961	0.585135
707.110661	0.588375
707.445311	0.584837
707.779913	0.581909
708.114465	0.580317
708.448967	0.577542
708.783421	0.569454
709.117825	0.563407
709.452180	0.564219
709.786485	0.558264
710.120742	0.547692
710.454949	0.549697
710.789107	0.541939
711.123216	0.533274
711.457275	0.534304
711.791286	0.524825
712.125247	0.524317
712.459159	0.535059
712.793023	0.527934
713.126837	0.531890
713.460602	0.532489
713.794318	0.541219
714.127985	0.540527
714.461602	0.550211
714.795171	0.553750
715.128691	0.561770
715.462162	0.569053
715.795584	0.573829
716.128957	0.577987
716.462281	0.583499
716.795556	0.588042
717.128782	0.593063
717.461960	0.601860
717.795088	0.600208
718.128167	0.606871
718.461198	0.615240
718.794180	0.615666
719.127113	0.618111
719.459997	0.622802
719.792833	0.628017
720.125619	0.630059
720.458357	0.635137
720.791046	0.635252
721.123686	0.638670
721.456278	0.645382
721.788821	0.642790
722.121315	0.646897
722.453761	0.651145
722.786158	0.648772
723.118506	0.645059
723.450805	0.653736
723.783056	0.649342
724.115259	0.646328
724.447412	0.645974
724.779518	0.647162
725.111574	0.646108
725.443582	0.642612
725.775542	0.643732
726.107453	0.635825
726.439315	0.635423
726.771129	0.634867
727.102895	0.627262
727.434612	0.620788
727.766281	0.618546
728.097901	0.618589
728.429473	0.617665
728.760996	0.616172
729.092471	0.616230
729.423897	0.621085
729.755276	0.618942
730.086606	0.619440
730.417887	0.614281
730.749120	0.605398
731.080305	0.595448
731.411442	0.591862
731.742530	0.596723
732.073570	0.596023
732.404562	0.587789
732.735506	0.590026
733.066401	0.594330
733.397249	0.603530
733.728048	0.615096
734.058798	0.627296
734.389501	0.638082
734.720156	0.647540
735.050762	0.655882
735.381320	0.656425
735.711831	0.666098
736.042293	0.670668
736.372707	0.665961
736.703073	0.671056
737.033391	0.672667
737.363661	0.670050
737.693883	0.665674
738.024056	0.664431
738.354182	0.664435
738.684260	0.654408
739.014290	0.649416
739.344272	0.650669
739.674207	0.644474
740.004093	0.643849
740.333931	0.645163
740.663722	0.644007
740.993464	0.644610
741.323159	0.649184
741.652806	0.653618
741.982405	0.658544
742.311956	0.663119
742.641460	0.664861
742.970915	0.668715
743.300323	0.676041
743.629683	0.682743
743.958996	0.684826
744.288260	0.689367
744.617477	0.694763
744.946647	0.696487
745.275768	0.701259
745.604842	0.702128
745.933869	0.711292
746.262847	0.712146
746.591778	0.705722
746.920662	0.711606
747.249498	0.718122
747.578286	0.708657
747.907027	0.704840
748.235720	0.706574
748.564365	0.701323
748.892963	0.701460
749.221514	0.703349
749.550017	0.709187
749.878473	0.708794
750.206881	0.714857
750.535242	0.716572
750.863555	0.716649
751.191821	0.716974
751.520039	0.721082
751.848210	0.725433
752.176334	0.717980
752.504411	0.716982
752.832440	0.724933
753.160421	0.728591
753.488356	0.728228
753.816243	0.724132
754.144082	0.732705
754.471875	0.736469
754.799620	0.731942
755.127318	0.733458
755.454969	0.733273
755.782572	0.732509
756.110129	0.737371
756.437638	0.740049
756.765100	0.737217
757.092515	0.734154
757.419882	0.733074
757.747203	0.738509
758.074477	0.737508
758.401703	0.735846
758.728882	0.730658
759.056014	0.729452
759.383099	0.728539
759.710138	0.729822
760.037129	0.725546
760.364073	0.719546
760.690970	0.722258
761.017820	0.727880
761.344623	0.723125
761.671379	0.714777
761.998088	0.702340
762.324751	0.680619
762.651366	0.638882
762.977935	0.572652
763.304456	0.520492
763.630931	0.511166
763.957359	0.550073
764.283740	0.594761
764.610074	0.621067
764.936362	0.652944
765.262602	0.678671
765.588796	0.700070
765.914943	0.717843
766.241044	0.735380
766.567097	0.742580
766.893104	0.752510
767.219064	0.758549
767.544978	0.764517
767.870845	0.778368
768.196665	0.782251
768.522438	0.779672
768.848165	0.782367
769.173846	0.789270
769.499479	0.794805
769.825066	0.797331
770.150607	0.802929
770.476101	0.798373
770.801548	0.800124
771.126949	0.811154
771.452303	0.814089
771.777611	0.813782
772.102872	0.813631
772.428087	0.818708
772.753256	0.821162
773.078378	0.822945
773.403453	0.833407
773.728482	0.836372
774.053465	0.830634
774.378401	0.833192
774.703291	0.842416
775.028135	0.841428
775.352932	0.843048
775.677683	0.847252
776.002388	0.846854
776.327046	0.846001
776.651658	0.850190
776.976224	0.852386
777.300743	0.853400
777.625216	0.854559
777.949643	0.857727
778.274024	0.856133
778.598359	0.859374
778.922647	0.857490
779.246889	0.857598
779.571086	0.861357
779.895236	0.864715
780.219339	0.861391
780.543397	0.858115
780.867409	0.856346
781.191374	0.859301
781.515294	0.860037
781.839167	0.859834
782.162995	0.862720
782.486776	0.859032
782.810511	0.860832
783.134201	0.864371
783.457844	0.861162
783.781441	0.863774
784.104993	0.869817
784.428498	0.870650
784.751958	0.866394
785.075372	0.868382
785.398739	0.872217
785.722061	0.868378
786.045337	0.864195
786.368568	0.870023
786.691752	0.871845
787.014891	0.857313
787.337983	0.849046
787.661030	0.841085
787.984031	0.824762
788.306987	0.810442
788.629897	0.813396
788.952760	0.817095
789.275579	0.822171
789.598351	0.836085
789.921078	0.850455
790.243759	0.851662
790.566395	0.857280
790.888984	0.863793
791.211529	0.868925
791.534027	0.871974
791.856480	0.874367
792.178888	0.879172
792.501249	0.882194
792.823566	0.882858
793.145836	0.883077
793.468062	0.884295
793.790241	0.885165
794.112375	0.882954
794.434464	0.878358
794.756507	0.876729
795.078505	0.877582
795.400457	0.871850
795.722364	0.860387
796.044226	0.853348
796.366042	0.852782
796.687812	0.854811
797.009538	0.851679
797.331218	0.855155
797.652852	0.860120
797.974442	0.865206
798.295986	0.864327
798.617484	0.867120
798.938938	0.870572
799.260346	0.875430
799.581709	0.878851
799.903026	0.880303
800.224299	0.880734
800.545526	0.884736
800.866708	0.888921
801.187845	0.893206
801.508936	0.893148
801.829983	0.889704
802.150984	0.892817
802.471940	0.898148
802.792851	0.896513
803.113717	0.897908
803.434538	0.894588
803.755314	0.898132
804.076045	0.899468
804.396731	0.900541
804.717372	0.900121
805.037967	0.901811
805.358518	0.898500
805.679024	0.897502
805.999485	0.895559
806.319901	0.897789
806.640272	0.898265
806.960598	0.896589
807.280879	0.893550
807.601115	0.891940
807.921306	0.895362
808.241453	0.896180
808.561554	0.894382
808.881611	0.894897
809.201623	0.896922
809.521590	0.895629
809.841513	0.896579
810.161390	0.896033
810.481223	0.898211
810.801011	0.901018
811.120755	0.903105
811.440453	0.902162
811.760107	0.900039
812.079716	0.900541
812.399281	0.903002
812.718801	0.906440
813.038276	0.907147
813.357707	0.907406
813.677093	0.903609
813.996434	0.907642
814.315731	0.908990
814.634983	0.910044
814.954191	0.908431
815.273354	0.905420
815.592473	0.902168
815.911547	0.901787
816.230577	0.897853
816.549562	0.896954
816.868502	0.897398
817.187399	0.894363
817.506250	0.888525
817.825058	0.890360
818.143821	0.887044
818.462539	0.881310
818.781213	0.873485
819.099843	0.863735
819.418429	0.846898
819.736970	0.829651
820.055466	0.811561
820.373919	0.785419
820.692327	0.752958
821.010691	0.718270
821.329011	0.642064
821.647286	0.527545
821.965517	0.414216
822.283704	0.371873
822.601847	0.373386
822.919945	0.408982
823.237999	0.442283
823.556010	0.488498
823.873976	0.543614
824.191897	0.593979
824.509775	0.636043
824.827609	0.681404
825.145398	0.703791
825.463144	0.706525
825.780845	0.689592
826.098502	0.671116
826.416116	0.625165
826.733685	0.581617
827.051210	0.573697
827.368692	0.588690
827.686129	0.625338
828.003522	0.678262
828.320872	0.724569
828.638177	0.767658
828.955439	0.800933
829.272656	0.822588
829.589830	0.839021
829.906960	0.855517
830.224046	0.866187
830.541088	0.877137
830.858086	0.881939
831.175041	0.887778
831.491952	0.886877
831.808819	0.883828
832.125642	0.876946
832.442421	0.863203
832.759157	0.841805
833.075849	0.795513
833.392497	0.732242
833.709101	0.691161
834.025662	0.700717
834.342179	0.732833
834.658653	0.771784
834.975083	0.807066
835.291469	0.832940
835.607811	0.855007
835.924110	0.871519
836.240366	0.888904
836.556578	0.901801
836.872746	0.908455
837.188871	0.915819
837.504952	0.920465
837.820990	0.923793
838.136984	0.926483
838.452935	0.930609
838.768842	0.932566
839.084706	0.925098
839.400526	0.899536
839.716303	0.859266
840.032037	0.837368
840.347727	0.841096
840.663373	0.859416
840.978977	0.880409
841.294537	0.902383
841.610054	0.917824
841.925527	0.927289
842.240957	0.932982
842.556344	0.938904
842.871687	0.946627
843.186987	0.950750
843.502244	0.950992
843.817458	0.952404
844.132629	0.955804
844.447756	0.961040
844.762840	0.959862
845.077881	0.959277
845.392879	0.960093
845.707833	0.963813
846.022745	0.964950
846.337613	0.964486
846.652438	0.966830
846.967221	0.965096
847.281960	0.965053
847.596656	0.966690
847.911309	0.965689
848.225919	0.967316
848.540485	0.968224
848.855009	0.970122
849.169490	0.968475
849.483928	0.968470
849.798323	0.969057
850.112675	0.969305
850.426984	0.968898
850.741251	0.969442
851.055474	0.970614
851.369654	0.968351
851.683792	0.968730
851.997887	0.969093
852.311938	0.969737
852.625947	0.968925
852.939914	0.967986
853.253837	0.969119
853.567718	0.971308
853.881555	0.970536
854.195350	0.967416
854.509103	0.969863
854.822812	0.970619
855.136479	0.969904
855.450103	0.970536
855.763685	0.967529
856.077224	0.968450
856.390720	0.970826
856.704173	0.970088
857.017584	0.968113
857.330953	0.966449
857.644278	0.967610
857.957561	0.969948
858.270802	0.968047
858.584000	0.967021
858.897155	0.966190
859.210268	0.967668
859.523339	0.968240
859.836367	0.970298
860.149352	0.970058
860.462295	0.967677
860.775195	0.970446
861.088054	0.969816
861.400869	0.969072
861.713642	0.970250
862.026373	0.969900
862.339062	0.970392
862.651708	0.967964
862.964312	0.967497
863.276873	0.969908
863.589392	0.968841
863.901869	0.967395
864.214303	0.964459
864.526696	0.963931
864.839045	0.963621
865.151353	0.961445
865.463619	0.961947
865.775842	0.963085
866.088023	0.962661
866.400162	0.962685
866.712258	0.962748
867.024313	0.963906
867.336325	0.963598
867.648296	0.963430
867.960224	0.963053
868.272110	0.961937
868.583954	0.964551
868.895755	0.963567
869.207515	0.961402
869.519233	0.958481
869.830909	0.961079
870.142542	0.963561
870.454134	0.962976
870.765684	0.960552
871.077191	0.957557
871.388657	0.959141
871.700081	0.958084
872.011463	0.958741
872.322803	0.958329
872.634101	0.956359
872.945357	0.954240
873.256571	0.954112
873.567744	0.952435
873.878874	0.953925
874.189963	0.951664
874.501010	0.951921
874.812015	0.949548
875.122979	0.950889
875.433900	0.953772
875.744780	0.954576
876.055618	0.951953
876.366415	0.950515
876.677169	0.950145
876.987882	0.951853
877.298554	0.950865
877.609183	0.947098
877.919771	0.945490
878.230317	0.942549
878.540822	0.940588
878.851285	0.935150
879.161707	0.927561
879.472087	0.915972
879.782425	0.899725
880.092722	0.865899
880.402977	0.815019
880.713191	0.756119
881.023363	0.697595
881.333494	0.664440
881.643583	0.634990
881.953631	0.635690
882.263637	0.663777
882.573602	0.703696
882.883526	0.729180
883.193408	0.751566
883.503248	0.773827
883.813048	0.800800
884.122806	0.830304
884.432522	0.852098
884.742197	0.871745
885.051831	0.882512
885.361424	0.892201
885.670975	0.905228
885.980485	0.913724
886.289954	0.920005
886.599382	0.925306
886.908768	0.929019
887.218113	0.934935
887.527417	0.938815
887.836680	0.943142
888.145901	0.944571
888.455082	0.946547
888.764221	0.951246
889.073319	0.952846
889.382376	0.953920
889.691392	0.953265
890.000366	0.952877
890.309300	0.953585
890.618193	0.952428
890.927044	0.952611
891.235855	0.951104
891.544625	0.952237
891.853353	0.953216
892.162041	0.949800
892.470687	0.943893
892.779293	0.938381
893.087858	0.934803
893.396381	0.926918
893.704864	0.914488
894.013306	0.890478
894.321707	0.863493
894.630068	0.850556
894.938387	0.846191
895.246665	0.846501
895.554903	0.859397
895.863100	0.871289
896.171256	0.888264
896.479371	0.907274
896.787446	0.920641
897.095480	0.926075
897.403473	0.930082
897.711425	0.933196
898.019336	0.940881
898.327207	0.943605
898.635038	0.946416
898.942827	0.945887
899.250576	0.948748
899.558284	0.952695
899.865952	0.954268
900.173579	0.954962
900.481165	0.955567
900.788711	0.960126
901.096216	0.961071
901.403681	0.961249
901.711105	0.962508
902.018489	0.963619
902.325832	0.963656
902.633135	0.962762
902.940397	0.956654
903.247619	0.944858
903.554800	0.919461
903.861941	0.879780
904.169041	0.846011
904.476101	0.829013
904.783121	0.829346
905.090100	0.845652
905.397039	0.867113
905.703938	0.888519
906.010796	0.907161
906.317614	0.924095
906.624391	0.935212
906.931129	0.945032
907.237826	0.952406
907.544483	0.960170
907.851099	0.962645
908.157675	0.968420
908.464211	0.969290
908.770707	0.973354
909.077163	0.973930
909.383578	0.974259
909.689954	0.974499
909.996289	0.975423
910.302584	0.978014
910.608839	0.979646
910.915054	0.978418
911.221229	0.977120
911.527363	0.976407
911.833458	0.976924
912.139513	0.977035
912.445527	0.975374
912.751502	0.974237
913.057436	0.973225
913.363331	0.970227
913.669186	0.967124
913.975000	0.961129
914.280775	0.955961
914.586510	0.949043
914.892205	0.937010
915.197859	0.915662
915.503475	0.888951
915.809050	0.870424
916.114585	0.864605
916.420081	0.862943
916.725536	0.858672
917.030952	0.866199
917.336328	0.879271
917.641665	0.894421
917.946961	0.908972
918.252218	0.921195
918.557435	0.929540
918.862612	0.937730
919.167750	0.943330
919.472848	0.947349
919.777906	0.952705
920.082925	0.958895
920.387904	0.961803
920.692843	0.964042
920.997743	0.964979
921.302603	0.967925
921.607423	0.968821
921.912204	0.971706
922.216946	0.971968
922.521647	0.973140
922.826310	0.975202
923.130932	0.975789
923.435516	0.979695
923.740059	0.979800
924.044564	0.977768
924.349028	0.980268
924.653454	0.981902
924.957840	0.984681
925.262186	0.984487
925.566493	0.983653
925.870761	0.984410
926.174989	0.985508
926.479178	0.987515
926.783328	0.988194
927.087438	0.987996
927.391509	0.988616
927.695541	0.989591
927.999533	0.989471
928.303486	0.989293
928.607400	0.990709
928.911275	0.989493
929.215110	0.989899
929.518906	0.990775
929.822663	0.988350
930.126381	0.990281
930.430060	0.990795
930.733699	0.990845
931.037299	0.989853
931.340861	0.990007
931.644383	0.990116
931.947866	0.989171
932.251309	0.990441
932.554714	0.989687
932.858080	0.990086
933.161407	0.989305
933.464694	0.990311
933.767943	0.988976
934.071153	0.990818
934.374323	0.991253
934.677455	0.990259
934.980548	0.992677
935.283602	0.990951
935.586617	0.990984
935.889593	0.989677
936.192530	0.991615
936.495428	0.990080
936.798287	0.991959
937.101108	0.990460
937.403890	0.988660
937.706632	0.988280
938.009336	0.986298
938.312002	0.984421
938.614628	0.984710
938.917216	0.983787
939.219765	0.981593
939.522275	0.983279
939.824747	0.982330
940.127179	0.983775
940.429573	0.983889
940.731929	0.984925
941.034246	0.984732
941.336524	0.986110
941.638763	0.985630
941.940964	0.987081
942.243126	0.985753
942.545250	0.986584
942.847335	0.987527
943.149381	0.988457
943.451389	0.987786
943.753359	0.987984
944.055290	0.990166
944.357182	0.990188
944.659036	0.988782
944.960851	0.988434
945.262628	0.989184
945.564367	0.990216
945.866067	0.989497
946.167729	0.990026
946.469352	0.989640
946.770937	0.989581
947.072484	0.990737
947.373992	0.989825
947.675462	0.990758
947.976893	0.989537
948.278286	0.991270
948.579641	0.991760
948.880958	0.990579
949.182236	0.990093
949.483476	0.991334
949.784678	0.989932
950.085841	0.991423
950.386967	0.990182
950.688054	0.990739
950.989103	0.990460
951.290114	0.988645
951.591087	0.988476
951.892021	0.988785
952.192917	0.989119
952.493776	0.988587
952.794596	0.987140
953.095378	0.987254
953.396122	0.988926
953.696828	0.987783
953.997496	0.989887
954.298126	0.990026
954.598718	0.990496
954.899272	0.990648
955.199788	0.990526
955.500266	0.991635
955.800706	0.992137
956.101108	0.992998
956.401472	0.992697
956.701798	0.993613
957.002087	0.993039
957.302337	0.992793
957.602550	0.994880
957.902724	0.994196
958.202861	0.994586
958.502960	0.994814
958.803022	0.993315
959.103045	0.994832
959.403031	0.995561
959.702979	0.995858
960.002889	0.995427
960.302762	0.994377
960.602596	0.994714
960.902393	0.993813
961.202153	0.995396
961.501875	0.996390
961.801559	0.995079
962.101205	0.995071
962.400814	0.996358
962.700385	0.995863
962.999918	0.996684
963.299414	0.996081
963.598873	0.995237
963.898293	0.995272
964.197677	0.994472
964.497022	0.996337
964.796331	0.997396
965.095601	0.995844
965.394835	0.996481
965.694030	0.997421
965.993189	0.996987
966.292309	0.996155
966.591393	0.997096
966.890439	0.996498
967.189447	0.996288
967.488419	0.996323
967.787353	0.996813
968.086249	0.996400
968.385108	0.995892
968.683930	0.995669
968.982714	0.997288
969.281462	0.997596
969.580172	0.995761
969.878844	0.996263
970.177480	0.996903
970.476078	0.996026
970.774639	0.996656
971.073162	0.996829
971.371649	0.996082
971.670098	0.996384
971.968510	0.996274
972.266885	0.995473
972.565223	0.995407
972.863524	0.996049
973.161788	0.995091
973.460014	0.996970
973.758204	0.994755
974.056356	0.996340
974.354471	0.994101
974.652550	0.996890
974.950591	0.996085
975.248595	0.995525
975.546563	0.996178
975.844493	0.996774
976.142386	0.997055
976.440243	0.996671
976.738062	0.996081
977.035845	0.997257
977.333590	0.996313
977.631299	0.997425
977.928971	0.995708
978.226606	0.995682
978.524204	0.994389
978.821765	0.998492
979.119290	0.996402
979.416777	0.995637
979.714228	0.996541
980.011642	0.994958
980.309020	0.995899
980.606360	0.996895
980.903664	0.996987
981.200931	0.996037
981.498162	0.994773
981.795356	0.994211
982.092513	0.992259
982.389633	0.994130
982.686717	0.990950
982.983764	0.991811
983.280775	0.991077
983.577749	0.990758
983.874686	0.991065
984.171587	0.992132
984.468451	0.993837
984.765279	0.994870
985.062070	0.993561
985.358824	0.994908
985.655543	0.993735
985.952224	0.995800
986.248869	0.995527
986.545478	0.995859
986.842050	0.997010
987.138586	0.995934
987.435086	0.996883
987.731549	0.999259
988.027975	0.996456
988.324366	0.997637
988.620719	0.997292
988.917037	0.995910
989.213318	0.998105
989.509563	0.997581
989.805772	0.998015
990.101944	0.996600
990.398080	0.996060
990.694180	0.997543
990.990244	0.996410
991.286271	0.997725
991.582262	0.997999
991.878217	0.997050
992.174136	0.998717
992.470019	0.997873
992.765865	0.997978
993.061676	0.997568
993.357450	0.996878
993.653188	0.996531
993.948890	0.996931
994.244556	0.998817
994.540186	0.996909
994.835780	0.995253
995.131337	0.997050
995.426859	0.996921
995.722345	0.996991
996.017795	0.996506
996.313208	0.996021
996.608586	0.994873
996.903928	0.996312
997.199234	0.995700
997.494504	0.997137
997.789738	0.995821
998.084936	0.995925
998.380099	0.998199
998.675225	0.997037
998.970316	0.997217
999.265371	0.997837
999.560390	0.997764
999.855373	0.998404
1000.150320	0.996696
1000.445232	0.998616
1000.740108	0.997639
1001.034948	0.997913
1001.329752	0.999403
1001.624521	0.997289
1001.919254	0.997862
1002.213951	0.998271
1002.508613	0.998610
1002.803239	0.998510
1003.097829	0.998509
1003.392384	0.998903
1003.686903	0.997695
1003.981386	0.997768
1004.275834	0.998017
1004.570246	0.998382
1004.864623	0.997860
1005.158964	0.998700
1005.453270	0.997223
1005.747540	0.996402
1006.041775	0.997470
1006.335974	0.998842
1006.630138	0.998807
1006.924266	0.999146
1007.218359	0.999170
1007.512416	0.998709
1007.806438	0.998691
1008.100425	0.999063
1008.394376	0.998648
1008.688292	0.997799
1008.982172	0.999899
1009.276017	0.998298
1009.569827	0.997140
1009.863602	0.998480
1010.157341	0.999360
1010.451045	0.998971
1010.744714	0.998266
1011.038347	0.998466
1011.331945	0.998039
1011.625508	0.997386
1011.919036	0.997773
1012.212528	0.998747
1012.505986	0.997472
1012.799408	0.999187
1013.092795	0.998772
1013.386147	0.997574
1013.679464	0.998105
1013.972745	0.997883
1014.265992	0.996815
1014.559204	0.999309
1014.852380	0.999391
1015.145521	0.998437
1015.438628	0.998862
1015.731699	0.998803
1016.024736	0.998229
1016.317737	0.998301
1016.610703	0.997922
1016.903635	1.000109
1017.196531	0.997733
1017.489393	0.999018
1017.782219	0.998941
1018.075011	0.997582
1018.367768	0.998922
1018.660490	0.999032
1018.953177	0.999032
1019.245829	0.999032
