Dividing Wavelength (nm)	Counts (n)	Blue Motor Position (mm): 0.000000	Red Motor Position (mm): 15.700000	
326.493990	1.000618
326.888308	1.000618
327.282561	1.000618
327.676750	1.000654
328.070874	0.999175
328.464933	1.001041
328.858929	1.000255
329.252859	1.000477
329.646726	0.999900
330.040528	1.000393
330.434265	0.998599
330.827938	1.000890
331.221547	1.000305
331.615091	1.000907
332.008571	1.001221
332.401986	1.001958
332.795338	1.000479
333.188625	0.998131
333.581847	1.001905
333.975006	0.999796
334.368100	0.998678
334.761129	1.001033
335.154095	1.000938
335.546996	0.998476
335.939833	0.993607
336.332606	0.993722
336.725315	0.994762
337.117960	0.995457
337.510540	0.993468
337.903056	0.994787
338.295508	0.993342
338.687896	0.994460
339.080220	0.994644
339.472480	0.994482
339.864676	0.992655
340.256807	0.994995
340.648875	0.994385
341.040879	0.994641
341.432818	0.994381
341.824694	0.993172
342.216506	0.994842
342.608253	0.993946
342.999937	0.994021
343.391557	0.994664
343.783113	0.993886
344.174605	0.994911
344.566033	0.993447
344.957397	0.992494
345.348697	0.993936
345.739934	0.994675
346.131106	0.993844
346.522215	0.993585
346.913260	0.993157
347.304241	0.994584
347.695159	0.994137
348.086012	0.992398
348.476802	0.994255
348.867528	0.995439
349.258191	0.993262
349.648789	0.993526
350.039324	0.994679
350.429796	0.994323
350.820203	0.995357
351.210548	0.992836
351.600828	0.995194
351.991045	0.993992
352.381198	0.993657
352.771288	0.994207
353.161314	0.993386
353.551276	0.995378
353.941175	0.993668
354.331010	0.994622
354.720782	0.994049
355.110490	0.994401
355.500135	0.993743
355.889717	0.993572
356.279235	0.993017
356.668689	0.993875
357.058080	0.995098
357.447408	0.995629
357.836672	0.994622
358.225873	0.994875
358.615010	0.994022
359.004084	0.994366
359.393095	0.994271
359.782043	0.994252
360.170927	0.995730
360.559748	0.995512
360.948505	0.992580
361.337199	0.994618
361.725830	0.994224
362.114398	0.994103
362.502903	0.994810
362.891344	0.994806
363.279722	0.993608
363.668037	0.994410
364.056289	0.993552
364.444478	0.995523
364.832603	0.994625
365.220665	0.993250
365.608665	0.993689
365.996601	0.994689
366.384474	0.994244
366.772284	0.993868
367.160031	0.993418
367.547715	0.993548
367.935336	0.993747
368.322893	0.994554
368.710388	0.994091
369.097820	0.993734
369.485189	0.993120
369.872495	0.993233
370.259738	0.992422
370.646918	0.994780
371.034035	0.994558
371.421090	0.994477
371.808081	0.993532
372.195010	0.994862
372.581875	0.994285
372.968678	0.994393
373.355418	0.993625
373.742096	0.993015
374.128710	0.994111
374.515262	0.993275
374.901751	0.994462
375.288177	0.994637
375.674540	0.995089
376.060841	0.993477
376.447079	0.993823
376.833254	0.994203
377.219367	0.994265
377.605417	0.993666
377.991404	0.994444
378.377329	0.993803
378.763191	0.993212
379.148991	0.994801
379.534727	0.994341
379.920402	0.994883
380.306013	0.994535
380.691563	0.993606
381.077049	0.993823
381.462474	0.994050
381.847835	0.993784
382.233134	0.993870
382.618371	0.993936
383.003545	0.994702
383.388657	0.993552
383.773706	0.994603
384.158693	0.994186
384.543618	0.994150
384.928480	0.994160
385.313280	0.994018
385.698017	0.995057
386.082692	0.994853
386.467305	0.994700
386.851856	0.993875
387.236344	0.993979
387.620770	0.993846
388.005133	0.994752
388.389435	0.994613
388.773674	0.994411
389.157851	0.994246
389.541965	0.994190
389.926018	0.994028
390.310008	0.995177
390.693936	0.993529
391.077802	0.994542
391.461606	0.993708
391.845348	0.992955
392.229027	0.994573
392.612645	0.994089
392.996200	0.995296
393.379694	0.994115
393.763125	0.994291
394.146494	0.993144
394.529801	0.993250
394.913047	0.993206
395.296230	0.991539
395.679351	0.991413
396.062410	0.990058
396.445408	0.989650
396.828343	0.987603
397.211217	0.986128
397.594028	0.984963
397.976778	0.982887
398.359466	0.980134
398.742092	0.977911
399.124656	0.974760
399.507158	0.971591
399.889598	0.968572
400.271977	0.964797
400.654294	0.960544
401.036549	0.954576
401.418742	0.952667
401.800874	0.944908
402.182944	0.939718
402.564952	0.933022
402.946898	0.928315
403.328783	0.922496
403.710606	0.918460
404.092367	0.907397
404.474067	0.902152
404.855705	0.894888
405.237282	0.891130
405.618797	0.879899
406.000250	0.869919
406.381642	0.860955
406.762972	0.854400
407.144240	0.846625
407.525447	0.838888
407.906593	0.827821
408.287677	0.816946
408.668700	0.812677
409.049661	0.800980
409.430560	0.790176
409.811399	0.784991
410.192176	0.767387
410.572891	0.762228
410.953545	0.747191
411.334138	0.745224
411.714669	0.733308
412.095139	0.731458
412.475547	0.712966
412.855894	0.706486
413.236180	0.697025
413.616405	0.692765
413.996568	0.678525
414.376670	0.674449
414.756711	0.669683
415.136691	0.659816
415.516609	0.646260
415.896466	0.636132
416.276262	0.626399
416.655997	0.621120
417.035670	0.599240
417.415283	0.586213
417.794834	0.584661
418.174324	0.582116
418.553753	0.584820
418.933121	0.563360
419.312428	0.552034
419.691674	0.550923
420.070859	0.536488
420.449983	0.538925
420.829045	0.524921
421.208047	0.529071
421.586988	0.519635
421.965867	0.513835
422.344686	0.499991
422.723444	0.508544
423.102141	0.521679
423.480777	0.493327
423.859352	0.509315
424.237866	0.485398
424.616319	0.483781
424.994712	0.473311
425.373044	0.480790
425.751314	0.468377
426.129524	0.482138
426.507673	0.465275
426.885762	0.457274
427.263789	0.461440
427.641756	0.470029
428.019662	0.459783
428.397508	0.457515
428.775292	0.461044
429.153016	0.452755
429.530679	0.458248
429.908282	0.451290
430.285824	0.460570
430.663305	0.439272
431.040726	0.459413
431.418086	0.459714
431.795385	0.450594
432.172624	0.449139
432.549802	0.449762
432.926920	0.448584
433.303977	0.447644
433.680974	0.444976
434.057910	0.442852
434.434786	0.442521
434.811601	0.445084
435.188355	0.427243
435.565050	0.436574
435.941683	0.437717
436.318257	0.422850
436.694770	0.422493
437.071222	0.420926
437.447614	0.425402
437.823946	0.431486
438.200218	0.421129
438.576429	0.430661
438.952580	0.423690
439.328670	0.420086
439.704700	0.426803
440.080670	0.428055
440.456580	0.409043
440.832429	0.417131
441.208218	0.428061
441.583947	0.417225
441.959616	0.416679
442.335224	0.421517
442.710773	0.413050
443.086261	0.410303
443.461689	0.424716
443.837057	0.414051
444.212365	0.404141
444.587612	0.411367
444.962800	0.401170
445.337927	0.402745
445.712995	0.428699
446.088002	0.391478
446.462949	0.401823
446.837837	0.405778
447.212664	0.395383
447.587431	0.386303
447.962139	0.356860
448.336786	0.316300
448.711374	0.327054
449.085901	0.370983
449.460369	0.375312
449.834776	0.378839
450.209124	0.358239
450.583412	0.350552
450.957640	0.343400
451.331808	0.355005
451.705917	0.378782
452.079965	0.382309
452.453954	0.370967
452.827883	0.377827
453.201752	0.373046
453.575562	0.384612
453.949311	0.372715
454.323001	0.378834
454.696632	0.374414
455.070202	0.367611
455.443713	0.358964
455.817164	0.354088
456.190556	0.349713
456.563888	0.346071
456.937160	0.344391
457.310373	0.361469
457.683526	0.360000
458.056619	0.366134
458.429653	0.365999
458.802628	0.369787
459.175542	0.364018
459.548398	0.346919
459.921194	0.339449
460.293930	0.339528
460.666607	0.317047
461.039224	0.305397
461.411782	0.301055
461.784280	0.300468
462.156719	0.304805
462.529099	0.308792
462.901419	0.324892
463.273680	0.329455
463.645882	0.328906
464.018024	0.334828
464.390106	0.327392
464.762130	0.312282
465.134094	0.295161
465.505999	0.265015
465.877845	0.234965
466.249631	0.222354
466.621358	0.229737
466.993026	0.243534
467.364634	0.249618
467.736184	0.258398
468.107674	0.267229
468.479105	0.266094
468.850477	0.272888
469.221790	0.280064
469.593043	0.290221
469.964238	0.294683
470.335373	0.294280
470.706449	0.292328
471.077467	0.292932
471.448425	0.255506
471.819324	0.231011
472.190164	0.230373
472.560945	0.259237
472.931667	0.281300
473.302330	0.285534
473.672934	0.297258
474.043479	0.285660
474.413965	0.287550
474.784393	0.290498
475.154761	0.286173
475.525070	0.282850
475.895321	0.288484
476.265513	0.283147
476.635645	0.278296
477.005719	0.278522
477.375734	0.274815
477.745691	0.268009
478.115588	0.264632
478.485427	0.258032
478.855207	0.245005
479.224928	0.227676
479.594591	0.215723
479.964194	0.219127
480.333739	0.220294
480.703226	0.221809
481.072653	0.220316
481.442022	0.215873
481.811333	0.212290
482.180584	0.215992
482.549777	0.221068
482.918912	0.224651
483.287988	0.224326
483.657005	0.223517
484.025964	0.230059
484.394864	0.227581
484.763706	0.228210
485.132489	0.233115
485.501213	0.233856
485.869879	0.231970
486.238487	0.235577
486.607036	0.233516
486.975527	0.237817
487.343959	0.233599
487.712333	0.232674
488.080648	0.234351
488.448905	0.233374
488.817104	0.234704
489.185244	0.228970
489.553326	0.226053
489.921350	0.216181
490.289315	0.198511
490.657222	0.193334
491.025070	0.194582
491.392861	0.196474
491.760593	0.202421
492.128267	0.207874
492.495883	0.213389
492.863440	0.219768
493.230939	0.226176
493.598380	0.227338
493.965763	0.229504
494.333088	0.232160
494.700354	0.233280
495.067563	0.232151
495.434713	0.235516
495.801805	0.233451
496.168839	0.235017
496.535815	0.236258
496.902733	0.236479
497.269593	0.237895
497.636395	0.235813
498.003139	0.235921
498.369825	0.238941
498.736453	0.235664
499.103023	0.236838
499.469535	0.236086
499.835989	0.236406
500.202385	0.237456
500.568723	0.240962
500.935003	0.236134
501.301226	0.240199
501.667390	0.234619
502.033497	0.232505
502.399546	0.235604
502.765537	0.237424
503.131470	0.235932
503.497345	0.232252
503.863163	0.240668
504.228923	0.234155
504.594625	0.232597
504.960269	0.238092
505.325856	0.233208
505.691385	0.237571
506.056856	0.234289
506.422270	0.233648
506.787625	0.236371
507.152924	0.233471
507.518164	0.234022
507.883347	0.235721
508.248472	0.237329
508.613540	0.232422
508.978550	0.235105
509.343503	0.235226
509.708398	0.232821
510.073236	0.230752
510.438016	0.230714
510.802738	0.231668
511.167403	0.230502
511.532010	0.232673
511.896561	0.227780
512.261053	0.226840
512.625488	0.228784
512.989866	0.229244
513.354186	0.229530
513.718449	0.231365
514.082655	0.227486
514.446803	0.229938
514.810894	0.227389
515.174927	0.230098
515.538904	0.229414
515.902822	0.226504
516.266684	0.228889
516.630488	0.230333
516.994235	0.228911
517.357925	0.227405
517.721558	0.225981
518.085133	0.225451
518.448651	0.225538
518.812112	0.227825
519.175516	0.227333
519.538863	0.225124
519.902152	0.226728
520.265385	0.223448
520.628560	0.225086
520.991678	0.225976
521.354739	0.224521
521.717743	0.225877
522.080690	0.226315
522.443580	0.223511
522.806413	0.224406
523.169189	0.223938
523.531908	0.222659
523.894569	0.226496
524.257174	0.226461
524.619722	0.223796
524.982213	0.224914
525.344647	0.223779
525.707025	0.224600
526.069345	0.222979
526.431608	0.224739
526.793815	0.222435
527.155964	0.226524
527.518057	0.225674
527.880093	0.226830
528.242072	0.225452
528.603995	0.226936
528.965860	0.228861
529.327669	0.227399
529.689421	0.228534
530.051117	0.229418
530.412755	0.226781
530.774337	0.229335
531.135862	0.229707
531.497331	0.229365
531.858743	0.231761
532.220098	0.228524
532.581396	0.231017
532.942638	0.231637
533.303824	0.232736
533.664953	0.232524
534.026025	0.234023
534.387040	0.232050
534.747999	0.231934
535.108902	0.230875
535.469748	0.236089
535.830537	0.233713
536.191270	0.234154
536.551947	0.233779
536.912567	0.233575
537.273131	0.235345
537.633638	0.235674
537.994089	0.235964
538.354483	0.237211
538.714821	0.233837
539.075103	0.233840
539.435328	0.234656
539.795497	0.238288
540.155609	0.234979
540.515665	0.233154
540.875665	0.238618
541.235609	0.237128
541.595496	0.237208
541.955328	0.233834
542.315102	0.236554
542.674821	0.237437
543.034483	0.237477
543.394090	0.237155
543.753640	0.239144
544.113134	0.234010
544.472571	0.237394
544.831953	0.234102
545.191278	0.238280
545.550548	0.238009
545.909761	0.234715
546.268918	0.235286
546.628019	0.233741
546.987064	0.236375
547.346053	0.238162
547.704986	0.235852
548.063863	0.236331
548.422684	0.236774
548.781449	0.238575
549.140158	0.236077
549.498811	0.239271
549.857408	0.242049
550.215949	0.237016
550.574434	0.239679
550.932864	0.237913
551.291237	0.236401
551.649555	0.237974
552.007817	0.237238
552.366022	0.238587
552.724173	0.238592
553.082267	0.239147
553.440305	0.235899
553.798288	0.240169
554.156215	0.236765
554.514086	0.237560
554.871902	0.241165
555.229661	0.240048
555.587365	0.240402
555.945014	0.243054
556.302606	0.239831
556.660143	0.242704
557.017625	0.238841
557.375050	0.241263
557.732421	0.238198
558.089735	0.240167
558.446994	0.240086
558.804197	0.239464
559.161345	0.239344
559.518437	0.242819
559.875474	0.240548
560.232455	0.240085
560.589381	0.241167
560.946251	0.241350
561.303065	0.238708
561.659825	0.240567
562.016528	0.241556
562.373177	0.244557
562.729770	0.241762
563.086307	0.244329
563.442789	0.241703
563.799216	0.244469
564.155587	0.243273
564.511904	0.244462
564.868164	0.244551
565.224370	0.244380
565.580520	0.246172
565.936615	0.245865
566.292654	0.248781
566.648638	0.246022
567.004567	0.246926
567.360441	0.247586
567.716260	0.249569
568.072023	0.247296
568.427732	0.248036
568.783385	0.250489
569.138982	0.248632
569.494525	0.248208
569.850013	0.250852
570.205445	0.249460
570.560823	0.251927
570.916145	0.254037
571.271412	0.252425
571.626625	0.253664
571.981782	0.254140
572.336884	0.255314
572.691931	0.254808
573.046923	0.256207
573.401860	0.257373
573.756743	0.258835
574.111570	0.257753
574.466342	0.258302
574.821059	0.257250
575.175722	0.260190
575.530330	0.260108
575.884882	0.260212
576.239380	0.262042
576.593823	0.262912
576.948211	0.262381
577.302544	0.265314
577.656823	0.264968
578.011047	0.265017
578.365216	0.265903
578.719330	0.267828
579.073389	0.268277
579.427394	0.269366
579.781344	0.269699
580.135239	0.271346
580.489080	0.270779
580.842866	0.273771
581.196597	0.273864
581.550273	0.272627
581.903895	0.273304
582.257463	0.271611
582.610975	0.275126
582.964434	0.274439
583.317837	0.276933
583.671186	0.277282
584.024481	0.277424
584.377721	0.279650
584.730906	0.279925
585.084037	0.279246
585.437113	0.281515
585.790135	0.280655
586.143103	0.283487
586.496016	0.284983
586.848874	0.282414
587.201679	0.282905
587.554428	0.286319
587.907124	0.285199
588.259765	0.285599
588.612352	0.286102
588.964884	0.290340
589.317362	0.289867
589.669786	0.289610
590.022155	0.288156
590.374470	0.287758
590.726731	0.289543
591.078937	0.294310
591.431090	0.290849
591.783188	0.294707
592.135232	0.295346
592.487222	0.295556
592.839157	0.293530
593.191038	0.295754
593.542866	0.297316
593.894639	0.301016
594.246358	0.298988
594.598022	0.298547
594.949633	0.302365
595.301190	0.303151
595.652692	0.302127
596.004141	0.298214
596.355535	0.306389
596.706876	0.306660
597.058162	0.309546
597.409395	0.306671
597.760573	0.304065
598.111698	0.307296
598.462768	0.308152
598.813785	0.309569
599.164748	0.310488
599.515657	0.310860
599.866511	0.314262
600.217312	0.309208
600.568060	0.314937
600.918753	0.311190
601.269392	0.311964
601.619978	0.315541
601.970510	0.312822
602.320988	0.313031
602.671412	0.310950
603.021783	0.313509
603.372100	0.314794
603.722363	0.314445
604.072572	0.315370
604.422728	0.315163
604.772830	0.317116
605.122878	0.316732
605.472872	0.317109
605.822813	0.315662
606.172701	0.318282
606.522534	0.315483
606.872314	0.315821
607.222041	0.316866
607.571714	0.314669
607.921333	0.316089
608.270899	0.316169
608.620411	0.312903
608.969870	0.316535
609.319276	0.316822
609.668627	0.316978
610.017926	0.315012
610.367171	0.313285
610.716362	0.314527
611.065500	0.314279
611.414585	0.313209
611.763616	0.313916
612.112594	0.314172
612.461518	0.313571
612.810389	0.311379
613.159207	0.313696
613.507971	0.315523
613.856682	0.311134
614.205340	0.312921
614.553945	0.309819
614.902496	0.313584
615.250994	0.311589
615.599439	0.312694
615.947830	0.311694
616.296169	0.312798
616.644454	0.311892
616.992686	0.312435
617.340864	0.309786
617.688990	0.313516
618.037063	0.310308
618.385082	0.312130
618.733048	0.308952
619.080961	0.311511
619.428821	0.310980
619.776628	0.310471
620.124382	0.312129
620.472083	0.312746
620.819731	0.312097
621.167326	0.315948
621.514868	0.315624
621.862357	0.320006
622.209793	0.319553
622.557176	0.321771
622.904506	0.323266
623.251783	0.325423
623.599007	0.327368
623.946179	0.327297
624.293297	0.328981
624.640363	0.332562
624.987376	0.333572
625.334336	0.335863
625.681243	0.338069
626.028097	0.338805
626.374899	0.339712
626.721647	0.340232
627.068343	0.343290
627.414987	0.344693
627.761577	0.346761
628.108115	0.344684
628.454600	0.349835
628.801032	0.347397
629.147412	0.349230
629.493739	0.349624
629.840014	0.353073
630.186236	0.350111
630.532405	0.355869
630.878521	0.353459
631.224585	0.355368
631.570597	0.359419
631.916556	0.357602
632.262462	0.357692
632.608316	0.359307
632.954117	0.360621
633.299866	0.361482
633.645562	0.361313
633.991206	0.366336
634.336797	0.369306
634.682336	0.371450
635.027823	0.372686
635.373257	0.373503
635.718639	0.377320
636.063968	0.376599
636.409245	0.382233
636.754470	0.382605
637.099642	0.384930
637.444762	0.388761
637.789829	0.387245
638.134845	0.390748
638.479808	0.391610
638.824719	0.391429
639.169577	0.395645
639.514383	0.394762
639.859137	0.398648
640.203839	0.398800
640.548489	0.399159
640.893086	0.400293
641.237632	0.401818
641.582125	0.400472
641.926566	0.401886
642.270955	0.401928
642.615292	0.402577
642.959576	0.401875
643.303809	0.402052
643.647990	0.401676
643.992118	0.402242
644.336195	0.405970
644.680219	0.404168
645.024192	0.404948
645.368112	0.398792
645.711981	0.397250
646.055797	0.392656
646.399562	0.395040
646.743274	0.387389
647.086935	0.384715
647.430544	0.384768
647.774101	0.383537
648.117606	0.383434
648.461059	0.383674
648.804460	0.385910
649.147810	0.391162
649.491108	0.393153
649.834354	0.394878
650.177548	0.400376
650.520690	0.405477
650.863781	0.406814
651.206820	0.405650
651.549807	0.410881
651.892742	0.414659
652.235626	0.414196
652.578458	0.415055
652.921238	0.421049
653.263967	0.419225
653.606644	0.422478
653.949269	0.422504
654.291843	0.426392
654.634365	0.423132
654.976836	0.426766
655.319255	0.426691
655.661622	0.428198
656.003938	0.428305
656.346203	0.431395
656.688416	0.429417
657.030577	0.432880
657.372687	0.434718
657.714746	0.435243
658.056753	0.432287
658.398708	0.436478
658.740612	0.437316
659.082465	0.433325
659.424266	0.433878
659.766016	0.433151
660.107715	0.435967
660.449362	0.434826
660.790958	0.435589
661.132503	0.435745
661.473996	0.433687
661.815438	0.434327
662.156829	0.434846
662.498168	0.435491
662.839456	0.437332
663.180693	0.434773
663.521879	0.434628
663.863013	0.435429
664.204097	0.434688
664.545129	0.431130
664.886110	0.431391
665.227040	0.428689
665.567918	0.431318
665.908746	0.429349
666.249522	0.429099
666.590248	0.430000
666.930922	0.428165
667.271545	0.427090
667.612118	0.427169
667.952639	0.429275
668.293109	0.427678
668.633528	0.429629
668.973896	0.429874
669.314213	0.430554
669.654480	0.432125
669.994695	0.432484
670.334859	0.433480
670.674973	0.433698
671.015035	0.434142
671.355047	0.433506
671.695008	0.434775
672.034918	0.436320
672.374777	0.435840
672.714585	0.436808
673.054342	0.436924
673.394049	0.437258
673.733705	0.434574
674.073310	0.436162
674.412864	0.438776
674.752368	0.439819
675.091820	0.439734
675.431223	0.444384
675.770574	0.443819
676.109875	0.447259
676.449125	0.446811
676.788324	0.449052
677.127473	0.454881
677.466571	0.454007
677.805619	0.455704
678.144616	0.457376
678.483562	0.458534
678.822458	0.461206
679.161303	0.462790
679.500098	0.462494
679.838842	0.464362
680.177535	0.463805
680.516179	0.462538
680.854771	0.462220
681.193314	0.455306
681.531805	0.445870
681.870247	0.434859
682.208638	0.427570
682.546978	0.426450
682.885268	0.428089
683.223508	0.434567
683.561697	0.438073
683.899836	0.440882
684.237925	0.444297
684.575963	0.446697
684.913951	0.449433
685.251889	0.445736
685.589776	0.447256
685.927614	0.450191
686.265401	0.444173
686.603137	0.445776
686.940824	0.439549
687.278460	0.437474
687.616046	0.437170
687.953582	0.432459
688.291068	0.433476
688.628504	0.428957
688.965889	0.431400
689.303224	0.435343
689.640510	0.438798
689.977745	0.445077
690.314930	0.452882
690.652065	0.458047
690.989150	0.465161
691.326185	0.471636
691.663170	0.475958
692.000105	0.482987
692.336990	0.490154
692.673825	0.493013
693.010610	0.500221
693.347345	0.505515
693.684030	0.506998
694.020665	0.511394
694.357251	0.520455
694.693786	0.519876
695.030272	0.523981
695.366707	0.527957
695.703093	0.531059
696.039429	0.529334
696.375716	0.530478
696.711952	0.533352
697.048139	0.535422
697.384276	0.537084
697.720363	0.535401
698.056400	0.534818
698.392388	0.540128
698.728326	0.543257
699.064214	0.546321
699.400053	0.545966
699.735842	0.550212
700.071581	0.553119
700.407270	0.556079
700.742910	0.558667
701.078501	0.564756
701.414042	0.565448
701.749533	0.568907
702.084974	0.577463
702.420366	0.569618
702.755709	0.577363
703.091002	0.585159
703.426246	0.578471
703.761440	0.583995
704.096584	0.589535
704.431679	0.585817
704.766725	0.588401
705.101721	0.590130
705.436668	0.585936
705.771565	0.592741
706.106413	0.589896
706.441212	0.583809
706.775961	0.583091
707.110661	0.586821
707.445311	0.583124
707.779913	0.579854
708.114465	0.578875
708.448967	0.575688
708.783421	0.566988
709.117825	0.561704
709.452180	0.562104
709.786485	0.556082
710.120742	0.545624
710.454949	0.547321
710.789107	0.539285
711.123216	0.530518
711.457275	0.533058
711.791286	0.522969
712.125247	0.522460
712.459159	0.533083
712.793023	0.525404
713.126837	0.530043
713.460602	0.529506
713.794318	0.539467
714.127985	0.538174
714.461602	0.548166
714.795171	0.551364
715.128691	0.559170
715.462162	0.566232
715.795584	0.572421
716.128957	0.575028
716.462281	0.581867
716.795556	0.584851
717.128782	0.589760
717.461960	0.599942
717.795088	0.598216
718.128167	0.604650
718.461198	0.614151
718.794180	0.614183
719.127113	0.617270
719.459997	0.620702
719.792833	0.626412
720.125619	0.628411
720.458357	0.633838
720.791046	0.633288
721.123686	0.636847
721.456278	0.643975
721.788821	0.641199
722.121315	0.645334
722.453761	0.649843
722.786158	0.647455
723.118506	0.644023
723.450805	0.651499
723.783056	0.647526
724.115259	0.645989
724.447412	0.645145
724.779518	0.646295
725.111574	0.645294
725.443582	0.639947
725.775542	0.641620
726.107453	0.634370
726.439315	0.634419
726.771129	0.633246
727.102895	0.625814
727.434612	0.619058
727.766281	0.617395
728.097901	0.616091
728.429473	0.616148
728.760996	0.614395
729.092471	0.614353
729.423897	0.618903
729.755276	0.617832
730.086606	0.617762
730.417887	0.611948
730.749120	0.602107
731.080305	0.593717
731.411442	0.590047
731.742530	0.594955
732.073570	0.593220
732.404562	0.586006
732.735506	0.587648
733.066401	0.592411
733.397249	0.601492
733.728048	0.612925
734.058798	0.625505
734.389501	0.635891
734.720156	0.645303
735.050762	0.653466
735.381320	0.654133
735.711831	0.664122
736.042293	0.668339
736.372707	0.664775
736.703073	0.669726
737.033391	0.671178
737.363661	0.668386
737.693883	0.663378
738.024056	0.662773
738.354182	0.663361
738.684260	0.652874
739.014290	0.648645
739.344272	0.649301
739.674207	0.642182
740.004093	0.642251
740.333931	0.642258
740.663722	0.642577
740.993464	0.642660
741.323159	0.646698
741.652806	0.651864
741.982405	0.656577
742.311956	0.660507
742.641460	0.662785
742.970915	0.666645
743.300323	0.674888
743.629683	0.681087
743.958996	0.683684
744.288260	0.687175
744.617477	0.693905
744.946647	0.694709
745.275768	0.700334
745.604842	0.700094
745.933869	0.709861
746.262847	0.711022
746.591778	0.704492
746.920662	0.710080
747.249498	0.717205
747.578286	0.707021
747.907027	0.703985
748.235720	0.704859
748.564365	0.699666
748.892963	0.699608
749.221514	0.701885
749.550017	0.708026
749.878473	0.708048
750.206881	0.714117
750.535242	0.714880
750.863555	0.715141
751.191821	0.715450
751.520039	0.718939
751.848210	0.724262
752.176334	0.716737
752.504411	0.715772
752.832440	0.723256
753.160421	0.727709
753.488356	0.725991
753.816243	0.723474
754.144082	0.732690
754.471875	0.734869
754.799620	0.731312
755.127318	0.731687
755.454969	0.732291
755.782572	0.731673
756.110129	0.736724
756.437638	0.738724
756.765100	0.734874
757.092515	0.733667
757.419882	0.731731
757.747203	0.737481
758.074477	0.737062
758.401703	0.733828
758.728882	0.728724
759.056014	0.728464
759.383099	0.726963
759.710138	0.727202
760.037129	0.725381
760.364073	0.718482
760.690970	0.721082
761.017820	0.725670
761.344623	0.722290
761.671379	0.713120
761.998088	0.701599
762.324751	0.678689
762.651366	0.637369
762.977935	0.569778
763.304456	0.517980
763.630931	0.508317
763.957359	0.547346
764.283740	0.591645
764.610074	0.619500
764.936362	0.649751
765.262602	0.676441
765.588796	0.698535
765.914943	0.716201
766.241044	0.734209
766.567097	0.740321
766.893104	0.750256
767.219064	0.757348
767.544978	0.763463
767.870845	0.776969
768.196665	0.780653
768.522438	0.778677
768.848165	0.780356
769.173846	0.788426
769.499479	0.793819
769.825066	0.796906
770.150607	0.801977
770.476101	0.796663
770.801548	0.798549
771.126949	0.809790
771.452303	0.813935
771.777611	0.813589
772.102872	0.811441
772.428087	0.817382
772.753256	0.819859
773.078378	0.822872
773.403453	0.831610
773.728482	0.835683
774.053465	0.830086
774.378401	0.832843
774.703291	0.840804
775.028135	0.842120
775.352932	0.842706
775.677683	0.844970
776.002388	0.846433
776.327046	0.845423
776.651658	0.848407
776.976224	0.852084
777.300743	0.852350
777.625216	0.854462
777.949643	0.856498
778.274024	0.856305
778.598359	0.858467
778.922647	0.856430
779.246889	0.856766
779.571086	0.861136
779.895236	0.863828
780.219339	0.861323
780.543397	0.857908
780.867409	0.856209
781.191374	0.857908
781.515294	0.859931
781.839167	0.859647
782.162995	0.862919
782.486776	0.858845
782.810511	0.859543
783.134201	0.863683
783.457844	0.860996
783.781441	0.864107
784.104993	0.869648
784.428498	0.871463
784.751958	0.865633
785.075372	0.868739
785.398739	0.872066
785.722061	0.868017
786.045337	0.864823
786.368568	0.869225
786.691752	0.871302
787.014891	0.857590
787.337983	0.848102
787.661030	0.841495
787.984031	0.822898
788.306987	0.809342
788.629897	0.813092
788.952760	0.816474
789.275579	0.820120
789.598351	0.835686
789.921078	0.849281
790.243759	0.851388
790.566395	0.856888
790.888984	0.862599
791.211529	0.869143
791.534027	0.871177
791.856480	0.873815
792.178888	0.878395
792.501249	0.881599
792.823566	0.882365
793.145836	0.882204
793.468062	0.884476
793.790241	0.884278
794.112375	0.883042
794.434464	0.877761
794.756507	0.877290
795.078505	0.877653
795.400457	0.871441
795.722364	0.860139
796.044226	0.853047
796.366042	0.851899
796.687812	0.854239
797.009538	0.851212
797.331218	0.853733
797.652852	0.859145
797.974442	0.865370
798.295986	0.863632
798.617484	0.865929
798.938938	0.869838
799.260346	0.875514
799.581709	0.877906
799.903026	0.880332
800.224299	0.880403
800.545526	0.884069
800.866708	0.887690
801.187845	0.892948
801.508936	0.891065
801.829983	0.890030
802.150984	0.892368
802.471940	0.897370
802.792851	0.897282
803.113717	0.897327
803.434538	0.895908
803.755314	0.897996
804.076045	0.899770
804.396731	0.900163
804.717372	0.899429
805.037967	0.901945
805.358518	0.899573
805.679024	0.897503
805.999485	0.897152
806.319901	0.896577
806.640272	0.898317
806.960598	0.897447
807.280879	0.893122
807.601115	0.892208
807.921306	0.895381
808.241453	0.895619
808.561554	0.893322
808.881611	0.893033
809.201623	0.895751
809.521590	0.895990
809.841513	0.896795
810.161390	0.895834
810.481223	0.897503
810.801011	0.900829
811.120755	0.902602
811.440453	0.901979
811.760107	0.899913
812.079716	0.900392
812.399281	0.904052
812.718801	0.905615
813.038276	0.907073
813.357707	0.905507
813.677093	0.903495
813.996434	0.906061
814.315731	0.909114
814.634983	0.908649
814.954191	0.907759
815.273354	0.905793
815.592473	0.901358
815.911547	0.900309
816.230577	0.898803
816.549562	0.895534
816.868502	0.898198
817.187399	0.892225
817.506250	0.886999
817.825058	0.889670
818.143821	0.885773
818.462539	0.880464
818.781213	0.873872
819.099843	0.860495
819.418429	0.845142
819.736970	0.829097
820.055466	0.809762
820.373919	0.783660
820.692327	0.750422
821.010691	0.715314
821.329011	0.638106
821.647286	0.521954
821.965517	0.408042
822.283704	0.364783
822.601847	0.366038
822.919945	0.401183
823.237999	0.435904
823.556010	0.482971
823.873976	0.538719
824.191897	0.589451
824.509775	0.631118
824.827609	0.677556
825.145398	0.700402
825.463144	0.702947
825.780845	0.685810
826.098502	0.667448
826.416116	0.621767
826.733685	0.577413
827.051210	0.568828
827.368692	0.583366
827.686129	0.620769
828.003522	0.673941
828.320872	0.721424
828.638177	0.766130
828.955439	0.798896
829.272656	0.821367
829.589830	0.837810
829.906960	0.853917
830.224046	0.865808
830.541088	0.876882
830.858086	0.880948
831.175041	0.887195
831.491952	0.886503
831.808819	0.883304
832.125642	0.876245
832.442421	0.860201
832.759157	0.839734
833.075849	0.793011
833.392497	0.729588
833.709101	0.688820
834.025662	0.697813
834.342179	0.729252
834.658653	0.769635
834.975083	0.804791
835.291469	0.830769
835.607811	0.854519
835.924110	0.870278
836.240366	0.886681
836.556578	0.900967
836.872746	0.909156
837.188871	0.914170
837.504952	0.920857
837.820990	0.923576
838.136984	0.927103
838.452935	0.929619
838.768842	0.930763
839.084706	0.925236
839.400526	0.899066
839.716303	0.857853
840.032037	0.835711
840.347727	0.839623
840.663373	0.856821
840.978977	0.878977
841.294537	0.902272
841.610054	0.918427
841.925527	0.926452
842.240957	0.933981
842.556344	0.939350
842.871687	0.946082
843.186987	0.949677
843.502244	0.950417
843.817458	0.952188
844.132629	0.956454
844.447756	0.960417
844.762840	0.960713
845.077881	0.959385
845.392879	0.959447
845.707833	0.962399
846.022745	0.964756
846.337613	0.965557
846.652438	0.965302
846.967221	0.964608
847.281960	0.965612
847.596656	0.967705
847.911309	0.966227
848.225919	0.968896
848.540485	0.968371
848.855009	0.969148
849.169490	0.968393
849.483928	0.969315
849.798323	0.969005
850.112675	0.969290
850.426984	0.968557
850.741251	0.970557
851.055474	0.969994
851.369654	0.967850
851.683792	0.970505
851.997887	0.970265
852.311938	0.970279
852.625947	0.970571
852.939914	0.968201
853.253837	0.968435
853.567718	0.970146
853.881555	0.970960
854.195350	0.967765
854.509103	0.969905
854.822812	0.970105
855.136479	0.969645
855.450103	0.971305
855.763685	0.969002
856.077224	0.968658
856.390720	0.970461
856.704173	0.970502
857.017584	0.968962
857.330953	0.966945
857.644278	0.968054
857.957561	0.968274
858.270802	0.968597
858.584000	0.967556
858.897155	0.965486
859.210268	0.967729
859.523339	0.968711
859.836367	0.970517
860.149352	0.971564
860.462295	0.968315
860.775195	0.969977
861.088054	0.970291
861.400869	0.970063
861.713642	0.971396
862.026373	0.970677
862.339062	0.970312
862.651708	0.968458
862.964312	0.968268
863.276873	0.969770
863.589392	0.968822
863.901869	0.966828
864.214303	0.965510
864.526696	0.963913
864.839045	0.964587
865.151353	0.961094
865.463619	0.962647
865.775842	0.963511
866.088023	0.962163
866.400162	0.962558
866.712258	0.962057
867.024313	0.962925
867.336325	0.964397
867.648296	0.963573
867.960224	0.962240
868.272110	0.961152
868.583954	0.963252
868.895755	0.963515
869.207515	0.962050
869.519233	0.959219
869.830909	0.960656
870.142542	0.962061
870.454134	0.962558
870.765684	0.960482
871.077191	0.958453
871.388657	0.959352
871.700081	0.957678
872.011463	0.957596
872.322803	0.958840
872.634101	0.956415
872.945357	0.953735
873.256571	0.953625
873.567744	0.953062
873.878874	0.953629
874.189963	0.952481
874.501010	0.950670
874.812015	0.949773
875.122979	0.952904
875.433900	0.952832
875.744780	0.953189
876.055618	0.951394
876.366415	0.950073
876.677169	0.950398
876.987882	0.951249
877.298554	0.951147
877.609183	0.947677
877.919771	0.944697
878.230317	0.941997
878.540822	0.940344
878.851285	0.935268
879.161707	0.927326
879.472087	0.914320
879.782425	0.898274
880.092722	0.863842
880.402977	0.811154
880.713191	0.749914
881.023363	0.691190
881.333494	0.656376
881.643583	0.628646
881.953631	0.628586
882.263637	0.657220
882.573602	0.696813
882.883526	0.723242
883.193408	0.746271
883.503248	0.768592
883.813048	0.796460
884.122806	0.826286
884.432522	0.849519
884.742197	0.869038
885.051831	0.880822
885.361424	0.890875
885.670975	0.902318
885.980485	0.913156
886.289954	0.918713
886.599382	0.924668
886.908768	0.927760
887.218113	0.934057
887.527417	0.939068
887.836680	0.941750
888.145901	0.942721
888.455082	0.947199
888.764221	0.950216
889.073319	0.952071
889.382376	0.952741
889.691392	0.952972
890.000366	0.951695
890.309300	0.952855
890.618193	0.953437
890.927044	0.951107
891.235855	0.950352
891.544625	0.952094
891.853353	0.952573
892.162041	0.949476
892.470687	0.942164
892.779293	0.937854
893.087858	0.933496
893.396381	0.925857
893.704864	0.912523
894.013306	0.888305
894.321707	0.862347
894.630068	0.847069
894.938387	0.842091
895.246665	0.843553
895.554903	0.856288
895.863100	0.869589
896.171256	0.886655
896.479371	0.906059
896.787446	0.918935
897.095480	0.924751
897.403473	0.928122
897.711425	0.933400
898.019336	0.940134
898.327207	0.942623
898.635038	0.945096
898.942827	0.945132
899.250576	0.948206
899.558284	0.951777
899.865952	0.953526
900.173579	0.955999
900.481165	0.955486
900.788711	0.959034
901.096216	0.961100
901.403681	0.961101
901.711105	0.963349
902.018489	0.964485
902.325832	0.962205
902.633135	0.962104
902.940397	0.954363
903.247619	0.943426
903.554800	0.917370
903.861941	0.878223
904.169041	0.841781
904.476101	0.824387
904.783121	0.824766
905.090100	0.841682
905.397039	0.863525
905.703938	0.885885
906.010796	0.906118
906.317614	0.922797
906.624391	0.934906
906.931129	0.943040
907.237826	0.951625
907.544483	0.959364
907.851099	0.962742
908.157675	0.967630
908.464211	0.970284
908.770707	0.972666
909.077163	0.973472
909.383578	0.975391
909.689954	0.975643
909.996289	0.975901
910.302584	0.977556
910.608839	0.979145
910.915054	0.978312
911.221229	0.978842
911.527363	0.977396
911.833458	0.978013
912.139513	0.977941
912.445527	0.975231
912.751502	0.973878
913.057436	0.971258
913.363331	0.969822
913.669186	0.966068
913.975000	0.960991
914.280775	0.955944
914.586510	0.947935
914.892205	0.935003
915.197859	0.914214
915.503475	0.886472
915.809050	0.866016
916.114585	0.859701
916.420081	0.856906
916.725536	0.854353
917.030952	0.862833
917.336328	0.875986
917.641665	0.890621
917.946961	0.906960
918.252218	0.917930
918.557435	0.926317
918.862612	0.935911
919.167750	0.941923
919.472848	0.946482
919.777906	0.951938
920.082925	0.958107
920.387904	0.961424
920.692843	0.962209
920.997743	0.964601
921.302603	0.967015
921.607423	0.969089
921.912204	0.971250
922.216946	0.971687
922.521647	0.973217
922.826310	0.974654
923.130932	0.976917
923.435516	0.978810
923.740059	0.979515
924.044564	0.979444
924.349028	0.981067
924.653454	0.982699
924.957840	0.983939
925.262186	0.984212
925.566493	0.983563
925.870761	0.983890
926.174989	0.985982
926.479178	0.988922
926.783328	0.988097
927.087438	0.987908
927.391509	0.989305
927.695541	0.989417
927.999533	0.990941
928.303486	0.990244
928.607400	0.991287
928.911275	0.989223
929.215110	0.990858
929.518906	0.991148
929.822663	0.990059
930.126381	0.991052
930.430060	0.990629
930.733699	0.989541
931.037299	0.989157
931.340861	0.991535
931.644383	0.989762
931.947866	0.989933
932.251309	0.990134
932.554714	0.990780
932.858080	0.990599
933.161407	0.990674
933.464694	0.991044
933.767943	0.989175
934.071153	0.991702
934.374323	0.991024
934.677455	0.991505
934.980548	0.991167
935.283602	0.990740
935.586617	0.991099
935.889593	0.990298
936.192530	0.991197
936.495428	0.990507
936.798287	0.991253
937.101108	0.990552
937.403890	0.988790
937.706632	0.988472
938.009336	0.987682
938.312002	0.986155
938.614628	0.984240
938.917216	0.982371
939.219765	0.981516
939.522275	0.983625
939.824747	0.983711
940.127179	0.983519
940.429573	0.984802
940.731929	0.983842
941.034246	0.983987
941.336524	0.985266
941.638763	0.987126
941.940964	0.986907
942.243126	0.986328
942.545250	0.987139
942.847335	0.987215
943.149381	0.987947
943.451389	0.988245
943.753359	0.988448
944.055290	0.991342
944.357182	0.989775
944.659036	0.989060
944.960851	0.988337
945.262628	0.989326
945.564367	0.991047
945.866067	0.989702
946.167729	0.990227
946.469352	0.989817
946.770937	0.989383
947.072484	0.991280
947.373992	0.989635
947.675462	0.990642
947.976893	0.990625
948.278286	0.989807
948.579641	0.991641
948.880958	0.991156
949.182236	0.991444
949.483476	0.992484
949.784678	0.990153
950.085841	0.991020
950.386967	0.990660
950.688054	0.990351
950.989103	0.991682
951.290114	0.989559
951.591087	0.989499
951.892021	0.989882
952.192917	0.989573
952.493776	0.988219
952.794596	0.989063
953.095378	0.987564
953.396122	0.987380
953.696828	0.987283
953.997496	0.989598
954.298126	0.990895
954.598718	0.989903
954.899272	0.990679
955.199788	0.991633
955.500266	0.990761
955.800706	0.992822
956.101108	0.993963
956.401472	0.993463
956.701798	0.994715
957.002087	0.993308
957.302337	0.993417
957.602550	0.995495
957.902724	0.995325
958.202861	0.995427
958.502960	0.995302
958.803022	0.994572
959.103045	0.996321
959.403031	0.996494
959.702979	0.995728
960.002889	0.997116
960.302762	0.994909
960.602596	0.996269
960.902393	0.996052
961.202153	0.997257
961.501875	0.997210
961.801559	0.995965
962.101205	0.995951
962.400814	0.995801
962.700385	0.996591
962.999918	0.996014
963.299414	0.996779
963.598873	0.995626
963.898293	0.996173
964.197677	0.996502
964.497022	0.996666
964.796331	0.997905
965.095601	0.996771
965.394835	0.997044
965.694030	0.996322
965.993189	0.996285
966.292309	0.997272
966.591393	0.997317
966.890439	0.997840
967.189447	0.997601
967.488419	0.997921
967.787353	0.996010
968.086249	0.996387
968.385108	0.998034
968.683930	0.997165
968.982714	0.997923
969.281462	0.997308
969.580172	0.997106
969.878844	0.998622
970.177480	0.996535
970.476078	0.997301
970.774639	0.998264
971.073162	0.997864
971.371649	0.995361
971.670098	0.997033
971.968510	0.997671
972.266885	0.996073
972.565223	0.996476
972.863524	0.996713
973.161788	0.996273
973.460014	0.997549
973.758204	0.996595
974.056356	0.996226
974.354471	0.995010
974.652550	0.996182
974.950591	0.997412
975.248595	0.996759
975.546563	0.997802
975.844493	0.998623
976.142386	0.997583
976.440243	0.997892
976.738062	0.997914
977.035845	0.998536
977.333590	0.998017
977.631299	0.998757
977.928971	0.996164
978.226606	0.995943
978.524204	0.995624
978.821765	0.999195
979.119290	0.997231
979.416777	0.997219
979.714228	0.997208
980.011642	0.996488
980.309020	0.998192
980.606360	0.996109
980.903664	0.998519
981.200931	0.996954
981.498162	0.995894
981.795356	0.994727
982.092513	0.993886
982.389633	0.994871
982.686717	0.992016
982.983764	0.992332
983.280775	0.990087
983.577749	0.990467
983.874686	0.992622
984.171587	0.992309
984.468451	0.993732
984.765279	0.995888
985.062070	0.994831
985.358824	0.995529
985.655543	0.995468
985.952224	0.996639
986.248869	0.996672
986.545478	0.996227
986.842050	0.999667
987.138586	0.995599
987.435086	0.998646
987.731549	0.999030
988.027975	0.998343
988.324366	0.997782
988.620719	0.998290
988.917037	0.997479
989.213318	0.998606
989.509563	0.999080
989.805772	0.997517
990.101944	0.998719
990.398080	0.998027
990.694180	0.998379
990.990244	0.997656
991.286271	0.998066
991.582262	0.998793
991.878217	0.997509
992.174136	0.998665
992.470019	0.998810
992.765865	0.998817
993.061676	0.997199
993.357450	0.999611
993.653188	0.996984
993.948890	0.996979
994.244556	0.998062
994.540186	0.997922
994.835780	0.997036
995.131337	0.997688
995.426859	0.996821
995.722345	0.997563
996.017795	0.996665
996.313208	0.996198
996.608586	0.996562
996.903928	0.996273
997.199234	0.996334
997.494504	0.996228
997.789738	0.995995
998.084936	0.997414
998.380099	0.997971
998.675225	0.998778
998.970316	0.998980
999.265371	0.998911
999.560390	0.998156
999.855373	0.999142
1000.150320	0.998767
1000.445232	1.000143
1000.740108	0.998286
1001.034948	0.999374
1001.329752	0.998679
1001.624521	0.999354
1001.919254	0.999106
1002.213951	0.996979
1002.508613	0.998711
1002.803239	0.999048
1003.097829	0.999007
1003.392384	0.999911
1003.686903	0.997400
1003.981386	0.998896
1004.275834	0.999445
1004.570246	0.998495
1004.864623	0.999153
1005.158964	1.000238
1005.453270	0.999033
1005.747540	0.997721
1006.041775	0.998300
1006.335974	1.000607
1006.630138	1.001009
1006.924266	0.999611
1007.218359	1.000012
1007.512416	0.999634
1007.806438	0.998458
1008.100425	0.998625
1008.394376	0.998328
1008.688292	0.998390
1008.982172	1.000269
1009.276017	1.000473
1009.569827	0.998446
1009.863602	0.998918
1010.157341	1.000816
1010.451045	0.999444
1010.744714	0.999330
1011.038347	0.999838
1011.331945	0.998891
1011.625508	0.998184
1011.919036	1.000023
1012.212528	0.999665
1012.505986	0.998503
1012.799408	0.999590
1013.092795	0.999082
1013.386147	0.999908
1013.679464	0.999399
1013.972745	0.998539
1014.265992	0.997815
1014.559204	0.999010
1014.852380	0.999318
1015.145521	0.999772
1015.438628	0.999085
1015.731699	0.999281
1016.024736	0.999578
1016.317737	0.999104
1016.610703	0.999464
1016.903635	0.999426
1017.196531	0.999148
1017.489393	1.000051
1017.782219	0.998474
1018.075011	0.999310
1018.367768	1.000383
1018.660490	0.999388
1018.953177	0.999388
1019.245829	0.999388
