Dividing Wavelength (nm)	Counts (n)	Blue Motor Position (mm): 0.000000	Red Motor Position (mm): 17.800000	
326.493990	1.001488
326.888308	1.001488
327.282561	1.001488
327.676750	1.000176
328.070874	0.999091
328.464933	1.000089
328.858929	1.001702
329.252859	1.000258
329.646726	1.000089
330.040528	0.999377
330.434265	0.999307
330.827938	1.000667
331.221547	1.001116
331.615091	1.000244
332.008571	1.000712
332.401986	1.000731
332.795338	1.000196
333.188625	0.998327
333.581847	1.000184
333.975006	0.999773
334.368100	0.999416
334.761129	1.000451
335.154095	1.001572
335.546996	0.997586
335.939833	0.993507
336.332606	0.994317
336.725315	0.995397
337.117960	0.995608
337.510540	0.994742
337.903056	0.994600
338.295508	0.994366
338.687896	0.993424
339.080220	0.995132
339.472480	0.994433
339.864676	0.994610
340.256807	0.994034
340.648875	0.995385
341.040879	0.994370
341.432818	0.994105
341.824694	0.994927
342.216506	0.995195
342.608253	0.995140
342.999937	0.993445
343.391557	0.994903
343.783113	0.994513
344.174605	0.994421
344.566033	0.995560
344.957397	0.993778
345.348697	0.993986
345.739934	0.993946
346.131106	0.994062
346.522215	0.993958
346.913260	0.994111
347.304241	0.994055
347.695159	0.993745
348.086012	0.993495
348.476802	0.994476
348.867528	0.993676
349.258191	0.993607
349.648789	0.994198
350.039324	0.994008
350.429796	0.994757
350.820203	0.994692
351.210548	0.994600
351.600828	0.993408
351.991045	0.994808
352.381198	0.992879
352.771288	0.993403
353.161314	0.994746
353.551276	0.995797
353.941175	0.993652
354.331010	0.993674
354.720782	0.994734
355.110490	0.994097
355.500135	0.995124
355.889717	0.994227
356.279235	0.993888
356.668689	0.993893
357.058080	0.993650
357.447408	0.995344
357.836672	0.995292
358.225873	0.994926
358.615010	0.994878
359.004084	0.994908
359.393095	0.995360
359.782043	0.994956
360.170927	0.995472
360.559748	0.994452
360.948505	0.994405
361.337199	0.993532
361.725830	0.994817
362.114398	0.994401
362.502903	0.994502
362.891344	0.995115
363.279722	0.994222
363.668037	0.994979
364.056289	0.993509
364.444478	0.995536
364.832603	0.993828
365.220665	0.994957
365.608665	0.992914
365.996601	0.994545
366.384474	0.994078
366.772284	0.994448
367.160031	0.992412
367.547715	0.993650
367.935336	0.994498
368.322893	0.993404
368.710388	0.994273
369.097820	0.995513
369.485189	0.993992
369.872495	0.992731
370.259738	0.992379
370.646918	0.994743
371.034035	0.994610
371.421090	0.994358
371.808081	0.994372
372.195010	0.994809
372.581875	0.995670
372.968678	0.993805
373.355418	0.994788
373.742096	0.993652
374.128710	0.995686
374.515262	0.993850
374.901751	0.994121
375.288177	0.994141
375.674540	0.995112
376.060841	0.994177
376.447079	0.995345
376.833254	0.994596
377.219367	0.995359
377.605417	0.994807
377.991404	0.994948
378.377329	0.994083
378.763191	0.993992
379.148991	0.994962
379.534727	0.994356
379.920402	0.994733
380.306013	0.994805
380.691563	0.995667
381.077049	0.994678
381.462474	0.994867
381.847835	0.994534
382.233134	0.995232
382.618371	0.994814
383.003545	0.995869
383.388657	0.994302
383.773706	0.994648
384.158693	0.995120
384.543618	0.994198
384.928480	0.996024
385.313280	0.995076
385.698017	0.995409
386.082692	0.995652
386.467305	0.995246
386.851856	0.995060
387.236344	0.994315
387.620770	0.994435
388.005133	0.995352
388.389435	0.996078
388.773674	0.995233
389.157851	0.995947
389.541965	0.995462
389.926018	0.993915
390.310008	0.997044
390.693936	0.994783
391.077802	0.994162
391.461606	0.995239
391.845348	0.995683
392.229027	0.995716
392.612645	0.996301
392.996200	0.995623
393.379694	0.995222
393.763125	0.995728
394.146494	0.994674
394.529801	0.994414
394.913047	0.995606
395.296230	0.995929
395.679351	0.995126
396.062410	0.994406
396.445408	0.995716
396.828343	0.994927
397.211217	0.994791
397.594028	0.994889
397.976778	0.994830
398.359466	0.994885
398.742092	0.994098
399.124656	0.993974
399.507158	0.995081
399.889598	0.994888
400.271977	0.994668
400.654294	0.994828
401.036549	0.993533
401.418742	0.994487
401.800874	0.992265
402.182944	0.992885
402.564952	0.991325
402.946898	0.991781
403.328783	0.990736
403.710606	0.988445
404.092367	0.987022
404.474067	0.986454
404.855705	0.983752
405.237282	0.982627
405.618797	0.980103
406.000250	0.977122
406.381642	0.974916
406.762972	0.972175
407.144240	0.968635
407.525447	0.966028
407.906593	0.962607
408.287677	0.957610
408.668700	0.955336
409.049661	0.948492
409.430560	0.944816
409.811399	0.939999
410.192176	0.932485
410.572891	0.929208
410.953545	0.921816
411.334138	0.918219
411.714669	0.912319
412.095139	0.908920
412.475547	0.899135
412.855894	0.892839
413.236180	0.886454
413.616405	0.881146
413.996568	0.871764
414.376670	0.865378
414.756711	0.860272
415.136691	0.851136
415.516609	0.840593
415.896466	0.832695
416.276262	0.821724
416.655997	0.816081
417.035670	0.799800
417.415283	0.788361
417.794834	0.781330
418.174324	0.775691
418.553753	0.771991
418.933121	0.753699
419.312428	0.741015
419.691674	0.734820
420.070859	0.720145
420.449983	0.715607
420.829045	0.701006
421.208047	0.697723
421.586988	0.684186
421.965867	0.675057
422.344686	0.658245
422.723444	0.658670
423.102141	0.661954
423.480777	0.635503
423.859352	0.640747
424.237866	0.616682
424.616319	0.610421
424.994712	0.596167
425.373044	0.596320
425.751314	0.579095
426.129524	0.584816
426.507673	0.564936
426.885762	0.554117
427.263789	0.551847
427.641756	0.553879
428.019662	0.540375
428.397508	0.532904
428.775292	0.530922
429.153016	0.518892
429.530679	0.519298
429.908282	0.508598
430.285824	0.513671
430.663305	0.489683
431.040726	0.504416
431.418086	0.501666
431.795385	0.489842
432.172624	0.484960
432.549802	0.483126
432.926920	0.478879
433.303977	0.475249
433.680974	0.469894
434.057910	0.466241
434.434786	0.463467
434.811601	0.463807
435.188355	0.444825
435.565050	0.452319
435.941683	0.452158
436.318257	0.435324
436.694770	0.434856
437.071222	0.431373
437.447614	0.434563
437.823946	0.439918
438.200218	0.428477
438.576429	0.437679
438.952580	0.429773
439.328670	0.426104
439.704700	0.431350
440.080670	0.432317
440.456580	0.413286
440.832429	0.420464
441.208218	0.430699
441.583947	0.420236
441.959616	0.419741
442.335224	0.424144
442.710773	0.414755
443.086261	0.412323
443.461689	0.426559
443.837057	0.416191
444.212365	0.405929
444.587612	0.413166
444.962800	0.402638
445.337927	0.403897
445.712995	0.430293
446.088002	0.392793
446.462949	0.402502
446.837837	0.407196
447.212664	0.396271
447.587431	0.387913
447.962139	0.358497
448.336786	0.317509
448.711374	0.328159
449.085901	0.371639
449.460369	0.376246
449.834776	0.379659
450.209124	0.358943
450.583412	0.351387
450.957640	0.344504
451.331808	0.355663
451.705917	0.378925
452.079965	0.383418
452.453954	0.371909
452.827883	0.378698
453.201752	0.373302
453.575562	0.384661
453.949311	0.373217
454.323001	0.378905
454.696632	0.374913
455.070202	0.367773
455.443713	0.359600
455.817164	0.354240
456.190556	0.350088
456.563888	0.347333
456.937160	0.344619
457.310373	0.361793
457.683526	0.360901
458.056619	0.366421
458.429653	0.367226
458.802628	0.370149
459.175542	0.364665
459.548398	0.347487
459.921194	0.339869
460.293930	0.340242
460.666607	0.317802
461.039224	0.306015
461.411782	0.301785
461.784280	0.300827
462.156719	0.304953
462.529099	0.309907
462.901419	0.325249
463.273680	0.329853
463.645882	0.329338
464.018024	0.334693
464.390106	0.327940
464.762130	0.313093
465.134094	0.295826
465.505999	0.264930
465.877845	0.235593
466.249631	0.222802
466.621358	0.230476
466.993026	0.244014
467.364634	0.250280
467.736184	0.259176
468.107674	0.267656
468.479105	0.266868
468.850477	0.273586
469.221790	0.280394
469.593043	0.290682
469.964238	0.295493
470.335373	0.294972
470.706449	0.293475
471.077467	0.293621
471.448425	0.255918
471.819324	0.231707
472.190164	0.231116
472.560945	0.259748
472.931667	0.281746
473.302330	0.285802
473.672934	0.297951
474.043479	0.286095
474.413965	0.288261
474.784393	0.291628
475.154761	0.286408
475.525070	0.283506
475.895321	0.289076
476.265513	0.283501
476.635645	0.278906
477.005719	0.279015
477.375734	0.275028
477.745691	0.268593
478.115588	0.265294
478.485427	0.258808
478.855207	0.245846
479.224928	0.228460
479.594591	0.216372
479.964194	0.219860
480.333739	0.220991
480.703226	0.222392
481.072653	0.221110
481.442022	0.216509
481.811333	0.213144
482.180584	0.216913
482.549777	0.221982
482.918912	0.225379
483.287988	0.224787
483.657005	0.224670
484.025964	0.231051
484.394864	0.228338
484.763706	0.229080
485.132489	0.233812
485.501213	0.234534
485.869879	0.233012
486.238487	0.236383
486.607036	0.234015
486.975527	0.238504
487.343959	0.234536
487.712333	0.233609
488.080648	0.234656
488.448905	0.234132
488.817104	0.235476
489.185244	0.229903
489.553326	0.226776
489.921350	0.216585
490.289315	0.199142
490.657222	0.194290
491.025070	0.195501
491.392861	0.197539
491.760593	0.203237
492.128267	0.208792
492.495883	0.214290
492.863440	0.220448
493.230939	0.226640
493.598380	0.228252
493.965763	0.230229
494.333088	0.232484
494.700354	0.234272
495.067563	0.232935
495.434713	0.236325
495.801805	0.234170
496.168839	0.235384
496.535815	0.236742
496.902733	0.236941
497.269593	0.238541
497.636395	0.236331
498.003139	0.236642
498.369825	0.239707
498.736453	0.236311
499.103023	0.237647
499.469535	0.237025
499.835989	0.237432
500.202385	0.238387
500.568723	0.241252
500.935003	0.236592
501.301226	0.240709
501.667390	0.235066
502.033497	0.233216
502.399546	0.236385
502.765537	0.237862
503.131470	0.236325
503.497345	0.232665
503.863163	0.241517
504.228923	0.234414
504.594625	0.233265
504.960269	0.238528
505.325856	0.233834
505.691385	0.238200
506.056856	0.234727
506.422270	0.234542
506.787625	0.236688
507.152924	0.234132
507.518164	0.234549
507.883347	0.236283
508.248472	0.238195
508.613540	0.233342
508.978550	0.235612
509.343503	0.236006
509.708398	0.233640
510.073236	0.231452
510.438016	0.231154
510.802738	0.232255
511.167403	0.231282
511.532010	0.233255
511.896561	0.228641
512.261053	0.227380
512.625488	0.229676
512.989866	0.229755
513.354186	0.230071
513.718449	0.231981
514.082655	0.228223
514.446803	0.230468
514.810894	0.228353
515.174927	0.230780
515.538904	0.230187
515.902822	0.227189
516.266684	0.229762
516.630488	0.231010
516.994235	0.229393
517.357925	0.228472
517.721558	0.226705
518.085133	0.226119
518.448651	0.226277
518.812112	0.228422
519.175516	0.227906
519.538863	0.225814
519.902152	0.227353
520.265385	0.224192
520.628560	0.226001
520.991678	0.226378
521.354739	0.225489
521.717743	0.226511
522.080690	0.227211
522.443580	0.224347
522.806413	0.225150
523.169189	0.224652
523.531908	0.223330
523.894569	0.227067
524.257174	0.227134
524.619722	0.224680
524.982213	0.225627
525.344647	0.224677
525.707025	0.225681
526.069345	0.223532
526.431608	0.225375
526.793815	0.223440
527.155964	0.227506
527.518057	0.226191
527.880093	0.227287
528.242072	0.226007
528.603995	0.227661
528.965860	0.229393
529.327669	0.228489
529.689421	0.229492
530.051117	0.230130
530.412755	0.227840
530.774337	0.230010
531.135862	0.230376
531.497331	0.229773
531.858743	0.232763
532.220098	0.229794
532.581396	0.231786
532.942638	0.232649
533.303824	0.233541
533.664953	0.233136
534.026025	0.234719
534.387040	0.232745
534.747999	0.232709
535.108902	0.231639
535.469748	0.236404
535.830537	0.234811
536.191270	0.234874
536.551947	0.234431
536.912567	0.234391
537.273131	0.236561
537.633638	0.236297
537.994089	0.236999
538.354483	0.237913
538.714821	0.234548
539.075103	0.234520
539.435328	0.235077
539.795497	0.238984
540.155609	0.235583
540.515665	0.233714
540.875665	0.239507
541.235609	0.238002
541.595496	0.237876
541.955328	0.234644
542.315102	0.237380
542.674821	0.238430
543.034483	0.238151
543.394090	0.238065
543.753640	0.239695
544.113134	0.234896
544.472571	0.238311
544.831953	0.235090
545.191278	0.239144
545.550548	0.238434
545.909761	0.235367
546.268918	0.235824
546.628019	0.234436
546.987064	0.237195
547.346053	0.238969
547.704986	0.236726
548.063863	0.237124
548.422684	0.237306
548.781449	0.239216
549.140158	0.236719
549.498811	0.239420
549.857408	0.242661
550.215949	0.237333
550.574434	0.240744
550.932864	0.238515
551.291237	0.237150
551.649555	0.238547
552.007817	0.238173
552.366022	0.239156
552.724173	0.239573
553.082267	0.239725
553.440305	0.236584
553.798288	0.241039
554.156215	0.237332
554.514086	0.238355
554.871902	0.241564
555.229661	0.240389
555.587365	0.241410
555.945014	0.243603
556.302606	0.240255
556.660143	0.243297
557.017625	0.239560
557.375050	0.241995
557.732421	0.238968
558.089735	0.240997
558.446994	0.240998
558.804197	0.240137
559.161345	0.240201
559.518437	0.243776
559.875474	0.241123
560.232455	0.240812
560.589381	0.241903
560.946251	0.241959
561.303065	0.239541
561.659825	0.240985
562.016528	0.242381
562.373177	0.245456
562.729770	0.242376
563.086307	0.244818
563.442789	0.242515
563.799216	0.245250
564.155587	0.244030
564.511904	0.245133
564.868164	0.245098
565.224370	0.245154
565.580520	0.246972
565.936615	0.246801
566.292654	0.249524
566.648638	0.246648
567.004567	0.247611
567.360441	0.248422
567.716260	0.249855
568.072023	0.248020
568.427732	0.248691
568.783385	0.251148
569.138982	0.249479
569.494525	0.248794
569.850013	0.251801
570.205445	0.250181
570.560823	0.252830
570.916145	0.254847
571.271412	0.252928
571.626625	0.254538
571.981782	0.254830
572.336884	0.255788
572.691931	0.255359
573.046923	0.256693
573.401860	0.257904
573.756743	0.259510
574.111570	0.258638
574.466342	0.258865
574.821059	0.258116
575.175722	0.260902
575.530330	0.260923
575.884882	0.261045
576.239380	0.263082
576.593823	0.263575
576.948211	0.262983
577.302544	0.266237
577.656823	0.266042
578.011047	0.265933
578.365216	0.266272
578.719330	0.268622
579.073389	0.268333
579.427394	0.269582
579.781344	0.270129
580.135239	0.272094
580.489080	0.271547
580.842866	0.274663
581.196597	0.274456
581.550273	0.272850
581.903895	0.273913
582.257463	0.272244
582.610975	0.275491
582.964434	0.274656
583.317837	0.277371
583.671186	0.277614
584.024481	0.277865
584.377721	0.280282
584.730906	0.281089
585.084037	0.280145
585.437113	0.281705
585.790135	0.281427
586.143103	0.284617
586.496016	0.285452
586.848874	0.282922
587.201679	0.283656
587.554428	0.287259
587.907124	0.286013
588.259765	0.286514
588.612352	0.286751
588.964884	0.290685
589.317362	0.290383
589.669786	0.290151
590.022155	0.289046
590.374470	0.288074
590.726731	0.290290
591.078937	0.294976
591.431090	0.291080
591.783188	0.295803
592.135232	0.296011
592.487222	0.296011
592.839157	0.293993
593.191038	0.296401
593.542866	0.298240
593.894639	0.301820
594.246358	0.299711
594.598022	0.299078
594.949633	0.302880
595.301190	0.303786
595.652692	0.302733
596.004141	0.298944
596.355535	0.306874
596.706876	0.307370
597.058162	0.310088
597.409395	0.307009
597.760573	0.304802
598.111698	0.307971
598.462768	0.308473
598.813785	0.309943
599.164748	0.311330
599.515657	0.311499
599.866511	0.314812
600.217312	0.309863
600.568060	0.315661
600.918753	0.311825
601.269392	0.312897
601.619978	0.315951
601.970510	0.313742
602.320988	0.313846
602.671412	0.311331
603.021783	0.313963
603.372100	0.315360
603.722363	0.314902
604.072572	0.315696
604.422728	0.316044
604.772830	0.317504
605.122878	0.317597
605.472872	0.317770
605.822813	0.316386
606.172701	0.318708
606.522534	0.316207
606.872314	0.316225
607.222041	0.317054
607.571714	0.315415
607.921333	0.316834
608.270899	0.316169
608.620411	0.312951
608.969870	0.316981
609.319276	0.316925
609.668627	0.316993
610.017926	0.315451
610.367171	0.314106
610.716362	0.314951
611.065500	0.315303
611.414585	0.313842
611.763616	0.314279
612.112594	0.314694
612.461518	0.314103
612.810389	0.311950
613.159207	0.314339
613.507971	0.316003
613.856682	0.311452
614.205340	0.313385
614.553945	0.310551
614.902496	0.314362
615.250994	0.311868
615.599439	0.312754
615.947830	0.312427
616.296169	0.313664
616.644454	0.312753
616.992686	0.313033
617.340864	0.310801
617.688990	0.314392
618.037063	0.310863
618.385082	0.312664
618.733048	0.309943
619.080961	0.312034
619.428821	0.311575
619.776628	0.310750
620.124382	0.313133
620.472083	0.313213
620.819731	0.312506
621.167326	0.316471
621.514868	0.316193
621.862357	0.320180
622.209793	0.320058
622.557176	0.322316
622.904506	0.323209
623.251783	0.325622
623.599007	0.327754
623.946179	0.327431
624.293297	0.329471
624.640363	0.333371
624.987376	0.333832
625.334336	0.336514
625.681243	0.338273
626.028097	0.339143
626.374899	0.340332
626.721647	0.340352
627.068343	0.343727
627.414987	0.344955
627.761577	0.347225
628.108115	0.345341
628.454600	0.350438
628.801032	0.347884
629.147412	0.349696
629.493739	0.350021
629.840014	0.353158
630.186236	0.350363
630.532405	0.355938
630.878521	0.353875
631.224585	0.355723
631.570597	0.359640
631.916556	0.357763
632.262462	0.358517
632.608316	0.360170
632.954117	0.360940
633.299866	0.361835
633.645562	0.362043
633.991206	0.366566
634.336797	0.369711
634.682336	0.371561
635.027823	0.372800
635.373257	0.373981
635.718639	0.377987
636.063968	0.377183
636.409245	0.382520
636.754470	0.382870
637.099642	0.385089
637.444762	0.388988
637.789829	0.387544
638.134845	0.391776
638.479808	0.392063
638.824719	0.392170
639.169577	0.396559
639.514383	0.395059
639.859137	0.399529
640.203839	0.399128
640.548489	0.399660
640.893086	0.401002
641.237632	0.402672
641.582125	0.401050
641.926566	0.402090
642.270955	0.402651
642.615292	0.403379
642.959576	0.401961
643.303809	0.402648
643.647990	0.402223
643.992118	0.402804
644.336195	0.405972
644.680219	0.404232
645.024192	0.405391
645.368112	0.398761
645.711981	0.397979
646.055797	0.393362
646.399562	0.395879
646.743274	0.387769
647.086935	0.385107
647.430544	0.385410
647.774101	0.383787
648.117606	0.384041
648.461059	0.384081
648.804460	0.387126
649.147810	0.392095
649.491108	0.393572
649.834354	0.395256
650.177548	0.400656
650.520690	0.406209
650.863781	0.407165
651.206820	0.406446
651.549807	0.411132
651.892742	0.414917
652.235626	0.414474
652.578458	0.415304
652.921238	0.421885
653.263967	0.419632
653.606644	0.423336
653.949269	0.422695
654.291843	0.427063
654.634365	0.423744
654.976836	0.426831
655.319255	0.427020
655.661622	0.428731
656.003938	0.428600
656.346203	0.431582
656.688416	0.429221
657.030577	0.433230
657.372687	0.434837
657.714746	0.436180
658.056753	0.433065
658.398708	0.436660
658.740612	0.437862
659.082465	0.433028
659.424266	0.434263
659.766016	0.433842
660.107715	0.436738
660.449362	0.435162
660.790958	0.435831
661.132503	0.436873
661.473996	0.434562
661.815438	0.435007
662.156829	0.435412
662.498168	0.435965
662.839456	0.437735
663.180693	0.435202
663.521879	0.435307
663.863013	0.435703
664.204097	0.434668
664.545129	0.431549
664.886110	0.431803
665.227040	0.429517
665.567918	0.431781
665.908746	0.429876
666.249522	0.429242
666.590248	0.430521
666.930922	0.428954
667.271545	0.427662
667.612118	0.427425
667.952639	0.429049
668.293109	0.427927
668.633528	0.430865
668.973896	0.430793
669.314213	0.430953
669.654480	0.432450
669.994695	0.432966
670.334859	0.434457
670.674973	0.434127
671.015035	0.434153
671.355047	0.434236
671.695008	0.435357
672.034918	0.437205
672.374777	0.436158
672.714585	0.437055
673.054342	0.437751
673.394049	0.437126
673.733705	0.435069
674.073310	0.436455
674.412864	0.439351
674.752368	0.439509
675.091820	0.439907
675.431223	0.444448
675.770574	0.444471
676.109875	0.446864
676.449125	0.448019
676.788324	0.449621
677.127473	0.454715
677.466571	0.454795
677.805619	0.456405
678.144616	0.457162
678.483562	0.459386
678.822458	0.461912
679.161303	0.463186
679.500098	0.463358
679.838842	0.465026
680.177535	0.464265
680.516179	0.462566
680.854771	0.461964
681.193314	0.455705
681.531805	0.446432
681.870247	0.434850
682.208638	0.427618
682.546978	0.426582
682.885268	0.428274
683.223508	0.434888
683.561697	0.438025
683.899836	0.441071
684.237925	0.444682
684.575963	0.447435
684.913951	0.449942
685.251889	0.446139
685.589776	0.447793
685.927614	0.449919
686.265401	0.444484
686.603137	0.445902
686.940824	0.439546
687.278460	0.438800
687.616046	0.437568
687.953582	0.432186
688.291068	0.433628
688.628504	0.429628
688.965889	0.431678
689.303224	0.435619
689.640510	0.439754
689.977745	0.445655
690.314930	0.453555
690.652065	0.457707
690.989150	0.465636
691.326185	0.471829
691.663170	0.476880
692.000105	0.483683
692.336990	0.490871
692.673825	0.493377
693.010610	0.499826
693.347345	0.505748
693.684030	0.507507
694.020665	0.512128
694.357251	0.520599
694.693786	0.520564
695.030272	0.524284
695.366707	0.528250
695.703093	0.531179
696.039429	0.529850
696.375716	0.530929
696.711952	0.534136
697.048139	0.536077
697.384276	0.537782
697.720363	0.535982
698.056400	0.535139
698.392388	0.540358
698.728326	0.543253
699.064214	0.545791
699.400053	0.547050
699.735842	0.550961
700.071581	0.553107
700.407270	0.556241
700.742910	0.558864
701.078501	0.565016
701.414042	0.565940
701.749533	0.569261
702.084974	0.577629
702.420366	0.569663
702.755709	0.578006
703.091002	0.585084
703.426246	0.578526
703.761440	0.584596
704.096584	0.589262
704.431679	0.586575
704.766725	0.588571
705.101721	0.590006
705.436668	0.586074
705.771565	0.593155
706.106413	0.589994
706.441212	0.585358
706.775961	0.583995
707.110661	0.586303
707.445311	0.583457
707.779913	0.580368
708.114465	0.579445
708.448967	0.575523
708.783421	0.567838
709.117825	0.561968
709.452180	0.561854
709.786485	0.556094
710.120742	0.546361
710.454949	0.547808
710.789107	0.540342
711.123216	0.531135
711.457275	0.532659
711.791286	0.522865
712.125247	0.522283
712.459159	0.533153
712.793023	0.525923
713.126837	0.529861
713.460602	0.529864
713.794318	0.539699
714.127985	0.538252
714.461602	0.548632
714.795171	0.551835
715.128691	0.559782
715.462162	0.566681
715.795584	0.573294
716.128957	0.575101
716.462281	0.582908
716.795556	0.586256
717.128782	0.590763
717.461960	0.600056
717.795088	0.598445
718.128167	0.605159
718.461198	0.614030
718.794180	0.615129
719.127113	0.616794
719.459997	0.620403
719.792833	0.626793
720.125619	0.628667
720.458357	0.634760
720.791046	0.633725
721.123686	0.636759
721.456278	0.643701
721.788821	0.641897
722.121315	0.645272
722.453761	0.649709
722.786158	0.648130
723.118506	0.643856
723.450805	0.652195
723.783056	0.646933
724.115259	0.644919
724.447412	0.643830
724.779518	0.646676
725.111574	0.645387
725.443582	0.640520
725.775542	0.642243
726.107453	0.634974
726.439315	0.634706
726.771129	0.633600
727.102895	0.626479
727.434612	0.619560
727.766281	0.617238
728.097901	0.616618
728.429473	0.616548
728.760996	0.614688
729.092471	0.614444
729.423897	0.618664
729.755276	0.616852
730.086606	0.617620
730.417887	0.612689
730.749120	0.603546
731.080305	0.594662
731.411442	0.590098
731.742530	0.594367
732.073570	0.594610
732.404562	0.586045
732.735506	0.587451
733.066401	0.592712
733.397249	0.601221
733.728048	0.613143
734.058798	0.625837
734.389501	0.636280
734.720156	0.645672
735.050762	0.654353
735.381320	0.655896
735.711831	0.664264
736.042293	0.669375
736.372707	0.665795
736.703073	0.670422
737.033391	0.671625
737.363661	0.668839
737.693883	0.664051
738.024056	0.663488
738.354182	0.663359
738.684260	0.652911
739.014290	0.648783
739.344272	0.649708
739.674207	0.642594
740.004093	0.642195
740.333931	0.643486
740.663722	0.641965
740.993464	0.642870
741.323159	0.647571
741.652806	0.652265
741.982405	0.657075
742.311956	0.661568
742.641460	0.663642
742.970915	0.667364
743.300323	0.675139
743.629683	0.681770
743.958996	0.683906
744.288260	0.687242
744.617477	0.693775
744.946647	0.694382
745.275768	0.700206
745.604842	0.700378
745.933869	0.710956
746.262847	0.710768
746.591778	0.704140
746.920662	0.710897
747.249498	0.717293
747.578286	0.708025
747.907027	0.704538
748.235720	0.705272
748.564365	0.700028
748.892963	0.699990
749.221514	0.702558
749.550017	0.708913
749.878473	0.707398
750.206881	0.713725
750.535242	0.715852
750.863555	0.715367
751.191821	0.716856
751.520039	0.719424
751.848210	0.724089
752.176334	0.715943
752.504411	0.716008
752.832440	0.724219
753.160421	0.728046
753.488356	0.724943
753.816243	0.724148
754.144082	0.731722
754.471875	0.735694
754.799620	0.731209
755.127318	0.732500
755.454969	0.732203
755.782572	0.731360
756.110129	0.736545
756.437638	0.738733
756.765100	0.735617
757.092515	0.734457
757.419882	0.733204
757.747203	0.737619
758.074477	0.737198
758.401703	0.735130
758.728882	0.729995
759.056014	0.728740
759.383099	0.727658
759.710138	0.728996
760.037129	0.725101
760.364073	0.719009
760.690970	0.720755
761.017820	0.726871
761.344623	0.723078
761.671379	0.713816
761.998088	0.702199
762.324751	0.679389
762.651366	0.637151
762.977935	0.570330
763.304456	0.518396
763.630931	0.509098
763.957359	0.547810
764.283740	0.592851
764.610074	0.619468
764.936362	0.650657
765.262602	0.677167
765.588796	0.698789
765.914943	0.717880
766.241044	0.735195
766.567097	0.741651
766.893104	0.750856
767.219064	0.757049
767.544978	0.764522
767.870845	0.778006
768.196665	0.781352
768.522438	0.778938
768.848165	0.780879
769.173846	0.790143
769.499479	0.794143
769.825066	0.797084
770.150607	0.803005
770.476101	0.797785
770.801548	0.798722
771.126949	0.809673
771.452303	0.813567
771.777611	0.813861
772.102872	0.812557
772.428087	0.817827
772.753256	0.820063
773.078378	0.823082
773.403453	0.831740
773.728482	0.836255
774.053465	0.829643
774.378401	0.833545
774.703291	0.841985
775.028135	0.841530
775.352932	0.843258
775.677683	0.845294
776.002388	0.846551
776.327046	0.844699
776.651658	0.849355
776.976224	0.852309
777.300743	0.852551
777.625216	0.855494
777.949643	0.856039
778.274024	0.856953
778.598359	0.858481
778.922647	0.856423
779.246889	0.857659
779.571086	0.861376
779.895236	0.863487
780.219339	0.860785
780.543397	0.858314
780.867409	0.856344
781.191374	0.858818
781.515294	0.860821
781.839167	0.857779
782.162995	0.861758
782.486776	0.860212
782.810511	0.860075
783.134201	0.864018
783.457844	0.861673
783.781441	0.864143
784.104993	0.870786
784.428498	0.870107
784.751958	0.865894
785.075372	0.868274
785.398739	0.873051
785.722061	0.868979
786.045337	0.864027
786.368568	0.868893
786.691752	0.871810
787.014891	0.856003
787.337983	0.849262
787.661030	0.841082
787.984031	0.823858
788.306987	0.810800
788.629897	0.813824
788.952760	0.816575
789.275579	0.820793
789.598351	0.835869
789.921078	0.849190
790.243759	0.850278
790.566395	0.856326
790.888984	0.862631
791.211529	0.868402
791.534027	0.871516
791.856480	0.874852
792.178888	0.879706
792.501249	0.881441
792.823566	0.883396
793.145836	0.881443
793.468062	0.885937
793.790241	0.884474
794.112375	0.882730
794.434464	0.878215
794.756507	0.876357
795.078505	0.877201
795.400457	0.871648
795.722364	0.859958
796.044226	0.854045
796.366042	0.851797
796.687812	0.854807
797.009538	0.852141
797.331218	0.854796
797.652852	0.858808
797.974442	0.864062
798.295986	0.864474
798.617484	0.866412
798.938938	0.870869
799.260346	0.876102
799.581709	0.878085
799.903026	0.880562
800.224299	0.879997
800.545526	0.884912
800.866708	0.888770
801.187845	0.892673
801.508936	0.891884
801.829983	0.889906
802.150984	0.892999
802.471940	0.897205
802.792851	0.896013
803.113717	0.898120
803.434538	0.895474
803.755314	0.898384
804.076045	0.899995
804.396731	0.900717
804.717372	0.899495
805.037967	0.901699
805.358518	0.900075
805.679024	0.895569
805.999485	0.896605
806.319901	0.895489
806.640272	0.899237
806.960598	0.896143
807.280879	0.893903
807.601115	0.893318
807.921306	0.896161
808.241453	0.896406
808.561554	0.893233
808.881611	0.893757
809.201623	0.895791
809.521590	0.894874
809.841513	0.897323
810.161390	0.895564
810.481223	0.897766
810.801011	0.900240
811.120755	0.902392
811.440453	0.900725
811.760107	0.901085
812.079716	0.900297
812.399281	0.903385
812.718801	0.906011
813.038276	0.907640
813.357707	0.905702
813.677093	0.903906
813.996434	0.907150
814.315731	0.908794
814.634983	0.909105
814.954191	0.907455
815.273354	0.904548
815.592473	0.901036
815.911547	0.901893
816.230577	0.899321
816.549562	0.896077
816.868502	0.896942
817.187399	0.892557
817.506250	0.887738
817.825058	0.889045
818.143821	0.886128
818.462539	0.880791
818.781213	0.872617
819.099843	0.861896
819.418429	0.846869
819.736970	0.828753
820.055466	0.808910
820.373919	0.783946
820.692327	0.751515
821.010691	0.716340
821.329011	0.638645
821.647286	0.522731
821.965517	0.409205
822.283704	0.366013
822.601847	0.367446
822.919945	0.403216
823.237999	0.436989
823.556010	0.483355
823.873976	0.539197
824.191897	0.589870
824.509775	0.633072
824.827609	0.678258
825.145398	0.701552
825.463144	0.703497
825.780845	0.686491
826.098502	0.668157
826.416116	0.622296
826.733685	0.577940
827.051210	0.569053
827.368692	0.584412
827.686129	0.621642
828.003522	0.674762
828.320872	0.722313
828.638177	0.766681
828.955439	0.799040
829.272656	0.821787
829.589830	0.838504
829.906960	0.854302
830.224046	0.866982
830.541088	0.876179
830.858086	0.880543
831.175041	0.887168
831.491952	0.886694
831.808819	0.883689
832.125642	0.876356
832.442421	0.861453
832.759157	0.839649
833.075849	0.793925
833.392497	0.729961
833.709101	0.688887
834.025662	0.698398
834.342179	0.730206
834.658653	0.769331
834.975083	0.805538
835.291469	0.830956
835.607811	0.854094
835.924110	0.870415
836.240366	0.888103
836.556578	0.901717
836.872746	0.908825
837.188871	0.915625
837.504952	0.921067
837.820990	0.924267
838.136984	0.927451
838.452935	0.929977
838.768842	0.931811
839.084706	0.924227
839.400526	0.898630
839.716303	0.859256
840.032037	0.836814
840.347727	0.840503
840.663373	0.857942
840.978977	0.880021
841.294537	0.901986
841.610054	0.918956
841.925527	0.925075
842.240957	0.932961
842.556344	0.940072
842.871687	0.945573
843.186987	0.950745
843.502244	0.949738
843.817458	0.953171
844.132629	0.956521
844.447756	0.960603
844.762840	0.961559
845.077881	0.959981
845.392879	0.961658
845.707833	0.962905
846.022745	0.963853
846.337613	0.965873
846.652438	0.965531
846.967221	0.964310
847.281960	0.965688
847.596656	0.966851
847.911309	0.966831
848.225919	0.967732
848.540485	0.967994
848.855009	0.968988
849.169490	0.969261
849.483928	0.968587
849.798323	0.969532
850.112675	0.968885
850.426984	0.970273
850.741251	0.970516
851.055474	0.970171
851.369654	0.969167
851.683792	0.970103
851.997887	0.970647
852.311938	0.971257
852.625947	0.969288
852.939914	0.967395
853.253837	0.970593
853.567718	0.971309
853.881555	0.971264
854.195350	0.968714
854.509103	0.969069
854.822812	0.970829
855.136479	0.969314
855.450103	0.970185
855.763685	0.968312
856.077224	0.968431
856.390720	0.970223
856.704173	0.970123
857.017584	0.968661
857.330953	0.967585
857.644278	0.967874
857.957561	0.968176
858.270802	0.969018
858.584000	0.968004
858.897155	0.966785
859.210268	0.967453
859.523339	0.968909
859.836367	0.970676
860.149352	0.970158
860.462295	0.969244
860.775195	0.968948
861.088054	0.969684
861.400869	0.969992
861.713642	0.970559
862.026373	0.970617
862.339062	0.970766
862.651708	0.968507
862.964312	0.967158
863.276873	0.968717
863.589392	0.968313
863.901869	0.967962
864.214303	0.965663
864.526696	0.964323
864.839045	0.963947
865.151353	0.962515
865.463619	0.962571
865.775842	0.964022
866.088023	0.963073
866.400162	0.962575
866.712258	0.963251
867.024313	0.963081
867.336325	0.963261
867.648296	0.963619
867.960224	0.962407
868.272110	0.962262
868.583954	0.964122
868.895755	0.964387
869.207515	0.962409
869.519233	0.959210
869.830909	0.961480
870.142542	0.963241
870.454134	0.961842
870.765684	0.961553
871.077191	0.958632
871.388657	0.958168
871.700081	0.958003
872.011463	0.959130
872.322803	0.958030
872.634101	0.957134
872.945357	0.955658
873.256571	0.953115
873.567744	0.953039
873.878874	0.954157
874.189963	0.950887
874.501010	0.951109
874.812015	0.950348
875.122979	0.951670
875.433900	0.954197
875.744780	0.953258
876.055618	0.950739
876.366415	0.948763
876.677169	0.949775
876.987882	0.951800
877.298554	0.951463
877.609183	0.948701
877.919771	0.944699
878.230317	0.943167
878.540822	0.941267
878.851285	0.935202
879.161707	0.927914
879.472087	0.915055
879.782425	0.897624
880.092722	0.864795
880.402977	0.812565
880.713191	0.750666
881.023363	0.692301
881.333494	0.658104
881.643583	0.630354
881.953631	0.629757
882.263637	0.658271
882.573602	0.698622
882.883526	0.724080
883.193408	0.746932
883.503248	0.770286
883.813048	0.797416
884.122806	0.827806
884.432522	0.850963
884.742197	0.871106
885.051831	0.880536
885.361424	0.892062
885.670975	0.904512
885.980485	0.913354
886.289954	0.918937
886.599382	0.924611
886.908768	0.928441
887.218113	0.934084
887.527417	0.939361
887.836680	0.942693
888.145901	0.943629
888.455082	0.946710
888.764221	0.949710
889.073319	0.952333
889.382376	0.953143
889.691392	0.952256
890.000366	0.953610
890.309300	0.953447
890.618193	0.952954
890.927044	0.951961
891.235855	0.952043
891.544625	0.951501
891.853353	0.952789
892.162041	0.949374
892.470687	0.943820
892.779293	0.938278
893.087858	0.934476
893.396381	0.926218
893.704864	0.912316
894.013306	0.889564
894.321707	0.862353
894.630068	0.847629
894.938387	0.843549
895.246665	0.844123
895.554903	0.857012
895.863100	0.870100
896.171256	0.886203
896.479371	0.906716
896.787446	0.920198
897.095480	0.925639
897.403473	0.929060
897.711425	0.933031
898.019336	0.940526
898.327207	0.942315
898.635038	0.945576
898.942827	0.945438
899.250576	0.947785
899.558284	0.952734
899.865952	0.953995
900.173579	0.955813
900.481165	0.956005
900.788711	0.959480
901.096216	0.962584
901.403681	0.962306
901.711105	0.964485
902.018489	0.963987
902.325832	0.962014
902.633135	0.961771
902.940397	0.956005
903.247619	0.944033
903.554800	0.918132
903.861941	0.877550
904.169041	0.842489
904.476101	0.824901
904.783121	0.826755
905.090100	0.842228
905.397039	0.864057
905.703938	0.886261
906.010796	0.905656
906.317614	0.922613
906.624391	0.935114
906.931129	0.944382
907.237826	0.951342
907.544483	0.959754
907.851099	0.962439
908.157675	0.966824
908.464211	0.970246
908.770707	0.972423
909.077163	0.975437
909.383578	0.974584
909.689954	0.975391
909.996289	0.975499
910.302584	0.977576
910.608839	0.979648
910.915054	0.979462
911.221229	0.979455
911.527363	0.977338
911.833458	0.977512
912.139513	0.978087
912.445527	0.974695
912.751502	0.972988
913.057436	0.972947
913.363331	0.969747
913.669186	0.967238
913.975000	0.961466
914.280775	0.955162
914.586510	0.947987
914.892205	0.935459
915.197859	0.913668
915.503475	0.886479
915.809050	0.866229
916.114585	0.861560
916.420081	0.858277
916.725536	0.855941
917.030952	0.862876
917.336328	0.876083
917.641665	0.891738
917.946961	0.907503
918.252218	0.918565
918.557435	0.926672
918.862612	0.936457
919.167750	0.941820
919.472848	0.945916
919.777906	0.953296
920.082925	0.959015
920.387904	0.963055
920.692843	0.962768
920.997743	0.964657
921.302603	0.966715
921.607423	0.968666
921.912204	0.972890
922.216946	0.971590
922.521647	0.972416
922.826310	0.975419
923.130932	0.976868
923.435516	0.978983
923.740059	0.979980
924.044564	0.979314
924.349028	0.981075
924.653454	0.983026
924.957840	0.984358
925.262186	0.985121
925.566493	0.983705
925.870761	0.985176
926.174989	0.987442
926.479178	0.989397
926.783328	0.988622
927.087438	0.987884
927.391509	0.988595
927.695541	0.990141
927.999533	0.989822
928.303486	0.990529
928.607400	0.991012
928.911275	0.990926
929.215110	0.989630
929.518906	0.990544
929.822663	0.989334
930.126381	0.990753
930.430060	0.990493
930.733699	0.989845
931.037299	0.990315
931.340861	0.990920
931.644383	0.989914
931.947866	0.989357
932.251309	0.989771
932.554714	0.990856
932.858080	0.990232
933.161407	0.990593
933.464694	0.991325
933.767943	0.988828
934.071153	0.992012
934.374323	0.991974
934.677455	0.991162
934.980548	0.992190
935.283602	0.990619
935.586617	0.990601
935.889593	0.990565
936.192530	0.990319
936.495428	0.989893
936.798287	0.991979
937.101108	0.989445
937.403890	0.989769
937.706632	0.988418
938.009336	0.988079
938.312002	0.986120
938.614628	0.984579
938.917216	0.983014
939.219765	0.982200
939.522275	0.983833
939.824747	0.983817
940.127179	0.983958
940.429573	0.984942
940.731929	0.984649
941.034246	0.984314
941.336524	0.985205
941.638763	0.987378
941.940964	0.986068
942.243126	0.986572
942.545250	0.988045
942.847335	0.987346
943.149381	0.987205
943.451389	0.986848
943.753359	0.987741
944.055290	0.991193
944.357182	0.990334
944.659036	0.988170
944.960851	0.990142
945.262628	0.989502
945.564367	0.990731
945.866067	0.990753
946.167729	0.990659
946.469352	0.989987
946.770937	0.988779
947.072484	0.991619
947.373992	0.989828
947.675462	0.991379
947.976893	0.989831
948.278286	0.991126
948.579641	0.992419
948.880958	0.991335
949.182236	0.990937
949.483476	0.991589
949.784678	0.989977
950.085841	0.990697
950.386967	0.991234
950.688054	0.990972
950.989103	0.992123
951.290114	0.989690
951.591087	0.990041
951.892021	0.990035
952.192917	0.990189
952.493776	0.988161
952.794596	0.988851
953.095378	0.988725
953.396122	0.987953
953.696828	0.988329
953.997496	0.989500
954.298126	0.991416
954.598718	0.989837
954.899272	0.991380
955.199788	0.991323
955.500266	0.992831
955.800706	0.993529
956.101108	0.993447
956.401472	0.994418
956.701798	0.994415
957.002087	0.992876
957.302337	0.995002
957.602550	0.996413
957.902724	0.995241
958.202861	0.995033
958.502960	0.996038
958.803022	0.994509
959.103045	0.997026
959.403031	0.995988
959.702979	0.995457
960.002889	0.995772
960.302762	0.995385
960.602596	0.996810
960.902393	0.994761
961.202153	0.997593
961.501875	0.998377
961.801559	0.995988
962.101205	0.995542
962.400814	0.996220
962.700385	0.996432
962.999918	0.996004
963.299414	0.996649
963.598873	0.996305
963.898293	0.997288
964.197677	0.996020
964.497022	0.996871
964.796331	0.997249
965.095601	0.997031
965.394835	0.997438
965.694030	0.997630
965.993189	0.997893
966.292309	0.996044
966.591393	0.998401
966.890439	0.997347
967.189447	0.996871
967.488419	0.998021
967.787353	0.996449
968.086249	0.997152
968.385108	0.996971
968.683930	0.997415
968.982714	0.996528
969.281462	0.998533
969.580172	0.996647
969.878844	0.997543
970.177480	0.996823
970.476078	0.996764
970.774639	0.995918
971.073162	0.998341
971.371649	0.997595
971.670098	0.996628
971.968510	0.997474
972.266885	0.996667
972.565223	0.996557
972.863524	0.996553
973.161788	0.996538
973.460014	0.997379
973.758204	0.996620
974.056356	0.997754
974.354471	0.994187
974.652550	0.996626
974.950591	0.994984
975.248595	0.997755
975.546563	0.998002
975.844493	0.999046
976.142386	0.997112
976.440243	0.997760
976.738062	0.997046
977.035845	0.998763
977.333590	0.997410
977.631299	0.997534
977.928971	0.997118
978.226606	0.997735
978.524204	0.997117
978.821765	0.998959
979.119290	0.997465
979.416777	0.996528
979.714228	0.998336
980.011642	0.996675
980.309020	0.996596
980.606360	0.997230
980.903664	0.998920
981.200931	0.996546
981.498162	0.996740
981.795356	0.995594
982.092513	0.995533
982.389633	0.995893
982.686717	0.991139
982.983764	0.992992
983.280775	0.989857
983.577749	0.990331
983.874686	0.990839
984.171587	0.991680
984.468451	0.993667
984.765279	0.995159
985.062070	0.994291
985.358824	0.995470
985.655543	0.995796
985.952224	0.996323
986.248869	0.996995
986.545478	0.996558
986.842050	0.999038
987.138586	0.996079
987.435086	0.999135
987.731549	0.999134
988.027975	0.996982
988.324366	0.998100
988.620719	0.998215
988.917037	0.996912
989.213318	0.997445
989.509563	0.999528
989.805772	0.999290
990.101944	0.998577
990.398080	0.997386
990.694180	0.998072
990.990244	0.996995
991.286271	0.998169
991.582262	0.998584
991.878217	0.998707
992.174136	0.999654
992.470019	0.998517
992.765865	0.998556
993.061676	0.997392
993.357450	0.997647
993.653188	0.997088
993.948890	0.997070
994.244556	0.998944
994.540186	0.997890
994.835780	0.996869
995.131337	0.997497
995.426859	0.996781
995.722345	0.998078
996.017795	0.997825
996.313208	0.995115
996.608586	0.994917
996.903928	0.997233
997.199234	0.996592
997.494504	0.996965
997.789738	0.996318
998.084936	0.995788
998.380099	0.997623
998.675225	0.998798
998.970316	0.997792
999.265371	0.997603
999.560390	0.998347
999.855373	0.998958
1000.150320	0.998814
1000.445232	0.998070
1000.740108	0.998985
1001.034948	0.998404
1001.329752	0.999129
1001.624521	0.998600
1001.919254	0.998446
1002.213951	0.999274
1002.508613	0.997557
1002.803239	0.998853
1003.097829	0.998713
1003.392384	0.999174
1003.686903	0.998131
1003.981386	0.999538
1004.275834	1.000057
1004.570246	0.998300
1004.864623	0.998615
1005.158964	0.999677
1005.453270	0.998364
1005.747540	0.998085
1006.041775	0.998575
1006.335974	0.998925
1006.630138	1.000556
1006.924266	0.999908
1007.218359	1.000127
1007.512416	1.000290
1007.806438	1.000716
1008.100425	0.999011
1008.394376	0.999777
1008.688292	0.999261
1008.982172	1.000846
1009.276017	0.998606
1009.569827	0.998665
1009.863602	0.999049
1010.157341	1.000317
1010.451045	0.998047
1010.744714	0.999715
1011.038347	0.997630
1011.331945	0.999142
1011.625508	0.997321
1011.919036	0.998731
1012.212528	0.998689
1012.505986	0.998462
1012.799408	0.999125
1013.092795	0.999733
1013.386147	0.998379
1013.679464	0.999542
1013.972745	0.998638
1014.265992	0.998385
1014.559204	0.998979
1014.852380	1.000127
1015.145521	0.999649
1015.438628	1.000005
1015.731699	0.998700
1016.024736	0.999010
1016.317737	0.999414
1016.610703	0.998960
1016.903635	0.999487
1017.196531	0.999614
1017.489393	1.000153
1017.782219	0.998878
1018.075011	0.998787
1018.367768	0.999661
1018.660490	1.000331
1018.953177	1.000331
1019.245829	1.000331
