Dividing Wavelength (nm)	Counts (n)	Blue Motor Position (mm): 0.000000	Red Motor Position (mm): 35.600000	
326.493990	1.001317
326.888308	1.001317
327.282561	1.001317
327.676750	1.000267
328.070874	0.998507
328.464933	0.999943
328.858929	0.999302
329.252859	0.999395
329.646726	0.999479
330.040528	1.000934
330.434265	0.998355
330.827938	1.000301
331.221547	1.000530
331.615091	1.000687
332.008571	0.999903
332.401986	1.000614
332.795338	0.999832
333.188625	0.997890
333.581847	1.000423
333.975006	0.999521
334.368100	0.999871
334.761129	0.999727
335.154095	0.998836
335.546996	0.999506
335.939833	0.996045
336.332606	0.996076
336.725315	0.997367
337.117960	0.997749
337.510540	0.996491
337.903056	0.996553
338.295508	0.996289
338.687896	0.998150
339.080220	0.995822
339.472480	0.996472
339.864676	0.995419
340.256807	0.997303
340.648875	0.998076
341.040879	0.996580
341.432818	0.997355
341.824694	0.996069
342.216506	0.997544
342.608253	0.997571
342.999937	0.996511
343.391557	0.996063
343.783113	0.995612
344.174605	0.996681
344.566033	0.996420
344.957397	0.995629
345.348697	0.996809
345.739934	0.996650
346.131106	0.996998
346.522215	0.996256
346.913260	0.996699
347.304241	0.996486
347.695159	0.995847
348.086012	0.995991
348.476802	0.995533
348.867528	0.996964
349.258191	0.995247
349.648789	0.997166
350.039324	0.996400
350.429796	0.996053
350.820203	0.995872
351.210548	0.997160
351.600828	0.997532
351.991045	0.996249
352.381198	0.995753
352.771288	0.996683
353.161314	0.995454
353.551276	0.997611
353.941175	0.997023
354.331010	0.996303
354.720782	0.997189
355.110490	0.996015
355.500135	0.997409
355.889717	0.995543
356.279235	0.996873
356.668689	0.996890
357.058080	0.994965
357.447408	0.997446
357.836672	0.997290
358.225873	0.996933
358.615010	0.997008
359.004084	0.997210
359.393095	0.997879
359.782043	0.996840
360.170927	0.996295
360.559748	0.997993
360.948505	0.996028
361.337199	0.997072
361.725830	0.996728
362.114398	0.996424
362.502903	0.996836
362.891344	0.998528
363.279722	0.995641
363.668037	0.998064
364.056289	0.996923
364.444478	0.997908
364.832603	0.996504
365.220665	0.996397
365.608665	0.997315
365.996601	0.996426
366.384474	0.997410
366.772284	0.996419
367.160031	0.996306
367.547715	0.996463
367.935336	0.995838
368.322893	0.996645
368.710388	0.996832
369.097820	0.996285
369.485189	0.996291
369.872495	0.996439
370.259738	0.994265
370.646918	0.997358
371.034035	0.997048
371.421090	0.997077
371.808081	0.995529
372.195010	0.996974
372.581875	0.998453
372.968678	0.996513
373.355418	0.995923
373.742096	0.995858
374.128710	0.998258
374.515262	0.995366
374.901751	0.997576
375.288177	0.996834
375.674540	0.997592
376.060841	0.996457
376.447079	0.997095
376.833254	0.997564
377.219367	0.997254
377.605417	0.997600
377.991404	0.997290
378.377329	0.997287
378.763191	0.997753
379.148991	0.997947
379.534727	0.997657
379.920402	0.997251
380.306013	0.998551
380.691563	0.999103
381.077049	0.996249
381.462474	0.997457
381.847835	0.997667
382.233134	0.996902
382.618371	0.997217
383.003545	0.998452
383.388657	0.997884
383.773706	0.998846
384.158693	0.997493
384.543618	0.997955
384.928480	0.999430
385.313280	0.997794
385.698017	0.999684
386.082692	0.998850
386.467305	0.998305
386.851856	0.997622
387.236344	0.998382
387.620770	0.997482
388.005133	0.997882
388.389435	0.998517
388.773674	0.998259
389.157851	0.998364
389.541965	0.998443
389.926018	0.997419
390.310008	0.998884
390.693936	0.997643
391.077802	0.998927
391.461606	0.997893
391.845348	0.998649
392.229027	0.999426
392.612645	0.999339
392.996200	0.999877
393.379694	0.998407
393.763125	0.999117
394.146494	0.999290
394.529801	0.997794
394.913047	0.998860
395.296230	0.999325
395.679351	0.998474
396.062410	0.997704
396.445408	0.998445
396.828343	0.998037
397.211217	0.998917
397.594028	0.998770
397.976778	0.998884
398.359466	0.998962
398.742092	0.998411
399.124656	0.998599
399.507158	0.998609
399.889598	0.998232
400.271977	0.999294
400.654294	0.998298
401.036549	0.999167
401.418742	0.998871
401.800874	0.998707
402.182944	0.999187
402.564952	0.999278
402.946898	0.999148
403.328783	0.999124
403.710606	0.998812
404.092367	0.999320
404.474067	0.999314
404.855705	1.000299
405.237282	1.000028
405.618797	0.998969
406.000250	0.997981
406.381642	0.999244
406.762972	0.998795
407.144240	0.999382
407.525447	0.999430
407.906593	0.999290
408.287677	0.999609
408.668700	1.000056
409.049661	0.998606
409.430560	0.999324
409.811399	0.998518
410.192176	0.999385
410.572891	0.999173
410.953545	0.998935
411.334138	0.998575
411.714669	0.999846
412.095139	0.998442
412.475547	0.999123
412.855894	0.999255
413.236180	0.998644
413.616405	0.999761
413.996568	1.000808
414.376670	0.999448
414.756711	0.998406
415.136691	0.999358
415.516609	0.999292
415.896466	0.999601
416.276262	0.998560
416.655997	0.999661
417.035670	0.998527
417.415283	0.999209
417.794834	0.998946
418.174324	0.999801
418.553753	0.999428
418.933121	0.999517
419.312428	0.998905
419.691674	0.998707
420.070859	0.999548
420.449983	0.999754
420.829045	0.998836
421.208047	1.000058
421.586988	1.000602
421.965867	0.999705
422.344686	0.999412
422.723444	0.999005
423.102141	0.999734
423.480777	0.999827
423.859352	0.999426
424.237866	0.998594
424.616319	0.999287
424.994712	0.999209
425.373044	1.000076
425.751314	0.999939
426.129524	0.999675
426.507673	0.999830
426.885762	1.000204
427.263789	0.999697
427.641756	0.999551
428.019662	0.999428
428.397508	0.998761
428.775292	0.999346
429.153016	0.999027
429.530679	0.999456
429.908282	1.000933
430.285824	0.998762
430.663305	0.999122
431.040726	0.999251
431.418086	1.000413
431.795385	0.999561
432.172624	0.999786
432.549802	0.999677
432.926920	0.999701
433.303977	0.999919
433.680974	0.999411
434.057910	0.999666
434.434786	0.999632
434.811601	0.999036
435.188355	0.999203
435.565050	0.998902
435.941683	0.999352
436.318257	1.000157
436.694770	0.999438
437.071222	1.000293
437.447614	0.999938
437.823946	0.999523
438.200218	0.998973
438.576429	0.999639
438.952580	1.000196
439.328670	0.999432
439.704700	0.999809
440.080670	0.999352
440.456580	0.999588
440.832429	0.999343
441.208218	0.999689
441.583947	0.999370
441.959616	1.000190
442.335224	0.999596
442.710773	1.000667
443.086261	0.999527
443.461689	0.999050
443.837057	0.999092
444.212365	0.999812
444.587612	0.998637
444.962800	0.999288
445.337927	0.998975
445.712995	0.999277
446.088002	1.000152
446.462949	0.999771
446.837837	0.999797
447.212664	1.000300
447.587431	1.000405
447.962139	1.000345
448.336786	0.999860
448.711374	1.000001
449.085901	0.999597
449.460369	1.000143
449.834776	0.999727
450.209124	1.000255
450.583412	0.999690
450.957640	1.000247
451.331808	0.999538
451.705917	1.000294
452.079965	0.998934
452.453954	0.999535
452.827883	0.999590
453.201752	1.000009
453.575562	0.999969
453.949311	1.000205
454.323001	0.999767
454.696632	0.999112
455.070202	0.999114
455.443713	0.998884
455.817164	0.999830
456.190556	1.000007
456.563888	0.999850
456.937160	1.000090
457.310373	0.999202
457.683526	0.999622
458.056619	0.999101
458.429653	1.000377
458.802628	0.999467
459.175542	0.999173
459.548398	1.000643
459.921194	1.000199
460.293930	1.000123
460.666607	0.999448
461.039224	0.998882
461.411782	1.000053
461.784280	0.999715
462.156719	1.000818
462.529099	1.000271
462.901419	0.999746
463.273680	0.999748
463.645882	0.999665
464.018024	0.999487
464.390106	1.000293
464.762130	1.000432
465.134094	0.999663
465.505999	0.999582
465.877845	0.999726
466.249631	1.000159
466.621358	1.000102
466.993026	1.000343
467.364634	1.000228
467.736184	0.999853
468.107674	1.000293
468.479105	0.999485
468.850477	1.000441
469.221790	0.999886
469.593043	1.000678
469.964238	1.001345
470.335373	0.999492
470.706449	1.000019
471.077467	1.000230
471.448425	1.000683
471.819324	1.000937
472.190164	1.000204
472.560945	1.000271
472.931667	1.000173
473.302330	0.999589
473.672934	1.001048
474.043479	1.000179
474.413965	1.000012
474.784393	1.000367
475.154761	0.999188
475.525070	0.998972
475.895321	1.000020
476.265513	1.000067
476.635645	0.999787
477.005719	0.999891
477.375734	1.000304
477.745691	0.999532
478.115588	0.999816
478.485427	1.000301
478.855207	0.999736
479.224928	0.999990
479.594591	1.000134
479.964194	1.000483
480.333739	1.000788
480.703226	1.000131
481.072653	1.000857
481.442022	1.000258
481.811333	0.999897
482.180584	1.001148
482.549777	0.999768
482.918912	0.999486
483.287988	1.000360
483.657005	1.000107
484.025964	1.001243
484.394864	1.000989
484.763706	1.000956
485.132489	1.000552
485.501213	0.999301
485.869879	0.999650
486.238487	1.000830
486.607036	1.000340
486.975527	0.999689
487.343959	0.999946
487.712333	0.999880
488.080648	1.000482
488.448905	1.000111
488.817104	1.000867
489.185244	1.000726
489.553326	1.000058
489.921350	0.999187
490.289315	0.999844
490.657222	1.000263
491.025070	1.000555
491.392861	1.000711
491.760593	1.000546
492.128267	0.999901
492.495883	0.999782
492.863440	1.000072
493.230939	0.999931
493.598380	0.999815
493.965763	0.999873
494.333088	1.000208
494.700354	0.999821
495.067563	1.000397
495.434713	0.999732
495.801805	0.999834
496.168839	0.999202
496.535815	0.999762
496.902733	0.999152
497.269593	0.999693
497.636395	0.999856
498.003139	0.999444
498.369825	1.000433
498.736453	0.999857
499.103023	0.999155
499.469535	0.999469
499.835989	0.999250
500.202385	0.999805
500.568723	0.999710
500.935003	0.999659
501.301226	0.999225
501.667390	0.999183
502.033497	0.999003
502.399546	0.999875
502.765537	0.998923
503.131470	0.998857
503.497345	0.999081
503.863163	1.000199
504.228923	0.999474
504.594625	0.999123
504.960269	0.999318
505.325856	0.998289
505.691385	0.998080
506.056856	0.997779
506.422270	0.998918
506.787625	0.998591
507.152924	0.998560
507.518164	0.997928
507.883347	0.998190
508.248472	0.997993
508.613540	0.997917
508.978550	0.998030
509.343503	0.997445
509.708398	0.997409
510.073236	0.996755
510.438016	0.996618
510.802738	0.995759
511.167403	0.995499
511.532010	0.995829
511.896561	0.996084
512.261053	0.995836
512.625488	0.994766
512.989866	0.994638
513.354186	0.994225
513.718449	0.994037
514.082655	0.993305
514.446803	0.993670
514.810894	0.993058
515.174927	0.992231
515.538904	0.991642
515.902822	0.991628
516.266684	0.991409
516.630488	0.991055
516.994235	0.988744
517.357925	0.989232
517.721558	0.988692
518.085133	0.987113
518.448651	0.987836
518.812112	0.986404
519.175516	0.985475
519.538863	0.984669
519.902152	0.983641
520.265385	0.982823
520.628560	0.982456
520.991678	0.981592
521.354739	0.980621
521.717743	0.979692
522.080690	0.978788
522.443580	0.977552
522.806413	0.976336
523.169189	0.975135
523.531908	0.974306
523.894569	0.973391
524.257174	0.972485
524.619722	0.970810
524.982213	0.969945
525.344647	0.968388
525.707025	0.966586
526.069345	0.965126
526.431608	0.962846
526.793815	0.962520
527.155964	0.960092
527.518057	0.959347
527.880093	0.958083
528.242072	0.955800
528.603995	0.953759
528.965860	0.953251
529.327669	0.950219
529.689421	0.948937
530.051117	0.947191
530.412755	0.943783
530.774337	0.943317
531.135862	0.939926
531.497331	0.938038
531.858743	0.936346
532.220098	0.934221
532.581396	0.931930
532.942638	0.929948
533.303824	0.927899
533.664953	0.924397
534.026025	0.922439
534.387040	0.919080
534.747999	0.916318
535.108902	0.913892
535.469748	0.911266
535.830537	0.909039
536.191270	0.905932
536.551947	0.902855
536.912567	0.900106
537.273131	0.898086
537.633638	0.894140
537.994089	0.890935
538.354483	0.887832
538.714821	0.884869
539.075103	0.881433
539.435328	0.878889
539.795497	0.875462
540.155609	0.871009
540.515665	0.867666
540.875665	0.864839
541.235609	0.860416
541.595496	0.857773
541.955328	0.852411
542.315102	0.850992
542.674821	0.846497
543.034483	0.843123
543.394090	0.839064
543.753640	0.835930
544.113134	0.830473
544.472571	0.828379
544.831953	0.822988
545.191278	0.819550
545.550548	0.817318
545.909761	0.811494
546.268918	0.807402
546.628019	0.803365
546.987064	0.799243
547.346053	0.797091
547.704986	0.790941
548.063863	0.787868
548.422684	0.784288
548.781449	0.780733
549.140158	0.774613
549.498811	0.771743
549.857408	0.768867
550.215949	0.761845
550.574434	0.759154
550.932864	0.753054
551.291237	0.749977
551.649555	0.744279
552.007817	0.740970
552.366022	0.736600
552.724173	0.732581
553.082267	0.728493
553.440305	0.721417
553.798288	0.720204
554.156215	0.712808
554.514086	0.708791
554.871902	0.705578
555.229661	0.700911
555.587365	0.696426
555.945014	0.694156
556.302606	0.686497
556.660143	0.684871
557.017625	0.676714
557.375050	0.673771
557.732421	0.668428
558.089735	0.664504
558.446994	0.660777
558.804197	0.655238
559.161345	0.650555
559.518437	0.649313
559.875474	0.641030
560.232455	0.636559
560.589381	0.634566
560.946251	0.627142
561.303065	0.623979
561.659825	0.619078
562.016528	0.615461
562.373177	0.613675
562.729770	0.605904
563.086307	0.603436
563.442789	0.598453
563.799216	0.593868
564.155587	0.589564
564.511904	0.585104
564.868164	0.580957
565.224370	0.577205
565.580520	0.572594
565.936615	0.569764
566.292654	0.565919
566.648638	0.560877
567.004567	0.556786
567.360441	0.553539
567.716260	0.550146
568.072023	0.544812
568.427732	0.540457
568.783385	0.539608
569.138982	0.532867
569.494525	0.528569
569.850013	0.526925
570.205445	0.521241
570.560823	0.520354
570.916145	0.516346
571.271412	0.511540
571.626625	0.508385
571.981782	0.504869
572.336884	0.501549
572.691931	0.498575
573.046923	0.494145
573.401860	0.491509
573.756743	0.489084
574.111570	0.484430
574.466342	0.481342
574.821059	0.476808
575.175722	0.475655
575.530330	0.471157
575.884882	0.468487
576.239380	0.466327
576.593823	0.463176
576.948211	0.458988
577.302544	0.458783
577.656823	0.453934
578.011047	0.450762
578.365216	0.447962
578.719330	0.446849
579.073389	0.443476
579.427394	0.441234
579.781344	0.438699
580.135239	0.436235
580.489080	0.433692
580.842866	0.432519
581.196597	0.429625
581.550273	0.426093
581.903895	0.423758
582.257463	0.419977
582.610975	0.419532
582.964434	0.416899
583.317837	0.415799
583.671186	0.413751
584.024481	0.411095
584.377721	0.410720
584.730906	0.408341
585.084037	0.405216
585.437113	0.404775
585.790135	0.401104
586.143103	0.401471
586.496016	0.400423
586.848874	0.395769
587.201679	0.394591
587.554428	0.394318
587.907124	0.390963
588.259765	0.389978
588.612352	0.388110
588.964884	0.389785
589.317362	0.387098
589.669786	0.385174
590.022155	0.382112
590.374470	0.378725
590.726731	0.379125
591.078937	0.381374
591.431090	0.375573
591.783188	0.377949
592.135232	0.376081
592.487222	0.374786
592.839157	0.371354
593.191038	0.371457
593.542866	0.371511
593.894639	0.372978
594.246358	0.369598
594.598022	0.367550
594.949633	0.369059
595.301190	0.368209
595.652692	0.366090
596.004141	0.360670
596.355535	0.366790
596.706876	0.365422
597.058162	0.366463
597.409395	0.362598
597.760573	0.359305
598.111698	0.360644
598.462768	0.359451
598.813785	0.359716
599.164748	0.359667
599.515657	0.359009
599.866511	0.360693
600.217312	0.355341
600.568060	0.359300
600.918753	0.354781
601.269392	0.354734
601.619978	0.356483
601.970510	0.353400
602.320988	0.352830
602.671412	0.349423
603.021783	0.350885
603.372100	0.351428
603.722363	0.349976
604.072572	0.350170
604.422728	0.349133
604.772830	0.350037
605.122878	0.348891
605.472872	0.348702
605.822813	0.346111
606.172701	0.348378
606.522534	0.344826
606.872314	0.344070
607.222041	0.344265
607.571714	0.341751
607.921333	0.342548
608.270899	0.341658
608.620411	0.338066
608.969870	0.341498
609.319276	0.340476
609.668627	0.340310
610.017926	0.338303
610.367171	0.336430
610.716362	0.336219
611.065500	0.336182
611.414585	0.334475
611.763616	0.334559
612.112594	0.334821
612.461518	0.333787
612.810389	0.330996
613.159207	0.332822
613.507971	0.334134
613.856682	0.329473
614.205340	0.330626
614.553945	0.327356
614.902496	0.330810
615.250994	0.328934
615.599439	0.329093
615.947830	0.328184
616.296169	0.328767
616.644454	0.328133
616.992686	0.327758
617.340864	0.325365
617.688990	0.329035
618.037063	0.325385
618.385082	0.326743
618.733048	0.323794
619.080961	0.325684
619.428821	0.324865
619.776628	0.324052
620.124382	0.325714
620.472083	0.326200
620.819731	0.325069
621.167326	0.328646
621.514868	0.328015
621.862357	0.332118
622.209793	0.331174
622.557176	0.333600
622.904506	0.334416
623.251783	0.336486
623.599007	0.338162
623.946179	0.338002
624.293297	0.339461
624.640363	0.343109
624.987376	0.343444
625.334336	0.346191
625.681243	0.348006
626.028097	0.348524
626.374899	0.349752
626.721647	0.349375
627.068343	0.352785
627.414987	0.353903
627.761577	0.355813
628.108115	0.353636
628.454600	0.358688
628.801032	0.356054
629.147412	0.358155
629.493739	0.358325
629.840014	0.362050
630.186236	0.358768
630.532405	0.364182
630.878521	0.361715
631.224585	0.363738
631.570597	0.367090
631.916556	0.365666
632.262462	0.365817
632.608316	0.367474
632.954117	0.368782
633.299866	0.369224
633.645562	0.369909
633.991206	0.373903
634.336797	0.376573
634.682336	0.379020
635.027823	0.380641
635.373257	0.381014
635.718639	0.384555
636.063968	0.383828
636.409245	0.389384
636.754470	0.389859
637.099642	0.392222
637.444762	0.395529
637.789829	0.394218
638.134845	0.397828
638.479808	0.398732
638.824719	0.398969
639.169577	0.402214
639.514383	0.401340
639.859137	0.405374
640.203839	0.405427
640.548489	0.405659
640.893086	0.407177
641.237632	0.408547
641.582125	0.407046
641.926566	0.408236
642.270955	0.408802
642.615292	0.408741
642.959576	0.407824
643.303809	0.408942
643.647990	0.408118
643.992118	0.408470
644.336195	0.412363
644.680219	0.410454
645.024192	0.411414
645.368112	0.404398
645.711981	0.403889
646.055797	0.399293
646.399562	0.401352
646.743274	0.393423
647.086935	0.391320
647.430544	0.391459
647.774101	0.389637
648.117606	0.389543
648.461059	0.389596
648.804460	0.392395
649.147810	0.397382
649.491108	0.399207
649.834354	0.400387
650.177548	0.406215
650.520690	0.411565
650.863781	0.412818
651.206820	0.412015
651.549807	0.416456
651.892742	0.420210
652.235626	0.419955
652.578458	0.420487
652.921238	0.426702
653.263967	0.424725
653.606644	0.428526
653.949269	0.428397
654.291843	0.432415
654.634365	0.428670
654.976836	0.432094
655.319255	0.431722
655.661622	0.433810
656.003938	0.434026
656.346203	0.436570
656.688416	0.434342
657.030577	0.437921
657.372687	0.440110
657.714746	0.440638
658.056753	0.437490
658.398708	0.442050
658.740612	0.442957
659.082465	0.438278
659.424266	0.439712
659.766016	0.438590
660.107715	0.441038
660.449362	0.440436
660.790958	0.440772
661.132503	0.441343
661.473996	0.439625
661.815438	0.440400
662.156829	0.440442
662.498168	0.441146
662.839456	0.442577
663.180693	0.440483
663.521879	0.440071
663.863013	0.440793
664.204097	0.439665
664.545129	0.436275
664.886110	0.436800
665.227040	0.434013
665.567918	0.436551
665.908746	0.434711
666.249522	0.434043
666.590248	0.435890
666.930922	0.433755
667.271545	0.432245
667.612118	0.432311
667.952639	0.434003
668.293109	0.433184
668.633528	0.435809
668.973896	0.435476
669.314213	0.436048
669.654480	0.436819
669.994695	0.438353
670.334859	0.438495
670.674973	0.438774
671.015035	0.439074
671.355047	0.438991
671.695008	0.440189
672.034918	0.441803
672.374777	0.441308
672.714585	0.442217
673.054342	0.442706
673.394049	0.442200
673.733705	0.439913
674.073310	0.441225
674.412864	0.444351
674.752368	0.445234
675.091820	0.444866
675.431223	0.449130
675.770574	0.448822
676.109875	0.452350
676.449125	0.452300
676.788324	0.454232
677.127473	0.459916
677.466571	0.459460
677.805619	0.461080
678.144616	0.462112
678.483562	0.463469
678.822458	0.466348
679.161303	0.468023
679.500098	0.467818
679.838842	0.469231
680.177535	0.469188
680.516179	0.467543
680.854771	0.466528
681.193314	0.460060
681.531805	0.452007
681.870247	0.439942
682.208638	0.432581
682.546978	0.431434
682.885268	0.433558
683.223508	0.439795
683.561697	0.443379
683.899836	0.445784
684.237925	0.449355
684.575963	0.451822
684.913951	0.454524
685.251889	0.450787
685.589776	0.452597
685.927614	0.454836
686.265401	0.449409
686.603137	0.450786
686.940824	0.444961
687.278460	0.443398
687.616046	0.441860
687.953582	0.437351
688.291068	0.438595
688.628504	0.434416
688.965889	0.436767
689.303224	0.440996
689.640510	0.444654
689.977745	0.450387
690.314930	0.458679
690.652065	0.462881
690.989150	0.470410
691.326185	0.476364
691.663170	0.480735
692.000105	0.488122
692.336990	0.495144
692.673825	0.497801
693.010610	0.504529
693.347345	0.510278
693.684030	0.511377
694.020665	0.516386
694.357251	0.525499
694.693786	0.524856
695.030272	0.528919
695.366707	0.532226
695.703093	0.535584
696.039429	0.533453
696.375716	0.534976
696.711952	0.538269
697.048139	0.539692
697.384276	0.541811
697.720363	0.540214
698.056400	0.538777
698.392388	0.545076
698.728326	0.547625
699.064214	0.550874
699.400053	0.550879
699.735842	0.554899
700.071581	0.557294
700.407270	0.560451
700.742910	0.562632
701.078501	0.569629
701.414042	0.569734
701.749533	0.572852
702.084974	0.581725
702.420366	0.573674
702.755709	0.581942
703.091002	0.588476
703.426246	0.582508
703.761440	0.588767
704.096584	0.593783
704.431679	0.590082
704.766725	0.591979
705.101721	0.594099
705.436668	0.590397
705.771565	0.597335
706.106413	0.595035
706.441212	0.589243
706.775961	0.587982
707.110661	0.590920
707.445311	0.587663
707.779913	0.584084
708.114465	0.582952
708.448967	0.579932
708.783421	0.571774
709.117825	0.566864
709.452180	0.566482
709.786485	0.559941
710.120742	0.550497
710.454949	0.551984
710.789107	0.544029
711.123216	0.535304
711.457275	0.537783
711.791286	0.528212
712.125247	0.527120
712.459159	0.537510
712.793023	0.530784
713.126837	0.534298
713.460602	0.535005
713.794318	0.544343
714.127985	0.542959
714.461602	0.553010
714.795171	0.555985
715.128691	0.563809
715.462162	0.571336
715.795584	0.576763
716.128957	0.579469
716.462281	0.586965
716.795556	0.590220
717.128782	0.595243
717.461960	0.604006
717.795088	0.602551
718.128167	0.609102
718.461198	0.616989
718.794180	0.617813
719.127113	0.621585
719.459997	0.624169
719.792833	0.630866
720.125619	0.632019
720.458357	0.638118
720.791046	0.637497
721.123686	0.640811
721.456278	0.647607
721.788821	0.645773
722.121315	0.649548
722.453761	0.653462
722.786158	0.651160
723.118506	0.648404
723.450805	0.655645
723.783056	0.652054
724.115259	0.648861
724.447412	0.647759
724.779518	0.650475
725.111574	0.648909
725.443582	0.644943
725.775542	0.646667
726.107453	0.639204
726.439315	0.638560
726.771129	0.637675
727.102895	0.630218
727.434612	0.622854
727.766281	0.621402
728.097901	0.620895
728.429473	0.620145
728.760996	0.619057
729.092471	0.618853
729.423897	0.622381
729.755276	0.622098
730.086606	0.621731
730.417887	0.616326
730.749120	0.607635
731.080305	0.598279
731.411442	0.594697
731.742530	0.599426
732.073570	0.598821
732.404562	0.590940
732.735506	0.592438
733.066401	0.597098
733.397249	0.606165
733.728048	0.617426
734.058798	0.629595
734.389501	0.640475
734.720156	0.649965
735.050762	0.658187
735.381320	0.659028
735.711831	0.667938
736.042293	0.673104
736.372707	0.669174
736.703073	0.673298
737.033391	0.675153
737.363661	0.672896
737.693883	0.667443
738.024056	0.667022
738.354182	0.667519
738.684260	0.656817
739.014290	0.652909
739.344272	0.653410
739.674207	0.647014
740.004093	0.646250
740.333931	0.646918
740.663722	0.646683
740.993464	0.647200
741.323159	0.650693
741.652806	0.656253
741.982405	0.660791
742.311956	0.664803
742.641460	0.666988
742.970915	0.671400
743.300323	0.679046
743.629683	0.685048
743.958996	0.687273
744.288260	0.691706
744.617477	0.697020
744.946647	0.699412
745.275768	0.704965
745.604842	0.704019
745.933869	0.713958
746.262847	0.713648
746.591778	0.708287
746.920662	0.714484
747.249498	0.720590
747.578286	0.711954
747.907027	0.707771
748.235720	0.709449
748.564365	0.702714
748.892963	0.703769
749.221514	0.706975
749.550017	0.712035
749.878473	0.710452
750.206881	0.717252
750.535242	0.719590
750.863555	0.718232
751.191821	0.721030
751.520039	0.723073
751.848210	0.728196
752.176334	0.720926
752.504411	0.719615
752.832440	0.726609
753.160421	0.731889
753.488356	0.729600
753.816243	0.727315
754.144082	0.735825
754.471875	0.739423
754.799620	0.734430
755.127318	0.735923
755.454969	0.735897
755.782572	0.735094
756.110129	0.740591
756.437638	0.741904
756.765100	0.739101
757.092515	0.737213
757.419882	0.736342
757.747203	0.741872
758.074477	0.741080
758.401703	0.738344
758.728882	0.733061
759.056014	0.732385
759.383099	0.730768
759.710138	0.732160
760.037129	0.728737
760.364073	0.722575
760.690970	0.725390
761.017820	0.730411
761.344623	0.726515
761.671379	0.717467
761.998088	0.706539
762.324751	0.683056
762.651366	0.642176
762.977935	0.575601
763.304456	0.524131
763.630931	0.514578
763.957359	0.553562
764.283740	0.598102
764.610074	0.624984
764.936362	0.655183
765.262602	0.681077
765.588796	0.703004
765.914943	0.720951
766.241044	0.737691
766.567097	0.745334
766.893104	0.754422
767.219064	0.760781
767.544978	0.767884
767.870845	0.781093
768.196665	0.785063
768.522438	0.782490
768.848165	0.783942
769.173846	0.791906
769.499479	0.796905
769.825066	0.800259
770.150607	0.805686
770.476101	0.800230
770.801548	0.802068
771.126949	0.812426
771.452303	0.816862
771.777611	0.815701
772.102872	0.815018
772.428087	0.820120
772.753256	0.823721
773.078378	0.825537
773.403453	0.834476
773.728482	0.837903
774.053465	0.831905
774.378401	0.835248
774.703291	0.844256
775.028135	0.844164
775.352932	0.844493
775.677683	0.848430
776.002388	0.849140
776.327046	0.848315
776.651658	0.851697
776.976224	0.853803
777.300743	0.855056
777.625216	0.856941
777.949643	0.859390
778.274024	0.859287
778.598359	0.860721
778.922647	0.859022
779.246889	0.859701
779.571086	0.863952
779.895236	0.866239
780.219339	0.862794
780.543397	0.860345
780.867409	0.858646
781.191374	0.860948
781.515294	0.862596
781.839167	0.860871
782.162995	0.865327
782.486776	0.862157
782.810511	0.861639
783.134201	0.866540
783.457844	0.863698
783.781441	0.867446
784.104993	0.872778
784.428498	0.872606
784.751958	0.868303
785.075372	0.870726
785.398739	0.874694
785.722061	0.870777
786.045337	0.866449
786.368568	0.871958
786.691752	0.874036
787.014891	0.859242
787.337983	0.851991
787.661030	0.844557
787.984031	0.827199
788.306987	0.813681
788.629897	0.815193
788.952760	0.819970
789.275579	0.824337
789.598351	0.838836
789.921078	0.852159
790.243759	0.853796
790.566395	0.858794
790.888984	0.865798
791.211529	0.870662
791.534027	0.873939
791.856480	0.876233
792.178888	0.880890
792.501249	0.883834
792.823566	0.884889
793.145836	0.885435
793.468062	0.887496
793.790241	0.887605
794.112375	0.884672
794.434464	0.881320
794.756507	0.879838
795.078505	0.879710
795.400457	0.874764
795.722364	0.862888
796.044226	0.855631
796.366042	0.854900
796.687812	0.857810
797.009538	0.854625
797.331218	0.856641
797.652852	0.861438
797.974442	0.866327
798.295986	0.866504
798.617484	0.869335
798.938938	0.873506
799.260346	0.878103
799.581709	0.879503
799.903026	0.882113
800.224299	0.882762
800.545526	0.886635
800.866708	0.891193
801.187845	0.894881
801.508936	0.894258
801.829983	0.892482
802.150984	0.894926
802.471940	0.899832
802.792851	0.899115
803.113717	0.899556
803.434538	0.896917
803.755314	0.899555
804.076045	0.902071
804.396731	0.902215
804.717372	0.900720
805.037967	0.903423
805.358518	0.901815
805.679024	0.898775
805.999485	0.898904
806.319901	0.899350
806.640272	0.900423
806.960598	0.899347
807.280879	0.895986
807.601115	0.894575
807.921306	0.899031
808.241453	0.898156
808.561554	0.896841
808.881611	0.895936
809.201623	0.898382
809.521590	0.898089
809.841513	0.899635
810.161390	0.898771
810.481223	0.898775
810.801011	0.903504
811.120755	0.904736
811.440453	0.903746
811.760107	0.902010
812.079716	0.902079
812.399281	0.905991
812.718801	0.908624
813.038276	0.909911
813.357707	0.907587
813.677093	0.906756
813.996434	0.909208
814.315731	0.910963
814.634983	0.911783
814.954191	0.910223
815.273354	0.906739
815.592473	0.903929
815.911547	0.904471
816.230577	0.901966
816.549562	0.897723
816.868502	0.899129
817.187399	0.895630
817.506250	0.891200
817.825058	0.891988
818.143821	0.888258
818.462539	0.884377
818.781213	0.875748
819.099843	0.865275
819.418429	0.850000
819.736970	0.832882
820.055466	0.813745
820.373919	0.788574
820.692327	0.757298
821.010691	0.722299
821.329011	0.646941
821.647286	0.533952
821.965517	0.421609
822.283704	0.379116
822.601847	0.381270
822.919945	0.416863
823.237999	0.449210
823.556010	0.495465
823.873976	0.549753
824.191897	0.599207
824.509775	0.641576
824.827609	0.686539
825.145398	0.708733
825.463144	0.711190
825.780845	0.694151
826.098502	0.675892
826.416116	0.630653
826.733685	0.587418
827.051210	0.579733
827.368692	0.593838
827.686129	0.630237
828.003522	0.682616
828.320872	0.729411
828.638177	0.772554
828.955439	0.804069
829.272656	0.826582
829.589830	0.842418
829.906960	0.857864
830.224046	0.870179
830.541088	0.881009
830.858086	0.885065
831.175041	0.891219
831.491952	0.889660
831.808819	0.885739
832.125642	0.880418
832.442421	0.864815
832.759157	0.844108
833.075849	0.799424
833.392497	0.736509
833.709101	0.696116
834.025662	0.706420
834.342179	0.737216
834.658653	0.774937
834.975083	0.811072
835.291469	0.836993
835.607811	0.858901
835.924110	0.873802
836.240366	0.890662
836.556578	0.902653
836.872746	0.912096
837.188871	0.917113
837.504952	0.922622
837.820990	0.925390
838.136984	0.928112
838.452935	0.932026
838.768842	0.933180
839.084706	0.927414
839.400526	0.901494
839.716303	0.863294
840.032037	0.841015
840.347727	0.844720
840.663373	0.861711
840.978977	0.882713
841.294537	0.905623
841.610054	0.920738
841.925527	0.928283
842.240957	0.934284
842.556344	0.941508
842.871687	0.947742
843.186987	0.950966
843.502244	0.952047
843.817458	0.952931
844.132629	0.957479
844.447756	0.962824
844.762840	0.962455
845.077881	0.961574
845.392879	0.961140
845.707833	0.964430
846.022745	0.965758
846.337613	0.966221
846.652438	0.966983
846.967221	0.965485
847.281960	0.965820
847.596656	0.968700
847.911309	0.966187
848.225919	0.968438
848.540485	0.968914
848.855009	0.971013
849.169490	0.969928
849.483928	0.970509
849.798323	0.970249
850.112675	0.971262
850.426984	0.970860
850.741251	0.970384
851.055474	0.971491
851.369654	0.969272
851.683792	0.970275
851.997887	0.970959
852.311938	0.971883
852.625947	0.971176
852.939914	0.969435
853.253837	0.970265
853.567718	0.971964
853.881555	0.973180
854.195350	0.969896
854.509103	0.971047
854.822812	0.971140
855.136479	0.970902
855.450103	0.971158
855.763685	0.969806
856.077224	0.969684
856.390720	0.971625
856.704173	0.971777
857.017584	0.969176
857.330953	0.967714
857.644278	0.970240
857.957561	0.969768
858.270802	0.970312
858.584000	0.968658
858.897155	0.967658
859.210268	0.969767
859.523339	0.968766
859.836367	0.971829
860.149352	0.971789
860.462295	0.969041
860.775195	0.970872
861.088054	0.971241
861.400869	0.970531
861.713642	0.971804
862.026373	0.972012
862.339062	0.971256
862.651708	0.969142
862.964312	0.969406
863.276873	0.970936
863.589392	0.969896
863.901869	0.967476
864.214303	0.966750
864.526696	0.965920
864.839045	0.964573
865.151353	0.963467
865.463619	0.964143
865.775842	0.963142
866.088023	0.964504
866.400162	0.964701
866.712258	0.963354
867.024313	0.964583
867.336325	0.965910
867.648296	0.965199
867.960224	0.964411
868.272110	0.962773
868.583954	0.966494
868.895755	0.965005
869.207515	0.964219
869.519233	0.961589
869.830909	0.962247
870.142542	0.964829
870.454134	0.963505
870.765684	0.962530
871.077191	0.959971
871.388657	0.960862
871.700081	0.959931
872.011463	0.959726
872.322803	0.959892
872.634101	0.959785
872.945357	0.956970
873.256571	0.954989
873.567744	0.955309
873.878874	0.955428
874.189963	0.954055
874.501010	0.953923
874.812015	0.951491
875.122979	0.952894
875.433900	0.956318
875.744780	0.956163
876.055618	0.953117
876.366415	0.952351
876.677169	0.951579
876.987882	0.954260
877.298554	0.952923
877.609183	0.950195
877.919771	0.947516
878.230317	0.944860
878.540822	0.943313
878.851285	0.938004
879.161707	0.931318
879.472087	0.919512
879.782425	0.904601
880.092722	0.869605
880.402977	0.820655
880.713191	0.762019
881.023363	0.705230
881.333494	0.672495
881.643583	0.645030
881.953631	0.644329
882.263637	0.672918
882.573602	0.712087
882.883526	0.736400
883.193408	0.758385
883.503248	0.779854
883.813048	0.806697
884.122806	0.834934
884.432522	0.857394
884.742197	0.876759
885.051831	0.886067
885.361424	0.896859
885.670975	0.908002
885.980485	0.917558
886.289954	0.924277
886.599382	0.928524
886.908768	0.931448
887.218113	0.937259
887.527417	0.941592
887.836680	0.945302
888.145901	0.946717
888.455082	0.947327
888.764221	0.952981
889.073319	0.955325
889.382376	0.955544
889.691392	0.955069
890.000366	0.954976
890.309300	0.956098
890.618193	0.955882
890.927044	0.953839
891.235855	0.953860
891.544625	0.953513
891.853353	0.954757
892.162041	0.952827
892.470687	0.945803
892.779293	0.942003
893.087858	0.938009
893.396381	0.930595
893.704864	0.917262
894.013306	0.895375
894.321707	0.867984
894.630068	0.856851
894.938387	0.851268
895.246665	0.851097
895.554903	0.864154
895.863100	0.876842
896.171256	0.892485
896.479371	0.911564
896.787446	0.925221
897.095480	0.929324
897.403473	0.931866
897.711425	0.935664
898.019336	0.944655
898.327207	0.945264
898.635038	0.947899
898.942827	0.947375
899.250576	0.951564
899.558284	0.954759
899.865952	0.957710
900.173579	0.958081
900.481165	0.957868
900.788711	0.962324
901.096216	0.964062
901.403681	0.963396
901.711105	0.965214
902.018489	0.966301
902.325832	0.964725
902.633135	0.963520
902.940397	0.957356
903.247619	0.947369
903.554800	0.923486
903.861941	0.885248
904.169041	0.852017
904.476101	0.836063
904.783121	0.836310
905.090100	0.851431
905.397039	0.871916
905.703938	0.893281
906.010796	0.910873
906.317614	0.927219
906.624391	0.939059
906.931129	0.947440
907.237826	0.954682
907.544483	0.962444
907.851099	0.966044
908.157675	0.970379
908.464211	0.971565
908.770707	0.974599
909.077163	0.976025
909.383578	0.977266
909.689954	0.976533
909.996289	0.977062
910.302584	0.980524
910.608839	0.980809
910.915054	0.979153
911.221229	0.980046
911.527363	0.977817
911.833458	0.978100
912.139513	0.978426
912.445527	0.977042
912.751502	0.976027
913.057436	0.973968
913.363331	0.972740
913.669186	0.969218
913.975000	0.964384
914.280775	0.958352
914.586510	0.952209
914.892205	0.938807
915.197859	0.919336
915.503475	0.893716
915.809050	0.875677
916.114585	0.871078
916.420081	0.869555
916.725536	0.865555
917.030952	0.872955
917.336328	0.884749
917.641665	0.898540
917.946961	0.913623
918.252218	0.924898
918.557435	0.933386
918.862612	0.941576
919.167750	0.946752
919.472848	0.950668
919.777906	0.955388
920.082925	0.960550
920.387904	0.966019
920.692843	0.964940
920.997743	0.966746
921.302603	0.970435
921.607423	0.971555
921.912204	0.973345
922.216946	0.974630
922.521647	0.976016
922.826310	0.977612
923.130932	0.978927
923.435516	0.980016
923.740059	0.980619
924.044564	0.980591
924.349028	0.981868
924.653454	0.984583
924.957840	0.986616
925.262186	0.985202
925.566493	0.982820
925.870761	0.986272
926.174989	0.987968
926.479178	0.989027
926.783328	0.989182
927.087438	0.988919
927.391509	0.988508
927.695541	0.991348
927.999533	0.989734
928.303486	0.991154
928.607400	0.992279
928.911275	0.991014
929.215110	0.991627
929.518906	0.991832
929.822663	0.990612
930.126381	0.991818
930.430060	0.990734
930.733699	0.991527
931.037299	0.990293
931.340861	0.991886
931.644383	0.990704
931.947866	0.990554
932.251309	0.992449
932.554714	0.991564
932.858080	0.991845
933.161407	0.992598
933.464694	0.991132
933.767943	0.989929
934.071153	0.991950
934.374323	0.992108
934.677455	0.991537
934.980548	0.992130
935.283602	0.991958
935.586617	0.992493
935.889593	0.989872
936.192530	0.991847
936.495428	0.991783
936.798287	0.991358
937.101108	0.991800
937.403890	0.990122
937.706632	0.989191
938.009336	0.987703
938.312002	0.988631
938.614628	0.985601
938.917216	0.984866
939.219765	0.982778
939.522275	0.984664
939.824747	0.984267
940.127179	0.984064
940.429573	0.986549
940.731929	0.985790
941.034246	0.986139
941.336524	0.987159
941.638763	0.988191
941.940964	0.987804
942.243126	0.987513
942.545250	0.987264
942.847335	0.989275
943.149381	0.988744
943.451389	0.989371
943.753359	0.989324
944.055290	0.991209
944.357182	0.991429
944.659036	0.989442
944.960851	0.990689
945.262628	0.990925
945.564367	0.990403
945.866067	0.991477
946.167729	0.991615
946.469352	0.990125
946.770937	0.988740
947.072484	0.992273
947.373992	0.992119
947.675462	0.991436
947.976893	0.991030
948.278286	0.990323
948.579641	0.990959
948.880958	0.991350
949.182236	0.991308
949.483476	0.991807
949.784678	0.990826
950.085841	0.992237
950.386967	0.990325
950.688054	0.991204
950.989103	0.992619
951.290114	0.990554
951.591087	0.989926
951.892021	0.991182
952.192917	0.990474
952.493776	0.989488
952.794596	0.989043
953.095378	0.988604
953.396122	0.989237
953.696828	0.988056
953.997496	0.991115
954.298126	0.992315
954.598718	0.991937
954.899272	0.992054
955.199788	0.991286
955.500266	0.992736
955.800706	0.993696
956.101108	0.994747
956.401472	0.994469
956.701798	0.995249
957.002087	0.993295
957.302337	0.994196
957.602550	0.995416
957.902724	0.995093
958.202861	0.995329
958.502960	0.995034
958.803022	0.994013
959.103045	0.995789
959.403031	0.996204
959.702979	0.996377
960.002889	0.996618
960.302762	0.995500
960.602596	0.997109
960.902393	0.996091
961.202153	0.996951
961.501875	0.997484
961.801559	0.994934
962.101205	0.996297
962.400814	0.996516
962.700385	0.995884
962.999918	0.996436
963.299414	0.997353
963.598873	0.996782
963.898293	0.996219
964.197677	0.995707
964.497022	0.996072
964.796331	0.997938
965.095601	0.998051
965.394835	0.996592
965.694030	0.995940
965.993189	0.998183
966.292309	0.997381
966.591393	0.998037
966.890439	0.998396
967.189447	0.997525
967.488419	0.997606
967.787353	0.995835
968.086249	0.996599
968.385108	0.996475
968.683930	0.997790
968.982714	0.997235
969.281462	0.997833
969.580172	0.996861
969.878844	0.996706
970.177480	0.996309
970.476078	0.998162
970.774639	0.996499
971.073162	0.998155
971.371649	0.996010
971.670098	0.996461
971.968510	0.997576
972.266885	0.995176
972.565223	0.996657
972.863524	0.996692
973.161788	0.996132
973.460014	0.998373
973.758204	0.995697
974.056356	0.996406
974.354471	0.993988
974.652550	0.996486
974.950591	0.997124
975.248595	0.996220
975.546563	0.996914
975.844493	0.998624
976.142386	0.997115
976.440243	0.996532
976.738062	0.997656
977.035845	0.997197
977.333590	0.996931
977.631299	0.996250
977.928971	0.997057
978.226606	0.997342
978.524204	0.995293
978.821765	0.997879
979.119290	0.997006
979.416777	0.996109
979.714228	0.997917
980.011642	0.995154
980.309020	0.998032
980.606360	0.997666
980.903664	0.997981
981.200931	0.996590
981.498162	0.995234
981.795356	0.995059
982.092513	0.995057
982.389633	0.995523
982.686717	0.993422
982.983764	0.992872
983.280775	0.990995
983.577749	0.991184
983.874686	0.992422
984.171587	0.992226
984.468451	0.994233
984.765279	0.994212
985.062070	0.995168
985.358824	0.995903
985.655543	0.995317
985.952224	0.996260
986.248869	0.997413
986.545478	0.996451
986.842050	0.997687
987.138586	0.996245
987.435086	0.997101
987.731549	0.999037
988.027975	0.998161
988.324366	0.997100
988.620719	0.999046
988.917037	0.996246
989.213318	0.997651
989.509563	0.998852
989.805772	0.999116
990.101944	0.999050
990.398080	0.997173
990.694180	0.997186
990.990244	0.997185
991.286271	0.997926
991.582262	0.998445
991.878217	0.998449
992.174136	1.000115
992.470019	0.999280
992.765865	0.997371
993.061676	0.997944
993.357450	0.997957
993.653188	0.996820
993.948890	0.996519
994.244556	0.997979
994.540186	0.998549
994.835780	0.997188
995.131337	0.997701
995.426859	0.996256
995.722345	0.997680
996.017795	0.996935
996.313208	0.996880
996.608586	0.996554
996.903928	0.996541
997.199234	0.996752
997.494504	0.997517
997.789738	0.996300
998.084936	0.994798
998.380099	0.998633
998.675225	0.997325
998.970316	0.997982
999.265371	0.998248
999.560390	0.997942
999.855373	0.997962
1000.150320	0.998096
1000.445232	0.998664
1000.740108	0.997374
1001.034948	0.999155
1001.329752	0.998457
1001.624521	0.998615
1001.919254	0.998393
1002.213951	0.998351
1002.508613	0.996967
1002.803239	0.999126
1003.097829	0.998110
1003.392384	0.999017
1003.686903	0.997338
1003.981386	0.997896
1004.275834	0.999596
1004.570246	0.996970
1004.864623	0.998929
1005.158964	0.998901
1005.453270	0.998610
1005.747540	0.997324
1006.041775	0.997749
1006.335974	0.999433
1006.630138	0.999616
1006.924266	0.998499
1007.218359	0.999506
1007.512416	0.999316
1007.806438	0.998800
1008.100425	0.998918
1008.394376	0.999638
1008.688292	0.998691
1008.982172	1.000516
1009.276017	0.998944
1009.569827	0.998440
1009.863602	0.998772
1010.157341	0.998751
1010.451045	0.999841
1010.744714	0.998448
1011.038347	0.999129
1011.331945	0.998889
1011.625508	0.997158
1011.919036	0.999046
1012.212528	0.998005
1012.505986	0.998704
1012.799408	0.998017
1013.092795	0.998918
1013.386147	0.998828
1013.679464	0.998508
1013.972745	0.998491
1014.265992	0.997474
1014.559204	0.999360
1014.852380	0.999008
1015.145521	0.999003
1015.438628	0.999047
1015.731699	0.999880
1016.024736	0.998868
1016.317737	0.998969
1016.610703	0.998231
1016.903635	0.999061
1017.196531	0.998922
1017.489393	0.999307
1017.782219	0.998645
1018.075011	0.999220
1018.367768	0.998717
1018.660490	1.000132
1018.953177	1.000132
1019.245829	1.000132
