Dividing Wavelength (nm)	Counts (n)	Blue Motor Position (mm): 0.000000	Red Motor Position (mm): 30.300000	
326.493990	1.000499
326.888308	1.000499
327.282561	1.000499
327.676750	1.000277
328.070874	0.999225
328.464933	1.000221
328.858929	0.999588
329.252859	0.999628
329.646726	0.999111
330.040528	0.999380
330.434265	0.998610
330.827938	1.001400
331.221547	0.999782
331.615091	0.999573
332.008571	0.999078
332.401986	0.999053
332.795338	1.000453
333.188625	0.997874
333.581847	0.999280
333.975006	0.999246
334.368100	0.999528
334.761129	0.999892
335.154095	1.000983
335.546996	0.999060
335.939833	0.994178
336.332606	0.993858
336.725315	0.997215
337.117960	0.997559
337.510540	0.995624
337.903056	0.996748
338.295508	0.993925
338.687896	0.996197
339.080220	0.996479
339.472480	0.994611
339.864676	0.995151
340.256807	0.995520
340.648875	0.996925
341.040879	0.996129
341.432818	0.995707
341.824694	0.994698
342.216506	0.996818
342.608253	0.995668
342.999937	0.994776
343.391557	0.995941
343.783113	0.995274
344.174605	0.994858
344.566033	0.996547
344.957397	0.994797
345.348697	0.994929
345.739934	0.995491
346.131106	0.995278
346.522215	0.993689
346.913260	0.994797
347.304241	0.995431
347.695159	0.995280
348.086012	0.994313
348.476802	0.995370
348.867528	0.995603
349.258191	0.994682
349.648789	0.995729
350.039324	0.997004
350.429796	0.996706
350.820203	0.995090
351.210548	0.995897
351.600828	0.995012
351.991045	0.994691
352.381198	0.994317
352.771288	0.995712
353.161314	0.995476
353.551276	0.997228
353.941175	0.995079
354.331010	0.994468
354.720782	0.995835
355.110490	0.995709
355.500135	0.995476
355.889717	0.995360
356.279235	0.994870
356.668689	0.995226
357.058080	0.995380
357.447408	0.996051
357.836672	0.996414
358.225873	0.995690
358.615010	0.995930
359.004084	0.996479
359.393095	0.996815
359.782043	0.995440
360.170927	0.996297
360.559748	0.996322
360.948505	0.994214
361.337199	0.995327
361.725830	0.995352
362.114398	0.996211
362.502903	0.996256
362.891344	0.996639
363.279722	0.995760
363.668037	0.996435
364.056289	0.995329
364.444478	0.995404
364.832603	0.996701
365.220665	0.995076
365.608665	0.995330
365.996601	0.994781
366.384474	0.995712
366.772284	0.995770
367.160031	0.994747
367.547715	0.993873
367.935336	0.994049
368.322893	0.995242
368.710388	0.994951
369.097820	0.996622
369.485189	0.996051
369.872495	0.995522
370.259738	0.993956
370.646918	0.996087
371.034035	0.996275
371.421090	0.995827
371.808081	0.995491
372.195010	0.995569
372.581875	0.996108
372.968678	0.995814
373.355418	0.995244
373.742096	0.994738
374.128710	0.995903
374.515262	0.995428
374.901751	0.996020
375.288177	0.995572
375.674540	0.996079
376.060841	0.995747
376.447079	0.996237
376.833254	0.995250
377.219367	0.996480
377.605417	0.996045
377.991404	0.996484
378.377329	0.996523
378.763191	0.994813
379.148991	0.997012
379.534727	0.996202
379.920402	0.996123
380.306013	0.996709
380.691563	0.996235
381.077049	0.995769
381.462474	0.997420
381.847835	0.996265
382.233134	0.996278
382.618371	0.997172
383.003545	0.996140
383.388657	0.996590
383.773706	0.997085
384.158693	0.996778
384.543618	0.996679
384.928480	0.997281
385.313280	0.996662
385.698017	0.997417
386.082692	0.996945
386.467305	0.997536
386.851856	0.996913
387.236344	0.996126
387.620770	0.995401
388.005133	0.996535
388.389435	0.996627
388.773674	0.996103
389.157851	0.996823
389.541965	0.996992
389.926018	0.997372
390.310008	0.998718
390.693936	0.996943
391.077802	0.996929
391.461606	0.997031
391.845348	0.996954
392.229027	0.998425
392.612645	0.997133
392.996200	0.998009
393.379694	0.996384
393.763125	0.998128
394.146494	0.996950
394.529801	0.997345
394.913047	0.997691
395.296230	0.998325
395.679351	0.996887
396.062410	0.996839
396.445408	0.998073
396.828343	0.997798
397.211217	0.997738
397.594028	0.997999
397.976778	0.997268
398.359466	0.997175
398.742092	0.996802
399.124656	0.996352
399.507158	0.997739
399.889598	0.997548
400.271977	0.997149
400.654294	0.997702
401.036549	0.997513
401.418742	0.997404
401.800874	0.996725
402.182944	0.997163
402.564952	0.995762
402.946898	0.998570
403.328783	0.997467
403.710606	0.996558
404.092367	0.997687
404.474067	0.998119
404.855705	0.998032
405.237282	0.998118
405.618797	0.997093
406.000250	0.997009
406.381642	0.997413
406.762972	0.997172
407.144240	0.998410
407.525447	0.997745
407.906593	0.996959
408.287677	0.998211
408.668700	0.997523
409.049661	0.996845
409.430560	0.997667
409.811399	0.997462
410.192176	0.996926
410.572891	0.996296
410.953545	0.997441
411.334138	0.995963
411.714669	0.997861
412.095139	0.997387
412.475547	0.998285
412.855894	0.997856
413.236180	0.997963
413.616405	0.998167
413.996568	0.998476
414.376670	0.997251
414.756711	0.997441
415.136691	0.997238
415.516609	0.997521
415.896466	0.997489
416.276262	0.996111
416.655997	0.998481
417.035670	0.996764
417.415283	0.998141
417.794834	0.997848
418.174324	0.997510
418.553753	0.998098
418.933121	0.996918
419.312428	0.997209
419.691674	0.996809
420.070859	0.997570
420.449983	0.997592
420.829045	0.997680
421.208047	0.998042
421.586988	0.998882
421.965867	0.997498
422.344686	0.998442
422.723444	0.997737
423.102141	0.997671
423.480777	0.998364
423.859352	0.998517
424.237866	0.998219
424.616319	0.997277
424.994712	0.997366
425.373044	0.998024
425.751314	0.997933
426.129524	0.997810
426.507673	0.998333
426.885762	0.998004
427.263789	0.998079
427.641756	0.997940
428.019662	0.998856
428.397508	0.996951
428.775292	0.996636
429.153016	0.997618
429.530679	0.998263
429.908282	0.998356
430.285824	0.998069
430.663305	0.997854
431.040726	0.997752
431.418086	0.998357
431.795385	0.998570
432.172624	0.996895
432.549802	0.998690
432.926920	0.998041
433.303977	0.997559
433.680974	0.997590
434.057910	0.997147
434.434786	0.998249
434.811601	0.996593
435.188355	0.997661
435.565050	0.996986
435.941683	0.997984
436.318257	0.999395
436.694770	0.996853
437.071222	0.997887
437.447614	0.997735
437.823946	0.998006
438.200218	0.997535
438.576429	0.998107
438.952580	0.997334
439.328670	0.998030
439.704700	0.998029
440.080670	0.998533
440.456580	0.998000
440.832429	0.997292
441.208218	0.997573
441.583947	0.997763
441.959616	0.997207
442.335224	0.996928
442.710773	0.998479
443.086261	0.996738
443.461689	0.997499
443.837057	0.998352
444.212365	0.997902
444.587612	0.997826
444.962800	0.997245
445.337927	0.997877
445.712995	0.997862
446.088002	0.997185
446.462949	0.997662
446.837837	0.997931
447.212664	0.998099
447.587431	0.997968
447.962139	0.997719
448.336786	0.997738
448.711374	0.997789
449.085901	0.997618
449.460369	0.997996
449.834776	0.997803
450.209124	0.998083
450.583412	0.997629
450.957640	0.997791
451.331808	0.997902
451.705917	0.997086
452.079965	0.997361
452.453954	0.997744
452.827883	0.997503
453.201752	0.997574
453.575562	0.998077
453.949311	0.997695
454.323001	0.997450
454.696632	0.997307
455.070202	0.997348
455.443713	0.996748
455.817164	0.997556
456.190556	0.997201
456.563888	0.997400
456.937160	0.997096
457.310373	0.997575
457.683526	0.997337
458.056619	0.996976
458.429653	0.997232
458.802628	0.995949
459.175542	0.996861
459.548398	0.997223
459.921194	0.996755
460.293930	0.997323
460.666607	0.996305
461.039224	0.995911
461.411782	0.996689
461.784280	0.995271
462.156719	0.997489
462.529099	0.996748
462.901419	0.996220
463.273680	0.996065
463.645882	0.995726
464.018024	0.995744
464.390106	0.995617
464.762130	0.995366
465.134094	0.994130
465.505999	0.994635
465.877845	0.993372
466.249631	0.993097
466.621358	0.992556
466.993026	0.992304
467.364634	0.991732
467.736184	0.991841
468.107674	0.990933
468.479105	0.989095
468.850477	0.989406
469.221790	0.988588
469.593043	0.988050
469.964238	0.988265
470.335373	0.986642
470.706449	0.985187
471.077467	0.984379
471.448425	0.982202
471.819324	0.980478
472.190164	0.978994
472.560945	0.978691
472.931667	0.977235
473.302330	0.976835
473.672934	0.975519
474.043479	0.973798
474.413965	0.971816
474.784393	0.970097
475.154761	0.968836
475.525070	0.966036
475.895321	0.965724
476.265513	0.962920
476.635645	0.961043
477.005719	0.958616
477.375734	0.956100
477.745691	0.953453
478.115588	0.950903
478.485427	0.947387
478.855207	0.943636
479.224928	0.937508
479.594591	0.933767
479.964194	0.932013
480.333739	0.930322
480.703226	0.926180
481.072653	0.923620
481.442022	0.918149
481.811333	0.913196
482.180584	0.910698
482.549777	0.907717
482.918912	0.903621
483.287988	0.899879
483.657005	0.895283
484.025964	0.892475
484.394864	0.887539
484.763706	0.882745
485.132489	0.879080
485.501213	0.873971
485.869879	0.870053
486.238487	0.864880
486.607036	0.859808
486.975527	0.854312
487.343959	0.848748
487.712333	0.843233
488.080648	0.837811
488.448905	0.831615
488.817104	0.826756
489.185244	0.819164
489.553326	0.812366
489.921350	0.801969
490.289315	0.788272
490.657222	0.781469
491.025070	0.775284
491.392861	0.770237
491.760593	0.766592
492.128267	0.762768
492.495883	0.757969
492.863440	0.753624
493.230939	0.748777
493.598380	0.742075
493.965763	0.734934
494.333088	0.730685
494.700354	0.722763
495.067563	0.717535
495.434713	0.709857
495.801805	0.703366
496.168839	0.695948
496.535815	0.688275
496.902733	0.682306
497.269593	0.674664
497.636395	0.668077
498.003139	0.659712
498.369825	0.655592
498.736453	0.645897
499.103023	0.640512
499.469535	0.631612
499.835989	0.626269
500.202385	0.619206
500.568723	0.614014
500.935003	0.605732
501.301226	0.598627
501.667390	0.590647
502.033497	0.581844
502.399546	0.577160
502.765537	0.570328
503.131470	0.562563
503.497345	0.553081
503.863163	0.552896
504.228923	0.540813
504.594625	0.533657
504.960269	0.530398
505.325856	0.520582
505.691385	0.515993
506.056856	0.508188
506.422270	0.500966
506.787625	0.497765
507.152924	0.488561
507.518164	0.483613
507.883347	0.477637
508.248472	0.472958
508.613540	0.463450
508.978550	0.459132
509.343503	0.453620
509.708398	0.445949
510.073236	0.438191
510.438016	0.432750
510.802738	0.427404
511.167403	0.421718
511.532010	0.417503
511.896561	0.409534
512.261053	0.403535
512.625488	0.399435
512.989866	0.394733
513.354186	0.390218
513.718449	0.386417
514.082655	0.379342
514.446803	0.376060
514.810894	0.369884
515.174927	0.367045
515.538904	0.362854
515.902822	0.355318
516.266684	0.353727
516.630488	0.349982
516.994235	0.345214
517.357925	0.339481
517.721558	0.334613
518.085133	0.330237
518.448651	0.327120
518.812112	0.325096
519.175516	0.320903
519.538863	0.315814
519.902152	0.314194
520.265385	0.307278
520.628560	0.306486
520.991678	0.303415
521.354739	0.299297
521.717743	0.297831
522.080690	0.295693
522.443580	0.289762
522.806413	0.288239
523.169189	0.285282
523.531908	0.281488
523.894569	0.282802
524.257174	0.280247
524.619722	0.275897
524.982213	0.275074
525.344647	0.271256
525.707025	0.270551
526.069345	0.266931
526.431608	0.266372
526.793815	0.262935
527.155964	0.265017
527.518057	0.262239
527.880093	0.261669
528.242072	0.258872
528.603995	0.259162
528.965860	0.259364
529.327669	0.257015
529.689421	0.256758
530.051117	0.256408
530.412755	0.252888
530.774337	0.254051
531.135862	0.253268
531.497331	0.251850
531.858743	0.253489
532.220098	0.249454
532.581396	0.251282
532.942638	0.250649
533.303824	0.250806
533.664953	0.249758
534.026025	0.250974
534.387040	0.248425
534.747999	0.247553
535.108902	0.245881
535.469748	0.250501
535.830537	0.247635
536.191270	0.247657
536.551947	0.246464
536.912567	0.246432
537.273131	0.247876
537.633638	0.247267
537.994089	0.247267
538.354483	0.248044
538.714821	0.244813
539.075103	0.244118
539.435328	0.244731
539.795497	0.248288
540.155609	0.244348
540.515665	0.242595
540.875665	0.247684
541.235609	0.246021
541.595496	0.245979
541.955328	0.242420
542.315102	0.244872
542.674821	0.245720
543.034483	0.245340
543.394090	0.245180
543.753640	0.246821
544.113134	0.241881
544.472571	0.244540
544.831953	0.241466
545.191278	0.245872
545.550548	0.245190
545.909761	0.241669
546.268918	0.242266
546.628019	0.240410
546.987064	0.243262
547.346053	0.244858
547.704986	0.242383
548.063863	0.242985
548.422684	0.242952
548.781449	0.244622
549.140158	0.242199
549.498811	0.245196
549.857408	0.248021
550.215949	0.242723
550.574434	0.245883
550.932864	0.243577
551.291237	0.242339
551.649555	0.243800
552.007817	0.243305
552.366022	0.244005
552.724173	0.244204
553.082267	0.244753
553.440305	0.241377
553.798288	0.245592
554.156215	0.241973
554.514086	0.243011
554.871902	0.246109
555.229661	0.245263
555.587365	0.245821
555.945014	0.248105
556.302606	0.244917
556.660143	0.247274
557.017625	0.243981
557.375050	0.246396
557.732421	0.243402
558.089735	0.245268
558.446994	0.245450
558.804197	0.244480
559.161345	0.244387
559.518437	0.247837
559.875474	0.245541
560.232455	0.244651
560.589381	0.246111
560.946251	0.246072
561.303065	0.243548
561.659825	0.245009
562.016528	0.246711
562.373177	0.249430
562.729770	0.246711
563.086307	0.248774
563.442789	0.246434
563.799216	0.249246
564.155587	0.247984
564.511904	0.249152
564.868164	0.249260
565.224370	0.249121
565.580520	0.250815
565.936615	0.250705
566.292654	0.253773
566.648638	0.250814
567.004567	0.251509
567.360441	0.252326
567.716260	0.254139
568.072023	0.251951
568.427732	0.252610
568.783385	0.255103
569.138982	0.253419
569.494525	0.252579
569.850013	0.255594
570.205445	0.254077
570.560823	0.256642
570.916145	0.258583
571.271412	0.256895
571.626625	0.258180
571.981782	0.258420
572.336884	0.259848
572.691931	0.259303
573.046923	0.260405
573.401860	0.261792
573.756743	0.263416
574.111570	0.262144
574.466342	0.262905
574.821059	0.261691
575.175722	0.264623
575.530330	0.264755
575.884882	0.264807
576.239380	0.266924
576.593823	0.267059
576.948211	0.266590
577.302544	0.270019
577.656823	0.269648
578.011047	0.269900
578.365216	0.270221
578.719330	0.272361
579.073389	0.272111
579.427394	0.273587
579.781344	0.274180
580.135239	0.275514
580.489080	0.275201
580.842866	0.278328
581.196597	0.277845
581.550273	0.276588
581.903895	0.277832
582.257463	0.275927
582.610975	0.279474
582.964434	0.279000
583.317837	0.281168
583.671186	0.281426
584.024481	0.281775
584.377721	0.283861
584.730906	0.284740
585.084037	0.284124
585.437113	0.285754
585.790135	0.285136
586.143103	0.287922
586.496016	0.289175
586.848874	0.286879
587.201679	0.287284
587.554428	0.290568
587.907124	0.289598
588.259765	0.289790
588.612352	0.290335
588.964884	0.294552
589.317362	0.293914
589.669786	0.293790
590.022155	0.292677
590.374470	0.291840
590.726731	0.294034
591.078937	0.298516
591.431090	0.294991
591.783188	0.299253
592.135232	0.299409
592.487222	0.299457
592.839157	0.297634
593.191038	0.299768
593.542866	0.301880
593.894639	0.305419
594.246358	0.303421
594.598022	0.302756
594.949633	0.306612
595.301190	0.307146
595.652692	0.306734
596.004141	0.302874
596.355535	0.310672
596.706876	0.311038
597.058162	0.313254
597.409395	0.311008
597.760573	0.308870
598.111698	0.311630
598.462768	0.312510
598.813785	0.313810
599.164748	0.315007
599.515657	0.315066
599.866511	0.318413
600.217312	0.313658
600.568060	0.319334
600.918753	0.315516
601.269392	0.316278
601.619978	0.319740
601.970510	0.317286
602.320988	0.317639
602.671412	0.315044
603.021783	0.317660
603.372100	0.318990
603.722363	0.318379
604.072572	0.319515
604.422728	0.319118
604.772830	0.321398
605.122878	0.321312
605.472872	0.321417
605.822813	0.319661
606.172701	0.322723
606.522534	0.320086
606.872314	0.319837
607.222041	0.320934
607.571714	0.319228
607.921333	0.320474
608.270899	0.320242
608.620411	0.316945
608.969870	0.321041
609.319276	0.320919
609.668627	0.320784
610.017926	0.319327
610.367171	0.317934
610.716362	0.318588
611.065500	0.318851
611.414585	0.317559
611.763616	0.318288
612.112594	0.318593
612.461518	0.317941
612.810389	0.315456
613.159207	0.317915
613.507971	0.319962
613.856682	0.315354
614.205340	0.317321
614.553945	0.314111
614.902496	0.317799
615.250994	0.315963
615.599439	0.316732
615.947830	0.316242
616.296169	0.317187
616.644454	0.316411
616.992686	0.316502
617.340864	0.314447
617.688990	0.318119
618.037063	0.314680
618.385082	0.316616
618.733048	0.313170
619.080961	0.315746
619.428821	0.315181
619.776628	0.314704
620.124382	0.316372
620.472083	0.316816
620.819731	0.316140
621.167326	0.320260
621.514868	0.319787
621.862357	0.324164
622.209793	0.323862
622.557176	0.325905
622.904506	0.327000
623.251783	0.329464
623.599007	0.331768
623.946179	0.331368
624.293297	0.333448
624.640363	0.336835
624.987376	0.337542
625.334336	0.340047
625.681243	0.342372
626.028097	0.342782
626.374899	0.344216
626.721647	0.344267
627.068343	0.347778
627.414987	0.348439
627.761577	0.350224
628.108115	0.348475
628.454600	0.354382
628.801032	0.351503
629.147412	0.353546
629.493739	0.353712
629.840014	0.356835
630.186236	0.353899
630.532405	0.359863
630.878521	0.357424
631.224585	0.359574
631.570597	0.363366
631.916556	0.361749
632.262462	0.361770
632.608316	0.363835
632.954117	0.364642
633.299866	0.365709
633.645562	0.365871
633.991206	0.370064
634.336797	0.373271
634.682336	0.375897
635.027823	0.377358
635.373257	0.377926
635.718639	0.381011
636.063968	0.380115
636.409245	0.386364
636.754470	0.386146
637.099642	0.389120
637.444762	0.392288
637.789829	0.391433
638.134845	0.394800
638.479808	0.395895
638.824719	0.395773
639.169577	0.399449
639.514383	0.397904
639.859137	0.402602
640.203839	0.402864
640.548489	0.403261
640.893086	0.404266
641.237632	0.405773
641.582125	0.404839
641.926566	0.405861
642.270955	0.406147
642.615292	0.406384
642.959576	0.405589
643.303809	0.406242
643.647990	0.405584
643.992118	0.406351
644.336195	0.409965
644.680219	0.408169
645.024192	0.408662
645.368112	0.402501
645.711981	0.401787
646.055797	0.397042
646.399562	0.399460
646.743274	0.391512
647.086935	0.388912
647.430544	0.388994
647.774101	0.387811
648.117606	0.387716
648.461059	0.387824
648.804460	0.390225
649.147810	0.395803
649.491108	0.396976
649.834354	0.398688
650.177548	0.404098
650.520690	0.409195
650.863781	0.410561
651.206820	0.409726
651.549807	0.415032
651.892742	0.418746
652.235626	0.418347
652.578458	0.418968
652.921238	0.425277
653.263967	0.423200
653.606644	0.426892
653.949269	0.426394
654.291843	0.430407
654.634365	0.427222
654.976836	0.430077
655.319255	0.430658
655.661622	0.432300
656.003938	0.432093
656.346203	0.434844
656.688416	0.433155
657.030577	0.436290
657.372687	0.438565
657.714746	0.439097
658.056753	0.435996
658.398708	0.439787
658.740612	0.440863
659.082465	0.437437
659.424266	0.438087
659.766016	0.437054
660.107715	0.439862
660.449362	0.438982
660.790958	0.439364
661.132503	0.440141
661.473996	0.437627
661.815438	0.438589
662.156829	0.438427
662.498168	0.439361
662.839456	0.441194
663.180693	0.438439
663.521879	0.438886
663.863013	0.439452
664.204097	0.437953
664.545129	0.434415
664.886110	0.435767
665.227040	0.432579
665.567918	0.434884
665.908746	0.432596
666.249522	0.433216
666.590248	0.433575
666.930922	0.432042
667.271545	0.430968
667.612118	0.431476
667.952639	0.432778
668.293109	0.431541
668.633528	0.434807
668.973896	0.433707
669.314213	0.434887
669.654480	0.436111
669.994695	0.436826
670.334859	0.437318
670.674973	0.437464
671.015035	0.437282
671.355047	0.437549
671.695008	0.438402
672.034918	0.440564
672.374777	0.439590
672.714585	0.441111
673.054342	0.441008
673.394049	0.441155
673.733705	0.438964
674.073310	0.439524
674.412864	0.442995
674.752368	0.443263
675.091820	0.443076
675.431223	0.448074
675.770574	0.447677
676.109875	0.451127
676.449125	0.450362
676.788324	0.453534
677.127473	0.458620
677.466571	0.457826
677.805619	0.459758
678.144616	0.460867
678.483562	0.462283
678.822458	0.465207
679.161303	0.466155
679.500098	0.466359
679.838842	0.468739
680.177535	0.467812
680.516179	0.466173
680.854771	0.465530
681.193314	0.459019
681.531805	0.450582
681.870247	0.439005
682.208638	0.431005
682.546978	0.430065
682.885268	0.432134
683.223508	0.438974
683.561697	0.441816
683.899836	0.444029
684.237925	0.448060
684.575963	0.450568
684.913951	0.453482
685.251889	0.449621
685.589776	0.451393
685.927614	0.453804
686.265401	0.447786
686.603137	0.449672
686.940824	0.443434
687.278460	0.441837
687.616046	0.441169
687.953582	0.436579
688.291068	0.437723
688.628504	0.432962
688.965889	0.435402
689.303224	0.439713
689.640510	0.443460
689.977745	0.449330
690.314930	0.457151
690.652065	0.461554
690.989150	0.469703
691.326185	0.475333
691.663170	0.479760
692.000105	0.487081
692.336990	0.494087
692.673825	0.497000
693.010610	0.503763
693.347345	0.509227
693.684030	0.510192
694.020665	0.515026
694.357251	0.523800
694.693786	0.523198
695.030272	0.528176
695.366707	0.530858
695.703093	0.534507
696.039429	0.531995
696.375716	0.533870
696.711952	0.537245
697.048139	0.538743
697.384276	0.540784
697.720363	0.538719
698.056400	0.538687
698.392388	0.543702
698.728326	0.547281
699.064214	0.549326
699.400053	0.550568
699.735842	0.553194
700.071581	0.556979
700.407270	0.559371
700.742910	0.561772
701.078501	0.568533
701.414042	0.569216
701.749533	0.572061
702.084974	0.580896
702.420366	0.572864
702.755709	0.580494
703.091002	0.588108
703.426246	0.581300
703.761440	0.587447
704.096584	0.592825
704.431679	0.589011
704.766725	0.591276
705.101721	0.592757
705.436668	0.589288
705.771565	0.596499
706.106413	0.592407
706.441212	0.588265
706.775961	0.586177
707.110661	0.589862
707.445311	0.586103
707.779913	0.582867
708.114465	0.582045
708.448967	0.579057
708.783421	0.570283
709.117825	0.565276
709.452180	0.565494
709.786485	0.559295
710.120742	0.548594
710.454949	0.551540
710.789107	0.543704
711.123216	0.534807
711.457275	0.536385
711.791286	0.526783
712.125247	0.525365
712.459159	0.537320
712.793023	0.529359
713.126837	0.533018
713.460602	0.533730
713.794318	0.542945
714.127985	0.541697
714.461602	0.551924
714.795171	0.555379
715.128691	0.562523
715.462162	0.570129
715.795584	0.575791
716.128957	0.578967
716.462281	0.585666
716.795556	0.589195
717.128782	0.593497
717.461960	0.603254
717.795088	0.602026
718.128167	0.607880
718.461198	0.616461
718.794180	0.617390
719.127113	0.620406
719.459997	0.623915
719.792833	0.629634
720.125619	0.631510
720.458357	0.637235
720.791046	0.636089
721.123686	0.640259
721.456278	0.646714
721.788821	0.644594
722.121315	0.647903
722.453761	0.653159
722.786158	0.650570
723.118506	0.646927
723.450805	0.654786
723.783056	0.651362
724.115259	0.647418
724.447412	0.647748
724.779518	0.649130
725.111574	0.647667
725.443582	0.643415
725.775542	0.645355
726.107453	0.637614
726.439315	0.637845
726.771129	0.636113
727.102895	0.628729
727.434612	0.622165
727.766281	0.620299
728.097901	0.619681
728.429473	0.619750
728.760996	0.617864
729.092471	0.617600
729.423897	0.621850
729.755276	0.621060
730.086606	0.620938
730.417887	0.615571
730.749120	0.606567
731.080305	0.596816
731.411442	0.593276
731.742530	0.597639
732.073570	0.597875
732.404562	0.589349
732.735506	0.591525
733.066401	0.595693
733.397249	0.604920
733.728048	0.616028
734.058798	0.628368
734.389501	0.639069
734.720156	0.648865
735.050762	0.656537
735.381320	0.657403
735.711831	0.667354
736.042293	0.672171
736.372707	0.667424
736.703073	0.672295
737.033391	0.675320
737.363661	0.671222
737.693883	0.665998
738.024056	0.666507
738.354182	0.666863
738.684260	0.655982
739.014290	0.651391
739.344272	0.652812
739.674207	0.645571
740.004093	0.645098
740.333931	0.646009
740.663722	0.645550
740.993464	0.645923
741.323159	0.649935
741.652806	0.655104
741.982405	0.659441
742.311956	0.664381
742.641460	0.666633
742.970915	0.669861
743.300323	0.677642
743.629683	0.683956
743.958996	0.686131
744.288260	0.690430
744.617477	0.696905
744.946647	0.697635
745.275768	0.703159
745.604842	0.703225
745.933869	0.712895
746.262847	0.713054
746.591778	0.706781
746.920662	0.712563
747.249498	0.719231
747.578286	0.710918
747.907027	0.707644
748.235720	0.708343
748.564365	0.702444
748.892963	0.702490
749.221514	0.705777
749.550017	0.710566
749.878473	0.710321
750.206881	0.716693
750.535242	0.718330
750.863555	0.717619
751.191821	0.719142
751.520039	0.721715
751.848210	0.727140
752.176334	0.719361
752.504411	0.718608
752.832440	0.726374
753.160421	0.730282
753.488356	0.728498
753.816243	0.725785
754.144082	0.734666
754.471875	0.738048
754.799620	0.733058
755.127318	0.735195
755.454969	0.734881
755.782572	0.733561
756.110129	0.739218
756.437638	0.740795
756.765100	0.737876
757.092515	0.736040
757.419882	0.735469
757.747203	0.740596
758.074477	0.739161
758.401703	0.737088
758.728882	0.732420
759.056014	0.731265
759.383099	0.729124
759.710138	0.731188
760.037129	0.727769
760.364073	0.721713
760.690970	0.723947
761.017820	0.729952
761.344623	0.724884
761.671379	0.716271
761.998088	0.705108
762.324751	0.682117
762.651366	0.640935
762.977935	0.575131
763.304456	0.522596
763.630931	0.513129
763.957359	0.552095
764.283740	0.596724
764.610074	0.623315
764.936362	0.654595
765.262602	0.680794
765.588796	0.701967
765.914943	0.719790
766.241044	0.737385
766.567097	0.743167
766.893104	0.753195
767.219064	0.760105
767.544978	0.766717
767.870845	0.779984
768.196665	0.782900
768.522438	0.781675
768.848165	0.782804
769.173846	0.791150
769.499479	0.795005
769.825066	0.799332
770.150607	0.804719
770.476101	0.799203
770.801548	0.800501
771.126949	0.813719
771.452303	0.816281
771.777611	0.815202
772.102872	0.814247
772.428087	0.820207
772.753256	0.823056
773.078378	0.824108
773.403453	0.833601
773.728482	0.837906
774.053465	0.832256
774.378401	0.834495
774.703291	0.842791
775.028135	0.842827
775.352932	0.845046
775.677683	0.848235
776.002388	0.847935
776.327046	0.846669
776.651658	0.849670
776.976224	0.853736
777.300743	0.853999
777.625216	0.856490
777.949643	0.857903
778.274024	0.858858
778.598359	0.860480
778.922647	0.858003
779.246889	0.858708
779.571086	0.863157
779.895236	0.866331
780.219339	0.862446
780.543397	0.859717
780.867409	0.857881
781.191374	0.860562
781.515294	0.860662
781.839167	0.861057
782.162995	0.864252
782.486776	0.861131
782.810511	0.861013
783.134201	0.866409
783.457844	0.862257
783.781441	0.866074
784.104993	0.871626
784.428498	0.872203
784.751958	0.866428
785.075372	0.870304
785.398739	0.873160
785.722061	0.869890
786.045337	0.865268
786.368568	0.871027
786.691752	0.873420
787.014891	0.859107
787.337983	0.849787
787.661030	0.843064
787.984031	0.826113
788.306987	0.812073
788.629897	0.814278
788.952760	0.819071
789.275579	0.822345
789.598351	0.837318
789.921078	0.850967
790.243759	0.852845
790.566395	0.857501
790.888984	0.865807
791.211529	0.869666
791.534027	0.872467
791.856480	0.875312
792.178888	0.880207
792.501249	0.883160
792.823566	0.884124
793.145836	0.884535
793.468062	0.885696
793.790241	0.886215
794.112375	0.885303
794.434464	0.879751
794.756507	0.879401
795.078505	0.879068
795.400457	0.874125
795.722364	0.861909
796.044226	0.854465
796.366042	0.854143
796.687812	0.857447
797.009538	0.853322
797.331218	0.856447
797.652852	0.860976
797.974442	0.865746
798.295986	0.866272
798.617484	0.868767
798.938938	0.872930
799.260346	0.876316
799.581709	0.879452
799.903026	0.882014
800.224299	0.882073
800.545526	0.886130
800.866708	0.890434
801.187845	0.894524
801.508936	0.892799
801.829983	0.890802
802.150984	0.894549
802.471940	0.899693
802.792851	0.899028
803.113717	0.899434
803.434538	0.897399
803.755314	0.899757
804.076045	0.900434
804.396731	0.901772
804.717372	0.901243
805.037967	0.902613
805.358518	0.901448
805.679024	0.897569
805.999485	0.897874
806.319901	0.898446
806.640272	0.898974
806.960598	0.897179
807.280879	0.893698
807.601115	0.893018
807.921306	0.897057
808.241453	0.897204
808.561554	0.895784
808.881611	0.895669
809.201623	0.897246
809.521590	0.897731
809.841513	0.898357
810.161390	0.897761
810.481223	0.898898
810.801011	0.903348
811.120755	0.904423
811.440453	0.902916
811.760107	0.901843
812.079716	0.901243
812.399281	0.905677
812.718801	0.907086
813.038276	0.908896
813.357707	0.907578
813.677093	0.905300
813.996434	0.908000
814.315731	0.910401
814.634983	0.911239
814.954191	0.909323
815.273354	0.906834
815.592473	0.902216
815.911547	0.903809
816.230577	0.899859
816.549562	0.897744
816.868502	0.898614
817.187399	0.895268
817.506250	0.889139
817.825058	0.890440
818.143821	0.887729
818.462539	0.882912
818.781213	0.875819
819.099843	0.863451
819.418429	0.848641
819.736970	0.831327
820.055466	0.813002
820.373919	0.787704
820.692327	0.754740
821.010691	0.720507
821.329011	0.645278
821.647286	0.531222
821.965517	0.418857
822.283704	0.376489
822.601847	0.378414
822.919945	0.413477
823.237999	0.446420
823.556010	0.492439
823.873976	0.547572
824.191897	0.597480
824.509775	0.638991
824.827609	0.684447
825.145398	0.706679
825.463144	0.708452
825.780845	0.691961
826.098502	0.673816
826.416116	0.628854
826.733685	0.585467
827.051210	0.577032
827.368692	0.591903
827.686129	0.628430
828.003522	0.680673
828.320872	0.727755
828.638177	0.770184
828.955439	0.803398
829.272656	0.825063
829.589830	0.841102
829.906960	0.856844
830.224046	0.868184
830.541088	0.879251
830.858086	0.883458
831.175041	0.889631
831.491952	0.888611
831.808819	0.884600
832.125642	0.878987
832.442421	0.863753
832.759157	0.842951
833.075849	0.797912
833.392497	0.734435
833.709101	0.694101
834.025662	0.704002
834.342179	0.734737
834.658653	0.773328
834.975083	0.809839
835.291469	0.835233
835.607811	0.856852
835.924110	0.872714
836.240366	0.888931
836.556578	0.903668
836.872746	0.909937
837.188871	0.917873
837.504952	0.921585
837.820990	0.925644
838.136984	0.927794
838.452935	0.931498
838.768842	0.933101
839.084706	0.926000
839.400526	0.901781
839.716303	0.861091
840.032037	0.840832
840.347727	0.842860
840.663373	0.861615
840.978977	0.880948
841.294537	0.903886
841.610054	0.920137
841.925527	0.927533
842.240957	0.934454
842.556344	0.941361
842.871687	0.947166
843.186987	0.950460
843.502244	0.950589
843.817458	0.953981
844.132629	0.956927
844.447756	0.960849
844.762840	0.962322
845.077881	0.960648
845.392879	0.961027
845.707833	0.964454
846.022745	0.964972
846.337613	0.965427
846.652438	0.967474
846.967221	0.965402
847.281960	0.965964
847.596656	0.968242
847.911309	0.966775
848.225919	0.968030
848.540485	0.968147
848.855009	0.969387
849.169490	0.969830
849.483928	0.970809
849.798323	0.968893
850.112675	0.971367
850.426984	0.969510
850.741251	0.968996
851.055474	0.971698
851.369654	0.969134
851.683792	0.970091
851.997887	0.969588
852.311938	0.971208
852.625947	0.971101
852.939914	0.969559
853.253837	0.969998
853.567718	0.970738
853.881555	0.971137
854.195350	0.968363
854.509103	0.970472
854.822812	0.971530
855.136479	0.970199
855.450103	0.970442
855.763685	0.968255
856.077224	0.969335
856.390720	0.970606
856.704173	0.971635
857.017584	0.969876
857.330953	0.967355
857.644278	0.968728
857.957561	0.968656
858.270802	0.968562
858.584000	0.968349
858.897155	0.968647
859.210268	0.968330
859.523339	0.968529
859.836367	0.970694
860.149352	0.970689
860.462295	0.969224
860.775195	0.971081
861.088054	0.970418
861.400869	0.970465
861.713642	0.971265
862.026373	0.970718
862.339062	0.970808
862.651708	0.969274
862.964312	0.968932
863.276873	0.970134
863.589392	0.969564
863.901869	0.967440
864.214303	0.966193
864.526696	0.964907
864.839045	0.964698
865.151353	0.962823
865.463619	0.963507
865.775842	0.963344
866.088023	0.963313
866.400162	0.962331
866.712258	0.964926
867.024313	0.964257
867.336325	0.964871
867.648296	0.964421
867.960224	0.963566
868.272110	0.963393
868.583954	0.964995
868.895755	0.963878
869.207515	0.963146
869.519233	0.961272
869.830909	0.962133
870.142542	0.963957
870.454134	0.963196
870.765684	0.961649
871.077191	0.957948
871.388657	0.960310
871.700081	0.959196
872.011463	0.959974
872.322803	0.959238
872.634101	0.958148
872.945357	0.955469
873.256571	0.954055
873.567744	0.954393
873.878874	0.955016
874.189963	0.952624
874.501010	0.953111
874.812015	0.950980
875.122979	0.953664
875.433900	0.954728
875.744780	0.955014
876.055618	0.952107
876.366415	0.950310
876.677169	0.951065
876.987882	0.952150
877.298554	0.952932
877.609183	0.948761
877.919771	0.946885
878.230317	0.944652
878.540822	0.942901
878.851285	0.937071
879.161707	0.929646
879.472087	0.918088
879.782425	0.902040
880.092722	0.868784
880.402977	0.818287
880.713191	0.759041
881.023363	0.702233
881.333494	0.669153
881.643583	0.641086
881.953631	0.640993
882.263637	0.669735
882.573602	0.707009
882.883526	0.733231
883.193408	0.755771
883.503248	0.778336
883.813048	0.803212
884.122806	0.832027
884.432522	0.855604
884.742197	0.874928
885.051831	0.884257
885.361424	0.895106
885.670975	0.906443
885.980485	0.917371
886.289954	0.921464
886.599382	0.927371
886.908768	0.930524
887.218113	0.936451
887.527417	0.940358
887.836680	0.944685
888.145901	0.945349
888.455082	0.947720
888.764221	0.952228
889.073319	0.954333
889.382376	0.955240
889.691392	0.955527
890.000366	0.953546
890.309300	0.955138
890.618193	0.954503
890.927044	0.953139
891.235855	0.953951
891.544625	0.952420
891.853353	0.953830
892.162041	0.951213
892.470687	0.944984
892.779293	0.939496
893.087858	0.936133
893.396381	0.929367
893.704864	0.916530
894.013306	0.893225
894.321707	0.866907
894.630068	0.853655
894.938387	0.848772
895.246665	0.850462
895.554903	0.861044
895.863100	0.874807
896.171256	0.891052
896.479371	0.909823
896.787446	0.922437
897.095480	0.928722
897.403473	0.930254
897.711425	0.934891
898.019336	0.942049
898.327207	0.945279
898.635038	0.946992
898.942827	0.946124
899.250576	0.950370
899.558284	0.953980
899.865952	0.956167
900.173579	0.957034
900.481165	0.957913
900.788711	0.962069
901.096216	0.962589
901.403681	0.963206
901.711105	0.963785
902.018489	0.965386
902.325832	0.963781
902.633135	0.963337
902.940397	0.957219
903.247619	0.945986
903.554800	0.921842
903.861941	0.884585
904.169041	0.849456
904.476101	0.833625
904.783121	0.833320
905.090100	0.849271
905.397039	0.869568
905.703938	0.890784
906.010796	0.909785
906.317614	0.925642
906.624391	0.936708
906.931129	0.946569
907.237826	0.954975
907.544483	0.961477
907.851099	0.963373
908.157675	0.969819
908.464211	0.970962
908.770707	0.972867
909.077163	0.973778
909.383578	0.975687
909.689954	0.976023
909.996289	0.977250
910.302584	0.979280
910.608839	0.980198
910.915054	0.979164
911.221229	0.978846
911.527363	0.977905
911.833458	0.978731
912.139513	0.977624
912.445527	0.976669
912.751502	0.974878
913.057436	0.973049
913.363331	0.972318
913.669186	0.967045
913.975000	0.963259
914.280775	0.956982
914.586510	0.951364
914.892205	0.939167
915.197859	0.917348
915.503475	0.891952
915.809050	0.873451
916.114585	0.868476
916.420081	0.866237
916.725536	0.862406
917.030952	0.869877
917.336328	0.882373
917.641665	0.897473
917.946961	0.912316
918.252218	0.922599
918.557435	0.931238
918.862612	0.940002
919.167750	0.945179
919.472848	0.950093
919.777906	0.954792
920.082925	0.959767
920.387904	0.963503
920.692843	0.964910
920.997743	0.965348
921.302603	0.968630
921.607423	0.971728
921.912204	0.973622
922.216946	0.973651
922.521647	0.974782
922.826310	0.976662
923.130932	0.976633
923.435516	0.978342
923.740059	0.981242
924.044564	0.979301
924.349028	0.980934
924.653454	0.983432
924.957840	0.985675
925.262186	0.985408
925.566493	0.984655
925.870761	0.985757
926.174989	0.987115
926.479178	0.988397
926.783328	0.989361
927.087438	0.989075
927.391509	0.987553
927.695541	0.990089
927.999533	0.988629
928.303486	0.990704
928.607400	0.991475
928.911275	0.990283
929.215110	0.990319
929.518906	0.990689
929.822663	0.990459
930.126381	0.991257
930.430060	0.991204
930.733699	0.990028
931.037299	0.989383
931.340861	0.992462
931.644383	0.990118
931.947866	0.989155
932.251309	0.990621
932.554714	0.990822
932.858080	0.991077
933.161407	0.990237
933.464694	0.991132
933.767943	0.990927
934.071153	0.991207
934.374323	0.992191
934.677455	0.991264
934.980548	0.992385
935.283602	0.991709
935.586617	0.990662
935.889593	0.990596
936.192530	0.991620
936.495428	0.990660
936.798287	0.991681
937.101108	0.991478
937.403890	0.989109
937.706632	0.989550
938.009336	0.987162
938.312002	0.987599
938.614628	0.985876
938.917216	0.983930
939.219765	0.982985
939.522275	0.984224
939.824747	0.983494
940.127179	0.984037
940.429573	0.985047
940.731929	0.984821
941.034246	0.985469
941.336524	0.986294
941.638763	0.987550
941.940964	0.986512
942.243126	0.987413
942.545250	0.988648
942.847335	0.988371
943.149381	0.989197
943.451389	0.987485
943.753359	0.989485
944.055290	0.990179
944.357182	0.990287
944.659036	0.989986
944.960851	0.989438
945.262628	0.991530
945.564367	0.991514
945.866067	0.990174
946.167729	0.990486
946.469352	0.990055
946.770937	0.989810
947.072484	0.991013
947.373992	0.991375
947.675462	0.991473
947.976893	0.991452
948.278286	0.990557
948.579641	0.991842
948.880958	0.991551
949.182236	0.992263
949.483476	0.991990
949.784678	0.990817
950.085841	0.991746
950.386967	0.991498
950.688054	0.991231
950.989103	0.991912
951.290114	0.989380
951.591087	0.989788
951.892021	0.990777
952.192917	0.989286
952.493776	0.988994
952.794596	0.989468
953.095378	0.988231
953.396122	0.989321
953.696828	0.987091
953.997496	0.991033
954.298126	0.990812
954.598718	0.990975
954.899272	0.992132
955.199788	0.991736
955.500266	0.993736
955.800706	0.991996
956.101108	0.994346
956.401472	0.993458
956.701798	0.993917
957.002087	0.992298
957.302337	0.994745
957.602550	0.994940
957.902724	0.994490
958.202861	0.994685
958.502960	0.994300
958.803022	0.995119
959.103045	0.996689
959.403031	0.996096
959.702979	0.994863
960.002889	0.995951
960.302762	0.994472
960.602596	0.996205
960.902393	0.995149
961.202153	0.997049
961.501875	0.996691
961.801559	0.996293
962.101205	0.996001
962.400814	0.996982
962.700385	0.996396
962.999918	0.996658
963.299414	0.996304
963.598873	0.996546
963.898293	0.996325
964.197677	0.995702
964.497022	0.996211
964.796331	0.997947
965.095601	0.997079
965.394835	0.997419
965.694030	0.996756
965.993189	0.997304
966.292309	0.996978
966.591393	0.997531
966.890439	0.998262
967.189447	0.996882
967.488419	0.997705
967.787353	0.995855
968.086249	0.997048
968.385108	0.996503
968.683930	0.997204
968.982714	0.996550
969.281462	0.999210
969.580172	0.996680
969.878844	0.996828
970.177480	0.997506
970.476078	0.996821
970.774639	0.996545
971.073162	0.997235
971.371649	0.997089
971.670098	0.995897
971.968510	0.998550
972.266885	0.995625
972.565223	0.997506
972.863524	0.996085
973.161788	0.996232
973.460014	0.997086
973.758204	0.995701
974.056356	0.996256
974.354471	0.994333
974.652550	0.996336
974.950591	0.995893
975.248595	0.995603
975.546563	0.997309
975.844493	0.997335
976.142386	0.996606
976.440243	0.997658
976.738062	0.996240
977.035845	0.997901
977.333590	0.997553
977.631299	0.997997
977.928971	0.996275
978.226606	0.996489
978.524204	0.995621
978.821765	0.996519
979.119290	0.996256
979.416777	0.996484
979.714228	0.996996
980.011642	0.996138
980.309020	0.998063
980.606360	0.996766
980.903664	0.998100
981.200931	0.995548
981.498162	0.994462
981.795356	0.994820
982.092513	0.993455
982.389633	0.995584
982.686717	0.991924
982.983764	0.992592
983.280775	0.990477
983.577749	0.991768
983.874686	0.991821
984.171587	0.992101
984.468451	0.994030
984.765279	0.994674
985.062070	0.994672
985.358824	0.994596
985.655543	0.995090
985.952224	0.997036
986.248869	0.996338
986.545478	0.995955
986.842050	0.998121
987.138586	0.996258
987.435086	0.997196
987.731549	0.998280
988.027975	0.997435
988.324366	0.997637
988.620719	0.996959
988.917037	0.996447
989.213318	0.998283
989.509563	0.998060
989.805772	0.999184
990.101944	0.998257
990.398080	0.997510
990.694180	0.997938
990.990244	0.997880
991.286271	0.997719
991.582262	0.998198
991.878217	0.998960
992.174136	0.998747
992.470019	0.998216
992.765865	0.997040
993.061676	0.997608
993.357450	0.998171
993.653188	0.997406
993.948890	0.997466
994.244556	0.998666
994.540186	0.996822
994.835780	0.995823
995.131337	0.996899
995.426859	0.996262
995.722345	0.996861
996.017795	0.996776
996.313208	0.997040
996.608586	0.996132
996.903928	0.996614
997.199234	0.996323
997.494504	0.996764
997.789738	0.996150
998.084936	0.996687
998.380099	0.998156
998.675225	0.997483
998.970316	0.997019
999.265371	0.997421
999.560390	0.997551
999.855373	0.998866
1000.150320	0.998770
1000.445232	0.998788
1000.740108	0.997724
1001.034948	0.998521
1001.329752	0.998507
1001.624521	0.998004
1001.919254	0.998298
1002.213951	0.997426
1002.508613	0.999633
1002.803239	0.998757
1003.097829	0.998800
1003.392384	0.998253
1003.686903	0.997473
1003.981386	0.998408
1004.275834	0.998816
1004.570246	0.997750
1004.864623	0.999092
1005.158964	1.000014
1005.453270	0.998076
1005.747540	0.997324
1006.041775	0.998981
1006.335974	0.998793
1006.630138	0.998274
1006.924266	0.999814
1007.218359	1.000307
1007.512416	0.999280
1007.806438	0.999022
1008.100425	0.998453
1008.394376	0.998729
1008.688292	0.997561
1008.982172	1.001157
1009.276017	0.998778
1009.569827	0.998489
1009.863602	0.998751
1010.157341	0.999301
1010.451045	0.998861
1010.744714	0.999338
1011.038347	1.000572
1011.331945	0.998683
1011.625508	0.996667
1011.919036	0.999217
1012.212528	0.999696
1012.505986	0.997469
1012.799408	0.998191
1013.092795	0.999792
1013.386147	0.997677
1013.679464	0.999083
1013.972745	0.997756
1014.265992	0.997746
1014.559204	0.998618
1014.852380	0.999175
1015.145521	0.999206
1015.438628	0.999308
1015.731699	0.998255
1016.024736	0.998953
1016.317737	0.999419
1016.610703	0.998530
1016.903635	0.999918
1017.196531	0.997429
1017.489393	1.000143
1017.782219	0.998196
1018.075011	0.999444
1018.367768	0.998991
1018.660490	0.999288
1018.953177	0.999288
1019.245829	0.999288
