Dividing Wavelength (nm)	Counts (n)	Blue Motor Position (mm): 0.000000	Red Motor Position (mm): 26.400000	
326.493990	1.000402
326.888308	1.000402
327.282561	1.000402
327.676750	1.001013
328.070874	1.000855
328.464933	0.999755
328.858929	0.999520
329.252859	0.999659
329.646726	1.000204
330.040528	0.999850
330.434265	0.998724
330.827938	1.000188
331.221547	1.000982
331.615091	1.001041
332.008571	0.999761
332.401986	0.999652
332.795338	1.001076
333.188625	0.999594
333.581847	1.000349
333.975006	1.000300
334.368100	0.998652
334.761129	0.999974
335.154095	0.999310
335.546996	0.999281
335.939833	0.993359
336.332606	0.994100
336.725315	0.995346
337.117960	0.995939
337.510540	0.995255
337.903056	0.995038
338.295508	0.994780
338.687896	0.994373
339.080220	0.995320
339.472480	0.994261
339.864676	0.995014
340.256807	0.995001
340.648875	0.996510
341.040879	0.995648
341.432818	0.994260
341.824694	0.994180
342.216506	0.995932
342.608253	0.994747
342.999937	0.994794
343.391557	0.995951
343.783113	0.995023
344.174605	0.995638
344.566033	0.996388
344.957397	0.993920
345.348697	0.993695
345.739934	0.995380
346.131106	0.994734
346.522215	0.994493
346.913260	0.995418
347.304241	0.995169
347.695159	0.995107
348.086012	0.994157
348.476802	0.993620
348.867528	0.995129
349.258191	0.994330
349.648789	0.995866
350.039324	0.995923
350.429796	0.995355
350.820203	0.996131
351.210548	0.994352
351.600828	0.994266
351.991045	0.995053
352.381198	0.994602
352.771288	0.994329
353.161314	0.994409
353.551276	0.995379
353.941175	0.995593
354.331010	0.994936
354.720782	0.995383
355.110490	0.995046
355.500135	0.995583
355.889717	0.994595
356.279235	0.994498
356.668689	0.994661
357.058080	0.993883
357.447408	0.995678
357.836672	0.994874
358.225873	0.996040
358.615010	0.995422
359.004084	0.996020
359.393095	0.996032
359.782043	0.995684
360.170927	0.996001
360.559748	0.995573
360.948505	0.994433
361.337199	0.993445
361.725830	0.995403
362.114398	0.994932
362.502903	0.995375
362.891344	0.996433
363.279722	0.994655
363.668037	0.995502
364.056289	0.995514
364.444478	0.995305
364.832603	0.995245
365.220665	0.994947
365.608665	0.995019
365.996601	0.995176
366.384474	0.994984
366.772284	0.994742
367.160031	0.993931
367.547715	0.993401
367.935336	0.995444
368.322893	0.994807
368.710388	0.994356
369.097820	0.994553
369.485189	0.994862
369.872495	0.993886
370.259738	0.992982
370.646918	0.994295
371.034035	0.995470
371.421090	0.995231
371.808081	0.994773
372.195010	0.994879
372.581875	0.995390
372.968678	0.995106
373.355418	0.995365
373.742096	0.995747
374.128710	0.996029
374.515262	0.994941
374.901751	0.994899
375.288177	0.994991
375.674540	0.995627
376.060841	0.995029
376.447079	0.995820
376.833254	0.995389
377.219367	0.994619
377.605417	0.995326
377.991404	0.995916
378.377329	0.996065
378.763191	0.995836
379.148991	0.996775
379.534727	0.996348
379.920402	0.995977
380.306013	0.995888
380.691563	0.995989
381.077049	0.996427
381.462474	0.995560
381.847835	0.996845
382.233134	0.995927
382.618371	0.996450
383.003545	0.996618
383.388657	0.996373
383.773706	0.997298
384.158693	0.996806
384.543618	0.996167
384.928480	0.997013
385.313280	0.996332
385.698017	0.997015
386.082692	0.998007
386.467305	0.996663
386.851856	0.996433
387.236344	0.996615
387.620770	0.995999
388.005133	0.996972
388.389435	0.997874
388.773674	0.997019
389.157851	0.996916
389.541965	0.997737
389.926018	0.996810
390.310008	0.997175
390.693936	0.996886
391.077802	0.996560
391.461606	0.996297
391.845348	0.997758
392.229027	0.997582
392.612645	0.997238
392.996200	0.998439
393.379694	0.997379
393.763125	0.997803
394.146494	0.997566
394.529801	0.996104
394.913047	0.997943
395.296230	0.996871
395.679351	0.996997
396.062410	0.996960
396.445408	0.997529
396.828343	0.997744
397.211217	0.996758
397.594028	0.997256
397.976778	0.995534
398.359466	0.996655
398.742092	0.996866
399.124656	0.996750
399.507158	0.997634
399.889598	0.997281
400.271977	0.996799
400.654294	0.997056
401.036549	0.998462
401.418742	0.997739
401.800874	0.996846
402.182944	0.997623
402.564952	0.996874
402.946898	0.998182
403.328783	0.997698
403.710606	0.997172
404.092367	0.998045
404.474067	0.998046
404.855705	0.996689
405.237282	0.998213
405.618797	0.997404
406.000250	0.996099
406.381642	0.998031
406.762972	0.997407
407.144240	0.998606
407.525447	0.998013
407.906593	0.997547
408.287677	0.998057
408.668700	0.998239
409.049661	0.996296
409.430560	0.997505
409.811399	0.997657
410.192176	0.996853
410.572891	0.997614
410.953545	0.996336
411.334138	0.996357
411.714669	0.997294
412.095139	0.997113
412.475547	0.997812
412.855894	0.997609
413.236180	0.997578
413.616405	0.996756
413.996568	0.997769
414.376670	0.996207
414.756711	0.997099
415.136691	0.997239
415.516609	0.996907
415.896466	0.997332
416.276262	0.996042
416.655997	0.998064
417.035670	0.997280
417.415283	0.997651
417.794834	0.997109
418.174324	0.996726
418.553753	0.997465
418.933121	0.997220
419.312428	0.996219
419.691674	0.997360
420.070859	0.998404
420.449983	0.998219
420.829045	0.997347
421.208047	0.997833
421.586988	0.998873
421.965867	0.997914
422.344686	0.998002
422.723444	0.997827
423.102141	0.998056
423.480777	0.998042
423.859352	0.997121
424.237866	0.997277
424.616319	0.997116
424.994712	0.998016
425.373044	0.998011
425.751314	0.997611
426.129524	0.997275
426.507673	0.997411
426.885762	0.998660
427.263789	0.997880
427.641756	0.998014
428.019662	0.998574
428.397508	0.997014
428.775292	0.996310
429.153016	0.996967
429.530679	0.997488
429.908282	0.997923
430.285824	0.997324
430.663305	0.996693
431.040726	0.997434
431.418086	0.997797
431.795385	0.997284
432.172624	0.996969
432.549802	0.997119
432.926920	0.997980
433.303977	0.996959
433.680974	0.997809
434.057910	0.996620
434.434786	0.997317
434.811601	0.996051
435.188355	0.996432
435.565050	0.995703
435.941683	0.996245
436.318257	0.997603
436.694770	0.995511
437.071222	0.997543
437.447614	0.997012
437.823946	0.995631
438.200218	0.996030
438.576429	0.995923
438.952580	0.995923
439.328670	0.995202
439.704700	0.995009
440.080670	0.994788
440.456580	0.994381
440.832429	0.993042
441.208218	0.993432
441.583947	0.992973
441.959616	0.992326
442.335224	0.991421
442.710773	0.991469
443.086261	0.989054
443.461689	0.988202
443.837057	0.987847
444.212365	0.986588
444.587612	0.984976
444.962800	0.983672
445.337927	0.982789
445.712995	0.982199
446.088002	0.980107
446.462949	0.979246
446.837837	0.976802
447.212664	0.975903
447.587431	0.973232
447.962139	0.970056
448.336786	0.965436
448.711374	0.964041
449.085901	0.964799
449.460369	0.963078
449.834776	0.958833
450.209124	0.955682
450.583412	0.950718
450.957640	0.948272
451.331808	0.945650
451.705917	0.944496
452.079965	0.941982
452.453954	0.937480
452.827883	0.934194
453.201752	0.930419
453.575562	0.928658
453.949311	0.921982
454.323001	0.918731
454.696632	0.914267
455.070202	0.908283
455.443713	0.902028
455.817164	0.896772
456.190556	0.890607
456.563888	0.884556
456.937160	0.880177
457.310373	0.877513
457.683526	0.871516
458.056619	0.867845
458.429653	0.861202
458.802628	0.856434
459.175542	0.849447
459.548398	0.838169
459.921194	0.830271
460.293930	0.822892
460.666607	0.806677
461.039224	0.795020
461.411782	0.788662
461.784280	0.781543
462.156719	0.776664
462.529099	0.770301
462.901419	0.768277
463.273680	0.762660
463.645882	0.755762
464.018024	0.749646
464.390106	0.739334
464.762130	0.725373
465.134094	0.709158
465.505999	0.687628
465.877845	0.666202
466.249631	0.653939
466.621358	0.648638
466.993026	0.645181
467.364634	0.639810
467.736184	0.634656
468.107674	0.630463
468.479105	0.619444
468.850477	0.616415
469.221790	0.611128
469.593043	0.607625
469.964238	0.600605
470.335373	0.591879
470.706449	0.582555
471.077467	0.575823
471.448425	0.544403
471.819324	0.521948
472.190164	0.514473
472.560945	0.524590
472.931667	0.529743
473.302330	0.524817
473.672934	0.525417
474.043479	0.509569
474.413965	0.503520
474.784393	0.498022
475.154761	0.488115
475.525070	0.478451
475.895321	0.476738
476.265513	0.465508
476.635645	0.455861
477.005719	0.448789
477.375734	0.439518
477.745691	0.428300
478.115588	0.419706
478.485427	0.408191
478.855207	0.392851
479.224928	0.373704
479.594591	0.359519
479.964194	0.355393
480.333739	0.349975
480.703226	0.344269
481.072653	0.338208
481.442022	0.329968
481.811333	0.322707
482.180584	0.320271
482.549777	0.319109
482.918912	0.318056
483.287988	0.313308
483.657005	0.308577
484.025964	0.309863
484.394864	0.303218
484.763706	0.299799
485.132489	0.300678
485.501213	0.297753
485.869879	0.293204
486.238487	0.292477
486.607036	0.287550
486.975527	0.288565
487.343959	0.282060
487.712333	0.278450
488.080648	0.277534
488.448905	0.273963
488.817104	0.272844
489.185244	0.265282
489.553326	0.260159
489.921350	0.249039
490.289315	0.230479
490.657222	0.224073
491.025070	0.223350
491.392861	0.223634
491.760593	0.227406
492.128267	0.231155
492.495883	0.235062
492.863440	0.239980
493.230939	0.244651
493.598380	0.245039
493.965763	0.246314
494.333088	0.247665
494.700354	0.248215
495.067563	0.246206
495.434713	0.249133
495.801805	0.246079
496.168839	0.246934
496.535815	0.247499
496.902733	0.247356
497.269593	0.248386
497.636395	0.245396
498.003139	0.245613
498.369825	0.248039
498.736453	0.243989
499.103023	0.245246
499.469535	0.244181
499.835989	0.244278
500.202385	0.244652
500.568723	0.247917
500.935003	0.243059
501.301226	0.246787
501.667390	0.241071
502.033497	0.238919
502.399546	0.241847
502.765537	0.243332
503.131470	0.241825
503.497345	0.237898
503.863163	0.246532
504.228923	0.239370
504.594625	0.237788
504.960269	0.243145
505.325856	0.238464
505.691385	0.242380
506.056856	0.239134
506.422270	0.238520
506.787625	0.240731
507.152924	0.238181
507.518164	0.238389
507.883347	0.239982
508.248472	0.241537
508.613540	0.236928
508.978550	0.239311
509.343503	0.239682
509.708398	0.237251
510.073236	0.234450
510.438016	0.234648
510.802738	0.235408
511.167403	0.234509
511.532010	0.236516
511.896561	0.231895
512.261053	0.230637
512.625488	0.232402
512.989866	0.232726
513.354186	0.233154
513.718449	0.234891
514.082655	0.231039
514.446803	0.233559
514.810894	0.230910
515.174927	0.233620
515.538904	0.233107
515.902822	0.229850
516.266684	0.232412
516.630488	0.233535
516.994235	0.232166
517.357925	0.231008
517.721558	0.229265
518.085133	0.228673
518.448651	0.229107
518.812112	0.231031
519.175516	0.230763
519.538863	0.228266
519.902152	0.230071
520.265385	0.226552
520.628560	0.228799
520.991678	0.229001
521.354739	0.228076
521.717743	0.228968
522.080690	0.229324
522.443580	0.226768
522.806413	0.227748
523.169189	0.226949
523.531908	0.226050
523.894569	0.229591
524.257174	0.229306
524.619722	0.226998
524.982213	0.228411
525.344647	0.226783
525.707025	0.228215
526.069345	0.225975
526.431608	0.227822
526.793815	0.225658
527.155964	0.229814
527.518057	0.228552
527.880093	0.229708
528.242072	0.228372
528.603995	0.229985
528.965860	0.231974
529.327669	0.230665
529.689421	0.231596
530.051117	0.232338
530.412755	0.230116
530.774337	0.232456
531.135862	0.232958
531.497331	0.232065
531.858743	0.235061
532.220098	0.231817
532.581396	0.234346
532.942638	0.234823
533.303824	0.235717
533.664953	0.235609
534.026025	0.237185
534.387040	0.235269
534.747999	0.235199
535.108902	0.233819
535.469748	0.238829
535.830537	0.236844
536.191270	0.237172
536.551947	0.236979
536.912567	0.236940
537.273131	0.238525
537.633638	0.238785
537.994089	0.238940
538.354483	0.240155
538.714821	0.237319
539.075103	0.237104
539.435328	0.237770
539.795497	0.241558
540.155609	0.237830
540.515665	0.236265
540.875665	0.241847
541.235609	0.240147
541.595496	0.240606
541.955328	0.236925
542.315102	0.239784
542.674821	0.240825
543.034483	0.240713
543.394090	0.240505
543.753640	0.242145
544.113134	0.237384
544.472571	0.240514
544.831953	0.237315
545.191278	0.241411
545.550548	0.241041
545.909761	0.238025
546.268918	0.238543
546.628019	0.236813
546.987064	0.239587
547.346053	0.241492
547.704986	0.239187
548.063863	0.239478
548.422684	0.239829
548.781449	0.241819
549.140158	0.239337
549.498811	0.242111
549.857408	0.245369
550.215949	0.239889
550.574434	0.243098
550.932864	0.240934
551.291237	0.239913
551.649555	0.241225
552.007817	0.240885
552.366022	0.241352
552.724173	0.241883
553.082267	0.242419
553.440305	0.239002
553.798288	0.243556
554.156215	0.239997
554.514086	0.240938
554.871902	0.243938
555.229661	0.243189
555.587365	0.243873
555.945014	0.246569
556.302606	0.243150
556.660143	0.245633
557.017625	0.241987
557.375050	0.244436
557.732421	0.241676
558.089735	0.243537
558.446994	0.243585
558.804197	0.242566
559.161345	0.242939
559.518437	0.246100
559.875474	0.243719
560.232455	0.243324
560.589381	0.244514
560.946251	0.244435
561.303065	0.242271
561.659825	0.243613
562.016528	0.245122
562.373177	0.247768
562.729770	0.245120
563.086307	0.247384
563.442789	0.244943
563.799216	0.247883
564.155587	0.246557
564.511904	0.247787
564.868164	0.247934
565.224370	0.247927
565.580520	0.249604
565.936615	0.249253
566.292654	0.252175
566.648638	0.249377
567.004567	0.250279
567.360441	0.250886
567.716260	0.253015
568.072023	0.250401
568.427732	0.251171
568.783385	0.253894
569.138982	0.251950
569.494525	0.251649
569.850013	0.254577
570.205445	0.252974
570.560823	0.255359
570.916145	0.257657
571.271412	0.255552
571.626625	0.256947
571.981782	0.257392
572.336884	0.258671
572.691931	0.258231
573.046923	0.259143
573.401860	0.260898
573.756743	0.262115
574.111570	0.261015
574.466342	0.261674
574.821059	0.260710
575.175722	0.263939
575.530330	0.263339
575.884882	0.263853
576.239380	0.265834
576.593823	0.266253
576.948211	0.265573
577.302544	0.268714
577.656823	0.268262
578.011047	0.268547
578.365216	0.269286
578.719330	0.271392
579.073389	0.270961
579.427394	0.272332
579.781344	0.273047
580.135239	0.274750
580.489080	0.274538
580.842866	0.277357
581.196597	0.277299
581.550273	0.276086
581.903895	0.276684
582.257463	0.274729
582.610975	0.278700
582.964434	0.277616
583.317837	0.280161
583.671186	0.280546
584.024481	0.280485
584.377721	0.282864
584.730906	0.283647
585.084037	0.282842
585.437113	0.284907
585.790135	0.284102
586.143103	0.287110
586.496016	0.288049
586.848874	0.285625
587.201679	0.286648
587.554428	0.289620
587.907124	0.288371
588.259765	0.289233
588.612352	0.289442
588.964884	0.293339
589.317362	0.292912
589.669786	0.292811
590.022155	0.291332
590.374470	0.290740
590.726731	0.293170
591.078937	0.297517
591.431090	0.293714
591.783188	0.298385
592.135232	0.298626
592.487222	0.298734
592.839157	0.296625
593.191038	0.299000
593.542866	0.300954
593.894639	0.304790
594.246358	0.302324
594.598022	0.302098
594.949633	0.305764
595.301190	0.306291
595.652692	0.305417
596.004141	0.301343
596.355535	0.309819
596.706876	0.310115
597.058162	0.312871
597.409395	0.309952
597.760573	0.307926
598.111698	0.311047
598.462768	0.310997
598.813785	0.312623
599.164748	0.313833
599.515657	0.314097
599.866511	0.317541
600.217312	0.312805
600.568060	0.318448
600.918753	0.314442
601.269392	0.315390
601.619978	0.318900
601.970510	0.316482
602.320988	0.316738
602.671412	0.314520
603.021783	0.316469
603.372100	0.318290
603.722363	0.317499
604.072572	0.318701
604.422728	0.318714
604.772830	0.320404
605.122878	0.320152
605.472872	0.320650
605.822813	0.318967
606.172701	0.321809
606.522534	0.319023
606.872314	0.319088
607.222041	0.319924
607.571714	0.318306
607.921333	0.319721
608.270899	0.318936
608.620411	0.316006
608.969870	0.319983
609.319276	0.320167
609.668627	0.319947
610.017926	0.318413
610.367171	0.316888
610.716362	0.317442
611.065500	0.317700
611.414585	0.316821
611.763616	0.317391
612.112594	0.317533
612.461518	0.317094
612.810389	0.314623
613.159207	0.317019
613.507971	0.319039
613.856682	0.314616
614.205340	0.316182
614.553945	0.312841
614.902496	0.317195
615.250994	0.315041
615.599439	0.316181
615.947830	0.315218
616.296169	0.316030
616.644454	0.315537
616.992686	0.315251
617.340864	0.313276
617.688990	0.316988
618.037063	0.313904
618.385082	0.315527
618.733048	0.312607
619.080961	0.314726
619.428821	0.313989
619.776628	0.313689
620.124382	0.315751
620.472083	0.316033
620.819731	0.315521
621.167326	0.319468
621.514868	0.319207
621.862357	0.323573
622.209793	0.323001
622.557176	0.325082
622.904506	0.326256
623.251783	0.328500
623.599007	0.330994
623.946179	0.330384
624.293297	0.332341
624.640363	0.336175
624.987376	0.336794
625.334336	0.339389
625.681243	0.341627
626.028097	0.341717
626.374899	0.343119
626.721647	0.343315
627.068343	0.346458
627.414987	0.347598
627.761577	0.349655
628.108115	0.348027
628.454600	0.352615
628.801032	0.350320
629.147412	0.352916
629.493739	0.353294
629.840014	0.355708
630.186236	0.353586
630.532405	0.358932
630.878521	0.356340
631.224585	0.358598
631.570597	0.362481
631.916556	0.360805
632.262462	0.361039
632.608316	0.362915
632.954117	0.363678
633.299866	0.364354
633.645562	0.365346
633.991206	0.369299
634.336797	0.372524
634.682336	0.374530
635.027823	0.375702
635.373257	0.376997
635.718639	0.380421
636.063968	0.379168
636.409245	0.385126
636.754470	0.385364
637.099642	0.387944
637.444762	0.391768
637.789829	0.390360
638.134845	0.394074
638.479808	0.395085
638.824719	0.394694
639.169577	0.398927
639.514383	0.397639
639.859137	0.401983
640.203839	0.401519
640.548489	0.401699
640.893086	0.403510
641.237632	0.404747
641.582125	0.403637
641.926566	0.404824
642.270955	0.405029
642.615292	0.405332
642.959576	0.405088
643.303809	0.405217
643.647990	0.404710
643.992118	0.405663
644.336195	0.409176
644.680219	0.407541
645.024192	0.408097
645.368112	0.401780
645.711981	0.400398
646.055797	0.395867
646.399562	0.397970
646.743274	0.390615
647.086935	0.388223
647.430544	0.388003
647.774101	0.387230
648.117606	0.386310
648.461059	0.387156
648.804460	0.389372
649.147810	0.394560
649.491108	0.396708
649.834354	0.398096
650.177548	0.403311
650.520690	0.408633
650.863781	0.409397
651.206820	0.408846
651.549807	0.413641
651.892742	0.418183
652.235626	0.417012
652.578458	0.418397
652.921238	0.424019
653.263967	0.421812
653.606644	0.425940
653.949269	0.425570
654.291843	0.429788
654.634365	0.426675
654.976836	0.429095
655.319255	0.429442
655.661622	0.431538
656.003938	0.431710
656.346203	0.434619
656.688416	0.432376
657.030577	0.435757
657.372687	0.437448
657.714746	0.438345
658.056753	0.435568
658.398708	0.439167
658.740612	0.440099
659.082465	0.436060
659.424266	0.436851
659.766016	0.436466
660.107715	0.438711
660.449362	0.437393
660.790958	0.438856
661.132503	0.439259
661.473996	0.436595
661.815438	0.438063
662.156829	0.437723
662.498168	0.438344
662.839456	0.439837
663.180693	0.437475
663.521879	0.438071
663.863013	0.438749
664.204097	0.436804
664.545129	0.434029
664.886110	0.434624
665.227040	0.431566
665.567918	0.433638
665.908746	0.432236
666.249522	0.431552
666.590248	0.433083
666.930922	0.431505
667.271545	0.429623
667.612118	0.429897
667.952639	0.431661
668.293109	0.430066
668.633528	0.433246
668.973896	0.433347
669.314213	0.433181
669.654480	0.435490
669.994695	0.435696
670.334859	0.436136
670.674973	0.436676
671.015035	0.436756
671.355047	0.436406
671.695008	0.438120
672.034918	0.439315
672.374777	0.438806
672.714585	0.439946
673.054342	0.439720
673.394049	0.440060
673.733705	0.437701
674.073310	0.438644
674.412864	0.441483
674.752368	0.442649
675.091820	0.442218
675.431223	0.447448
675.770574	0.446706
676.109875	0.449569
676.449125	0.449810
676.788324	0.451955
677.127473	0.457579
677.466571	0.457373
677.805619	0.459154
678.144616	0.459941
678.483562	0.462019
678.822458	0.464209
679.161303	0.464971
679.500098	0.465866
679.838842	0.467549
680.177535	0.466699
680.516179	0.465586
680.854771	0.464175
681.193314	0.457648
681.531805	0.449638
681.870247	0.437768
682.208638	0.430505
682.546978	0.429051
682.885268	0.431006
683.223508	0.437788
683.561697	0.440649
683.899836	0.443824
684.237925	0.447464
684.575963	0.449715
684.913951	0.452594
685.251889	0.448563
685.589776	0.450357
685.927614	0.452675
686.265401	0.447018
686.603137	0.448326
686.940824	0.442114
687.278460	0.440763
687.616046	0.440096
687.953582	0.434743
688.291068	0.436478
688.628504	0.431660
688.965889	0.433925
689.303224	0.438691
689.640510	0.442520
689.977745	0.447735
690.314930	0.455946
690.652065	0.460610
690.989150	0.468843
691.326185	0.474375
691.663170	0.478990
692.000105	0.485611
692.336990	0.493110
692.673825	0.495967
693.010610	0.502581
693.347345	0.507850
693.684030	0.509196
694.020665	0.514420
694.357251	0.523052
694.693786	0.522647
695.030272	0.527020
695.366707	0.530252
695.703093	0.533831
696.039429	0.531069
696.375716	0.532996
696.711952	0.535576
697.048139	0.537662
697.384276	0.539303
697.720363	0.538329
698.056400	0.537194
698.392388	0.542379
698.728326	0.545651
699.064214	0.548148
699.400053	0.549181
699.735842	0.552798
700.071581	0.555527
700.407270	0.557954
700.742910	0.561026
701.078501	0.567494
701.414042	0.567146
701.749533	0.570667
702.084974	0.579376
702.420366	0.571771
702.755709	0.579421
703.091002	0.586921
703.426246	0.581018
703.761440	0.586761
704.096584	0.591678
704.431679	0.588373
704.766725	0.590294
705.101721	0.592674
705.436668	0.588412
705.771565	0.595144
706.106413	0.592159
706.441212	0.586806
706.775961	0.585510
707.110661	0.588925
707.445311	0.585630
707.779913	0.583270
708.114465	0.581269
708.448967	0.577426
708.783421	0.569472
709.117825	0.563994
709.452180	0.564377
709.786485	0.558369
710.120742	0.548022
710.454949	0.549591
710.789107	0.542181
711.123216	0.533257
711.457275	0.535144
711.791286	0.525780
712.125247	0.524831
712.459159	0.535397
712.793023	0.528663
713.126837	0.531673
713.460602	0.532915
713.794318	0.541812
714.127985	0.540596
714.461602	0.550958
714.795171	0.554125
715.128691	0.561522
715.462162	0.569510
715.795584	0.574952
716.128957	0.577896
716.462281	0.584138
716.795556	0.587348
717.128782	0.592989
717.461960	0.602901
717.795088	0.600438
718.128167	0.607236
718.461198	0.615886
718.794180	0.616786
719.127113	0.618715
719.459997	0.622700
719.792833	0.629212
720.125619	0.630082
720.458357	0.635918
720.791046	0.635421
721.123686	0.639707
721.456278	0.646143
721.788821	0.642796
722.121315	0.646877
722.453761	0.650842
722.786158	0.649154
723.118506	0.645662
723.450805	0.653482
723.783056	0.650049
724.115259	0.646716
724.447412	0.646752
724.779518	0.648827
725.111574	0.646777
725.443582	0.641743
725.775542	0.644459
726.107453	0.636953
726.439315	0.636256
726.771129	0.634643
727.102895	0.629165
727.434612	0.621227
727.766281	0.619441
728.097901	0.618611
728.429473	0.618517
728.760996	0.617296
729.092471	0.617196
729.423897	0.620660
729.755276	0.619829
730.086606	0.620436
730.417887	0.614379
730.749120	0.606171
731.080305	0.595589
731.411442	0.592190
731.742530	0.597374
732.073570	0.596280
732.404562	0.588163
732.735506	0.589347
733.066401	0.594689
733.397249	0.604092
733.728048	0.615149
734.058798	0.627978
734.389501	0.638760
734.720156	0.648115
735.050762	0.655936
735.381320	0.656693
735.711831	0.666402
736.042293	0.670855
736.372707	0.666620
736.703073	0.671197
737.033391	0.673864
737.363661	0.670814
737.693883	0.665134
738.024056	0.664643
738.354182	0.665588
738.684260	0.654221
739.014290	0.650625
739.344272	0.651331
739.674207	0.644955
740.004093	0.643614
740.333931	0.644686
740.663722	0.644638
740.993464	0.645207
741.323159	0.648896
741.652806	0.653737
741.982405	0.658558
742.311956	0.663421
742.641460	0.665884
742.970915	0.669635
743.300323	0.677338
743.629683	0.682626
743.958996	0.684718
744.288260	0.689041
744.617477	0.695485
744.946647	0.697526
745.275768	0.702079
745.604842	0.702511
745.933869	0.711996
746.262847	0.712561
746.591778	0.706347
746.920662	0.711662
747.249498	0.718356
747.578286	0.709366
747.907027	0.705928
748.235720	0.707043
748.564365	0.701559
748.892963	0.700811
749.221514	0.703867
749.550017	0.709744
749.878473	0.709418
750.206881	0.716024
750.535242	0.717129
750.863555	0.716984
751.191821	0.717819
751.520039	0.720732
751.848210	0.725022
752.176334	0.718502
752.504411	0.717852
752.832440	0.725514
753.160421	0.729576
753.488356	0.728010
753.816243	0.725360
754.144082	0.733284
754.471875	0.736925
754.799620	0.732241
755.127318	0.733362
755.454969	0.733568
755.782572	0.733448
756.110129	0.739007
756.437638	0.740769
756.765100	0.736785
757.092515	0.734780
757.419882	0.733501
757.747203	0.739864
758.074477	0.738421
758.401703	0.736063
758.728882	0.730643
759.056014	0.730601
759.383099	0.728901
759.710138	0.729819
760.037129	0.727582
760.364073	0.720664
760.690970	0.722658
761.017820	0.728982
761.344623	0.724404
761.671379	0.715309
761.998088	0.704409
762.324751	0.680923
762.651366	0.639649
762.977935	0.573083
763.304456	0.521594
763.630931	0.511874
763.957359	0.550313
764.283740	0.594723
764.610074	0.622110
764.936362	0.651900
765.262602	0.678949
765.588796	0.700265
765.914943	0.718480
766.241044	0.736474
766.567097	0.742884
766.893104	0.752513
767.219064	0.758938
767.544978	0.765573
767.870845	0.778827
768.196665	0.782588
768.522438	0.780477
768.848165	0.781484
769.173846	0.791133
769.499479	0.795342
769.825066	0.798676
770.150607	0.804464
770.476101	0.798491
770.801548	0.799915
771.126949	0.811671
771.452303	0.815286
771.777611	0.814512
772.102872	0.813299
772.428087	0.818869
772.753256	0.822142
773.078378	0.824505
773.403453	0.833612
773.728482	0.838613
774.053465	0.830775
774.378401	0.834628
774.703291	0.843156
775.028135	0.842379
775.352932	0.843896
775.677683	0.847093
776.002388	0.847468
776.327046	0.846601
776.651658	0.848972
776.976224	0.852540
777.300743	0.853780
777.625216	0.855220
777.949643	0.857598
778.274024	0.857571
778.598359	0.859211
778.922647	0.858280
779.246889	0.858491
779.571086	0.862330
779.895236	0.865090
780.219339	0.861608
780.543397	0.858684
780.867409	0.857767
781.191374	0.859277
781.515294	0.860563
781.839167	0.859409
782.162995	0.862914
782.486776	0.859370
782.810511	0.862096
783.134201	0.865251
783.457844	0.861670
783.781441	0.864878
784.104993	0.871114
784.428498	0.870467
784.751958	0.866982
785.075372	0.869531
785.398739	0.872942
785.722061	0.869326
786.045337	0.864164
786.368568	0.869494
786.691752	0.871663
787.014891	0.857858
787.337983	0.849190
787.661030	0.842424
787.984031	0.824897
788.306987	0.811278
788.629897	0.814293
788.952760	0.817076
789.275579	0.823293
789.598351	0.837523
789.921078	0.850055
790.243759	0.852822
790.566395	0.857311
790.888984	0.863842
791.211529	0.869502
791.534027	0.872637
791.856480	0.874989
792.178888	0.879933
792.501249	0.882142
792.823566	0.884214
793.145836	0.883645
793.468062	0.885862
793.790241	0.885500
794.112375	0.883981
794.434464	0.879004
794.756507	0.878172
795.078505	0.878864
795.400457	0.872544
795.722364	0.859727
796.044226	0.853056
796.366042	0.853970
796.687812	0.856146
797.009538	0.852668
797.331218	0.855343
797.652852	0.859897
797.974442	0.864994
798.295986	0.865174
798.617484	0.867543
798.938938	0.872423
799.260346	0.876886
799.581709	0.878412
799.903026	0.881284
800.224299	0.880453
800.545526	0.886177
800.866708	0.889497
801.187845	0.892699
801.508936	0.892322
801.829983	0.890337
802.150984	0.892820
802.471940	0.898509
802.792851	0.897890
803.113717	0.898871
803.434538	0.896232
803.755314	0.898756
804.076045	0.900803
804.396731	0.900499
804.717372	0.900274
805.037967	0.902941
805.358518	0.899654
805.679024	0.897272
805.999485	0.898018
806.319901	0.898105
806.640272	0.897723
806.960598	0.897710
807.280879	0.894569
807.601115	0.893236
807.921306	0.896780
808.241453	0.896640
808.561554	0.894535
808.881611	0.894567
809.201623	0.896387
809.521590	0.895990
809.841513	0.898337
810.161390	0.897050
810.481223	0.898386
810.801011	0.902016
811.120755	0.904287
811.440453	0.902360
811.760107	0.902015
812.079716	0.901521
812.399281	0.904791
812.718801	0.906977
813.038276	0.908822
813.357707	0.907803
813.677093	0.904373
813.996434	0.907201
814.315731	0.909944
814.634983	0.910788
814.954191	0.908904
815.273354	0.906418
815.592473	0.902772
815.911547	0.902102
816.230577	0.900584
816.549562	0.896900
816.868502	0.898228
817.187399	0.894317
817.506250	0.889085
817.825058	0.890142
818.143821	0.886004
818.462539	0.882163
818.781213	0.874251
819.099843	0.862291
819.418429	0.848724
819.736970	0.831150
820.055466	0.811952
820.373919	0.786218
820.692327	0.753243
821.010691	0.718614
821.329011	0.642405
821.647286	0.528638
821.965517	0.414328
822.283704	0.372049
822.601847	0.374112
822.919945	0.409434
823.237999	0.442881
823.556010	0.488723
823.873976	0.544842
824.191897	0.594955
824.509775	0.636690
824.827609	0.682000
825.145398	0.704410
825.463144	0.707434
825.780845	0.690228
826.098502	0.671592
826.416116	0.625799
826.733685	0.582173
827.051210	0.574269
827.368692	0.588364
827.686129	0.626013
828.003522	0.677972
828.320872	0.725879
828.638177	0.768320
828.955439	0.801478
829.272656	0.822768
829.589830	0.840197
829.906960	0.856315
830.224046	0.868484
830.541088	0.877519
830.858086	0.882275
831.175041	0.888900
831.491952	0.887857
831.808819	0.884784
832.125642	0.877992
832.442421	0.863041
832.759157	0.841848
833.075849	0.795989
833.392497	0.732517
833.709101	0.691862
834.025662	0.701818
834.342179	0.733280
834.658653	0.772074
834.975083	0.808104
835.291469	0.834299
835.607811	0.856350
835.924110	0.871862
836.240366	0.888257
836.556578	0.902209
836.872746	0.908892
837.188871	0.915379
837.504952	0.920876
837.820990	0.924121
838.136984	0.927089
838.452935	0.930481
838.768842	0.931720
839.084706	0.926084
839.400526	0.900944
839.716303	0.860789
840.032037	0.838258
840.347727	0.842451
840.663373	0.858795
840.978977	0.881005
841.294537	0.903363
841.610054	0.919255
841.925527	0.925122
842.240957	0.934791
842.556344	0.940548
842.871687	0.946326
843.186987	0.950288
843.502244	0.950999
843.817458	0.952911
844.132629	0.955819
844.447756	0.961767
844.762840	0.960411
845.077881	0.959452
845.392879	0.960984
845.707833	0.963061
846.022745	0.966144
846.337613	0.965806
846.652438	0.966747
846.967221	0.964923
847.281960	0.965409
847.596656	0.967496
847.911309	0.967197
848.225919	0.967522
848.540485	0.969363
848.855009	0.968606
849.169490	0.968122
849.483928	0.969264
849.798323	0.968913
850.112675	0.970447
850.426984	0.970777
850.741251	0.971069
851.055474	0.970151
851.369654	0.968459
851.683792	0.969385
851.997887	0.970033
852.311938	0.971721
852.625947	0.970364
852.939914	0.969268
853.253837	0.968857
853.567718	0.970732
853.881555	0.971109
854.195350	0.968100
854.509103	0.970329
854.822812	0.970253
855.136479	0.970563
855.450103	0.969173
855.763685	0.968798
856.077224	0.968862
856.390720	0.971656
856.704173	0.970255
857.017584	0.969168
857.330953	0.967398
857.644278	0.968190
857.957561	0.968837
858.270802	0.968184
858.584000	0.969467
858.897155	0.967441
859.210268	0.967964
859.523339	0.968624
859.836367	0.969550
860.149352	0.971868
860.462295	0.968519
860.775195	0.970096
861.088054	0.969099
861.400869	0.969641
861.713642	0.970569
862.026373	0.970975
862.339062	0.971178
862.651708	0.968378
862.964312	0.968504
863.276873	0.970151
863.589392	0.968911
863.901869	0.967580
864.214303	0.966003
864.526696	0.964069
864.839045	0.964060
865.151353	0.963376
865.463619	0.963408
865.775842	0.963229
866.088023	0.963065
866.400162	0.962461
866.712258	0.963975
867.024313	0.963002
867.336325	0.964055
867.648296	0.963980
867.960224	0.962121
868.272110	0.962854
868.583954	0.964120
868.895755	0.965000
869.207515	0.961726
869.519233	0.960766
869.830909	0.961682
870.142542	0.963468
870.454134	0.962082
870.765684	0.961477
871.077191	0.958823
871.388657	0.960472
871.700081	0.958697
872.011463	0.959749
872.322803	0.958600
872.634101	0.958547
872.945357	0.955383
873.256571	0.955162
873.567744	0.953110
873.878874	0.954906
874.189963	0.953368
874.501010	0.951458
874.812015	0.951002
875.122979	0.951972
875.433900	0.953424
875.744780	0.954707
876.055618	0.952082
876.366415	0.950763
876.677169	0.950268
876.987882	0.952140
877.298554	0.951269
877.609183	0.947822
877.919771	0.946163
878.230317	0.943629
878.540822	0.941554
878.851285	0.935845
879.161707	0.928366
879.472087	0.916339
879.782425	0.899421
880.092722	0.867163
880.402977	0.815631
880.713191	0.755747
881.023363	0.698184
881.333494	0.664505
881.643583	0.636750
881.953631	0.635538
882.263637	0.665062
882.573602	0.704602
882.883526	0.729856
883.193408	0.751720
883.503248	0.775171
883.813048	0.801360
884.122806	0.829949
884.432522	0.854223
884.742197	0.873142
885.051831	0.883260
885.361424	0.893686
885.670975	0.904336
885.980485	0.914922
886.289954	0.920806
886.599382	0.926130
886.908768	0.929654
887.218113	0.936210
887.527417	0.940611
887.836680	0.943240
888.145901	0.944737
888.455082	0.946266
888.764221	0.951302
889.073319	0.953889
889.382376	0.954412
889.691392	0.954838
890.000366	0.953296
890.309300	0.954770
890.618193	0.953747
890.927044	0.952110
891.235855	0.952458
891.544625	0.952225
891.853353	0.953530
892.162041	0.949649
892.470687	0.944551
892.779293	0.939380
893.087858	0.935969
893.396381	0.928083
893.704864	0.915606
894.013306	0.891814
894.321707	0.864906
894.630068	0.850669
894.938387	0.845739
895.246665	0.847908
895.554903	0.859647
895.863100	0.873511
896.171256	0.888748
896.479371	0.908465
896.787446	0.920517
897.095480	0.927283
897.403473	0.930266
897.711425	0.933772
898.019336	0.941427
898.327207	0.944713
898.635038	0.946379
898.942827	0.947017
899.250576	0.949872
899.558284	0.953179
899.865952	0.954475
900.173579	0.956134
900.481165	0.956382
900.788711	0.960430
901.096216	0.963296
901.403681	0.961999
901.711105	0.964008
902.018489	0.964645
902.325832	0.962732
902.633135	0.963407
902.940397	0.956743
903.247619	0.945280
903.554800	0.920252
903.861941	0.880856
904.169041	0.846393
904.476101	0.831309
904.783121	0.830722
905.090100	0.846494
905.397039	0.867067
905.703938	0.888259
906.010796	0.908174
906.317614	0.924559
906.624391	0.936585
906.931129	0.946230
907.237826	0.951787
907.544483	0.959863
907.851099	0.964027
908.157675	0.968402
908.464211	0.970245
908.770707	0.973586
909.077163	0.974239
909.383578	0.975915
909.689954	0.974947
909.996289	0.975755
910.302584	0.978150
910.608839	0.980784
910.915054	0.978439
911.221229	0.978790
911.527363	0.976211
911.833458	0.978132
912.139513	0.977664
912.445527	0.975402
912.751502	0.973874
913.057436	0.973773
913.363331	0.969791
913.669186	0.967198
913.975000	0.962208
914.280775	0.956622
914.586510	0.950039
914.892205	0.936949
915.197859	0.915386
915.503475	0.889961
915.809050	0.869934
916.114585	0.864874
916.420081	0.862600
916.725536	0.858834
917.030952	0.868295
917.336328	0.880080
917.641665	0.895211
917.946961	0.909705
918.252218	0.922527
918.557435	0.928671
918.862612	0.937768
919.167750	0.943673
919.472848	0.947849
919.777906	0.954018
920.082925	0.958724
920.387904	0.963102
920.692843	0.963680
920.997743	0.965950
921.302603	0.968778
921.607423	0.969428
921.912204	0.972241
922.216946	0.973367
922.521647	0.974110
922.826310	0.975245
923.130932	0.976663
923.435516	0.979409
923.740059	0.979640
924.044564	0.978934
924.349028	0.980808
924.653454	0.984884
924.957840	0.986097
925.262186	0.984768
925.566493	0.984081
925.870761	0.984903
926.174989	0.986754
926.479178	0.989189
926.783328	0.988542
927.087438	0.988632
927.391509	0.989064
927.695541	0.990109
927.999533	0.989092
928.303486	0.990014
928.607400	0.991553
928.911275	0.988742
929.215110	0.991028
929.518906	0.992149
929.822663	0.990710
930.126381	0.991297
930.430060	0.990662
930.733699	0.990400
931.037299	0.989641
931.340861	0.991045
931.644383	0.989696
931.947866	0.989562
932.251309	0.990919
932.554714	0.990624
932.858080	0.991019
933.161407	0.990740
933.464694	0.991842
933.767943	0.989971
934.071153	0.990092
934.374323	0.991617
934.677455	0.990761
934.980548	0.991847
935.283602	0.992284
935.586617	0.991508
935.889593	0.990888
936.192530	0.991518
936.495428	0.991468
936.798287	0.991255
937.101108	0.990167
937.403890	0.989882
937.706632	0.989147
938.009336	0.987423
938.312002	0.986292
938.614628	0.985665
938.917216	0.984655
939.219765	0.982460
939.522275	0.983480
939.824747	0.983398
940.127179	0.983546
940.429573	0.984600
940.731929	0.985201
941.034246	0.984451
941.336524	0.985953
941.638763	0.986679
941.940964	0.986818
942.243126	0.988141
942.545250	0.987740
942.847335	0.988585
943.149381	0.987822
943.451389	0.988857
943.753359	0.988475
944.055290	0.991509
944.357182	0.989415
944.659036	0.988606
944.960851	0.989245
945.262628	0.990022
945.564367	0.991237
945.866067	0.990777
946.167729	0.991069
946.469352	0.989227
946.770937	0.989362
947.072484	0.991382
947.373992	0.991066
947.675462	0.990636
947.976893	0.990921
948.278286	0.991397
948.579641	0.991458
948.880958	0.990154
949.182236	0.991272
949.483476	0.992582
949.784678	0.991648
950.085841	0.990651
950.386967	0.991249
950.688054	0.990918
950.989103	0.991359
951.290114	0.988251
951.591087	0.989611
951.892021	0.990445
952.192917	0.990356
952.493776	0.988275
952.794596	0.989548
953.095378	0.988768
953.396122	0.988078
953.696828	0.988139
953.997496	0.989464
954.298126	0.990675
954.598718	0.990485
954.899272	0.991519
955.199788	0.991391
955.500266	0.992008
955.800706	0.993397
956.101108	0.992341
956.401472	0.993560
956.701798	0.993608
957.002087	0.993840
957.302337	0.992893
957.602550	0.995340
957.902724	0.995221
958.202861	0.994756
958.502960	0.996352
958.803022	0.993644
959.103045	0.995394
959.403031	0.995337
959.702979	0.995539
960.002889	0.995976
960.302762	0.994737
960.602596	0.996047
960.902393	0.994739
961.202153	0.997105
961.501875	0.996845
961.801559	0.995510
962.101205	0.995762
962.400814	0.995537
962.700385	0.997045
962.999918	0.995828
963.299414	0.996456
963.598873	0.995499
963.898293	0.997108
964.197677	0.996706
964.497022	0.997114
964.796331	0.997707
965.095601	0.996798
965.394835	0.996203
965.694030	0.997433
965.993189	0.997610
966.292309	0.996817
966.591393	0.998416
966.890439	0.998026
967.189447	0.996598
967.488419	0.997105
967.787353	0.996640
968.086249	0.997007
968.385108	0.996398
968.683930	0.997564
968.982714	0.997325
969.281462	0.997928
969.580172	0.997866
969.878844	0.997973
970.177480	0.996993
970.476078	0.996398
970.774639	0.996475
971.073162	0.997760
971.371649	0.997032
971.670098	0.995517
971.968510	0.997421
972.266885	0.996610
972.565223	0.995202
972.863524	0.996294
973.161788	0.996537
973.460014	0.997994
973.758204	0.995438
974.056356	0.996331
974.354471	0.994531
974.652550	0.997187
974.950591	0.995472
975.248595	0.997186
975.546563	0.996128
975.844493	0.998208
976.142386	0.996514
976.440243	0.996970
976.738062	0.998302
977.035845	0.998792
977.333590	0.997551
977.631299	0.997917
977.928971	0.996701
978.226606	0.996653
978.524204	0.996408
978.821765	0.998346
979.119290	0.997134
979.416777	0.995883
979.714228	0.997620
980.011642	0.995660
980.309020	0.997649
980.606360	0.996816
980.903664	0.999225
981.200931	0.995509
981.498162	0.996080
981.795356	0.993939
982.092513	0.994563
982.389633	0.994374
982.686717	0.992680
982.983764	0.992013
983.280775	0.990603
983.577749	0.990737
983.874686	0.991455
984.171587	0.991775
984.468451	0.994195
984.765279	0.995155
985.062070	0.994482
985.358824	0.996269
985.655543	0.995240
985.952224	0.997021
986.248869	0.996113
986.545478	0.996630
986.842050	0.998445
987.138586	0.995345
987.435086	0.997908
987.731549	0.999093
988.027975	0.997762
988.324366	0.997563
988.620719	0.998051
988.917037	0.995785
989.213318	0.997998
989.509563	0.998879
989.805772	0.997668
990.101944	0.998619
990.398080	0.997763
990.694180	0.997884
990.990244	0.997049
991.286271	0.997182
991.582262	0.997576
991.878217	0.998964
992.174136	0.999396
992.470019	0.999242
992.765865	0.998387
993.061676	0.997875
993.357450	0.997977
993.653188	0.996987
993.948890	0.998274
994.244556	0.998277
994.540186	0.997535
994.835780	0.995305
995.131337	0.998683
995.426859	0.997008
995.722345	0.998615
996.017795	0.996135
996.313208	0.994779
996.608586	0.996554
996.903928	0.996356
997.199234	0.996293
997.494504	0.996190
997.789738	0.997565
998.084936	0.996498
998.380099	0.997424
998.675225	0.997210
998.970316	0.998683
999.265371	0.997320
999.560390	0.997750
999.855373	0.997967
1000.150320	0.998428
1000.445232	0.998949
1000.740108	0.997804
1001.034948	0.998196
1001.329752	0.999523
1001.624521	0.999176
1001.919254	0.998197
1002.213951	0.998350
1002.508613	0.998773
1002.803239	0.999013
1003.097829	0.999932
1003.392384	0.999668
1003.686903	0.998782
1003.981386	0.998553
1004.275834	0.999913
1004.570246	0.998834
1004.864623	0.999588
1005.158964	0.999667
1005.453270	0.998866
1005.747540	0.997973
1006.041775	0.997134
1006.335974	0.998937
1006.630138	0.999348
1006.924266	1.000230
1007.218359	0.999956
1007.512416	0.999366
1007.806438	1.000357
1008.100425	0.998756
1008.394376	0.999314
1008.688292	0.999022
1008.982172	1.000279
1009.276017	0.998713
1009.569827	0.998935
1009.863602	0.999198
1010.157341	1.000308
1010.451045	0.999520
1010.744714	0.998251
1011.038347	0.998473
1011.331945	0.999029
1011.625508	0.997160
1011.919036	0.998330
1012.212528	0.997998
1012.505986	0.998090
1012.799408	0.998364
1013.092795	0.999451
1013.386147	0.998250
1013.679464	0.999414
1013.972745	0.998372
1014.265992	0.996714
1014.559204	0.998445
1014.852380	0.999625
1015.145521	0.997869
1015.438628	0.999335
1015.731699	0.998672
1016.024736	0.999614
1016.317737	0.998539
1016.610703	0.999173
1016.903635	0.999271
1017.196531	0.999149
1017.489393	0.999624
1017.782219	0.999024
1018.075011	0.998124
1018.367768	0.999098
1018.660490	0.999097
1018.953177	0.999097
1019.245829	0.999097
