Dividing Wavelength (nm)	Counts (n)	Slit_number_40_of_a_total_of_40	    Total Light Power Density = 1058.812385 W/m^2	
326.493990	2061.327808
326.888308	2061.327808
327.282561	2061.327808
327.676750	2042.927596
328.070874	2036.374096
328.464933	2047.212577
328.858929	2041.415250
329.252859	2055.782538
329.646726	2055.782538
330.040528	2074.182750
330.434265	2117.788731
330.827938	2133.920423
331.221547	2157.109731
331.615091	2155.597385
332.008571	2176.266115
332.401986	2217.855635
332.795338	2242.557288
333.188625	2256.168404
333.581847	2277.593308
333.975006	2300.278500
334.368100	2309.856692
334.761129	2334.054231
335.154095	2331.281596
335.546996	2391.019269
335.939833	2500.160250
336.332606	2488.565596
336.725315	2541.749769
337.117960	2529.398942
337.510540	2565.443192
337.903056	2552.084135
338.295508	2552.336192
338.687896	2586.616038
339.080220	2554.856769
339.472480	2580.062538
339.864676	2590.901019
340.256807	2609.805346
340.648875	2575.525500
341.040879	2592.917481
341.432818	2589.388673
341.824694	2605.016250
342.216506	2619.635596
342.608253	2577.794019
342.999937	2618.123250
343.391557	2574.517269
343.783113	2582.331058
344.174605	2596.194231
344.566033	2597.958635
344.957397	2569.476115
345.348697	2593.673654
345.739934	2590.648962
346.131106	2579.306365
346.522215	2589.388673
346.913260	2547.042981
347.304241	2570.484346
347.695159	2573.761096
348.086012	2571.996692
348.476802	2593.421596
348.867528	2594.177769
349.258191	2545.782692
349.648789	2572.500808
350.039324	2583.843404
350.429796	2560.654096
350.820203	2552.336192
351.210548	2566.955538
351.600828	2526.626308
351.991045	2553.596481
352.381198	2542.758000
352.771288	2565.191135
353.161314	2546.034750
353.551276	2549.563558
353.941175	2581.070769
354.331010	2575.273442
354.720782	2565.695250
355.110490	2586.868096
355.500135	2575.273442
355.889717	2567.207596
356.279235	2558.385577
356.668689	2566.703481
357.058080	2571.240519
357.447408	2563.174673
357.836672	2582.583115
358.225873	2571.240519
358.615010	2592.917481
359.004084	2579.306365
359.393095	2523.601615
359.782043	2584.851635
360.170927	2588.380442
360.559748	2550.067673
360.948505	2565.443192
361.337199	2572.248750
361.725830	2568.972000
362.114398	2593.925712
362.502903	2557.125288
362.891344	2579.558423
363.279722	2560.402038
363.668037	2576.281673
364.056289	2560.402038
364.444478	2564.434962
364.832603	2563.678788
365.220665	2568.467885
365.608665	2559.393808
365.996601	2588.884558
366.384474	2576.785788
366.772284	2583.087231
367.160031	2573.004923
367.547715	2592.413365
367.935336	2594.933942
368.322893	2601.235385
368.710388	2536.204500
369.097820	2604.008019
369.485189	2604.008019
369.872495	2575.021385
370.259738	2581.826942
370.646918	2614.090327
371.034035	2580.062538
371.421090	2596.698346
371.808081	2594.429827
372.195010	2580.062538
372.581875	2575.525500
372.968678	2609.301231
373.355418	2631.482308
373.742096	2617.367077
374.128710	2605.268308
374.515262	2574.517269
374.901751	2625.180865
375.288177	2621.400000
375.674540	2629.717904
376.060841	2652.655154
376.447079	2646.857827
376.833254	2664.753923
377.219367	2683.154135
377.605417	2679.373269
377.991404	2699.789942
378.377329	2710.628423
378.763191	2753.982346
379.148991	2757.007038
379.534727	2776.163423
379.920402	2771.374327
380.306013	2839.177846
380.691563	2843.714885
381.077049	2874.465923
381.462474	2901.436096
381.847835	2959.661423
382.233134	2965.710808
382.618371	3021.163500
383.003545	3008.056500
383.388657	3058.720096
383.773706	3125.515385
384.158693	3193.318904
384.543618	3214.995865
384.928480	3265.911519
385.313280	3309.769558
385.698017	3344.049404
386.082692	3416.642019
386.467305	3426.724327
386.851856	3535.109135
387.236344	3604.425000
387.620770	3624.841673
388.005133	3724.908577
388.389435	3766.498096
388.773674	3817.665808
389.157851	3913.447731
389.541965	3982.763596
389.926018	4015.531096
390.310008	4108.540385
390.693936	4177.604192
391.077802	4264.059981
391.461606	4302.624808
391.845348	4404.204058
392.229027	4474.528154
392.612645	4567.033327
392.996200	4625.762769
393.379694	4736.920212
393.763125	4857.655846
394.146494	4942.347231
394.529801	5021.997462
394.913047	5124.332885
395.296230	5198.941962
395.679351	5220.870981
396.062410	5377.902923
396.445408	5383.196135
396.828343	5477.969827
397.211217	5510.233212
397.594028	5511.493500
397.976778	5596.184885
398.359466	5731.035750
398.742092	5675.835115
399.124656	5834.379404
399.507158	5880.505962
399.889598	5960.660308
400.271977	6069.801288
400.654294	6180.706673
401.036549	6236.663481
401.418742	6276.488596
401.800874	6499.307596
402.182944	6590.552481
402.564952	6759.179077
402.946898	6734.729481
403.328783	6827.234654
403.710606	6872.605038
404.092367	7123.906558
404.474067	7326.813000
404.855705	7227.250212
405.237282	7245.146308
405.618797	7610.377904
406.000250	7679.441712
406.381642	7957.209288
406.762972	8042.152731
407.144240	7966.535423
407.525447	8152.806058
407.906593	8007.116712
408.287677	8232.708346
408.668700	8358.737192
409.049661	8410.913135
409.430560	8489.051019
409.811399	8539.714615
410.192176	8732.790808
410.572891	8786.227038
410.953545	9045.090288
411.334138	8897.636538
411.714669	9274.462788
412.095139	8790.259962
412.475547	9285.805385
412.855894	9118.439077
413.236180	9367.220019
413.616405	9171.119135
413.996568	9444.349673
414.376670	9455.692269
414.756711	9349.071865
415.136691	9617.765365
415.516609	9793.701635
415.896466	9778.830231
416.276262	10089.617365
416.655997	10277.400346
417.035670	10416.284135
417.415283	10968.542538
417.794834	11141.706173
418.174324	10997.277115
418.553753	10963.249327
418.933121	11294.453135
419.312428	11239.504558
419.691674	11088.522000
420.070859	11445.687750
420.449983	11278.825558
420.829045	11651.618885
421.208047	11561.634288
421.586988	11906.953327
421.965867	12281.511058
422.344686	12294.618058
422.723444	12500.297135
423.102141	11872.925538
423.480777	12673.964885
423.859352	12396.449365
424.237866	13310.914673
424.616319	13191.691385
424.994712	13559.443558
425.373044	13667.828365
425.751314	14141.192712
426.129524	13653.209019
426.507673	14510.205173
426.885762	14095.318212
427.263789	14386.444846
427.641756	14406.861519
428.019662	14708.322519
428.397508	14612.288538
428.775292	14941.980000
429.153016	15231.342231
429.530679	15228.821654
429.908282	15307.967769
430.285824	15029.444019
430.663305	15814.099615
431.040726	15450.632423
431.418086	15429.207519
431.795385	15784.104750
432.172624	16265.282885
432.549802	16100.185096
432.926920	16020.282808
433.303977	16070.694346
433.680974	16424.583346
434.057910	16518.600865
434.434786	16546.075154
434.811601	16498.184192
435.188355	17468.606308
435.565050	17191.090788
435.941683	17163.616500
436.318257	17879.964462
436.694770	18080.098269
437.071222	18392.901865
437.447614	17752.171212
437.823946	17800.818346
438.200218	17834.594077
438.576429	17817.202096
438.952580	17795.273077
439.328670	17985.324577
439.704700	18354.841154
440.080670	17968.436712
440.456580	18424.913192
440.832429	18692.094346
441.208218	17888.282365
441.583947	18287.793808
441.959616	18258.807173
442.335224	18442.809288
442.710773	18628.575808
443.086261	18970.366038
443.461689	18769.980173
443.837057	18612.696173
444.212365	19044.975115
444.587612	19255.191231
444.962800	18693.354635
445.337927	19164.198404
445.712995	18312.747519
446.088002	19821.312808
446.462949	20032.789212
446.837837	20159.070115
447.212664	19964.985692
447.587431	21981.951346
447.962139	24345.496327
448.336786	27091.412827
448.711374	26791.212115
449.085901	23669.225538
449.460369	23072.352923
449.834776	22719.976269
450.209124	24412.039558
450.583412	24368.937692
450.957640	25737.610962
451.331808	24255.763788
451.705917	23096.550462
452.079965	22941.030865
452.453954	23047.651269
452.827883	22864.405327
453.201752	22721.992731
453.575562	23217.790212
453.949311	24093.438635
454.323001	24190.228788
454.696632	23902.126846
455.070202	25437.914365
455.443713	25301.047038
455.817164	26120.990712
456.190556	26469.838558
456.563888	26232.400212
456.937160	26654.092731
457.310373	25445.980212
457.683526	25873.974173
458.056619	25786.006038
458.429653	25535.208635
458.802628	25934.215962
459.175542	26012.857962
459.548398	27249.957115
459.921194	29059.227231
460.293930	29198.615135
460.666607	31309.850365
461.039224	33043.503173
461.411782	33963.009635
461.784280	33086.352981
462.156719	33028.127654
462.529099	32389.161404
462.901419	31275.570519
463.273680	30089.134962
463.645882	30125.683327
464.018024	30214.911750
464.390106	30654.752423
464.762130	32729.943404
465.134094	35933.596673
465.505999	41125.733077
465.877845	46548.502269
466.249631	48751.990615
466.621358	47974.140577
466.993026	46373.322173
467.364634	44553.213577
467.736184	42072.713827
468.107674	41243.191962
468.479105	40706.057019
468.850477	39967.023865
469.221790	38668.422635
469.593043	36937.038346
469.964238	36304.373538
470.335373	36139.779865
470.706449	37235.978769
471.077467	39024.076038
471.448425	43899.375923
471.819324	48240.817615
472.190164	48066.393692
472.560945	44682.771231
472.931667	41493.233192
473.302330	40112.965269
473.672934	39279.158423
474.043479	39582.887942
474.413965	38904.852750
474.784393	38654.055346
475.154761	39890.902442
475.525070	39861.915808
475.895321	39697.826250
476.265513	40536.170135
476.635645	41319.565442
477.005719	41528.521269
477.375734	42449.288019
477.745691	43021.963096
478.115588	44688.064442
478.485427	46454.232692
478.855207	50021.857269
479.224928	53000.170962
479.594591	55283.057481
479.964194	55300.953577
480.333739	55453.196423
480.703226	55399.256077
481.072653	55885.223308
481.442022	56634.338769
481.811333	57413.197038
482.180584	56505.537288
482.549777	56289.775904
482.918912	55848.422885
483.287988	55706.262346
483.657005	55225.588327
484.025964	54779.446212
484.394864	54968.237423
484.763706	54825.320712
485.132489	54235.505712
485.501213	53952.949038
485.869879	54189.883269
486.238487	53909.343058
486.607036	54160.392519
486.975527	54232.481019
487.343959	54168.458365
487.712333	54584.857673
488.080648	54573.010962
488.448905	55118.967923
488.817104	55215.001904
489.185244	55818.175962
489.553326	56935.295654
489.921350	59141.808692
490.289315	61468.553250
490.657222	62404.695519
491.025070	62959.474500
491.392861	62622.473365
491.760593	62026.861038
492.128267	60868.655942
492.495883	59816.819192
492.863440	58763.218038
493.230939	57606.273231
493.598380	56564.266731
493.965763	56333.633942
494.333088	55704.750000
494.700354	55184.250865
495.067563	54878.252827
495.434713	54809.945192
495.801805	54900.685962
496.168839	54548.057250
496.535815	54205.258788
496.902733	54364.307192
497.269593	54126.364731
497.636395	53936.313231
498.003139	54460.341173
498.369825	53932.028250
498.736453	54284.909019
499.103023	53728.617692
499.469535	53621.745231
499.835989	53916.400673
500.202385	53542.851173
500.568723	53755.587865
500.935003	53621.745231
501.301226	53643.674250
501.667390	54389.512962
502.033497	54830.361865
502.399546	54163.669269
502.765537	53523.190673
503.131470	53966.056038
503.497345	54296.755731
503.863163	53045.289288
504.228923	53666.611500
504.594625	54000.083827
504.960269	53437.743115
505.325856	54203.746442
505.691385	53365.402558
506.056856	53618.468481
506.422270	53935.052942
506.787625	53785.330673
507.152924	53903.293673
507.518164	54073.180558
507.883347	53226.014654
508.248472	53743.489096
508.613540	54082.254635
508.978550	54523.859712
509.343503	54227.187808
509.708398	54433.118942
510.073236	54826.833058
510.438016	54839.940058
510.802738	54489.075750
511.167403	55010.835173
511.532010	55283.813654
511.896561	55644.256154
512.261053	56394.883962
512.625488	56083.592712
512.989866	55950.002135
513.354186	55793.222250
513.718449	55855.984615
514.082655	56206.092750
514.446803	56103.001154
514.810894	56424.122654
515.174927	56500.244077
515.538904	56479.071231
515.902822	57189.621865
516.266684	56419.081500
516.630488	56942.353269
516.994235	56950.167058
517.357925	57354.971712
517.721558	57493.351385
518.085133	57733.310308
518.448651	57837.914250
518.812112	57800.357654
519.175516	57830.100462
519.538863	58103.078942
519.902152	58057.204442
520.265385	58322.873250
520.628560	58701.968019
520.991678	58484.190173
521.354739	58636.937135
521.717743	58903.614173
522.080690	58757.672769
522.443580	59231.289173
522.806413	59326.819038
523.169189	59223.727442
523.531908	59444.782038
523.894569	59405.713096
524.257174	59562.240923
524.619722	59745.234808
524.982213	59718.516692
525.344647	59649.200827
525.707025	59699.360308
526.069345	59984.437558
526.431608	60024.010615
526.793815	60214.566231
527.155964	59907.055846
527.518057	59995.276038
527.880093	59889.159750
528.242072	60214.818288
528.603995	60056.274000
528.965860	60067.868654
529.327669	60194.905731
529.689421	60013.424192
530.051117	60033.336750
530.412755	60181.294615
530.774337	60145.250365
531.135862	59968.809981
531.497331	60263.213365
531.858743	60095.847058
532.220098	60221.875904
532.581396	60209.525077
532.942638	60107.945827
533.303824	60288.923250
533.664953	60145.502423
534.026025	59911.340827
534.387040	60202.215404
534.747999	60128.866615
535.108902	60236.999365
535.469748	59918.650500
535.830537	60068.624827
536.191270	60151.299750
536.551947	59850.090808
536.912567	60113.995212
537.273131	60212.801827
537.633638	59802.703962
537.994089	60028.799712
538.354483	59776.489962
538.714821	59998.552788
539.075103	60392.518962
539.435328	60151.299750
539.795497	60165.667038
540.155609	59865.718385
540.515665	60431.083788
540.875665	59994.771923
541.235609	60323.455154
541.595496	60341.603308
541.955328	60702.549923
542.315102	60301.274077
542.674821	59936.294538
543.034483	60097.611462
543.394090	60114.499327
543.753640	59980.908750
544.113134	60772.621962
544.472571	59918.146385
544.831953	60894.113769
545.191278	60264.977769
545.550548	60183.815192
545.909761	60416.212385
546.268918	60517.791635
546.628019	60687.174404
546.987064	60526.865712
547.346053	59914.365519
547.704986	60632.225827
548.063863	60117.271962
548.422684	60337.066269
548.781449	60369.329654
549.140158	60517.539577
549.498811	60368.573481
549.857408	60146.006538
550.215949	60605.255654
550.574434	60492.837923
550.932864	60404.113615
551.291237	60963.429635
551.649555	60574.756673
552.007817	60721.706308
552.366022	60499.643481
552.724173	60618.614712
553.082267	60846.222808
553.440305	61159.782577
553.798288	60646.593115
554.156215	60809.674442
554.514086	60967.966673
554.871902	60783.460442
555.229661	60847.231038
555.587365	60746.912077
555.945014	60832.359635
556.302606	60613.573558
556.660143	60940.240327
557.017625	60904.196077
557.375050	60863.110673
557.732421	61050.389538
558.089735	61069.041808
558.446994	61019.386442
558.804197	61375.039846
559.161345	61308.244558
559.518437	60687.678519
559.875474	61157.262000
560.232455	60999.473885
560.589381	61297.910192
560.946251	61010.060308
561.303065	61593.069750
561.659825	61540.137635
562.016528	61144.911173
562.373177	61077.863827
562.729770	61414.612904
563.086307	60930.158019
563.442789	61231.619019
563.799216	61504.093385
564.155587	61143.398827
564.511904	61383.861865
564.868164	61375.796019
565.224370	61533.836192
565.580520	61266.907096
565.936615	61594.330038
566.292654	61443.095423
566.648638	61485.945231
567.004567	61565.343404
567.360441	61473.342346
567.716260	61530.307385
568.072023	61681.794058
568.427732	61737.246750
568.783385	61440.574846
569.138982	61719.602712
569.494525	61703.975135
569.850013	61592.565635
570.205445	61480.399962
570.560823	61611.974077
570.916145	61510.646885
571.271412	61326.644769
571.626625	61355.127288
571.981782	61379.576885
572.336884	61195.070654
572.691931	61508.378365
573.046923	61201.876212
573.401860	61092.735231
573.756743	61112.143673
574.111570	61205.152962
574.466342	61029.972865
574.821059	61117.184827
575.175722	60822.025269
575.530330	60828.074654
575.884882	60634.494346
576.239380	60706.834904
576.593823	60558.372923
576.948211	60569.463462
577.302544	60234.226731
577.656823	60315.137250
578.011047	60457.297788
578.365216	60229.941750
578.719330	60106.937596
579.073389	59910.584654
579.427394	60093.326481
579.781344	60030.060000
580.135239	59861.685462
580.489080	59868.743077
580.842866	59533.254288
581.196597	59849.586692
581.550273	59767.415885
581.903895	59629.036212
582.257463	59980.908750
582.610975	59510.821154
582.964434	59623.238885
583.317837	59621.978596
583.671186	59388.573173
584.024481	59481.834519
584.377721	59112.570000
584.730906	59504.771769
585.084037	59460.157558
585.437113	59215.661596
585.790135	59241.875596
586.143103	59034.180058
586.496016	59070.224308
586.848874	59096.186250
587.201679	59077.786038
587.554428	58647.523558
587.907124	58888.742769
588.259765	58632.400096
588.612352	58941.422827
588.964884	58342.281692
589.317362	58549.977231
589.669786	58538.382577
590.022155	58197.348519
590.374470	58712.806500
590.726731	58229.611904
591.078937	58018.135500
591.431090	57987.132404
591.783188	57830.856635
592.135232	57490.074635
592.487222	57717.934788
592.839157	57715.666269
593.191038	57483.521135
593.542866	57297.502558
593.894639	56648.454000
594.246358	56999.570365
594.598022	57028.557000
594.949633	56678.952981
595.301190	56631.566135
595.652692	56386.061942
596.004141	56560.485865
596.355535	55877.157462
596.706876	55731.468115
597.058162	55731.216058
597.409395	56018.057712
597.760573	56029.652365
598.111698	55634.173846
598.462768	55759.950635
598.813785	55874.888942
599.164748	55220.547173
599.515657	55627.116231
599.866511	55163.582135
600.217312	55441.097654
600.568060	54590.907058
600.918753	55145.181923
601.269392	55176.941192
601.619978	54879.009000
601.970510	55107.373269
602.320988	55295.660365
602.671412	55720.629635
603.021783	55370.017385
603.372100	55033.520365
603.722363	54950.089269
604.072572	55118.715865
604.422728	55308.767365
604.772830	55023.690115
605.122878	55055.701442
605.472872	54906.483288
605.822813	55254.827019
606.172701	55021.673654
606.522534	55166.858885
606.872314	55461.514327
607.222041	55104.096519
607.571714	55572.167654
607.921333	54905.979173
608.270899	55273.983404
608.620411	55503.860019
608.969870	55457.229346
609.319276	55232.141827
609.668627	55358.422731
610.017926	55732.728404
610.367171	55875.393058
610.716362	55924.544308
611.065500	55770.285000
611.414585	55744.827173
611.763616	56176.349942
612.112594	56080.315962
612.461518	56274.904500
612.810389	56412.023885
613.159207	56187.188423
613.507971	56322.543404
613.856682	56599.302750
614.205340	56545.866519
614.553945	57028.557000
614.902496	56638.623750
615.250994	56950.923231
615.599439	57002.343000
615.947830	57088.042615
616.296169	57111.988096
616.644454	57113.500442
616.992686	57210.542654
617.340864	57451.257750
617.688990	57368.078712
618.037063	57702.055154
618.385082	57546.283500
618.733048	57738.099404
619.080961	57751.962577
619.428821	57650.887442
619.776628	57837.158077
620.124382	57556.113750
620.472083	57624.673442
620.819731	57740.367923
621.167326	57415.465558
621.514868	57315.650712
621.862357	56981.926327
622.209793	56855.393365
622.557176	56507.301692
622.904506	56364.889096
623.251783	56038.978500
623.599007	55835.567942
623.946179	55331.956673
624.293297	55414.127481
624.640363	54593.175577
624.987376	54653.165308
625.334336	54288.689885
625.681243	53831.457231
626.028097	53645.186596
626.374899	53283.483808
626.721647	53359.605231
627.068343	53255.001288
627.414987	52755.422942
627.761577	52403.046288
628.108115	52572.681115
628.454600	51999.501923
628.801032	52075.623346
629.147412	51891.621231
629.493739	51857.089327
629.840014	51489.841269
630.186236	51582.850558
630.532405	51048.236192
630.878521	51239.547981
631.224585	51069.156981
631.570597	50593.524115
631.916556	50606.379058
632.262462	50414.815212
632.608316	50344.239058
632.954117	50324.074442
633.299866	50171.075423
633.645562	49902.633981
633.991206	49289.377615
634.336797	48702.083192
634.682336	48743.924769
635.027823	48247.119058
635.373257	47870.544865
635.718639	47642.684712
636.063968	47406.758712
636.409245	46651.593865
636.754470	46560.601038
637.099642	46101.099865
637.444762	45688.985538
637.789829	45522.375404
638.134845	45093.373212
638.479808	45115.050173
638.824719	44684.787692
639.169577	44130.260769
639.514383	44069.262808
639.859137	43674.540462
640.203839	44023.136250
640.548489	43288.388077
640.893086	43487.765712
641.237632	43011.124615
641.582125	42935.759365
641.926566	42949.118423
642.270955	42723.022673
642.615292	42635.810712
642.959576	42588.423865
643.303809	42309.143942
643.647990	42607.832308
643.992118	42383.500962
644.336195	42344.432019
644.680219	42226.216962
645.024192	42640.851865
645.368112	42919.123558
645.711981	42759.066923
646.055797	43780.656750
646.399562	43621.860404
646.743274	44470.790712
647.086935	44988.013096
647.430544	44610.682731
647.774101	44855.934865
648.117606	44997.339231
648.461059	45436.171673
648.804460	45179.072827
649.147810	44252.004635
649.491108	44184.957288
649.834354	43265.450827
650.177548	42233.274577
650.520690	41993.567712
650.863781	41880.393808
651.206820	41461.725981
651.549807	40957.610596
651.892742	40466.854269
652.235626	40146.236885
652.578458	39699.338596
652.921238	39165.228346
653.263967	39311.421808
653.606644	38916.699462
653.949269	38599.106769
654.291843	38112.383365
654.634365	38664.137654
654.976836	38093.226981
655.319255	37834.867846
655.661622	37946.025288
656.003938	37627.928481
656.346203	37493.077615
656.688416	37613.813250
657.030577	37164.394385
657.372687	37054.497231
657.714746	37323.442788
658.056753	37194.137192
658.398708	36606.590712
658.740612	36630.788250
659.082465	36898.725577
659.424266	36622.974462
659.766016	36787.568135
660.107715	36671.873654
660.449362	36668.848962
660.790958	36494.425038
661.132503	36671.117481
661.473996	36403.180154
661.815438	36541.055712
662.156829	36771.184385
662.498168	36416.539212
662.839456	36420.068019
663.180693	36423.596827
663.521879	36639.106154
663.863013	36493.416808
664.204097	36412.254231
664.545129	36969.553788
664.886110	36882.593885
665.227040	36810.505385
665.567918	37012.151538
665.908746	36998.288365
666.249522	37255.639269
666.590248	37023.242077
666.930922	37203.967442
667.271545	37200.690692
667.612118	37094.826462
667.952639	36995.515731
668.293109	37038.113481
668.633528	36941.827442
668.973896	36828.653538
669.314213	36814.286250
669.654480	36510.808788
669.994695	36467.958981
670.334859	36135.999000
670.674973	36266.312827
671.015035	36298.576212
671.355047	36186.158481
671.695008	35930.067865
672.034918	35935.613135
672.374777	35980.227346
672.714585	35895.535962
673.054342	36055.592596
673.394049	35882.176904
673.733705	35959.054500
674.073310	35720.607923
674.412864	35744.301346
674.752368	35259.846462
675.091820	35657.593500
675.431223	35290.849558
675.770574	34943.009942
676.109875	34584.583904
676.449125	34369.074577
676.788324	34212.798808
677.127473	33756.070269
677.466571	33549.130904
677.805619	33140.293327
678.144616	33199.022769
678.483562	32971.666731
678.822458	32651.301404
679.161303	32518.971115
679.500098	32290.606846
679.838842	32208.688096
680.177535	32287.330096
680.516179	32620.298308
680.854771	32696.671788
681.193314	33470.740962
681.531805	34555.849327
681.870247	35457.207635
682.208638	36428.890038
682.546978	36833.694692
682.885268	36950.901519
683.223508	36554.162712
683.561697	36086.847750
683.899836	35897.300365
684.237925	35325.633519
684.575963	35251.528558
684.913951	34792.279442
685.251889	34774.635404
685.589776	34721.955346
685.927614	34706.075712
686.265401	34956.873115
686.603137	34930.155000
686.940824	35435.782731
687.278460	35925.782885
687.616046	36000.139904
687.953582	36644.651423
688.291068	36619.949769
688.628504	37016.940635
688.965889	36928.720442
689.303224	36587.686385
689.640510	36298.324154
689.977745	35693.133635
690.314930	35053.159154
690.652065	34276.065288
690.989150	33517.371635
691.326185	32510.401154
691.663170	31615.092231
692.000105	30964.783385
692.336990	30175.338692
692.673825	29685.842654
693.010610	28949.582135
693.347345	28371.109731
693.684030	27805.744327
694.020665	27323.557962
694.357251	26774.828365
694.693786	26575.450731
695.030272	26282.811750
695.366707	25716.942231
695.703093	25506.726115
696.039429	25326.252808
696.375716	25116.288750
696.711952	24955.223885
697.048139	24827.430635
697.384276	24751.057154
697.720363	24955.728000
698.056400	24655.023173
698.392388	24495.470654
698.728326	24465.223731
699.064214	24200.815212
699.400053	24249.210288
699.735842	23870.871692
700.071581	23371.293346
700.407270	23290.886942
700.742910	23044.626577
701.078501	22857.851827
701.414042	22517.069827
701.749533	22125.876288
702.084974	21755.351481
702.420366	21954.981173
702.755709	21519.929596
703.091002	21190.994308
703.426246	21185.701096
703.761440	21082.861558
704.096584	20805.850154
704.431679	20739.558981
704.766725	20588.828481
705.101721	20545.222500
705.436668	20672.259577
705.771565	20294.173038
706.106413	20741.827500
706.441212	20624.872731
706.775961	20693.180365
707.110661	20944.986000
707.445311	21268.880135
707.779913	20979.265846
708.114465	21413.813308
708.448967	21661.586019
708.783421	22480.521462
709.117825	22640.578096
709.452180	22983.628615
709.786485	23349.112269
710.120742	24213.670154
710.454949	24307.687673
710.789107	24840.789692
711.123216	25624.689115
711.457275	25951.860000
711.791286	26458.495962
712.125247	26660.142115
712.459159	26373.300462
712.793023	27172.575404
713.126837	26190.054519
713.460602	26396.993885
713.794318	26062.765385
714.127985	25723.747788
714.461602	24666.869885
714.795171	24684.765981
715.128691	23482.954904
715.462162	22995.727385
715.795584	22476.992654
716.128957	22219.893808
716.462281	21717.038712
716.795556	21515.896673
717.128782	21022.115654
717.461960	20421.966288
717.795088	20270.227558
718.128167	19769.893038
718.461198	19321.734462
718.794180	19173.272481
719.127113	18787.372154
719.459997	18673.442077
719.792833	18279.727962
720.125619	18121.183673
720.458357	17834.846135
720.791046	17627.906769
721.123686	17473.395404
721.456278	17270.993077
721.788821	17217.052731
722.121315	16823.590673
722.453761	16922.649346
722.786158	16875.262500
723.118506	16902.736788
723.450805	16752.510404
723.783056	16942.057788
724.115259	16834.681212
724.447412	16727.052577
724.779518	17013.390115
725.111574	17128.832538
725.443582	17310.818192
725.775542	17259.650481
726.107453	17745.365654
726.439315	17566.908808
726.771129	18176.384308
727.102895	18541.111788
727.434612	18803.755904
727.766281	19033.632519
728.097901	19397.351769
728.429473	19428.606923
728.760996	19541.780827
729.092471	19572.783923
729.423897	19423.565769
729.755276	19387.773577
730.086606	19395.335308
730.417887	19877.269615
730.749120	20440.114442
731.080305	20705.279135
731.411442	21044.800846
731.742530	21355.083865
732.073570	21350.042712
732.404562	21897.512019
732.735506	21847.352538
733.066401	21638.900827
733.397249	21018.082731
733.728048	20467.084615
734.058798	19494.898096
734.389501	18582.449250
734.720156	18101.523173
735.050762	17367.027058
735.381320	17016.666865
735.711831	16715.709981
736.042293	16315.190308
736.372707	16243.101808
736.703073	16051.033846
737.033391	16339.639904
737.363661	16252.175885
737.693883	16252.680000
738.024056	16433.909481
738.354182	16710.668827
738.684260	16970.036192
739.014290	17373.832615
739.344272	17634.460269
739.674207	17987.593096
740.004093	18139.331827
740.333931	18088.668231
740.663722	18381.307212
740.993464	18322.577769
741.323159	18223.771154
741.652806	17957.346173
741.982405	17720.411942
742.311956	17405.591885
742.641460	17262.423115
742.970915	16868.709000
743.300323	16536.749019
743.629683	16307.880635
743.958996	15922.232365
744.288260	15645.473019
744.617477	15305.447192
744.946647	15242.432769
745.275768	14843.677500
745.604842	14643.291635
745.933869	14460.045692
746.262847	14410.894442
746.591778	14330.235981
746.920662	14211.768865
747.249498	14223.867635
747.578286	14255.878962
747.907027	14517.514846
748.235720	14690.174365
748.564365	14836.115769
748.892963	14757.473769
749.221514	14841.913096
749.550017	14701.012846
749.878473	14700.760788
750.206881	14494.073481
750.535242	14382.663981
750.863555	14300.997288
751.191821	14152.283250
751.520039	14208.996231
751.848210	14125.061019
752.176334	14201.182442
752.504411	14005.081558
752.832440	13942.067135
753.160421	14023.985885
753.488356	13790.328404
753.816243	13793.101038
754.144082	13605.822173
754.471875	13543.563923
754.799620	13486.346827
755.127318	13509.032019
755.454969	13414.510385
755.782572	13440.220269
756.110129	13493.152385
756.437638	13361.074154
756.765100	13375.693500
757.092515	13290.245942
757.419882	13334.356038
757.747203	13399.638981
758.074477	13464.921923
758.401703	13390.816962
758.728882	13543.815981
759.056014	13725.549577
759.383099	13771.424077
759.710138	13973.826404
760.037129	14070.868615
760.364073	14158.332635
760.690970	14137.915962
761.017820	14132.118635
761.344623	14383.168096
761.671379	14706.306058
761.998088	15230.081942
762.324751	16683.698654
762.651366	19719.481500
762.977935	24350.537481
763.304456	27938.830788
763.630931	29539.145077
763.957359	28776.418500
764.283740	26519.745981
764.610074	24265.089923
764.936362	21620.248558
765.262602	19481.791096
765.588796	17469.614538
765.914943	16025.828077
766.241044	14806.877077
766.567097	13857.627808
766.893104	13154.890962
767.219064	12683.038962
767.544978	12182.704442
767.870845	11748.661096
768.196665	11512.230981
768.522438	11236.731923
768.848165	11014.669096
769.173846	10846.546615
769.499479	10642.127827
769.825066	10485.347942
770.150607	10259.756308
770.476101	10249.421942
770.801548	10070.208923
771.126949	9895.028827
771.452303	9762.194423
771.777611	9603.902192
772.102872	9522.991673
772.428087	9356.885654
772.753256	9249.004962
773.078378	9150.450404
773.403453	8972.497673
773.728482	8838.150923
774.053465	8805.383423
774.378401	8700.023308
774.703291	8502.158019
775.028135	8454.267058
775.352932	8369.071558
775.677683	8258.670288
776.002388	8148.016962
776.327046	8110.460365
776.651658	8044.421250
776.976224	7850.084769
777.300743	7869.745269
777.625216	7826.391346
777.949643	7741.447904
778.274024	7706.159827
778.598359	7733.382058
778.922647	7714.981846
779.246889	7643.397462
779.571086	7609.621731
779.895236	7684.734923
780.219339	7675.156731
780.543397	7697.085750
780.867409	7756.319308
781.191374	7741.952019
781.515294	7738.927327
781.839167	7760.100173
782.162995	7754.554904
782.486776	7755.059019
782.810511	7663.057962
783.134201	7548.371712
783.457844	7604.580577
783.781441	7480.568192
784.104993	7478.047615
784.428498	7439.986904
784.751958	7410.244096
785.075372	7358.320212
785.398739	7341.180288
785.722061	7344.709096
786.045337	7368.906635
786.368568	7471.746173
786.691752	7538.289404
787.014891	7778.500385
787.337983	8066.854385
787.661030	8667.003750
787.984031	9248.500846
788.306987	9689.853865
788.629897	10026.855000
788.952760	9970.142019
789.275579	9797.482500
789.598351	9440.064692
789.921078	9057.693173
790.243759	8671.288731
790.566395	8477.960481
790.888984	8079.961385
791.211529	7896.715442
791.534027	7659.277096
791.856480	7432.929288
792.178888	7313.453942
792.501249	7237.584577
792.823566	7113.068077
793.145836	7060.135962
793.468062	7082.317038
793.790241	7025.352000
794.112375	7073.495019
794.434464	7190.953904
794.756507	7218.932308
795.078505	7342.944692
795.400457	7589.205058
795.722364	7904.277173
796.044226	8291.941904
796.366042	8494.092173
796.687812	8534.169346
797.009538	8651.124115
797.331218	8481.237231
797.652852	8455.779404
797.974442	8286.396635
798.295986	8204.729942
798.617484	7983.171231
798.938938	7872.517904
799.260346	7755.815192
799.581709	7593.742096
799.903026	7521.149481
800.224299	7398.145327
800.545526	7201.288269
800.866708	7131.720346
801.187845	7061.396250
801.508936	6965.614327
801.829983	6879.662654
802.150984	6753.381750
802.471940	6720.362192
802.792851	6685.326173
803.113717	6664.657442
803.434538	6597.358038
803.755314	6601.138904
804.076045	6581.478404
804.396731	6508.381673
804.717372	6512.414596
805.037967	6524.513365
805.358518	6561.313788
805.679024	6643.484596
805.999485	6626.092615
806.319901	6718.093673
806.640272	6695.912596
806.960598	6757.666731
807.280879	6798.248019
807.601115	6816.396173
807.921306	6843.114288
808.241453	6845.886923
808.561554	6821.437327
808.881611	6867.563885
809.201623	6754.642038
809.521590	6780.603981
809.841513	6756.406442
810.161390	6792.450692
810.481223	6661.380692
810.801011	6629.117308
811.120755	6595.341577
811.440453	6591.560712
811.760107	6485.948538
812.079716	6455.197500
812.399281	6394.703654
812.718801	6387.646038
813.038276	6342.023596
813.357707	6287.831192
813.677093	6329.168654
813.996434	6256.071923
814.315731	6250.022538
814.634983	6267.162462
814.954191	6293.628519
815.273354	6394.451596
815.592473	6441.082269
815.911547	6526.025712
816.230577	6580.722231
816.549562	6729.436269
816.868502	6844.626635
817.187399	6872.100923
817.506250	7030.645212
817.825058	7102.229596
818.143821	7337.903538
818.462539	7576.098058
818.781213	7780.516846
819.099843	8293.202192
819.418429	9157.508019
819.736970	10114.571077
820.055466	11115.996288
820.373919	12512.143846
820.692327	14347.627962
821.010691	17497.592942
821.329011	24515.131154
821.647286	36103.735615
821.965517	49925.319173
822.283704	58125.764135
822.601847	61255.564500
822.919945	59464.946654
823.237999	55721.133750
823.556010	49694.182269
823.873976	42998.017615
824.191897	36617.429192
824.509775	31539.222865
824.827609	26826.500192
825.145398	23897.085692
825.463144	22154.862923
825.780845	22068.911250
826.098502	23132.846769
826.416116	26122.755115
826.733685	29943.949731
827.051210	32051.908212
827.368692	31163.152788
827.686129	27905.811231
828.003522	24073.021962
828.320872	20373.319154
828.638177	17364.758538
828.955439	15155.220808
829.272656	13276.130712
829.589830	11804.365846
829.906960	10531.222442
830.224046	9538.871308
830.541088	8790.259962
830.858086	8257.410000
831.175041	7932.003519
831.491952	7793.875904
831.808819	7738.171154
832.125642	7990.732962
832.442421	8704.812404
832.759157	9995.851904
833.075849	12445.600615
833.392497	15538.852615
833.709101	17968.940827
834.025662	18456.924519
834.342179	17388.199904
834.658653	15340.735269
834.975083	13426.357096
835.291469	11774.370981
835.607811	10461.906577
835.924110	9525.764308
836.240366	8708.845327
836.556578	7920.660923
836.872746	7237.332519
837.188871	6670.202712
837.504952	6263.129538
837.820990	6004.266288
838.136984	5785.480212
838.452935	5651.385519
838.768842	5567.954423
839.084706	5878.741558
839.400526	6711.288115
839.716303	8182.044750
840.032037	9469.303385
840.347727	9795.213981
840.663373	9052.904077
840.978977	8031.818365
841.294537	7218.680250
841.610054	6604.667712
841.925527	6139.117154
842.240957	5745.403038
842.556344	5482.758923
842.871687	5163.905942
843.186987	4915.629115
843.502244	4671.637269
843.817458	4497.969519
844.132629	4378.242115
844.447756	4273.890231
844.762840	4187.686500
845.077881	4138.283192
845.392879	4093.164865
845.707833	4006.457019
846.022745	3959.826346
846.337613	3914.708019
846.652438	3886.981673
846.967221	3869.841750
847.281960	3836.570135
847.596656	3803.802635
847.911309	3833.545442
848.225919	3805.062923
848.540485	3768.514558
848.855009	3771.035135
849.169490	3755.407558
849.483928	3743.812904
849.798323	3755.407558
850.112675	3708.776885
850.426984	3703.735731
850.741251	3711.801577
851.055474	3689.116385
851.369654	3687.604038
851.683792	3668.195596
851.997887	3685.083462
852.311938	3708.524827
852.625947	3665.675019
852.939914	3708.272769
853.253837	3703.231615
853.567718	3681.050538
853.881555	3686.343750
854.195350	3684.579346
854.509103	3670.968231
854.822812	3667.439423
855.136479	3651.559788
855.450103	3744.569077
855.763685	3688.612269
856.077224	3687.856096
856.390720	3700.206923
856.704173	3697.686346
857.017584	3721.127712
857.330953	3749.358173
857.644278	3764.481635
857.957561	3750.114346
858.270802	3805.567038
858.584000	3777.084519
858.897155	3762.717231
859.210268	3769.522788
859.523339	3730.453846
859.836367	3719.867423
860.149352	3682.814942
860.462295	3719.615365
860.775195	3667.691481
861.088054	3715.330385
861.400869	3669.960000
861.713642	3695.921942
862.026373	3691.384904
862.339062	3698.190462
862.651708	3710.793346
862.964312	3739.527923
863.276873	3735.495000
863.589392	3809.095846
863.901869	3806.071154
864.214303	3912.691558
864.526696	3944.450827
864.839045	3957.053712
865.151353	3986.292404
865.463619	3989.065038
865.775842	4032.923077
866.088023	4033.175135
866.400162	4024.605173
866.712258	4033.931308
867.024313	3996.122654
867.336325	4016.539327
867.648296	4013.010519
867.960224	4040.736865
868.272110	4033.175135
868.583954	4020.320192
868.895755	4065.942635
869.207515	4038.468346
869.519233	4078.041404
869.830909	4081.570212
870.142542	4174.579500
870.454134	4124.672077
870.765684	4163.488962
871.077191	4179.368596
871.388657	4212.136096
871.700081	4262.043519
872.011463	4267.336731
872.322803	4304.893327
872.634101	4315.983865
872.945357	4373.200962
873.256571	4443.525058
873.567744	4453.355308
873.878874	4480.829596
874.189963	4511.328577
874.501010	4511.580635
874.812015	4488.391327
875.122979	4514.857385
875.433900	4549.893404
875.744780	4503.262731
876.055618	4592.743212
876.366415	4580.644442
876.677169	4603.581692
876.987882	4626.771000
877.298554	4683.988096
877.609183	4752.547788
877.919771	4840.263865
878.230317	4921.930558
878.540822	5112.990288
878.851285	5395.799019
879.161707	5759.014154
879.472087	6390.166615
879.782425	7270.352077
880.092722	9009.046038
880.402977	11600.955288
880.713191	15052.129212
881.023363	18673.694135
881.333494	21249.219635
881.643583	22847.517462
881.953631	23092.517538
882.263637	22384.739538
882.573602	21164.024135
882.883526	19888.612212
883.193408	18187.978962
883.503248	16735.622538
883.813048	15214.958481
884.122806	13871.238923
884.432522	12404.011096
884.742197	11201.191788
885.051831	10151.371500
885.361424	9127.009038
885.670975	8366.803038
885.980485	7735.398519
886.289954	7179.863365
886.599382	6717.085442
886.908768	6344.292115
887.218113	5994.688096
887.527417	5701.797058
887.836680	5465.871058
888.145901	5301.781500
888.455082	5108.453250
888.764221	4985.953212
889.073319	4853.874981
889.382376	4743.473712
889.691392	4732.383173
890.000366	4648.952077
890.309300	4639.121827
890.618193	4624.754538
890.927044	4642.902692
891.235855	4625.006596
891.544625	4678.694885
891.853353	4688.777192
892.162041	4773.720635
892.470687	4924.451135
892.779293	5135.171365
893.087858	5400.336058
893.396381	5888.823865
893.704864	6460.490712
894.013306	7402.430308
894.321707	8544.755769
894.630068	9391.921673
894.938387	9799.246904
895.246665	9754.632692
895.554903	9320.085231
895.863100	8651.880288
896.171256	8120.290615
896.479371	7667.595000
896.787446	7164.739904
897.095480	6760.691423
897.403473	6457.970135
897.711425	6188.520462
898.019336	5877.985385
898.327207	5647.100538
898.635038	5422.265077
898.942827	5153.571577
899.250576	4998.051981
899.558284	4851.858519
899.865952	4734.147577
900.173579	4578.375923
900.481165	4504.775077
900.788711	4375.469481
901.096216	4332.619673
901.403681	4241.122731
901.711105	4227.763673
902.018489	4208.355231
902.325832	4259.522942
902.633135	4325.814115
902.940397	4566.277154
903.247619	5084.003654
903.554800	6156.761192
903.861941	7844.035385
904.169041	9389.401096
904.476101	10259.000135
904.783121	10326.299538
905.090100	9622.302404
905.397039	8877.471923
905.703938	8219.097231
906.010796	7506.026019
906.317614	7008.464135
906.624391	6524.765423
906.931129	6115.675788
907.237826	5740.109827
907.544483	5380.675558
907.851099	5039.893558
908.157675	4700.371846
908.464211	4359.085731
908.770707	4135.510558
909.077163	3965.623673
909.383578	3809.347904
909.689954	3721.883885
909.996289	3646.014519
910.302584	3577.202769
910.608839	3553.509346
910.915054	3532.588558
911.221229	3516.960981
911.527363	3521.750077
911.833458	3520.237731
912.139513	3559.810788
912.445527	3552.501115
912.751502	3629.126654
913.057436	3697.938404
913.363331	3863.036192
913.669186	3942.686423
913.975000	4193.231769
914.280775	4496.961288
914.586510	4940.330769
914.892205	5615.089212
915.197859	6468.556558
915.503475	7475.022923
915.809050	8507.703288
916.114585	9340.501904
916.420081	9661.623404
916.725536	9716.824038
917.030952	9370.244712
917.336328	9066.011077
917.641665	8705.064462
917.946961	8244.555058
918.252218	7814.292577
918.557435	7361.344904
918.862612	6972.924000
919.167750	6620.547346
919.472848	6210.701538
919.777906	5911.257000
920.082925	5475.701308
920.387904	5228.180654
920.692843	4929.996404
920.997743	4741.457250
921.302603	4527.460269
921.607423	4364.883058
921.912204	4232.048654
922.216946	4133.746154
922.521647	3971.421000
922.826310	3923.530038
923.130932	3819.934327
923.435516	3745.829365
923.740059	3668.951769
924.044564	3607.197635
924.349028	3533.848846
924.653454	3479.404385
924.957840	3434.538115
925.262186	3394.965058
925.566493	3320.860096
925.870761	3282.295269
926.174989	3258.853904
926.479178	3234.404308
926.783328	3193.570962
927.087438	3154.754077
927.391509	3144.923827
927.695541	3086.446442
927.999533	3047.377500
928.303486	3061.996846
928.607400	3012.341481
928.911275	3010.577077
929.215110	3003.267404
929.518906	2986.379538
929.822663	3018.390865
930.126381	2992.176865
930.430060	3031.749923
930.733699	2966.214923
931.037299	3039.563712
931.340861	2978.817808
931.644383	3018.390865
931.947866	3026.960827
932.251309	3039.059596
932.554714	3014.610000
932.858080	3004.527692
933.161407	3002.259173
933.464694	2989.908346
933.767943	2986.631596
934.071153	2977.557519
934.374323	2969.995788
934.677455	2978.313692
934.980548	2981.590442
935.283602	2962.182000
935.586617	2948.570885
935.889593	2958.905250
936.192530	2971.004019
936.495428	2969.491673
936.798287	2964.702577
937.101108	3016.122346
937.403890	3073.339442
937.706632	3111.400154
938.009336	3157.274654
938.312002	3229.111096
938.614628	3287.840538
938.917216	3360.181096
939.219765	3362.197558
939.522275	3427.228442
939.824747	3434.034000
940.127179	3420.927000
940.429573	3405.551481
940.731929	3421.431115
941.034246	3381.353942
941.336524	3391.436250
941.638763	3377.573077
941.940964	3379.337481
942.243126	3313.046308
942.545250	3281.791154
942.847335	3273.977365
943.149381	3225.582288
943.451389	3199.872404
943.753359	3178.195442
944.055290	3162.819923
944.357182	3141.142962
944.659036	3126.019500
944.960851	3135.093577
945.262628	3098.293154
945.564367	3103.586365
945.866067	3087.202615
946.167729	3094.008173
946.469352	3094.008173
946.770937	3101.065788
947.072484	3097.789038
947.373992	3072.079154
947.675462	3059.728327
947.976893	3053.426885
948.278286	3059.476269
948.579641	3034.270500
948.880958	3030.489635
949.182236	3043.344577
949.483476	3013.601769
949.784678	3041.076058
950.085841	3017.886750
950.386967	3035.278731
950.688054	3060.736558
950.989103	3079.892942
951.290114	3104.594596
951.591087	3099.301385
951.892021	3105.854885
952.192917	3156.014365
952.493776	3181.976308
952.794596	3169.121365
953.095378	3193.570962
953.396122	3219.028788
953.696828	3172.146058
953.997496	3201.384750
954.298126	3157.274654
954.598718	3152.233500
954.899272	3129.548308
955.199788	3102.074019
955.500266	3057.207750
955.800706	3047.377500
956.101108	3006.040038
956.401472	2962.686115
956.701798	2932.691250
957.002087	2913.786923
957.302337	2901.184038
957.602550	2862.871269
957.902724	2836.909327
958.202861	2818.761173
958.502960	2800.613019
958.803022	2757.007038
959.103045	2771.122269
959.403031	2748.689135
959.702979	2725.499827
960.002889	2739.110942
960.302762	2732.809500
960.602596	2698.277596
960.902393	2696.261135
961.202153	2663.493635
961.501875	2688.195288
961.801559	2665.005981
962.101205	2677.608865
962.400814	2661.729231
962.700385	2683.658250
962.999918	2657.948365
963.299414	2647.361942
963.598873	2635.515231
963.898293	2662.737462
964.197677	2636.775519
964.497022	2623.164404
964.796331	2614.594442
965.095601	2643.329019
965.394835	2617.115019
965.694030	2629.213788
965.993189	2600.731269
966.292309	2659.460712
966.591393	2639.296096
966.890439	2607.536827
967.189447	2615.350615
967.488419	2604.764192
967.787353	2628.709673
968.086249	2624.424692
968.385108	2607.284769
968.683930	2633.498769
968.982714	2627.701442
969.281462	2645.597538
969.580172	2624.424692
969.878844	2650.386635
970.177480	2668.534788
970.476078	2665.005981
970.774639	2665.762154
971.073162	2677.104750
971.371649	2655.427788
971.670098	2687.439115
971.968510	2671.811538
972.266885	2694.496731
972.565223	2685.170596
972.863524	2700.546115
973.161788	2683.406192
973.460014	2724.995712
973.758204	2698.781712
974.056356	2718.442212
974.354471	2698.529654
974.652550	2686.935000
974.950591	2689.455577
975.248595	2701.806404
975.546563	2713.401058
975.844493	2682.902077
976.142386	2701.554346
976.440243	2676.852692
976.738062	2692.228212
977.035845	2670.047135
977.333590	2670.047135
977.631299	2650.638692
977.928971	2691.976154
978.226606	2651.646923
978.524204	2665.005981
978.821765	2649.378404
979.119290	2667.526558
979.416777	2669.290962
979.714228	2666.266269
980.011642	2670.803308
980.309020	2667.022442
980.606360	2680.633558
980.903664	2727.516288
981.200931	2740.119173
981.498162	2750.705596
981.795356	2822.289981
982.092513	2888.329096
982.389633	2975.793115
982.686717	3076.868250
982.983764	3152.989673
983.280775	3187.269519
983.577749	3214.491750
983.874686	3234.656365
984.171587	3156.518481
984.468451	3151.477327
984.765279	3124.255096
985.062070	3064.769481
985.358824	3045.108981
985.655543	2990.160404
985.952224	2929.666558
986.248869	2874.717981
986.545478	2827.331135
986.842050	2765.324942
987.138586	2721.971019
987.435086	2703.822865
987.731549	2654.167500
988.027975	2668.282731
988.324366	2658.704538
988.620719	2600.731269
988.917037	2588.380442
989.213318	2599.723038
989.509563	2599.218923
989.805772	2590.396904
990.101944	2563.930846
990.398080	2580.062538
990.694180	2580.062538
990.990244	2568.467885
991.286271	2582.079000
991.582262	2586.111923
991.878217	2590.648962
992.174136	2587.120154
992.470019	2598.210692
992.765865	2581.070769
993.061676	2616.862962
993.357450	2597.202462
993.653188	2597.202462
993.948890	2635.515231
994.244556	2642.824904
994.540186	2659.964827
994.835780	2674.584173
995.131337	2704.074923
995.426859	2746.168558
995.722345	2815.988538
996.017795	2836.153154
996.313208	2854.805423
996.608586	2887.572923
996.903928	2903.704615
997.199234	2918.576019
997.494504	2947.058538
997.789738	2879.507077
998.084936	2874.970038
998.380099	2858.334231
998.675225	2845.227231
998.970316	2804.393885
999.265371	2774.651077
999.560390	2744.404154
999.855373	2731.297154
1000.150320	2675.844462
1000.445232	2672.315654
1000.740108	2629.717904
1001.034948	2640.808442
1001.329752	2617.115019
1001.624521	2609.049173
1001.919254	2585.607808
1002.213951	2565.695250
1002.508613	2579.054308
1002.803239	2597.958635
1003.097829	2555.865000
1003.392384	2543.262115
1003.686903	2553.092365
1003.981386	2553.344423
1004.275834	2575.525500
1004.570246	2566.703481
1004.864623	2547.799154
1005.158964	2578.046077
1005.453270	2541.749769
1005.747540	2535.700385
1006.041775	2544.270346
1006.335974	2524.105731
1006.630138	2509.486385
1006.924266	2519.568692
1007.218359	2545.026519
1007.512416	2540.489481
1007.806438	2512.763135
1008.100425	2573.509038
1008.394376	2522.845442
1008.688292	2530.155115
1008.982172	2523.853673
1009.276017	2546.538865
1009.569827	2532.423635
1009.863602	2540.237423
1010.157341	2552.840308
1010.451045	2545.278577
1010.744714	2543.766231
1011.038347	2523.097500
1011.331945	2539.229192
1011.625508	2519.064577
1011.919036	2539.481250
1012.212528	2516.039885
1012.505986	2522.089269
1012.799408	2532.675692
1013.092795	2515.535769
1013.386147	2536.204500
1013.679464	2508.226096
1013.972745	2521.837212
1014.265992	2524.861904
1014.559204	2531.919519
1014.852380	2541.749769
1015.145521	2522.845442
1015.438628	2520.828981
1015.731699	2521.081038
1016.024736	2526.878365
1016.317737	2529.903058
1016.610703	2543.010058
1016.903635	2528.894827
1017.196531	2552.336192
1017.489393	2506.965808
1017.782219	2518.560462
1018.075011	2525.618077
1018.367768	2534.944212
1018.660490	2520.072808
1018.953177	2520.072808
1019.245829	2520.072808
