Dividing Wavelength (nm)	Counts (n)	Slit_number_5_of_a_total_of_40	
326.493990	1981.173462
326.888308	1981.173462
327.282561	1981.173462
327.676750	1990.415577
328.070874	2007.219423
328.464933	2008.059615
328.858929	1924.040385
329.252859	2029.064423
329.646726	2026.543846
330.040528	2056.790769
330.434265	2066.032885
330.827938	2081.996538
331.221547	2101.320962
331.615091	2108.042500
332.008571	2132.408077
332.401986	2176.938269
332.795338	2181.979423
333.188625	2231.550769
333.581847	2244.153654
333.975006	2231.550769
334.368100	2255.916346
334.761129	2273.560385
335.154095	2282.802500
335.546996	2356.739423
335.939833	2447.480192
336.332606	2463.443846
336.725315	2407.991154
337.117960	2462.603654
337.510540	2510.494615
337.903056	2504.613269
338.295508	2479.407500
338.687896	2482.768269
339.080220	2487.809423
339.472480	2482.768269
339.864676	2557.545385
340.256807	2516.375962
340.648875	2531.499423
341.040879	2465.964423
341.432818	2487.809423
341.824694	2489.489808
342.216506	2513.015192
342.608253	2550.823846
342.999937	2564.266923
343.391557	2502.092692
343.783113	2490.330000
344.174605	2551.664038
344.566033	2518.896538
344.957397	2550.823846
345.348697	2502.092692
345.739934	2519.736731
346.131106	2465.964423
346.522215	2512.175000
346.913260	2489.489808
347.304241	2476.886923
347.695159	2565.107115
348.086012	2518.056346
348.476802	2544.102308
348.867528	2476.046731
349.258191	2524.777885
349.648789	2498.731923
350.039324	2457.562500
350.429796	2482.768269
350.820203	2514.695577
351.210548	2463.443846
351.600828	2458.402692
351.991045	2502.092692
352.381198	2494.530962
352.771288	2443.279231
353.161314	2492.850577
353.551276	2489.489808
353.941175	2512.175000
354.331010	2492.010385
354.720782	2486.969231
355.110490	2482.768269
355.500135	2506.293654
355.889717	2461.763462
356.279235	2495.371154
356.668689	2492.850577
357.058080	2445.799808
357.447408	2504.613269
357.836672	2487.809423
358.225873	2481.087885
358.615010	2457.562500
359.004084	2518.056346
359.393095	2510.494615
359.782043	2505.453462
360.170927	2500.412308
360.559748	2503.773077
360.948505	2493.690769
361.337199	2502.932885
361.725830	2473.526154
362.114398	2528.138654
362.502903	2482.768269
362.891344	2438.238077
363.279722	2497.051538
363.668037	2481.928077
364.056289	2503.773077
364.444478	2479.407500
364.832603	2473.526154
365.220665	2506.293654
365.608665	2527.298462
365.996601	2522.257308
366.384474	2543.262115
366.772284	2496.211346
367.160031	2531.499423
367.547715	2435.717500
367.935336	2515.535769
368.322893	2456.722308
368.710388	2525.618077
369.097820	2496.211346
369.485189	2533.179808
369.872495	2532.339615
370.259738	2501.252500
370.646918	2523.937692
371.034035	2524.777885
371.421090	2516.375962
371.808081	2554.184615
372.195010	2532.339615
372.581875	2573.509038
372.968678	2497.051538
373.355418	2524.777885
373.742096	2549.143462
374.128710	2510.494615
374.515262	2518.056346
374.901751	2518.056346
375.288177	2515.535769
375.674540	2545.782692
376.060841	2521.417115
376.447079	2513.855385
376.833254	2513.855385
377.219367	2512.175000
377.605417	2488.649615
377.991404	2520.576923
378.377329	2519.736731
378.763191	2524.777885
379.148991	2591.153077
379.534727	2528.978846
379.920402	2548.303269
380.306013	2531.499423
380.691563	2557.545385
381.077049	2602.075577
381.462474	2578.550192
381.847835	2604.596154
382.233134	2612.998077
382.618371	2591.993269
383.003545	2613.838269
383.388657	2636.523462
383.773706	2723.063269
384.158693	2634.843077
384.543618	2726.424038
384.928480	2692.816346
385.313280	2709.620192
385.698017	2732.305385
386.082692	2820.525577
386.467305	2748.269038
386.851856	2802.881538
387.236344	2807.922692
387.620770	2847.411731
388.005133	2883.540000
388.389435	2934.791731
388.773674	2952.435769
389.157851	2939.832885
389.541965	3005.367885
389.926018	3030.573654
390.310008	3045.697115
390.693936	3107.031154
391.077802	3106.190962
391.461606	3169.205385
391.845348	3183.488654
392.229027	3210.374808
392.612645	3281.791154
392.996200	3261.626538
393.379694	3351.527115
393.763125	3427.984615
394.146494	3451.510000
394.529801	3454.030577
394.913047	3578.379038
395.296230	3586.780962
395.679351	3587.621154
396.062410	3578.379038
396.445408	3590.141731
396.828343	3688.444231
397.211217	3638.032692
397.594028	3669.960000
397.976778	3711.129423
398.359466	3738.855769
398.742092	3803.550577
399.124656	3848.080769
399.507158	3838.838654
399.889598	3911.935385
400.271977	3940.501923
400.654294	3934.620577
401.036549	4069.051346
401.418742	4098.458077
401.800874	4158.111731
402.182944	4156.431346
402.564952	4233.729038
402.946898	4206.842885
403.328783	4269.857308
403.710606	4352.196154
404.092367	4464.781923
404.474067	4531.157115
404.855705	4512.672885
405.237282	4534.517885
405.618797	4607.614615
406.000250	4642.902692
406.381642	4834.466538
406.762972	4902.522115
407.144240	4933.609231
407.525447	4894.960385
407.906593	4958.815000
408.287677	5051.236154
408.668700	5114.250577
409.049661	5137.775962
409.430560	5147.018077
409.811399	5250.361731
410.192176	5307.494808
410.572891	5351.184808
410.953545	5513.341923
411.334138	5398.235577
411.714669	5565.433846
412.095139	5459.569615
412.475547	5630.968846
412.855894	5637.690385
413.236180	5751.956538
413.616405	5723.390000
413.996568	5723.390000
414.376670	5701.545000
414.756711	5790.605385
415.136691	5960.324231
415.516609	5999.813269
415.896466	6092.234423
416.276262	6183.815385
416.655997	6268.674808
417.035670	6383.781154
417.415283	6731.620769
417.794834	6777.831346
418.174324	6772.790192
418.553753	6804.717500
418.933121	6995.441154
419.312428	6963.513846
419.691674	6966.034423
420.070859	7007.203846
420.449983	7123.990577
420.829045	7220.612692
421.208047	7197.927500
421.586988	7443.263654
421.965867	7589.457115
422.344686	7715.485962
422.723444	7843.195192
423.102141	7491.994808
423.480777	7982.667115
423.859352	7860.839231
424.237866	8348.150769
424.616319	8266.652115
424.994712	8627.934808
425.373044	8561.559615
425.751314	8826.220192
426.129524	8632.975962
426.507673	9001.820385
426.885762	8931.244231
427.263789	9129.529615
427.641756	9116.086538
428.019662	9395.870577
428.397508	9338.737500
428.775292	9621.882308
429.153016	9702.540769
429.530679	9823.528462
429.908282	9824.368654
430.285824	9684.056538
430.663305	10224.300192
431.040726	9957.119038
431.418086	10039.457885
431.795385	10360.411346
432.172624	10685.565769
432.549802	10482.239231
432.926920	10494.842115
433.303977	10608.268077
433.680974	10728.415577
434.057910	10968.710577
434.434786	11027.524038
434.811601	11044.327885
435.188355	11608.096923
435.565050	11549.283462
435.941683	11578.690192
436.318257	12097.088846
436.694770	12081.965385
437.071222	12546.591731
437.447614	12165.984615
437.823946	12204.633462
438.200218	12270.168462
438.576429	12390.315962
438.952580	12402.918846
439.328670	12494.499808
439.704700	12765.881923
440.080670	12758.320192
440.456580	13120.443077
440.832429	13473.323846
441.208218	12865.864808
441.583947	13252.353269
441.959616	13222.946538
442.335224	13435.515192
442.710773	13550.621538
443.086261	14104.308269
443.461689	13668.248462
443.837057	13890.059231
444.212365	14321.077885
444.587612	14388.293269
444.962800	14062.298654
445.337927	14527.765192
445.712995	13712.778654
446.088002	14877.285192
446.462949	15202.439615
446.837837	15323.427308
447.212664	15327.628269
447.587431	16536.665000
447.962139	18349.800000
448.336786	20700.658077
448.711374	20865.335769
449.085901	18816.106731
449.460369	18293.507115
449.834776	17719.655769
450.209124	19011.031346
450.583412	19189.152115
450.957640	20374.663462
451.331808	19615.129615
451.705917	18502.715000
452.079965	18449.782885
452.453954	18493.472885
452.827883	18319.553077
453.201752	18675.794615
453.575562	18943.815962
453.949311	19750.400577
454.323001	19720.153654
454.696632	19712.591923
455.070202	20732.585385
455.443713	20763.672500
455.817164	21543.370962
456.190556	21692.925192
456.563888	21808.031538
456.937160	22380.202500
457.310373	21470.274231
457.683526	21702.167308
458.056619	21808.871731
458.429653	21570.257115
458.802628	21845.840192
459.175542	22175.195577
459.548398	22838.107308
459.921194	24429.431538
460.293930	24758.786923
460.666607	26417.326538
461.039224	27910.348269
461.411782	28984.954231
461.784280	28315.320962
462.156719	28386.737308
462.529099	28050.660385
462.901419	27260.879615
463.273680	26161.908077
463.645882	25903.969038
464.018024	25871.201538
464.390106	26274.493846
464.762130	27605.358462
465.134094	30271.288654
465.505999	34602.480000
465.877845	39432.745577
466.249631	42245.709423
466.621358	41826.453462
466.993026	40688.833077
467.364634	38834.528654
467.736184	36830.670000
468.107674	35642.638077
468.479105	35190.614615
468.850477	34662.133654
469.221790	33380.840385
469.593043	32067.619808
469.964238	31438.315769
470.335373	31073.672308
470.706449	31684.492115
471.077467	32439.825000
471.448425	36498.794038
471.819324	40517.433846
472.190164	41650.853269
472.560945	38678.252885
472.931667	35649.359615
473.302330	34210.950385
473.672934	33351.433654
474.043479	33463.179231
474.413965	32659.115192
474.784393	32541.488269
475.154761	33558.961154
475.525070	33470.740962
475.895321	32815.390962
476.265513	33699.273269
476.635645	34380.669231
477.005719	34483.172692
477.375734	35055.343654
477.745691	35572.061923
478.115588	36822.268077
478.485427	38095.159423
478.855207	40983.740577
479.224928	43895.847115
479.594591	46183.690769
479.964194	46825.597692
480.333739	47296.105385
480.703226	47196.122500
481.072653	47204.524423
481.442022	47885.920385
481.811333	49046.225962
482.180584	48001.026731
482.549777	48201.832692
482.918912	47730.484808
483.287988	47357.439423
483.657005	46629.832885
484.025964	46364.332115
484.394864	46455.913077
484.763706	46442.470000
485.132489	45429.198077
485.501213	45413.234423
485.869879	45719.064423
486.238487	45149.414038
486.607036	45651.849038
486.975527	45200.665769
487.343959	45866.098077
487.712333	45931.633077
488.080648	45971.962308
488.448905	46798.711538
488.817104	46660.920000
489.185244	47648.986154
489.553326	48323.660577
489.921350	51066.048269
490.289315	54094.101346
490.657222	55581.241731
491.025070	56804.561731
491.392861	56791.118654
491.760593	56035.785769
492.128267	55189.712115
492.495883	53651.320000
492.863440	52444.803846
493.230939	51053.445385
493.598380	49848.609615
493.965763	49499.089615
494.333088	48810.131923
494.700354	48654.696346
495.067563	48388.355385
495.434713	48329.541923
495.801805	48638.732692
496.168839	48071.602885
496.535815	48041.355962
496.902733	48206.033654
497.269593	47932.130962
497.636395	47973.300385
498.003139	48447.168846
498.369825	47996.825769
498.736453	48466.493269
499.103023	48448.009038
499.469535	48232.919808
499.835989	48546.311538
500.202385	48236.280577
500.568723	48690.824615
500.935003	49105.039423
501.301226	48739.555769
501.667390	49392.385192
502.033497	50237.618654
502.399546	49590.670577
502.765537	49213.424231
503.131470	49975.478654
503.497345	50052.776346
503.863163	49065.550385
504.228923	49576.387308
504.594625	50310.715385
504.960269	49677.210385
505.325856	50887.927500
505.691385	50031.771538
506.056856	50285.509615
506.422270	50557.731923
506.787625	50490.516538
507.152924	50762.738846
507.518164	51157.629231
507.883347	50268.705769
508.248472	50392.214038
508.613540	51199.638846
508.978550	51722.238462
509.343503	51396.243846
509.708398	51537.396154
510.073236	52324.656346
510.438016	52293.569231
510.802738	51991.100000
511.167403	52642.249038
511.532010	52843.895192
511.896561	53247.187500
512.261053	54027.726154
512.625488	53863.048462
512.989866	54107.544423
513.354186	53624.433846
513.718449	53769.787115
514.082655	54265.500577
514.446803	54232.733077
514.810894	54917.489808
515.174927	54329.355192
515.538904	54534.362115
515.902822	55401.440577
516.266684	54691.478077
516.630488	55088.889038
516.994235	55004.869808
517.357925	55227.520769
517.721558	55712.311731
518.085133	55731.636154
518.448651	56149.211731
518.812112	55819.856346
519.175516	56039.986731
519.538863	56193.741923
519.902152	56324.811923
520.265385	56630.641923
520.628560	56923.028846
520.991678	56481.927885
521.354739	56816.324423
521.717743	57022.171538
522.080690	56915.467115
522.443580	57312.037885
522.806413	57394.376731
523.169189	57233.059808
523.531908	57356.568077
523.894569	57192.730577
524.257174	57437.226538
524.619722	57755.659423
524.982213	57454.870577
525.344647	57590.981731
525.707025	57607.785577
526.069345	57974.949615
526.431608	57781.705385
526.793815	58127.024423
527.155964	57635.511923
527.518057	57917.816538
527.880093	57610.306154
528.242072	57929.579231
528.603995	57832.957115
528.965860	58038.804231
529.327669	57909.414615
529.689421	57522.085962
530.051117	57748.937885
530.412755	57732.134038
530.774337	57840.518846
531.135862	57512.003654
531.497331	57689.284231
531.858743	57431.345192
532.220098	57811.952308
532.581396	57511.163462
532.942638	57444.788269
533.303824	57475.875385
533.664953	57138.958269
534.026025	57067.541923
534.387040	57569.976923
534.747999	57338.924038
535.108902	57602.744423
535.469748	57058.299808
535.830537	57210.374615
536.191270	57149.040577
536.551947	56741.547308
536.912567	56975.960962
537.273131	57313.718269
537.633638	56722.222885
537.994089	56845.731154
538.354483	56704.578846
538.714821	56870.936923
539.075103	57108.711346
539.435328	57008.728462
539.795497	56788.598077
540.155609	56744.908077
540.515665	57049.897885
540.875665	56666.770192
541.235609	56925.549423
541.595496	56704.578846
541.955328	57217.096154
542.315102	56816.324423
542.674821	56365.981346
543.034483	56531.499231
543.394090	56504.613077
543.753640	56150.051923
544.113134	57053.258654
544.472571	56235.751538
544.831953	57146.520000
545.191278	56579.390192
545.550548	56097.960000
545.909761	56635.683077
546.268918	56645.765385
546.628019	56859.174231
546.987064	56432.356538
547.346053	55809.774038
547.704986	56656.687885
548.063863	55963.529231
548.422684	56346.656923
548.781449	56207.185000
549.140158	56171.896923
549.498811	56002.178077
549.857408	55590.483846
550.215949	56270.199423
550.574434	56044.187692
550.932864	55991.255577
551.291237	56440.758462
551.649555	56118.124615
552.007817	56027.383846
552.366022	55907.236346
552.724173	56201.303654
553.082267	56522.257115
553.440305	56807.922500
553.798288	55927.400962
554.156215	56265.998462
554.514086	56167.695962
554.871902	55962.689038
555.229661	56040.826923
555.587365	56081.156154
555.945014	56103.841346
556.302606	55894.633462
556.660143	56003.858462
557.017625	56004.698654
557.375050	55997.977115
557.732421	56197.942885
558.089735	56181.979231
558.446994	56080.315962
558.804197	56249.194615
559.161345	56333.213846
559.518437	55377.915192
559.875474	55929.921538
560.232455	55965.209615
560.589381	56217.267308
560.946251	55886.231538
561.303065	56406.310577
561.659825	56243.313269
562.016528	55845.902308
562.373177	55616.529808
562.729770	55989.575192
563.086307	55505.624423
563.442789	55934.962692
563.799216	55913.957885
564.155587	55739.197885
564.511904	55811.454423
564.868164	55576.200577
565.224370	55941.684231
565.580520	55798.851538
565.936615	55956.807692
566.292654	55828.258269
566.648638	55988.735000
567.004567	55715.672500
567.360441	55910.597115
567.716260	55527.469423
568.072023	55952.606731
568.427732	56124.846154
568.783385	55641.735577
569.138982	55911.437308
569.494525	55874.468846
569.850013	55520.747885
570.205445	55488.820577
570.560823	55816.495577
570.916145	55422.445385
571.271412	55178.789615
571.626625	55230.041346
571.981782	55182.990577
572.336884	54943.535769
572.691931	55270.370577
573.046923	54735.168077
573.401860	54678.035000
573.756743	54617.541154
574.111570	54911.608462
574.466342	54620.061731
574.821059	54693.158462
575.175722	54257.098654
575.530330	54286.505385
575.884882	54272.222115
576.239380	53802.554615
576.593823	54021.844808
576.948211	53639.557308
577.302544	53174.930962
577.656823	53279.114808
578.011047	53584.104615
578.365216	52804.406154
578.719330	53133.761538
579.073389	52874.982308
579.427394	53025.376731
579.781344	52755.675000
580.135239	52443.963654
580.489080	52378.428654
580.842866	51954.131538
581.196597	52203.668654
581.550273	52202.828462
581.903895	52153.257115
582.257463	52547.307308
582.610975	52158.298269
582.964434	52019.666538
583.317837	51890.276923
583.671186	51476.902308
584.024481	51661.744615
584.377721	51340.791154
584.730906	51522.272692
585.084037	51369.357692
585.437113	51222.324038
585.790135	51667.625962
586.143103	50678.719615
586.496016	50996.312308
586.848874	51158.469423
587.201679	50915.653846
587.554428	50333.400577
587.907124	50641.751154
588.259765	50119.991731
588.612352	50462.790192
588.964884	49894.820192
589.317362	50082.183077
589.669786	50151.078846
590.022155	49835.166538
590.374470	50231.737308
590.726731	49477.244615
591.078937	48861.383654
591.431090	49031.942692
591.783188	48674.860962
592.135232	48491.699038
592.487222	48646.294423
592.839157	48868.105192
593.191038	48428.684615
593.542866	47966.578846
593.894639	47323.831731
594.246358	47667.470385
594.598022	47577.569808
594.949633	47298.625962
595.301190	47005.398846
595.652692	47018.841923
596.004141	47094.459231
596.355535	45994.647500
596.706876	45961.880000
597.058162	45654.369615
597.409395	46212.257308
597.760573	46235.782692
598.111698	45776.197500
598.462768	45782.919038
598.813785	45682.936154
599.164748	45156.135577
599.515657	45286.365385
599.866511	44922.562115
600.217312	45182.181538
600.568060	44147.904808
600.918753	44957.010000
601.269392	44886.433846
601.619978	44257.129808
601.970510	44564.640192
602.320988	44847.785000
602.671412	45312.411346
603.021783	44633.535962
603.372100	44331.906923
603.722363	44377.277308
604.072572	44622.613462
604.422728	44473.899423
604.772830	44149.585192
605.122878	44197.476154
605.472872	44087.410962
605.822813	44578.923462
606.172701	44076.488462
606.522534	44063.885577
606.872314	44494.064038
607.222041	43980.706538
607.571714	44651.180000
607.921333	43740.411538
608.270899	44170.590000
608.620411	44306.701154
608.969870	44156.306731
609.319276	43779.900577
609.668627	43774.019231
610.017926	44151.265577
610.367171	44292.417885
610.716362	44273.933654
611.065500	44230.243654
611.414585	44066.406154
611.763616	44511.708077
612.112594	44207.558462
612.461518	44207.558462
612.810389	44551.197115
613.159207	44280.655192
613.507971	44111.776538
613.856682	44628.494808
614.205340	44655.380962
614.553945	45274.602692
614.902496	44737.719808
615.250994	44809.136154
615.599439	45074.636923
615.947830	45080.518269
616.296169	44747.802115
616.644454	45160.336538
616.992686	45056.152692
617.340864	45608.159038
617.688990	44925.922885
618.037063	45744.270192
618.385082	45543.464231
618.733048	45589.674808
619.080961	45649.328462
619.428821	45578.752308
619.776628	45724.945769
620.124382	45110.765192
620.472083	45409.033462
620.819731	45363.663077
621.167326	44890.634808
621.514868	45104.043654
621.862357	44250.408269
622.209793	44198.316346
622.557176	43981.546731
622.904506	43585.816154
623.251783	43228.734423
623.599007	42726.299423
623.946179	42549.018846
624.293297	42521.292500
624.640363	41485.335385
624.987376	41576.916346
625.334336	41250.081538
625.681243	40744.285769
626.028097	40608.174615
626.374899	40193.959808
626.721647	40120.863077
627.068343	40261.175192
627.414987	39608.345769
627.761577	39339.484231
628.108115	39636.072115
628.454600	39179.007500
628.801032	39044.576731
629.147412	38961.397692
629.493739	38921.068462
629.840014	38513.575192
630.186236	38537.100577
630.532405	38250.595000
630.878521	38064.912500
631.224585	37886.791731
631.570597	37784.288269
631.916556	37785.968654
632.262462	38070.793846
632.608316	37776.726538
632.954117	37491.061154
633.299866	37332.264808
633.645562	37099.531538
633.991206	36746.650769
634.336797	36423.176731
634.682336	36049.291154
635.027823	35909.819231
635.373257	35900.577115
635.718639	35362.854038
636.063968	35346.890385
636.409245	34555.429231
636.754470	34565.511538
637.099642	34259.681538
637.444762	33816.900192
637.789829	34078.200000
638.134845	33531.234808
638.479808	33314.465192
638.824719	33222.044038
639.169577	32799.427308
639.514383	32833.875192
639.859137	32478.473846
640.203839	32616.265385
640.548489	32159.200769
640.893086	32354.125385
641.237632	31738.264423
641.582125	31934.869423
641.926566	31822.283654
642.270955	31750.027115
642.615292	31548.380962
642.959576	31734.903654
643.303809	31515.613462
643.647990	31408.909038
643.992118	31085.435000
644.336195	31345.894615
644.680219	31430.754038
645.024192	31448.398077
645.368112	31629.039423
645.711981	31236.669615
646.055797	32141.556731
646.399562	31987.801538
646.743274	32962.424615
647.086935	32909.492500
647.430544	32856.560385
647.774101	33000.233269
648.117606	33385.881538
648.461059	33853.868654
648.804460	33189.276538
649.147810	32577.616538
649.491108	32480.154231
649.834354	32213.813269
650.177548	31492.928269
650.520690	31151.810192
650.863781	30952.684615
651.206820	30921.597500
651.549807	30430.085000
651.892742	29921.768654
652.235626	29545.362500
652.578458	29523.517500
652.921238	29191.641538
653.263967	29289.103846
653.606644	28890.852692
653.949269	28885.811538
654.291843	28281.713269
654.634365	28594.264808
654.976836	28209.456731
655.319255	28200.214615
655.661622	28238.863462
656.003938	28188.451923
656.346203	28050.660385
656.688416	27925.471731
657.030577	27963.280385
657.372687	27455.804231
657.714746	27709.542308
658.056753	27781.798846
658.398708	27344.898846
658.740612	27162.577115
659.082465	27570.070385
659.424266	27185.262308
659.766016	27201.225962
660.107715	27040.749231
660.449362	27240.715000
660.790958	27101.243077
661.132503	27107.964615
661.473996	27115.526346
661.815438	27163.417308
662.156829	27386.908462
662.498168	27180.221154
662.839456	27003.780769
663.180693	27286.085385
663.521879	27044.110000
663.863013	27036.548269
664.204097	26938.245769
664.545129	27323.894038
664.886110	27223.070962
665.227040	27255.838462
665.567918	27347.419423
665.908746	27308.770577
666.249522	27326.414615
666.590248	27323.894038
666.930922	27335.656731
667.271545	27305.409808
667.612118	27517.138269
667.952639	27486.891346
668.293109	27314.651923
668.633528	27243.235577
668.973896	27336.496923
669.314213	27278.523654
669.654480	27041.589423
669.994695	27148.293846
670.334859	26752.563269
670.674973	26757.604423
671.015035	26885.313654
671.355047	26795.413077
671.695008	26737.439808
672.034918	26405.563846
672.374777	26703.832115
672.714585	26391.280577
673.054342	26681.987115
673.394049	26340.869038
673.733705	26885.313654
674.073310	26386.239423
674.412864	26418.166731
674.752368	26182.072692
675.091820	26182.912885
675.431223	26088.811346
675.770574	26032.518462
676.109875	25688.879808
676.449125	25575.453846
676.788324	25442.703462
677.127473	25149.476346
677.466571	24904.140192
677.805619	24621.835577
678.144616	24736.101731
678.483562	24298.361538
678.822458	24468.080385
679.161303	24297.521346
679.500098	23967.325769
679.838842	24180.734615
680.177535	24317.685962
680.516179	24338.690769
680.854771	24038.742115
681.193314	24734.421346
681.531805	25374.647885
681.870247	26092.172115
682.208638	26669.384231
682.546978	27160.896731
682.885268	27123.928269
683.223508	26851.705962
683.561697	26813.057115
683.899836	26529.912308
684.237925	26077.048654
684.575963	26221.561731
684.913951	25598.979231
685.251889	25909.850385
685.589776	25698.962115
685.927614	25693.080769
686.265401	25903.128846
686.603137	25767.857885
686.940824	26072.007500
687.278460	26431.609808
687.616046	26629.895192
687.953582	27090.320577
688.291068	27040.749231
688.628504	27564.189038
688.965889	27393.630000
689.303224	27310.450962
689.640510	27045.790385
689.977745	26468.578269
690.314930	25740.971731
690.652065	25424.219231
690.989150	24794.915192
691.326185	24174.013077
691.663170	23601.842115
692.000105	23101.087500
692.336990	22570.085962
692.673825	22283.580385
693.010610	21860.963654
693.347345	21335.003269
693.684030	20783.837115
694.020665	20570.428269
694.357251	20189.821154
694.693786	19841.981538
695.030272	19698.308654
695.366707	19442.890192
695.703093	19164.786538
696.039429	19111.854423
696.375716	18919.450385
696.711952	18944.656154
697.048139	18818.627308
697.384276	18596.816538
697.720363	18733.767885
698.056400	18743.850192
698.392388	18585.894038
698.728326	18568.250000
699.064214	18435.499615
699.400053	18162.437115
699.735842	18146.473462
700.071581	17929.703846
700.407270	17614.631731
700.742910	17552.457500
701.078501	17329.806538
701.414042	17211.339423
701.749533	16990.368846
702.084974	16743.352308
702.420366	16769.398269
702.755709	16482.892692
703.091002	16235.035962
703.426246	16226.634038
703.761440	16133.372692
704.096584	15925.845192
704.431679	15931.726538
704.766725	15742.683269
705.101721	15698.153077
705.436668	15777.131154
705.771565	15568.763462
706.106413	15788.893846
706.441212	15827.542692
706.775961	15882.155192
707.110661	15898.959038
707.445311	16124.130577
707.779913	16055.234808
708.114465	16074.559231
708.448967	16144.295192
708.783421	16777.800192
709.117825	16944.998462
709.452180	17179.412115
709.786485	17626.394423
710.120742	17977.594808
710.454949	18180.081154
710.789107	18481.710192
711.123216	19177.389423
711.457275	19217.718654
711.791286	19922.640000
712.125247	20070.513846
712.459159	19924.320385
712.793023	20232.670962
713.126837	19473.977308
713.460602	19713.432115
713.794318	19536.991731
714.127985	19358.030769
714.461602	18580.012692
714.795171	18759.813846
715.128691	17821.319038
715.462162	17343.249615
715.795584	16966.003269
716.128957	16898.787885
716.462281	16384.590192
716.795556	16330.817885
717.128782	15999.782115
717.461960	15518.351923
717.795088	15582.206538
718.128167	15147.827115
718.461198	14841.997115
718.794180	14792.425769
719.127113	14434.503846
719.459997	14410.978462
719.792833	14174.044231
720.125619	13891.739615
720.458357	13689.253269
720.791046	13693.454231
721.123686	13462.401346
721.456278	13333.011731
721.788821	13389.304615
722.121315	13211.183846
722.453761	13192.699615
722.786158	13131.365577
723.118506	13051.547308
723.450805	13111.200962
723.783056	13149.009615
724.115259	13000.295577
724.447412	12978.450577
724.779518	13118.762692
725.111574	13199.421154
725.443582	13385.103654
725.775542	13439.716154
726.107453	13682.531731
726.439315	13765.710769
726.771129	14002.645000
727.102895	14169.843269
727.434612	14416.859808
727.766281	14550.450385
728.097901	14710.927115
728.429473	14873.084231
728.760996	14848.718654
729.092471	15050.364808
729.423897	15047.844231
729.755276	14758.818077
730.086606	14730.251538
730.417887	15189.836731
730.749120	15514.991154
731.080305	15797.295769
731.411442	16007.343846
731.742530	16179.583269
732.073570	16098.924808
732.404562	16666.054615
732.735506	16359.384423
733.066401	16253.520192
733.397249	16029.188846
733.728048	15582.206538
734.058798	14922.655577
734.389501	14468.951731
734.720156	14184.126538
735.050762	13679.170962
735.381320	13252.353269
735.711831	13135.566538
736.042293	12681.862692
736.372707	12665.899038
736.703073	12427.284423
737.033391	12708.748846
737.363661	12574.318077
737.693883	12767.562308
738.024056	12712.949808
738.354182	13042.305192
738.684260	13180.936923
739.014290	13342.253846
739.344272	13498.529615
739.674207	13699.335577
740.004093	13922.826731
740.333931	13882.497500
740.663722	13855.611346
740.993464	13994.243077
741.323159	14001.804808
741.652806	13794.277308
741.982405	13531.297115
742.311956	13292.682500
742.641460	13185.137885
742.970915	12922.997885
743.300323	12564.235769
743.629683	12583.560192
743.958996	12426.444231
744.288260	12118.093654
744.617477	11905.525000
744.946647	11787.898077
745.275768	11660.188846
745.604842	11471.985769
745.933869	11336.714808
746.262847	11295.545385
746.591778	11300.586538
746.920662	11224.969231
747.249498	11162.795000
747.578286	11287.143462
747.907027	11247.654423
748.235720	11303.947308
748.564365	11462.743654
748.892963	11505.593462
749.221514	11604.736154
749.550017	11447.620192
749.878473	11566.087308
750.206881	11366.961731
750.535242	11466.944615
750.863555	11088.017885
751.191821	11258.576923
751.520039	11088.858077
751.848210	11041.807308
752.176334	10992.235962
752.504411	11072.054231
752.832440	10960.308654
753.160421	10993.076154
753.488356	10864.526731
753.816243	10888.052115
754.144082	10710.771538
754.471875	10798.991731
754.799620	10588.943654
755.127318	10650.277692
755.454969	10565.418269
755.782572	10611.628846
756.110129	10483.919615
756.437638	10471.316731
756.765100	10536.851731
757.092515	10649.437500
757.419882	10623.391538
757.747203	10504.084231
758.074477	10552.815385
758.401703	10530.970385
758.728882	10536.851731
759.056014	10631.793462
759.383099	10831.759231
759.710138	10916.618654
760.037129	11035.085769
760.364073	11061.971923
760.690970	11073.734615
761.017820	10945.185192
761.344623	11245.974038
761.671379	11351.838269
761.998088	11650.946731
762.324751	12583.560192
762.651366	14468.951731
762.977935	17428.949231
763.304456	19864.666731
763.630931	21197.211731
763.957359	21073.703462
764.283740	19722.674231
764.610074	18260.739615
764.936362	16691.260385
765.262602	15207.480769
765.588796	13701.015962
765.914943	12749.078077
766.241044	11807.222500
766.567097	11150.192115
766.893104	10419.224808
767.219064	10113.394808
767.544978	9684.896731
767.870845	9299.248462
768.196665	9137.931538
768.522438	8884.193462
768.848165	8882.513077
769.173846	8626.254423
769.499479	8671.624808
769.825066	8359.073269
770.150607	8299.419615
770.476101	8155.746731
770.801548	8105.335192
771.126949	7997.790577
771.452303	7901.168462
771.777611	7775.139615
772.102872	7639.868654
772.428087	7639.868654
772.753256	7460.907692
773.078378	7374.367885
773.403453	7356.723846
773.728482	7266.823269
774.053465	7139.954231
774.378401	7100.465192
774.703291	7051.734038
775.028135	6992.080385
775.352932	6897.978846
775.677683	6756.826538
776.002388	6700.533654
776.327046	6714.816923
776.651658	6622.395769
776.976224	6546.778462
777.300743	6498.047308
777.625216	6525.773654
777.949643	6480.403269
778.274024	6499.727692
778.598359	6425.790769
778.922647	6400.585000
779.246889	6287.159038
779.571086	6356.895000
779.895236	6352.694038
780.219339	6376.219423
780.543397	6412.347692
780.867409	6459.398462
781.191374	6501.408077
781.515294	6461.078846
781.839167	6490.485577
782.162995	6478.722885
782.486776	6457.718077
782.810511	6328.328462
783.134201	6345.132308
783.457844	6293.880577
783.781441	6256.912115
784.104993	6185.495769
784.428498	6251.870962
784.751958	6150.207692
785.075372	6153.568462
785.398739	6140.965577
785.722061	6153.568462
786.045337	6155.248846
786.368568	6235.907308
786.691752	6198.098654
787.014891	6445.955385
787.337983	6653.482885
787.661030	6960.993269
787.984031	7370.166923
788.306987	7771.778846
788.629897	7979.306346
788.952760	7917.972308
789.275579	7882.684231
789.598351	7611.302115
789.921078	7360.084615
790.243759	7160.118846
790.566395	6976.956923
790.888984	6650.962308
791.211529	6613.153654
791.534027	6502.248269
791.856480	6313.205000
792.178888	6235.067115
792.501249	6130.883269
792.823566	6033.420962
793.145836	5920.835192
793.468062	5918.314615
793.790241	5975.447692
794.112375	5944.360577
794.434464	6069.549231
794.756507	6013.256346
795.078505	6115.759808
795.400457	6372.018462
795.722364	6431.672115
796.044226	6708.935577
796.366042	6922.344423
796.687812	6905.540577
797.009538	6920.664038
797.331218	6915.622885
797.652852	6805.557692
797.974442	6656.843654
798.295986	6689.611154
798.617484	6622.395769
798.938938	6446.795577
799.260346	6339.250962
799.581709	6240.108269
799.903026	6165.331154
800.224299	6097.275577
800.545526	6032.580769
800.866708	5962.004615
801.187845	5910.752885
801.508936	5746.075192
801.829983	5756.997692
802.150984	5766.239808
802.471940	5665.416731
802.792851	5621.726731
803.113717	5539.387885
803.434538	5568.794615
803.755314	5586.438654
804.076045	5505.780192
804.396731	5497.378269
804.717372	5516.702692
805.037967	5549.470192
805.358518	5572.155385
805.679024	5648.612885
805.999485	5593.160192
806.319901	5622.566923
806.640272	5582.237692
806.960598	5641.051154
807.280879	5675.499038
807.601115	5686.421538
807.921306	5742.714423
808.241453	5712.467500
808.561554	5683.060769
808.881611	5683.900962
809.201623	5677.179423
809.521590	5638.530577
809.841513	5644.411923
810.161390	5660.375577
810.481223	5494.857692
810.801011	5497.378269
811.120755	5529.305577
811.440453	5513.341923
811.760107	5471.332308
812.079716	5485.615577
812.399281	5436.044231
812.718801	5360.426923
813.038276	5344.463269
813.357707	5324.298654
813.677093	5357.066154
813.996434	5236.078462
814.315731	5357.066154
814.634983	5349.504423
814.954191	5341.942692
815.273354	5374.710192
815.592473	5320.937885
815.911547	5460.409808
816.230577	5527.625192
816.549562	5718.348846
816.868502	5810.770000
817.187399	5778.002500
817.506250	5898.150000
817.825058	5898.150000
818.143821	6025.019038
818.462539	6283.798269
818.781213	6440.914231
819.099843	6789.594038
819.418429	7364.285577
819.736970	7986.027885
820.055466	8782.530192
820.373919	9630.284231
820.692327	10943.504808
821.010691	12865.024615
821.329011	17212.179615
821.647286	24557.140769
821.965517	34028.628654
822.283704	40801.418846
822.601847	45587.994423
822.919945	43474.910769
823.237999	40311.586731
823.556010	35766.986538
823.873976	31347.575000
824.191897	27097.042115
824.509775	23927.836731
824.827609	20664.529808
825.145398	18703.520962
825.463144	17163.448462
825.780845	16690.420192
826.098502	17270.152885
826.416116	18888.363269
826.733685	21396.337308
827.051210	22743.165577
827.368692	22552.441923
827.686129	20612.437885
828.003522	17981.795769
828.320872	15467.100192
828.638177	13485.086538
828.955439	12023.151923
829.272656	10756.982115
829.589830	9658.850769
829.906960	8759.845000
830.224046	7963.342692
830.541088	7400.413846
830.858086	7018.126346
831.175041	6633.318269
831.491952	6546.778462
831.808819	6400.585000
832.125642	6658.524038
832.442421	7054.254615
832.759157	7923.853654
833.075849	9501.734808
833.392497	11424.935000
833.709101	13085.155000
834.025662	13548.100962
834.342179	12895.271538
834.658653	11670.271154
834.975083	10374.694615
835.291469	9349.660000
835.607811	8410.325000
835.924110	7799.505192
836.240366	7276.905577
836.556578	6621.555577
836.872746	6132.563654
837.188871	5854.460000
837.504952	5346.143654
837.820990	5173.904231
838.136984	5029.391154
838.452935	4900.841731
838.768842	4849.590000
839.084706	5050.395962
839.400526	5433.523654
839.716303	6459.398462
840.032037	7221.452885
840.347727	7614.662885
840.663373	7323.116154
840.978977	6540.897115
841.294537	5977.968269
841.610054	5532.666346
841.925527	5145.337692
842.240957	4976.459038
842.556344	4813.461731
842.871687	4579.048077
843.186987	4290.021923
843.502244	4200.961538
843.817458	4005.196731
844.132629	3925.378462
844.447756	3830.436731
844.762840	3740.536154
845.077881	3743.056731
845.392879	3642.233654
845.707833	3585.100577
846.022745	3538.890000
846.337613	3578.379038
846.652438	3497.720577
846.967221	3475.875577
847.281960	3435.546346
847.596656	3497.720577
847.911309	3477.555962
848.225919	3415.381731
848.540485	3488.478462
848.855009	3360.769231
849.169490	3401.938654
849.483928	3375.052500
849.798323	3383.454423
850.112675	3355.728077
850.426984	3372.531923
850.741251	3384.294615
851.055474	3368.330962
851.369654	3359.088846
851.683792	3411.180769
851.997887	3354.047692
852.311938	3368.330962
852.625947	3422.943462
852.939914	3392.696538
853.253837	3333.042885
853.567718	3390.175962
853.881555	3350.686923
854.195350	3400.258269
854.509103	3349.846731
854.822812	3329.682115
855.136479	3368.330962
855.450103	3338.924231
855.763685	3325.481154
856.077224	3314.558654
856.390720	3313.718462
856.704173	3389.335769
857.017584	3377.573077
857.330953	3412.861154
857.644278	3399.418077
857.957561	3385.975000
858.270802	3420.422885
858.584000	3406.979808
858.897155	3377.573077
859.210268	3394.376923
859.523339	3380.093654
859.836367	3309.517500
860.149352	3368.330962
860.462295	3343.965385
860.775195	3386.815192
861.088054	3361.609423
861.400869	3358.248654
861.713642	3365.810385
862.026373	3282.631346
862.339062	3359.088846
862.651708	3310.357692
862.964312	3412.020962
863.276873	3339.764423
863.589392	3395.217115
863.901869	3486.798077
864.214303	3464.112885
864.526696	3469.154038
864.839045	3524.606731
865.151353	3624.589615
865.463619	3570.817308
865.775842	3544.771346
866.088023	3560.735000
866.400162	3571.657500
866.712258	3530.488077
867.024313	3574.178077
867.336325	3606.105385
867.648296	3566.616346
867.960224	3648.955192
868.272110	3622.909231
868.583954	3602.744615
868.895755	3596.863269
869.207515	3570.817308
869.519233	3648.955192
869.830909	3665.759038
870.142542	3574.178077
870.454134	3673.320769
870.765684	3705.248077
871.077191	3685.923654
871.388657	3714.490192
871.700081	3725.412692
872.011463	3755.659615
872.322803	3753.979231
872.634101	3811.952500
872.945357	3801.870192
873.256571	3883.368846
873.567744	3837.998462
873.878874	3899.332500
874.189963	3915.296154
874.501010	3974.109615
874.812015	3948.903846
875.122979	3964.867500
875.433900	3935.460769
875.744780	3954.785192
876.055618	3969.908654
876.366415	3967.388077
876.677169	4000.155577
876.987882	3995.114423
877.298554	3997.635000
877.609183	4074.932692
877.919771	4212.724231
878.230317	4268.176923
878.540822	4395.045962
878.851285	4513.513077
879.161707	4839.507692
879.472087	5175.584615
879.782425	5793.966154
880.092722	6922.344423
880.402977	8501.065769
880.713191	10602.386731
881.023363	13111.200962
881.333494	14924.335962
881.643583	16148.496154
881.953631	16301.411154
882.263637	16019.946731
882.573602	15031.040385
882.883526	14300.913269
883.193408	13383.423269
883.503248	12188.669808
883.813048	11429.135962
884.122806	10526.769423
884.432522	9581.553077
884.742197	8919.481538
885.051831	8101.974423
885.361424	7504.597692
885.670975	6878.654423
885.980485	6463.599423
886.289954	5955.283077
886.599382	5630.128654
886.908768	5341.942692
887.218113	5035.272500
887.527417	4863.033077
887.836680	4687.432885
888.145901	4535.358077
888.455082	4365.639231
888.764221	4283.300385
889.073319	4164.833269
889.382376	4163.152885
889.691392	4064.850385
890.000366	4100.978654
890.309300	4029.562308
890.618193	4011.918269
890.927044	3956.465577
891.235855	3985.872308
891.544625	4044.685769
891.853353	3981.671346
892.162041	4087.535577
892.470687	4236.249615
892.779293	4393.365577
893.087858	4568.125577
893.396381	4830.265577
893.704864	5298.252692
894.013306	5799.007308
894.321707	6555.180385
894.630068	7297.910385
894.938387	7670.955769
895.246665	7532.324038
895.554903	7104.666154
895.863100	6750.105000
896.171256	6486.284615
896.479371	6087.193269
896.787446	5831.774808
897.095480	5494.857692
897.403473	5252.882308
897.711425	5120.972115
898.019336	4905.882885
898.327207	4775.653077
898.635038	4621.897885
898.942827	4427.813462
899.250576	4329.510962
899.558284	4188.358654
899.865952	4094.257115
900.173579	3985.872308
900.481165	3893.451154
900.788711	3807.751538
901.096216	3742.216538
901.403681	3748.097885
901.711105	3714.490192
902.018489	3755.659615
902.325832	3689.284423
902.633135	3788.427115
902.940397	3885.049231
903.247619	4264.816154
903.554800	4911.764231
903.861941	6065.348269
904.169041	7081.140769
904.476101	7912.090962
904.783121	7805.386538
905.090100	7525.602500
905.397039	6878.654423
905.703938	6350.173462
906.010796	5916.634231
906.317614	5514.182115
906.624391	5288.170385
906.931129	4968.897308
907.237826	4684.912308
907.544483	4617.696923
907.851099	4374.881346
908.157675	4162.312692
908.464211	3943.862692
908.770707	3751.458654
909.077163	3622.069038
909.383578	3497.720577
909.689954	3383.454423
909.996289	3298.595000
910.302584	3291.873462
910.608839	3266.667692
910.915054	3243.982500
911.221229	3234.740385
911.527363	3216.256154
911.833458	3135.597692
912.139513	3255.745192
912.445527	3237.260962
912.751502	3337.243846
913.057436	3338.084038
913.363331	3386.815192
913.669186	3499.400962
913.975000	3661.558077
914.280775	3885.889423
914.586510	4209.363462
914.892205	4563.084423
915.197859	5139.456346
915.503475	5825.053269
915.809050	6472.841538
916.114585	7124.830769
916.420081	7308.832885
916.725536	7326.476923
917.030952	7072.738846
917.336328	6867.731923
917.641665	6622.395769
917.946961	6451.836731
918.252218	6078.791346
918.557435	5763.719231
918.862612	5605.763077
919.167750	5323.458462
919.472848	5178.105192
919.777906	4974.778654
920.082925	4726.081731
920.387904	4426.133077
920.692843	4290.021923
920.997743	4112.741346
921.302603	4034.603462
921.607423	3841.359231
921.912204	3749.778269
922.216946	3654.836538
922.521647	3557.374231
922.826310	3451.510000
923.130932	3442.267885
923.435516	3358.248654
923.740059	3296.074423
924.044564	3288.512692
924.349028	3178.447500
924.653454	3172.566154
924.957840	3113.752692
925.262186	3153.241731
925.566493	3016.290385
925.870761	3019.651154
926.174989	3038.135385
926.479178	2997.806154
926.783328	2947.394615
927.087438	2907.065385
927.391509	2923.869231
927.695541	2886.060577
927.999533	2842.370577
928.303486	2862.535192
928.607400	2874.297885
928.911275	2854.133269
929.215110	2828.927500
929.518906	2819.685385
929.822663	2774.315000
930.126381	2823.046154
930.430060	2828.087308
930.733699	2804.561923
931.037299	2805.402115
931.340861	2821.365769
931.644383	2827.247115
931.947866	2832.288269
932.251309	2812.123654
932.554714	2822.205962
932.858080	2792.799231
933.161407	2791.959038
933.464694	2808.762885
933.767943	2808.762885
934.071153	2751.629808
934.374323	2717.181923
934.677455	2760.871923
934.980548	2831.448077
935.283602	2739.867115
935.586617	2775.155192
935.889593	2756.670962
936.192530	2787.758077
936.495428	2769.273846
936.798287	2831.448077
937.101108	2845.731346
937.403890	2857.494038
937.706632	2839.850000
938.009336	2881.019423
938.312002	2982.682692
938.614628	2963.358269
938.917216	3028.053077
939.219765	3010.409038
939.522275	3073.423462
939.824747	3079.304808
940.127179	3089.387115
940.429573	3100.309615
940.731929	3126.355577
941.034246	3078.464615
941.336524	3073.423462
941.638763	3029.733462
941.940964	3059.980385
942.243126	3056.619615
942.545250	3029.733462
942.847335	3001.166923
943.149381	2977.641538
943.451389	2922.188846
943.753359	2932.271154
944.055290	2912.106538
944.357182	2897.823269
944.659036	2894.462500
944.960851	2878.498846
945.262628	2834.808846
945.564367	2866.736154
945.866067	2900.343846
946.167729	2868.416538
946.469352	2893.622308
946.770937	2828.927500
947.072484	2852.452885
947.373992	2879.339038
947.675462	2856.653846
947.976893	2798.680577
948.278286	2843.210769
948.579641	2875.978269
948.880958	2818.845192
949.182236	2825.566731
949.483476	2807.082500
949.784678	2854.133269
950.085841	2850.772500
950.386967	2791.959038
950.688054	2830.607885
950.989103	2846.571538
951.290114	2865.055769
951.591087	2902.864423
951.892021	2935.631923
952.192917	2898.663462
952.493776	2921.348654
952.794596	2901.184038
953.095378	2948.234808
953.396122	2959.157308
953.696828	2935.631923
953.997496	2883.540000
954.298126	2918.828077
954.598718	2891.101731
954.899272	2932.271154
955.199788	2898.663462
955.500266	2823.886346
955.800706	2863.375385
956.101108	2823.886346
956.401472	2790.278654
956.701798	2741.547500
957.002087	2768.433654
957.302337	2761.712115
957.602550	2742.387692
957.902724	2698.697692
958.202861	2657.528269
958.502960	2665.930192
958.803022	2672.651731
959.103045	2634.002885
959.403031	2619.719615
959.702979	2643.245000
960.002889	2604.596154
960.302762	2621.400000
960.602596	2604.596154
960.902393	2558.385577
961.202153	2579.390385
961.501875	2549.983654
961.801559	2541.581731
962.101205	2551.664038
962.400814	2492.850577
962.700385	2532.339615
962.999918	2551.664038
963.299414	2570.988462
963.598873	2538.220962
963.898293	2548.303269
964.197677	2522.257308
964.497022	2542.421923
964.796331	2538.220962
965.095601	2522.257308
965.394835	2574.349231
965.694030	2555.024808
965.993189	2542.421923
966.292309	2572.668846
966.591393	2565.947308
966.890439	2523.097500
967.189447	2571.828654
967.488419	2567.627692
967.787353	2531.499423
968.086249	2542.421923
968.385108	2544.942500
968.683930	2576.029615
968.982714	2536.540577
969.281462	2520.576923
969.580172	2507.974038
969.878844	2540.741538
970.177480	2486.969231
970.476078	2576.869808
970.774639	2583.591346
971.073162	2537.380769
971.371649	2580.230577
971.670098	2588.632500
971.968510	2615.518654
972.266885	2555.024808
972.565223	2610.477500
972.863524	2580.230577
973.161788	2616.358846
973.460014	2555.865000
973.758204	2576.029615
974.056356	2607.116731
974.354471	2565.107115
974.652550	2555.865000
974.950591	2572.668846
975.248595	2591.153077
975.546563	2577.710000
975.844493	2619.719615
976.142386	2570.988462
976.440243	2614.678462
976.738062	2565.107115
977.035845	2625.600962
977.333590	2567.627692
977.631299	2560.065962
977.928971	2586.952115
978.226606	2585.271731
978.524204	2540.741538
978.821765	2521.417115
979.119290	2561.746346
979.416777	2581.910962
979.714228	2576.029615
980.011642	2559.225769
980.309020	2586.111923
980.606360	2463.443846
980.903664	2557.545385
981.200931	2578.550192
981.498162	2584.431538
981.795356	2670.131154
982.092513	2706.259423
982.389633	2744.908269
982.686717	2823.886346
982.983764	2781.876731
983.280775	2888.581154
983.577749	2875.138077
983.874686	2887.740962
984.171587	2912.946731
984.468451	2855.813654
984.765279	2848.251923
985.062070	2831.448077
985.358824	2808.762885
985.655543	2818.845192
985.952224	2789.438462
986.248869	2710.460385
986.545478	2703.738846
986.842050	2641.564615
987.138586	2607.116731
987.435086	2591.993269
987.731549	2562.586538
988.027975	2553.344423
988.324366	2494.530962
988.620719	2481.087885
988.917037	2540.741538
989.213318	2525.618077
989.509563	2482.768269
989.805772	2518.896538
990.101944	2512.175000
990.398080	2523.097500
990.694180	2468.485000
990.990244	2480.247692
991.286271	2505.453462
991.582262	2470.165385
991.878217	2555.024808
992.174136	2505.453462
992.470019	2531.499423
992.765865	2520.576923
993.061676	2557.545385
993.357450	2523.097500
993.653188	2545.782692
993.948890	2515.535769
994.244556	2531.499423
994.540186	2536.540577
994.835780	2600.395192
995.131337	2626.441154
995.426859	2631.482308
995.722345	2665.090000
996.017795	2620.559808
996.313208	2662.569423
996.608586	2672.651731
996.903928	2756.670962
997.199234	2719.702500
997.494504	2738.186731
997.789738	2707.099615
998.084936	2677.692885
998.380099	2708.780000
998.675225	2707.939808
998.970316	2695.336923
999.265371	2604.596154
999.560390	2655.847885
999.855373	2576.869808
1000.150320	2571.828654
1000.445232	2553.344423
1000.740108	2565.107115
1001.034948	2567.627692
1001.329752	2555.865000
1001.624521	2545.782692
1001.919254	2512.175000
1002.213951	2525.618077
1002.508613	2486.969231
1002.803239	2505.453462
1003.097829	2466.804615
1003.392384	2492.850577
1003.686903	2504.613269
1003.981386	2519.736731
1004.275834	2493.690769
1004.570246	2476.046731
1004.864623	2465.124231
1005.158964	2433.196923
1005.453270	2460.083077
1005.747540	2499.572115
1006.041775	2471.005577
1006.335974	2458.402692
1006.630138	2498.731923
1006.924266	2462.603654
1007.218359	2449.160577
1007.512416	2453.361538
1007.806438	2453.361538
1008.100425	2483.608462
1008.394376	2502.932885
1008.688292	2504.613269
1008.982172	2511.334808
1009.276017	2497.891731
1009.569827	2449.160577
1009.863602	2492.010385
1010.157341	2503.773077
1010.451045	2488.649615
1010.744714	2478.567308
1011.038347	2474.366346
1011.331945	2480.247692
1011.625508	2484.448654
1011.919036	2486.969231
1012.212528	2488.649615
1012.505986	2456.722308
1012.799408	2430.676346
1013.092795	2455.041923
1013.386147	2434.037115
1013.679464	2444.959615
1013.972745	2454.201731
1014.265992	2461.763462
1014.559204	2456.722308
1014.852380	2391.187308
1015.145521	2476.886923
1015.438628	2488.649615
1015.731699	2452.521346
1016.024736	2460.923269
1016.317737	2429.836154
1016.610703	2502.092692
1016.903635	2520.576923
1017.196531	2452.521346
1017.489393	2434.877308
1017.782219	2447.480192
1018.075011	2485.288846
1018.367768	2439.918462
1018.660490	2481.087885
1018.953177	2481.087885
1019.245829	2481.087885
