Dividing Wavelength (nm)	Counts (n)	Slit_number_9_of_a_total_of_40	
326.493990	2101.320962
326.888308	2101.320962
327.282561	2101.320962
327.676750	2059.311346
328.070874	2034.945769
328.464933	2043.347692
328.858929	2033.265385
329.252859	2035.785962
329.646726	2096.279808
330.040528	2130.727692
330.434265	2107.202308
330.827938	2156.773654
331.221547	2156.773654
331.615091	2220.628269
332.008571	2198.783269
332.401986	2208.865577
332.795338	2240.792885
333.188625	2255.076154
333.581847	2276.921154
333.975006	2296.245577
334.368100	2318.930769
334.761129	2354.218846
335.154095	2349.177692
335.546996	2419.753846
335.939833	2465.124231
336.332606	2511.334808
336.725315	2530.659231
337.117960	2570.148269
337.510540	2490.330000
337.903056	2540.741538
338.295508	2539.061154
338.687896	2533.179808
339.080220	2523.937692
339.472480	2558.385577
339.864676	2606.276538
340.256807	2572.668846
340.648875	2583.591346
341.040879	2590.312885
341.432818	2581.910962
341.824694	2587.792308
342.216506	2569.308077
342.608253	2610.477500
342.999937	2555.024808
343.391557	2558.385577
343.783113	2582.751154
344.174605	2628.961731
344.566033	2598.714808
344.957397	2574.349231
345.348697	2568.467885
345.739934	2577.710000
346.131106	2596.194231
346.522215	2595.354038
346.913260	2567.627692
347.304241	2570.988462
347.695159	2571.828654
348.086012	2579.390385
348.476802	2579.390385
348.867528	2534.860192
349.258191	2546.622885
349.648789	2555.865000
350.039324	2602.915769
350.429796	2559.225769
350.820203	2570.988462
351.210548	2566.787500
351.600828	2537.380769
351.991045	2599.555000
352.381198	2559.225769
352.771288	2544.942500
353.161314	2568.467885
353.551276	2603.755962
353.941175	2555.024808
354.331010	2513.855385
354.720782	2593.673654
355.110490	2544.942500
355.500135	2534.860192
355.889717	2531.499423
356.279235	2570.148269
356.668689	2553.344423
357.058080	2576.869808
357.447408	2597.034423
357.836672	2577.710000
358.225873	2575.189423
358.615010	2564.266923
359.004084	2547.463077
359.393095	2558.385577
359.782043	2577.710000
360.170927	2472.685962
360.559748	2563.426731
360.948505	2542.421923
361.337199	2587.792308
361.725830	2562.586538
362.114398	2535.700385
362.502903	2551.664038
362.891344	2534.020000
363.279722	2529.819038
363.668037	2548.303269
364.056289	2564.266923
364.444478	2605.436346
364.832603	2543.262115
365.220665	2583.591346
365.608665	2583.591346
365.996601	2526.458269
366.384474	2559.225769
366.772284	2586.952115
367.160031	2581.070769
367.547715	2551.664038
367.935336	2585.271731
368.322893	2585.271731
368.710388	2522.257308
369.097820	2555.024808
369.485189	2610.477500
369.872495	2495.371154
370.259738	2564.266923
370.646918	2526.458269
371.034035	2517.216154
371.421090	2613.838269
371.808081	2552.504231
372.195010	2511.334808
372.581875	2585.271731
372.968678	2519.736731
373.355418	2583.591346
373.742096	2572.668846
374.128710	2591.993269
374.515262	2573.509038
374.901751	2557.545385
375.288177	2568.467885
375.674540	2570.988462
376.060841	2549.143462
376.447079	2570.148269
376.833254	2565.947308
377.219367	2569.308077
377.605417	2603.755962
377.991404	2630.642115
378.377329	2544.942500
378.763191	2569.308077
379.148991	2590.312885
379.534727	2597.034423
379.920402	2609.637308
380.306013	2612.998077
380.691563	2628.121538
381.077049	2617.199038
381.462474	2601.235385
381.847835	2613.838269
382.233134	2676.852692
382.618371	2647.445962
383.003545	2654.167500
383.388657	2657.528269
383.773706	2694.496731
384.158693	2660.048846
384.543618	2707.939808
384.928480	2738.186731
385.313280	2670.971346
385.698017	2743.227885
386.082692	2738.186731
386.467305	2769.273846
386.851856	2787.758077
387.236344	2737.346538
387.620770	2786.917885
388.005133	2822.205962
388.389435	2800.360962
388.773674	2833.128462
389.157851	2891.941923
389.541965	2927.230000
389.926018	2961.677885
390.310008	2997.806154
390.693936	2991.084615
391.077802	2947.394615
391.461606	2966.719038
391.845348	3024.692308
392.229027	3007.048269
392.612645	3078.464615
392.996200	3133.077115
393.379694	3176.767115
393.763125	3172.566154
394.146494	3228.859038
394.529801	3207.014038
394.913047	3285.151923
395.296230	3308.677308
395.679351	3290.193077
396.062410	3360.769231
396.445408	3310.357692
396.828343	3391.016154
397.211217	3424.623846
397.594028	3451.510000
397.976778	3490.158846
398.359466	3501.921538
398.742092	3492.679423
399.124656	3563.255577
399.507158	3575.858462
399.889598	3548.972308
400.271977	3650.635577
400.654294	3686.763846
401.036549	3700.206923
401.418742	3790.947692
401.800874	3879.167885
402.182944	3869.085577
402.564952	3937.981346
402.946898	3922.857885
403.328783	3995.114423
403.710606	3979.150769
404.092367	4036.283846
404.474067	4179.956731
404.855705	4203.482115
405.237282	4117.782500
405.618797	4235.409423
406.000250	4326.150192
406.381642	4467.302500
406.762972	4482.425962
407.144240	4453.019231
407.525447	4479.905385
407.906593	4497.549423
408.287677	4607.614615
408.668700	4665.587885
409.049661	4679.030962
409.430560	4752.967885
409.811399	4735.323846
410.192176	4802.539231
410.572891	4834.466538
410.953545	4982.340385
411.334138	4890.759423
411.714669	5102.487885
412.095139	4915.125000
412.475547	5108.369231
412.855894	5089.044808
413.236180	5163.821923
413.616405	5110.049615
413.996568	5201.630577
414.376670	5208.352115
414.756711	5181.465962
415.136691	5351.184808
415.516609	5360.426923
415.896466	5367.148462
416.276262	5630.128654
416.655997	5687.261731
417.035670	5701.545000
417.415283	5981.329038
417.794834	6009.055385
418.174324	6056.106154
418.553753	5992.251538
418.933121	6094.755000
419.312428	6105.677500
419.691674	6156.929231
420.070859	6251.030769
420.449983	6235.067115
420.829045	6346.812692
421.208047	6288.839423
421.586988	6473.681731
421.965867	6628.277115
422.344686	6680.369038
422.723444	6835.804615
423.102141	6592.148846
423.480777	6908.901346
423.859352	6819.000769
424.237866	7237.416538
424.616319	7177.762885
424.994712	7242.457692
425.373044	7413.016731
425.751314	7700.362500
426.129524	7434.021538
426.507673	7826.391346
426.885762	7672.636154
427.263789	7866.720577
427.641756	7906.209615
428.019662	7935.616346
428.397508	7965.863269
428.775292	8169.189808
429.153016	8264.971731
429.530679	8346.470385
429.908282	8382.598654
430.285824	8213.720000
430.663305	8559.039038
431.040726	8472.499231
431.418086	8538.034231
431.795385	8715.314808
432.172624	8848.065192
432.549802	8814.457500
432.926920	8827.900577
433.303977	8943.847115
433.680974	9067.355385
434.057910	9182.461731
434.434786	9135.410962
434.811601	9125.328654
435.188355	9578.192308
435.565050	9601.717692
435.941683	9509.296538
436.318257	9924.351538
436.694770	10066.344038
437.071222	10283.953846
437.447614	10009.210962
437.823946	9951.237692
438.200218	10061.302885
438.576429	10112.554615
438.952580	10114.235000
439.328670	10220.099231
439.704700	10367.132885
440.080670	10276.392115
440.456580	10458.713846
440.832429	10777.986923
441.208218	10409.142500
441.583947	10590.624038
441.959616	10668.761923
442.335224	10669.602115
442.710773	10824.197500
443.086261	11003.158462
443.461689	10999.797692
443.837057	10830.078846
444.212365	11246.814231
444.587612	11235.891731
444.962800	11056.930769
445.337927	11321.591346
445.712995	10972.911538
446.088002	11745.888462
446.462949	11858.474231
446.837837	12018.110769
447.212664	11906.365192
447.587431	13054.908077
447.962139	14321.918077
448.336786	15728.400000
448.711374	16019.946731
449.085901	14276.547692
449.460369	13942.991346
449.834776	13680.011154
450.209124	14779.822885
450.583412	14816.791346
450.957640	15542.717500
451.331808	14978.108269
451.705917	14379.051154
452.079965	14283.269231
452.453954	14154.719808
452.827883	14274.867308
453.201752	14295.872115
453.575562	14538.687692
453.949311	15089.853846
454.323001	15090.694038
454.696632	15084.812692
455.070202	15947.690192
455.443713	16193.866538
455.817164	16592.957885
456.190556	16876.942885
456.563888	16738.311154
456.937160	17002.131538
457.310373	16519.020962
457.683526	16832.412692
458.056619	16763.516923
458.429653	16634.127308
458.802628	16794.604038
459.175542	17106.315385
459.548398	17705.372500
459.921194	18791.741154
460.293930	18979.944231
460.666607	20195.702500
461.039224	21602.184423
461.411782	22078.573462
461.784280	21833.237308
462.156719	21768.542500
462.529099	21518.165192
462.901419	20835.929038
463.273680	20184.780000
463.645882	20008.339615
464.018024	20087.317692
464.390106	20439.358269
464.762130	21486.237885
465.134094	23691.742692
465.505999	26888.674423
465.877845	30439.327115
466.249631	32509.560962
466.621358	31860.092308
466.993026	31038.384231
467.364634	29898.243269
467.736184	28475.797692
468.107674	27862.457308
468.479105	27268.441346
468.850477	26947.487885
469.221790	26123.259231
469.593043	25099.064808
469.964238	24589.068077
470.335373	24463.879423
470.706449	25010.844615
471.077467	25859.438846
471.448425	29107.622308
471.819324	32317.156923
472.190164	32925.456154
472.560945	30591.401923
472.931667	28134.679615
473.302330	27164.257500
473.672934	26653.420577
474.043479	26796.253269
474.413965	26314.823077
474.784393	26089.651538
475.154761	27113.005769
475.525070	27145.773269
475.895321	26974.374038
476.265513	27394.470192
476.635645	28155.684423
477.005719	28181.730385
477.375734	28858.085192
477.745691	29101.740962
478.115588	30191.470385
478.485427	31483.686154
478.855207	33738.762308
479.224928	36214.809038
479.594591	38294.285000
479.964194	38350.577885
480.333739	38792.519038
480.703226	38693.376346
481.072653	38968.959423
481.442022	39746.137308
481.811333	40562.804231
482.180584	39994.834231
482.549777	39715.890385
482.918912	39376.452692
483.287988	39480.636538
483.657005	38806.802308
484.025964	38537.940769
484.394864	38937.872308
484.763706	38879.899038
485.132489	38344.696538
485.501213	38369.062115
485.869879	38684.974423
486.238487	38340.495577
486.607036	38726.143846
486.975527	38546.342692
487.343959	38682.453846
487.712333	39247.903269
488.080648	39200.012308
488.448905	39987.272500
488.817104	39902.413077
489.185244	40607.334423
489.553326	41545.829231
489.921350	44158.827308
490.289315	47074.294615
490.657222	48731.994038
491.025070	49817.522500
491.392861	49283.160192
491.760593	48878.187500
492.128267	47708.639808
492.495883	46419.784808
492.863440	45177.140385
493.230939	44247.047500
493.598380	43160.678846
493.965763	43011.964808
494.333088	42414.588077
494.700354	42152.448077
495.067563	41759.238077
495.434713	42182.695000
495.801805	42191.096923
496.168839	41911.312885
496.535815	42009.615385
496.902733	42063.387692
497.269593	41974.327308
497.636395	42102.036538
498.003139	42519.612115
498.369825	42318.806154
498.736453	42560.781538
499.103023	42434.752692
499.469535	42318.806154
499.835989	42606.992115
500.202385	42511.210192
500.568723	42759.907115
500.935003	42893.497692
501.301226	42726.299423
501.667390	43995.830000
502.033497	44570.521538
502.399546	44113.456923
502.765537	43747.973269
503.131470	44271.413077
503.497345	44514.228654
503.863163	43447.184423
504.228923	44138.662692
504.594625	44825.099808
504.960269	44073.967885
505.325856	45052.791923
505.691385	44347.870577
506.056856	44649.499615
506.422270	45146.053269
506.787625	45256.958654
507.152924	45429.198077
507.518164	45487.171346
507.883347	45056.152692
508.248472	45262.840000
508.613540	45993.807308
508.978550	46249.225769
509.343503	46273.591346
509.708398	46514.726538
510.073236	47016.321346
510.438016	47259.136923
510.802738	46761.743077
511.167403	47179.318654
511.532010	47985.063077
511.896561	48179.147500
512.261053	49478.084808
512.625488	48898.352115
512.989866	48784.085962
513.354186	48747.117500
513.718449	48816.013269
514.082655	49522.615000
514.446803	49247.031923
514.810894	49757.028654
515.174927	49903.222115
515.538904	49531.857115
515.902822	50798.026923
516.266684	49800.718654
516.630488	50579.576923
516.994235	50385.492500
517.357925	51063.527692
517.721558	51160.149808
518.085133	51475.221923
518.448651	51964.213846
518.812112	51581.926346
519.175516	51714.676731
519.538863	52060.835962
519.902152	51991.100000
520.265385	52401.954038
520.628560	52530.503462
520.991678	52496.055577
521.354739	52771.638654
521.717743	52927.914423
522.080690	52989.248462
522.443580	53580.743846
522.806413	53766.426346
523.169189	53478.240385
523.531908	53831.121154
523.894569	53706.772692
524.257174	54010.082115
524.619722	54212.568462
524.982213	54105.023846
525.344647	53925.222692
525.707025	54173.919615
526.069345	54520.078846
526.431608	54620.061731
526.793815	54823.388269
527.155964	54523.439615
527.518057	54604.098077
527.880093	54568.810000
528.242072	54922.530962
528.603995	54395.730385
528.965860	54814.146154
529.327669	54779.698269
529.689421	54474.708462
530.051117	54720.044615
530.412755	54721.725000
530.774337	54742.729808
531.135862	54635.185192
531.497331	54826.749038
531.858743	54783.899231
532.220098	54958.659231
532.581396	54736.008269
532.942638	54263.820192
533.303824	54740.209231
533.664953	54833.470577
534.026025	54371.364808
534.387040	54624.262692
534.747999	54730.126923
535.108902	54719.204423
535.469748	54630.984231
535.830537	54563.768846
536.191270	54763.734615
536.551947	54482.270192
536.912567	54851.954808
537.273131	54826.749038
537.633638	54368.004038
537.994089	54599.897115
538.354483	54264.660385
538.714821	54636.025385
539.075103	54980.504231
539.435328	54619.221538
539.795497	54629.303846
540.155609	54792.301154
540.515665	54969.581731
540.875665	54745.250385
541.235609	54806.584423
541.595496	54757.853269
541.955328	55540.912500
542.315102	55105.692885
542.674821	54721.725000
543.034483	54663.751731
543.394090	54562.928654
543.753640	54413.374423
544.113134	55370.353462
544.472571	54436.059615
544.831953	55444.290385
545.191278	54842.712692
545.550548	54712.482885
545.909761	54942.695577
546.268918	54998.988462
546.628019	55220.799231
546.987064	54926.731923
547.346053	54374.725577
547.704986	55221.639423
548.063863	54576.371731
548.422684	55009.070769
548.781449	54668.792885
549.140158	54908.247692
549.498811	55040.157885
549.857408	54590.655000
550.215949	55258.607885
550.574434	55017.472692
550.932864	54764.574808
551.291237	55438.409038
551.649555	54975.463077
552.007817	55249.365769
552.366022	54883.041923
552.724173	55180.470000
553.082267	55409.842500
553.440305	55850.943462
553.798288	55141.821154
554.156215	55428.326731
554.514086	55692.987308
554.871902	55279.612692
555.229661	55464.455000
555.587365	55183.830769
555.945014	55259.448077
556.302606	55027.555000
556.660143	55848.422885
557.017625	55276.251923
557.375050	55331.704615
557.732421	55724.914615
558.089735	55822.376923
558.446994	55652.658077
558.804197	56183.659615
559.161345	56149.211731
559.518437	55337.585962
559.875474	55729.955769
560.232455	55825.737692
560.589381	55910.597115
560.946251	55624.091538
561.303065	56522.257115
561.659825	56174.417500
562.016528	55845.062115
562.373177	55646.776731
562.729770	55776.166346
563.086307	55503.103846
563.442789	55875.309038
563.799216	56021.502500
564.155587	55851.783654
564.511904	55840.861154
564.868164	55744.239038
565.224370	56179.458654
565.580520	55982.013462
565.936615	56130.727500
566.292654	56176.097885
566.648638	56147.531346
567.004567	56286.163077
567.360441	56222.308462
567.716260	56118.964808
568.072023	56361.780385
568.427732	56244.993654
568.783385	55885.391346
569.138982	56428.995769
569.494525	56345.816731
569.850013	56195.422308
570.205445	55977.812500
570.560823	56228.189808
570.916145	56097.960000
571.271412	55774.485962
571.626625	55819.856346
571.981782	55795.490769
572.336884	55543.433077
572.691931	55890.432500
573.046923	55562.757500
573.401860	55399.760192
573.756743	55401.440577
574.111570	55707.270577
574.466342	55382.116154
574.821059	55540.072308
575.175722	55210.716923
575.530330	55122.496731
575.884882	54848.594038
576.239380	54846.073462
576.593823	54668.792885
576.948211	54734.327885
577.302544	54337.757115
577.656823	54199.125385
578.011047	54587.294231
578.365216	54216.769423
578.719330	54011.762500
579.073389	53789.951731
579.427394	53879.012115
579.781344	53630.315192
580.135239	53416.066154
580.489080	53346.330192
580.842866	52923.713462
581.196597	53434.550385
581.550273	53201.817115
581.903895	52892.626346
582.257463	53463.116923
582.610975	52935.476154
582.964434	53053.103077
583.317837	52893.466538
583.671186	52449.845000
584.024481	52963.202500
584.377721	52286.007500
584.730906	52724.587885
585.084037	52375.908077
585.437113	52169.220769
585.790135	52459.927308
586.143103	51931.446346
586.496016	52105.366154
586.848874	51908.761154
587.201679	51875.993654
587.554428	51341.631346
587.907124	51624.776154
588.259765	51176.953654
588.612352	51495.386538
588.964884	50807.269038
589.317362	51049.244423
589.669786	51076.970769
590.022155	50600.581731
590.374470	51145.866538
590.726731	50877.005000
591.078937	50306.514423
591.431090	50113.270192
591.783188	50020.008846
592.135232	49492.368077
592.487222	49860.372308
592.839157	49581.428462
593.191038	49578.067692
593.542866	49331.051154
593.894639	48470.694231
594.246358	48747.117500
594.598022	48960.526346
594.949633	48300.135192
595.301190	48153.101538
595.652692	48044.716731
596.004141	48142.179038
596.355535	47324.671923
596.706876	47358.279615
597.058162	47275.100577
597.409395	47621.259808
597.760573	47386.005962
598.111698	46882.730769
598.462768	46923.900192
598.813785	47029.764423
599.164748	46213.937692
599.515657	46853.324038
599.866511	46096.310769
600.217312	46304.678462
600.568060	45443.481346
600.918753	45974.482885
601.269392	46197.974038
601.619978	45843.412885
601.970510	45771.996538
602.320988	45990.446538
602.671412	46570.179231
603.021783	45874.500000
603.372100	45386.348269
603.722363	45613.200192
604.072572	45663.611731
604.422728	45830.810000
604.772830	45394.750192
605.122878	45713.183077
605.472872	45192.263846
605.822813	45825.768846
606.172701	45389.709038
606.522534	45522.459423
606.872314	45955.998654
607.222041	45361.142500
607.571714	45686.296923
607.921333	45058.673269
608.270899	45403.152115
608.620411	45600.597308
608.969870	45417.435385
609.319276	45035.147885
609.668627	45235.953846
610.017926	45577.071923
610.367171	45634.205000
610.716362	45520.779038
611.065500	45467.846923
611.414585	45588.834615
611.763616	45842.572692
612.112594	45745.110385
612.461518	45794.681731
612.810389	45808.965000
613.159207	45840.052115
613.507971	45782.078846
613.856682	46133.279231
614.205340	45965.240769
614.553945	46492.881538
614.902496	46078.666731
615.250994	46297.956923
615.599439	46325.683269
615.947830	46438.269038
616.296169	46110.594038
616.644454	46000.528846
616.992686	46313.920577
617.340864	46626.472115
617.688990	46438.269038
618.037063	46807.113462
618.385082	46672.682692
618.733048	46912.137500
619.080961	46774.345962
619.428821	46632.353462
619.776628	46851.643654
620.124382	46539.932308
620.472083	46544.133269
620.819731	46447.511154
621.167326	46249.225769
621.514868	46159.325192
621.862357	45511.536923
622.209793	45468.687115
622.557176	44988.937308
622.904506	44636.896731
623.251783	44395.761538
623.599007	44063.885577
623.946179	43926.934231
624.293297	43772.338846
624.640363	43037.170577
624.987376	42985.078654
625.334336	42291.920000
625.681243	42083.552308
626.028097	42162.530385
626.374899	41886.107115
626.721647	41408.037692
627.068343	41504.659808
627.414987	41114.810577
627.761577	40818.222692
628.108115	40939.210385
628.454600	40596.411923
628.801032	40462.821346
629.147412	40291.422115
629.493739	40269.577115
629.840014	39803.270385
630.186236	40137.666923
630.532405	39423.503462
630.878521	39709.168846
631.224585	39529.367692
631.570597	38837.049231
631.916556	39086.586346
632.262462	38955.516346
632.608316	38914.346923
632.954117	38631.202115
633.299866	38322.851538
633.645562	38475.766538
633.991206	38005.258846
634.336797	37591.044038
634.682336	37257.487692
635.027823	37012.991731
635.373257	36863.437500
635.718639	36536.602692
636.063968	35975.354231
636.409245	35835.882308
636.754470	35886.293846
637.099642	35323.365000
637.444762	34878.063077
637.789829	35000.731154
638.134845	34479.811923
638.479808	34527.702885
638.824719	34326.056731
639.169577	33959.732885
639.514383	33574.084615
639.859137	33261.533077
640.203839	33517.791731
640.548489	33193.477500
640.893086	33347.232692
641.237632	32709.526731
641.582125	32898.570000
641.926566	32701.965000
642.270955	32649.032885
642.615292	32523.844231
642.959576	32504.519808
643.303809	32376.810577
643.647990	32416.299615
643.992118	32315.476538
644.336195	32123.072500
644.680219	32267.585577
645.024192	32385.212500
645.368112	32832.194808
645.711981	32563.333269
646.055797	33086.773077
646.399562	32863.281923
646.743274	33523.673077
647.086935	34032.829615
647.430544	33895.038077
647.774101	33932.846731
648.117606	34058.035385
648.461059	34420.158269
648.804460	34013.505192
649.147810	33508.549615
649.491108	33447.215577
649.834354	33027.119423
650.177548	32343.202885
650.520690	31979.399615
650.863781	32025.610192
651.206820	31797.077885
651.549807	31339.173077
651.892742	30977.050192
652.235626	30497.300385
652.578458	30483.857308
652.921238	29805.822115
653.263967	30131.816731
653.606644	29586.531923
653.949269	29596.614231
654.291843	29201.723846
654.634365	29399.169038
654.976836	28848.002885
655.319255	28791.710000
655.661622	28992.515962
656.003938	28810.194231
656.346203	28553.935577
656.688416	28552.255192
657.030577	28330.444423
657.372687	28545.533654
657.714746	28563.177692
658.056753	28561.497308
658.398708	28143.921731
658.740612	28071.665192
659.082465	28096.870962
659.424266	27970.842115
659.766016	28027.135000
660.107715	28022.934038
660.449362	27950.677500
660.790958	28027.135000
661.132503	28038.057500
661.473996	27746.510769
661.815438	27892.704231
662.156829	28154.844231
662.498168	27632.244615
662.839456	27828.009423
663.180693	27713.743269
663.521879	27933.033462
663.863013	28013.691923
664.204097	27649.888654
664.545129	28164.926538
664.886110	27984.285192
665.227040	28038.897692
665.567918	28070.825000
665.908746	28145.602115
666.249522	28121.236538
666.590248	28186.771538
666.930922	28283.393654
667.271545	28075.866154
667.612118	28231.301731
667.952639	28154.004038
668.293109	28199.374423
668.633528	27969.161731
668.973896	28134.679615
669.314213	28038.057500
669.654480	27798.602692
669.994695	27923.791346
670.334859	27565.029231
670.674973	27570.070385
671.015035	27602.837885
671.355047	27551.586154
671.695008	27391.109423
672.034918	27290.286346
672.374777	27517.978462
672.714585	27222.230769
673.054342	27644.847500
673.394049	27263.400192
673.733705	27476.809038
674.073310	27023.105192
674.412864	27019.744423
674.752368	26858.427500
675.091820	27047.470769
675.431223	26764.325962
675.770574	26313.142692
676.109875	26305.580962
676.449125	26324.905385
676.788324	26135.862115
677.127473	25686.359231
677.466571	25681.318077
677.805619	25360.364615
678.144616	25470.429808
678.483562	25208.289808
678.822458	25053.694423
679.161303	24831.043462
679.500098	24873.893269
679.838842	24690.731346
680.177535	24654.603077
680.516179	24895.738269
680.854771	24978.917308
681.193314	25439.342692
681.531805	26214.840192
681.870247	26752.563269
682.208638	27381.027115
682.546978	27795.241923
682.885268	27965.800962
683.223508	27766.675385
683.561697	27402.031923
683.899836	27227.271923
684.237925	26884.473462
684.575963	26571.921923
684.913951	26322.384808
685.251889	26281.215385
685.589776	26222.401923
685.927614	26237.525385
686.265401	26250.968462
686.603137	26323.225000
686.940824	26495.464423
687.278460	27055.032500
687.616046	27044.950192
687.953582	27532.261731
688.291068	27242.395385
688.628504	27460.005192
688.965889	27396.150577
689.303224	27417.155385
689.640510	27160.056538
689.977745	26731.558462
690.314930	26260.210577
690.652065	25711.565000
690.989150	25238.536731
691.326185	24694.932308
691.663170	23939.599423
692.000105	23610.244038
692.336990	22846.509231
692.673825	22677.630577
693.010610	22316.347885
693.347345	21655.116538
693.684030	21319.879808
694.020665	21045.977115
694.357251	20467.084615
694.693786	20369.622308
695.030272	20416.673077
695.366707	19725.194808
695.703093	19684.025385
696.039429	19584.042500
696.375716	19256.367500
696.711952	19177.389423
697.048139	19169.827692
697.384276	19020.273462
697.720363	19037.077308
698.056400	19118.575962
698.392388	18862.317308
698.728326	18776.617692
699.064214	18655.630000
699.400053	18503.555192
699.735842	18464.906346
700.071581	18201.085962
700.407270	17910.379423
700.742910	17853.246346
701.078501	17604.549423
701.414042	17443.232500
701.749533	17221.421731
702.084974	16867.700769
702.420366	16896.267308
702.755709	16741.671923
703.091002	16461.887885
703.426246	16582.035385
703.761440	16471.970192
704.096584	16266.123077
704.431679	16259.401538
704.766725	16088.002308
705.101721	15918.283462
705.436668	16045.992692
705.771565	15719.157885
706.106413	16127.491346
706.441212	16022.467308
706.775961	16010.704615
707.110661	16239.236923
707.445311	16450.965385
707.779913	16280.406346
708.114465	16414.837115
708.448967	16881.984038
708.783421	17244.947115
709.117825	17357.532885
709.452180	17501.205769
709.786485	17860.808077
710.120742	18336.356923
710.454949	18391.809615
710.789107	18738.809038
711.123216	19181.590385
711.457275	19363.071923
711.791286	19849.543269
712.125247	20070.513846
712.459159	19760.482885
712.793023	20387.266346
713.126837	19532.790769
713.460602	19880.630385
713.794318	19600.846346
714.127985	19347.948462
714.461602	18768.215769
714.795171	18772.416731
715.128691	17954.909615
715.462162	17660.842308
715.795584	17193.695385
716.128957	16967.683654
716.462281	16744.192500
716.795556	16524.902308
717.128782	16145.135385
717.461960	15973.736154
717.795088	15707.395192
718.128167	15469.620769
718.461198	15089.013654
718.794180	15065.488269
719.127113	14596.660962
719.459997	14517.682885
719.792833	14313.516154
720.125619	14289.150577
720.458357	14013.567500
720.791046	13849.730000
721.123686	13667.408269
721.456278	13585.069423
721.788821	13534.657885
722.121315	13339.733269
722.453761	13395.185962
722.786158	13217.065192
723.118506	13280.079615
723.450805	13259.915000
723.783056	13312.006923
724.115259	13302.764808
724.447412	13159.091923
724.779518	13503.570769
725.111574	13392.665385
725.443582	13561.544038
725.775542	13446.437692
726.107453	13869.054423
726.439315	13822.843846
726.771129	14000.124423
727.102895	14400.896154
727.434612	14593.300192
727.766281	14665.556731
728.097901	14847.038269
728.429473	14887.367500
728.760996	14996.592500
729.092471	15126.822308
729.423897	15047.004038
729.755276	15026.839423
730.086606	15062.127500
730.417887	15217.563077
730.749120	15736.801923
731.080305	15914.922692
731.411442	16215.711538
731.742530	16233.355577
732.073570	16330.817885
732.404562	16681.178077
732.735506	16560.190385
733.066401	16569.432500
733.397249	16195.546923
733.728048	15797.295769
734.058798	15106.657692
734.389501	14617.665769
734.720156	14278.228077
735.050762	13774.952885
735.381320	13317.048077
735.711831	13296.043269
736.042293	12892.750962
736.372707	13024.661154
736.703073	12785.206346
737.033391	12946.523269
737.363661	12812.932692
737.693883	12915.436154
738.024056	12908.714615
738.354182	13056.588462
738.684260	13284.280577
739.014290	13443.076923
739.344272	13720.340385
739.674207	13948.032500
740.004093	13947.192308
740.333931	13916.105192
740.663722	14111.029808
740.993464	14087.504423
741.323159	14170.683462
741.652806	13852.250577
741.982405	13790.076346
742.311956	13547.260769
742.641460	13363.258654
742.970915	13162.452692
743.300323	12892.750962
743.629683	12748.237885
743.958996	12541.550577
744.288260	12314.698654
744.617477	12178.587500
744.946647	12018.110769
745.275768	11836.629231
745.604842	11664.389808
745.933869	11576.169615
746.262847	11585.411731
746.591778	11479.547500
746.920662	11286.303269
747.249498	11286.303269
747.578286	11356.039231
747.907027	11372.002885
748.235720	11730.765000
748.564365	11676.992692
748.892963	11629.101731
749.221514	11724.883654
749.550017	11593.813654
749.878473	11664.389808
750.206881	11515.675769
750.535242	11498.871923
750.863555	11299.746346
751.191821	11164.475385
751.520039	11281.262115
751.848210	11114.904038
752.176334	11288.823846
752.504411	11218.247692
752.832440	11153.552885
753.160421	11156.913654
753.488356	11043.487692
753.816243	10943.504808
754.144082	10667.081538
754.471875	10671.282500
754.799620	10762.863462
755.127318	10624.231731
755.454969	10544.413462
755.782572	10664.560962
756.110129	10681.364808
756.437638	10620.030769
756.765100	10572.980000
757.092515	10498.202885
757.419882	10656.999231
757.747203	10626.752308
758.074477	10647.757115
758.401703	10585.582885
758.728882	10633.473846
759.056014	10814.115192
759.383099	10827.558269
759.710138	10940.984231
760.037129	11057.770962
760.364073	11139.269615
760.690970	11064.492500
761.017820	11077.935577
761.344623	11236.731923
761.671379	11416.533077
761.998088	11678.673077
762.324751	12705.388077
762.651366	14533.646538
762.977935	17533.133077
763.304456	20046.148269
763.630931	21373.652115
763.957359	21298.875000
764.283740	19861.305962
764.610074	18424.577115
764.936362	16535.824808
765.262602	15004.994423
765.588796	13609.435000
765.914943	12630.610962
766.241044	11689.595577
766.567097	11059.451346
766.893104	10404.101346
767.219064	10121.796731
767.544978	9761.354231
767.870845	9410.153846
768.196665	9253.037885
768.522438	9115.246346
768.848165	8909.399231
769.173846	8719.515769
769.499479	8686.748269
769.825066	8431.329808
770.150607	8308.661731
770.476101	8188.514231
770.801548	8196.916154
771.126949	8120.458654
771.452303	7920.492885
771.777611	7917.132115
772.102872	7845.715769
772.428087	7676.837115
772.753256	7600.379615
773.078378	7569.292500
773.403453	7340.760192
773.728482	7289.508462
774.053465	7251.699808
774.378401	7083.661346
774.703291	7022.327308
775.028135	7030.729231
775.352932	6979.477500
775.677683	6844.206538
776.002388	6792.954808
776.327046	6766.908846
776.651658	6754.305962
776.976224	6709.775769
777.300743	6605.591923
777.625216	6560.221538
777.949643	6535.015769
778.274024	6547.618654
778.598359	6442.594615
778.922647	6481.243462
779.246889	6442.594615
779.571086	6435.032885
779.895236	6419.069231
780.219339	6489.645385
780.543397	6450.156346
780.867409	6539.216731
781.191374	6445.115192
781.515294	6463.599423
781.839167	6527.454038
782.162995	6524.933462
782.486776	6446.795577
782.810511	6421.589808
783.134201	6343.451923
783.457844	6314.885385
783.781441	6366.977308
784.104993	6375.379231
784.428498	6372.858654
784.751958	6262.793462
785.075372	6188.016346
785.398739	6239.268077
785.722061	6221.624038
786.045337	6171.212500
786.368568	6286.318846
786.691752	6343.451923
787.014891	6532.495192
787.337983	6660.204423
787.661030	7043.332115
787.984031	7457.546923
788.306987	7786.902308
788.629897	8051.562885
788.952760	8026.357115
789.275579	7896.127308
789.598351	7708.764423
789.921078	7448.304808
790.243759	7191.205962
790.566395	7018.966538
790.888984	6691.291538
791.211529	6683.729808
791.534027	6523.253077
791.856480	6340.931346
792.178888	6296.401154
792.501249	6219.103462
792.823566	6125.001923
793.145836	6073.750192
793.468062	6056.946346
793.790241	5923.355769
794.112375	6021.658269
794.434464	6089.713846
794.756507	6103.156923
795.078505	6177.093846
795.400457	6407.306538
795.722364	6487.124808
796.044226	6671.126923
796.366042	7026.528269
796.687812	6959.312885
797.009538	6991.240192
797.331218	6849.247692
797.652852	6903.020000
797.974442	6879.494615
798.295986	6840.005577
798.617484	6668.606346
798.938938	6538.376538
799.260346	6459.398462
799.581709	6351.013654
799.903026	6252.711154
800.224299	6203.980000
800.545526	6151.888077
800.866708	6114.079423
801.187845	5947.721346
801.508936	5854.460000
801.829983	5930.917500
802.150984	5767.080000
802.471940	5776.322115
802.792851	5604.082692
803.113717	5693.983269
803.434538	5615.845385
803.755314	5640.210962
804.076045	5602.402308
804.396731	5520.063462
804.717372	5580.557308
805.037967	5548.630000
805.358518	5511.661538
805.679024	5652.813846
805.999485	5667.097115
806.319901	5592.320000
806.640272	5653.654038
806.960598	5668.777500
807.280879	5591.479808
807.601115	5721.709615
807.921306	5671.298077
808.241453	5694.823462
808.561554	5692.302885
808.881611	5672.138269
809.201623	5721.709615
809.521590	5630.968846
809.841513	5639.370769
810.161390	5704.905769
810.481223	5634.329615
810.801011	5632.649231
811.120755	5599.041538
811.440453	5463.770577
811.760107	5444.446154
812.079716	5495.697885
812.399281	5359.586731
812.718801	5425.121731
813.038276	5456.208846
813.357707	5374.710192
813.677093	5456.208846
813.996434	5411.678654
814.315731	5338.581923
814.634983	5303.293846
814.954191	5378.911154
815.273354	5466.291154
815.592473	5498.218462
815.911547	5578.876923
816.230577	5658.695192
816.549562	5790.605385
816.868502	5657.855000
817.187399	5833.455192
817.506250	5956.123269
817.825058	5984.689808
818.143821	6134.244038
818.462539	6429.151538
818.781213	6547.618654
819.099843	6877.814231
819.418429	7515.520192
819.736970	8144.824231
820.055466	8785.050769
820.373919	9799.162885
820.692327	11050.209231
821.010691	13004.496538
821.329011	17284.436154
821.647286	24576.465192
821.965517	34069.798077
822.283704	40987.101346
822.601847	45399.791346
822.919945	44151.265577
823.237999	40428.373462
823.556010	35982.915962
823.873976	31514.773269
824.191897	26986.136731
824.509775	23797.606923
824.827609	20324.251923
825.145398	18192.684038
825.463144	16810.567692
825.780845	16574.473654
826.098502	16998.770769
826.416116	18749.731538
826.733685	21288.792692
827.051210	22948.172500
827.368692	22553.282115
827.686129	20575.469423
828.003522	18120.427500
828.320872	15481.383462
828.638177	13555.662692
828.955439	11901.324038
829.272656	10591.464231
829.589830	9495.013269
829.906960	8652.300385
830.224046	7891.086154
830.541088	7389.491346
830.858086	6913.942500
831.175041	6703.054231
831.491952	6427.471154
831.808819	6479.563077
832.125642	6624.916346
832.442421	7068.537885
832.759157	7842.355000
833.075849	9391.669615
833.392497	11424.094808
833.709101	13185.978077
834.025662	13599.352692
834.342179	12984.331923
834.658653	11715.641538
834.975083	10486.440192
835.291469	9334.536538
835.607811	8499.385385
835.924110	7856.638269
836.240366	7226.494038
836.556578	6543.417692
836.872746	6114.919615
837.188871	5783.043654
837.504952	5488.976346
837.820990	5204.151154
838.136984	5090.725192
838.452935	4901.681923
838.768842	4913.444615
839.084706	5091.565385
839.400526	5515.022308
839.716303	6455.197500
840.032037	7296.230000
840.347727	7690.280192
840.663373	7318.915192
840.978977	6623.235962
841.294537	6027.539615
841.610054	5611.644423
841.925527	5288.170385
842.240957	5075.601731
842.556344	4737.844423
842.871687	4571.486346
843.186987	4375.721538
843.502244	4245.491731
843.817458	4048.046538
844.132629	4022.000577
844.447756	3858.163077
844.762840	3828.756346
845.077881	3741.376346
845.392879	3747.257692
845.707833	3751.458654
846.022745	3666.599231
846.337613	3647.274808
846.652438	3614.507308
846.967221	3591.822115
847.281960	3493.519615
847.596656	3516.204808
847.911309	3559.054615
848.225919	3530.488077
848.540485	3415.381731
848.855009	3498.560769
849.169490	3466.633462
849.483928	3465.793269
849.798323	3443.108077
850.112675	3453.190385
850.426984	3467.473654
850.741251	3427.984615
851.055474	3454.870769
851.369654	3461.592308
851.683792	3453.190385
851.997887	3479.236346
852.311938	3415.381731
852.625947	3452.350192
852.939914	3436.386538
853.253837	3419.582692
853.567718	3434.706154
853.881555	3402.778846
854.195350	3433.025769
854.509103	3401.098462
854.822812	3414.541538
855.136479	3470.834423
855.450103	3448.989423
855.763685	3420.422885
856.077224	3423.783654
856.390720	3418.742500
856.704173	3418.742500
857.017584	3423.783654
857.330953	3457.391346
857.644278	3422.103269
857.957561	3472.514808
858.270802	3443.108077
858.584000	3489.318654
858.897155	3469.994231
859.210268	3444.788462
859.523339	3417.902308
859.836367	3443.108077
860.149352	3451.510000
860.462295	3399.418077
860.775195	3418.742500
861.088054	3465.793269
861.400869	3406.979808
861.713642	3403.619038
862.026373	3414.541538
862.339062	3391.016154
862.651708	3396.057308
862.964312	3459.071731
863.276873	3499.400962
863.589392	3470.834423
863.901869	3564.935962
864.214303	3558.214423
864.526696	3576.698654
864.839045	3618.708269
865.151353	3609.466154
865.463619	3645.594423
865.775842	3609.466154
866.088023	3643.914038
866.400162	3582.580000
866.712258	3667.439423
867.024313	3642.233654
867.336325	3606.945577
867.648296	3587.621154
867.960224	3621.228846
868.272110	3653.156154
868.583954	3677.521731
868.895755	3648.115000
869.207515	3710.289231
869.519233	3676.681538
869.830909	3653.156154
870.142542	3717.010769
870.454134	3676.681538
870.765684	3722.892115
871.077191	3712.809808
871.388657	3847.240577
871.700081	3801.870192
872.011463	3853.121923
872.322803	3840.519038
872.634101	3896.811923
872.945357	3920.337308
873.256571	3943.862692
873.567744	3953.945000
873.878874	3943.022500
874.189963	4046.366154
874.501010	3975.790000
874.812015	3960.666538
875.122979	3985.872308
875.433900	4039.644615
875.744780	4022.000577
876.055618	4060.649423
876.366415	4044.685769
876.677169	4053.927885
876.987882	4028.722115
877.298554	4107.700192
877.609183	4180.796923
877.919771	4242.971154
878.230317	4320.268846
878.540822	4364.799038
878.851285	4617.696923
879.161707	4884.037885
879.472087	5234.398077
879.782425	5850.259038
880.092722	6872.773077
880.402977	8552.317500
880.713191	10685.565769
881.023363	13005.336731
881.333494	14704.205577
881.643583	15802.336923
881.953631	15984.658654
882.263637	15544.397885
882.573602	14698.324231
882.883526	13975.758846
883.193408	13275.878654
883.503248	12128.175962
883.813048	11145.150962
884.122806	10287.314615
884.432522	9440.400769
884.742197	8655.661154
885.051831	7966.703462
885.361424	7244.138077
885.670975	6735.821731
885.980485	6172.052692
886.289954	5790.605385
886.599382	5612.484615
886.908768	5232.717692
887.218113	5037.793077
887.527417	4906.723077
887.836680	4706.757308
888.145901	4539.559038
888.455082	4361.438269
888.764221	4314.387500
889.073319	4252.213269
889.382376	4148.029423
889.691392	4138.787308
890.000366	4127.864808
890.309300	4083.334615
890.618193	4079.973846
890.927044	4053.087692
891.235855	4061.489615
891.544625	4073.252308
891.853353	4070.731731
892.162041	4196.760577
892.470687	4244.651538
892.779293	4384.963654
893.087858	4519.394423
893.396381	4841.188077
893.704864	5302.453654
894.013306	5865.382500
894.321707	6482.083654
894.630068	6976.116731
894.938387	7398.733462
895.246665	7497.876154
895.554903	7040.811538
895.863100	6761.027500
896.171256	6335.890192
896.479371	6012.416154
896.787446	5778.002500
897.095480	5466.291154
897.403473	5307.494808
897.711425	5047.875385
898.019336	4895.800577
898.327207	4731.122885
898.635038	4526.956154
898.942827	4459.740769
899.250576	4341.273654
899.558284	4169.874423
899.865952	4064.010192
900.173579	4023.680962
900.481165	3969.908654
900.788711	3852.281731
901.096216	3878.327692
901.403681	3781.705577
901.711105	3738.855769
902.018489	3797.669231
902.325832	3762.381154
902.633135	3824.555385
902.940397	3942.182308
903.247619	4295.903269
903.554800	4848.749808
903.861941	5894.789231
904.169041	6837.485000
904.476101	7558.370000
904.783121	7748.253462
905.090100	7325.636731
905.397039	6828.242885
905.703938	6365.296923
906.010796	5954.442885
906.317614	5594.000385
906.624391	5343.623077
906.931129	5048.715577
907.237826	4717.679808
907.544483	4544.600192
907.851099	4291.702308
908.157675	4038.804423
908.464211	3846.400385
908.770707	3701.047115
909.077163	3604.425000
909.383578	3474.195192
909.689954	3432.185577
909.996289	3327.161538
910.302584	3278.430385
910.608839	3304.476346
910.915054	3280.110769
911.221229	3254.905000
911.527363	3285.992115
911.833458	3259.946154
912.139513	3270.028462
912.445527	3275.909808
912.751502	3364.970192
913.057436	3359.088846
913.363331	3464.112885
913.669186	3529.647885
913.975000	3639.713077
914.280775	3906.894231
914.586510	4199.281154
914.892205	4526.115962
915.197859	5079.802692
915.503475	5699.864615
915.809050	6351.853846
916.114585	6849.247692
916.420081	7061.816346
916.725536	7150.876731
917.030952	6909.741538
917.336328	6829.923269
917.641665	6559.381346
917.946961	6369.497885
918.252218	6035.101346
918.557435	5779.682885
918.862612	5470.492115
919.167750	5247.000962
919.472848	5029.391154
919.777906	4803.379423
920.082925	4584.929423
920.387904	4351.355962
920.692843	4169.874423
920.997743	4056.448462
921.302603	3947.223462
921.607423	3846.400385
921.912204	3781.705577
922.216946	3669.119808
922.521647	3552.333077
922.826310	3511.163654
923.130932	3464.953077
923.435516	3343.965385
923.740059	3400.258269
924.044564	3321.280192
924.349028	3279.270577
924.653454	3226.338462
924.957840	3175.086731
925.262186	3126.355577
925.566493	3082.665577
925.870761	3107.871346
926.174989	3019.651154
926.479178	3002.007115
926.783328	3015.450192
927.087438	3034.774615
927.391509	2951.595577
927.695541	2917.147692
927.999533	2930.590769
928.303486	2923.869231
928.607400	2937.312308
928.911275	2900.343846
929.215110	2928.070192
929.518906	2854.133269
929.822663	2875.138077
930.126381	2842.370577
930.430060	2832.288269
930.733699	2890.261538
931.037299	2871.777308
931.340861	2854.973462
931.644383	2943.193654
931.947866	2852.452885
932.251309	2873.457692
932.554714	2870.937115
932.858080	2881.859615
933.161407	2862.535192
933.464694	2884.380192
933.767943	2882.699808
934.071153	2872.617500
934.374323	2866.736154
934.677455	2823.886346
934.980548	2823.046154
935.283602	2860.854808
935.586617	2842.370577
935.889593	2843.210769
936.192530	2854.973462
936.495428	2886.060577
936.798287	2845.731346
937.101108	2840.690192
937.403890	2909.585962
937.706632	2910.426154
938.009336	2949.075000
938.312002	3049.898077
938.614628	3048.217692
938.917216	3086.026346
939.219765	3050.738269
939.522275	3130.556538
939.824747	3135.597692
940.127179	3129.716346
940.429573	3098.629231
940.731929	3138.118269
941.034246	3125.515385
941.336524	3129.716346
941.638763	3098.629231
941.940964	3105.350769
942.243126	3052.418654
942.545250	3057.459808
942.847335	3059.980385
943.149381	3002.007115
943.451389	2992.765000
943.753359	2962.518077
944.055290	2978.481731
944.357182	2945.714231
944.659036	2895.302692
944.960851	2895.302692
945.262628	2949.915192
945.564367	2920.508462
945.866067	2930.590769
946.167729	2975.120962
946.469352	2917.147692
946.770937	2921.348654
947.072484	2892.782115
947.373992	2912.106538
947.675462	2896.983077
947.976893	2893.622308
948.278286	2868.416538
948.579641	2904.544808
948.880958	2889.421346
949.182236	2848.251923
949.483476	2909.585962
949.784678	2889.421346
950.085841	2871.777308
950.386967	2854.133269
950.688054	2906.225192
950.989103	2911.266346
951.290114	2897.823269
951.591087	2870.096923
951.892021	2959.157308
952.192917	2983.522885
952.493776	2912.946731
952.794596	2990.244423
953.095378	3012.089423
953.396122	3014.610000
953.696828	2988.564038
953.997496	2986.883654
954.298126	2991.084615
954.598718	2918.828077
954.899272	2887.740962
955.199788	2903.704615
955.500266	2903.704615
955.800706	2901.184038
956.101108	2860.854808
956.401472	2823.886346
956.701798	2813.804038
957.002087	2795.319808
957.302337	2766.753269
957.602550	2727.264231
957.902724	2739.867115
958.202861	2728.944615
958.502960	2740.707308
958.803022	2714.661346
959.103045	2708.780000
959.403031	2678.533077
959.702979	2714.661346
960.002889	2693.656538
960.302762	2630.642115
960.602596	2627.281346
960.902393	2655.847885
961.202153	2680.213462
961.501875	2660.889038
961.801559	2660.889038
962.101205	2637.363654
962.400814	2615.518654
962.700385	2612.998077
962.999918	2607.956923
963.299414	2645.765577
963.598873	2650.806731
963.898293	2585.271731
964.197677	2569.308077
964.497022	2670.971346
964.796331	2631.482308
965.095601	2660.889038
965.394835	2561.746346
965.694030	2635.683269
965.993189	2620.559808
966.292309	2598.714808
966.591393	2556.705192
966.890439	2612.998077
967.189447	2595.354038
967.488419	2606.276538
967.787353	2604.596154
968.086249	2632.322500
968.385108	2630.642115
968.683930	2636.523462
968.982714	2644.085192
969.281462	2618.039231
969.580172	2606.276538
969.878844	2605.436346
970.177480	2612.998077
970.476078	2631.482308
970.774639	2612.998077
971.073162	2623.920577
971.371649	2655.007692
971.670098	2581.070769
971.968510	2635.683269
972.266885	2631.482308
972.565223	2639.044038
972.863524	2610.477500
973.161788	2654.167500
973.460014	2644.925385
973.758204	2649.126346
974.056356	2671.811538
974.354471	2613.838269
974.652550	2686.094808
974.950591	2634.843077
975.248595	2667.610577
975.546563	2634.002885
975.844493	2643.245000
976.142386	2628.961731
976.440243	2654.167500
976.738062	2691.135962
977.035845	2667.610577
977.333590	2646.605769
977.631299	2587.792308
977.928971	2649.126346
978.226606	2615.518654
978.524204	2630.642115
978.821765	2571.828654
979.119290	2638.203846
979.416777	2635.683269
979.714228	2626.441154
980.011642	2641.564615
980.309020	2630.642115
980.606360	2636.523462
980.903664	2666.770385
981.200931	2642.404808
981.498162	2701.218269
981.795356	2709.620192
982.092513	2818.845192
982.389633	2785.237500
982.686717	2839.009808
982.983764	2931.430962
983.280775	2905.385000
983.577749	2944.874038
983.874686	2984.363077
984.171587	2996.125769
984.468451	2963.358269
984.765279	2908.745769
985.062070	2875.138077
985.358824	2850.772500
985.655543	2819.685385
985.952224	2802.041346
986.248869	2770.954231
986.545478	2763.392500
986.842050	2716.341731
987.138586	2689.455577
987.435086	2664.249808
987.731549	2667.610577
988.027975	2618.039231
988.324366	2602.915769
988.620719	2576.869808
988.917037	2565.107115
989.213318	2623.920577
989.509563	2566.787500
989.805772	2597.874615
990.101944	2560.065962
990.398080	2574.349231
990.694180	2566.787500
990.990244	2544.942500
991.286271	2602.075577
991.582262	2591.993269
991.878217	2570.148269
992.174136	2576.869808
992.470019	2581.070769
992.765865	2522.257308
993.061676	2582.751154
993.357450	2591.993269
993.653188	2586.111923
993.948890	2603.755962
994.244556	2568.467885
994.540186	2624.760769
994.835780	2621.400000
995.131337	2654.167500
995.426859	2691.976154
995.722345	2691.976154
996.017795	2719.702500
996.313208	2769.273846
996.608586	2741.547500
996.903928	2781.036538
997.199234	2809.603077
997.494504	2786.917885
997.789738	2767.593462
998.084936	2746.588654
998.380099	2712.980962
998.675225	2691.135962
998.970316	2730.625000
999.265371	2715.501538
999.560390	2688.615385
999.855373	2663.409615
1000.150320	2645.765577
1000.445232	2644.925385
1000.740108	2627.281346
1001.034948	2620.559808
1001.329752	2582.751154
1001.624521	2583.591346
1001.919254	2548.303269
1002.213951	2534.860192
1002.508613	2566.787500
1002.803239	2578.550192
1003.097829	2549.143462
1003.392384	2532.339615
1003.686903	2531.499423
1003.981386	2580.230577
1004.275834	2565.107115
1004.570246	2565.947308
1004.864623	2533.179808
1005.158964	2522.257308
1005.453270	2520.576923
1005.747540	2562.586538
1006.041775	2560.906154
1006.335974	2529.819038
1006.630138	2570.988462
1006.924266	2534.860192
1007.218359	2581.070769
1007.512416	2513.015192
1007.806438	2519.736731
1008.100425	2494.530962
1008.394376	2506.293654
1008.688292	2528.978846
1008.982172	2464.284038
1009.276017	2565.107115
1009.569827	2535.700385
1009.863602	2570.988462
1010.157341	2514.695577
1010.451045	2523.937692
1010.744714	2528.978846
1011.038347	2527.298462
1011.331945	2514.695577
1011.625508	2554.184615
1011.919036	2511.334808
1012.212528	2581.070769
1012.505986	2575.189423
1012.799408	2510.494615
1013.092795	2541.581731
1013.386147	2544.102308
1013.679464	2512.175000
1013.972745	2534.020000
1014.265992	2502.932885
1014.559204	2497.051538
1014.852380	2578.550192
1015.145521	2547.463077
1015.438628	2529.819038
1015.731699	2526.458269
1016.024736	2504.613269
1016.317737	2503.773077
1016.610703	2509.654423
1016.903635	2553.344423
1017.196531	2526.458269
1017.489393	2481.928077
1017.782219	2532.339615
1018.075011	2521.417115
1018.367768	2517.216154
1018.660490	2517.216154
1018.953177	2517.216154
1019.245829	2517.216154
