Dividing Wavelength (nm)	Counts (n)	Slit_number_4_of_a_total_of_40	
326.493990	2010.580192
326.888308	2010.580192
327.282561	2010.580192
327.676750	1960.168654
328.070874	1947.565769
328.464933	1964.369615
328.858929	2029.064423
329.252859	2042.507500
329.646726	2016.461538
330.040528	2034.945769
330.434265	2050.069231
330.827938	2016.461538
331.221547	2091.238654
331.615091	2113.083654
332.008571	2107.202308
332.401986	2161.814808
332.795338	2129.887500
333.188625	2213.066538
333.581847	2243.313462
333.975006	2258.436923
334.368100	2221.468462
334.761129	2249.194808
335.154095	2302.967115
335.546996	2305.487692
335.939833	2355.059038
336.332606	2341.615962
336.725315	2371.862885
337.117960	2384.465769
337.510540	2428.995962
337.903056	2411.351923
338.295508	2435.717500
338.687896	2402.950000
339.080220	2399.589231
339.472480	2373.543269
339.864676	2377.744231
340.256807	2387.826538
340.648875	2460.923269
341.040879	2449.160577
341.432818	2423.954808
341.824694	2465.964423
342.216506	2431.516538
342.608253	2406.310769
342.999937	2445.799808
343.391557	2414.712692
343.783113	2486.969231
344.174605	2381.945192
344.566033	2415.552885
344.957397	2439.078269
345.348697	2401.269615
345.739934	2409.671538
346.131106	2435.717500
346.522215	2429.836154
346.913260	2389.506923
347.304241	2434.877308
347.695159	2444.119423
348.086012	2408.831346
348.476802	2442.439038
348.867528	2437.397885
349.258191	2437.397885
349.648789	2379.424615
350.039324	2409.671538
350.429796	2392.027500
350.820203	2433.196923
351.210548	2401.269615
351.600828	2386.986346
351.991045	2417.233269
352.381198	2430.676346
352.771288	2398.749038
353.161314	2416.393077
353.551276	2404.630385
353.941175	2444.959615
354.331010	2384.465769
354.720782	2363.460962
355.110490	2392.027500
355.500135	2397.068654
355.889717	2359.260000
356.279235	2384.465769
356.668689	2391.187308
357.058080	2379.424615
357.447408	2397.068654
357.836672	2422.274423
358.225873	2433.196923
358.615010	2423.114615
359.004084	2432.356731
359.393095	2380.264808
359.782043	2407.150962
360.170927	2430.676346
360.559748	2424.795000
360.948505	2409.671538
361.337199	2397.068654
361.725830	2443.279231
362.114398	2418.073462
362.502903	2357.579615
362.891344	2405.470577
363.279722	2387.826538
363.668037	2362.620769
364.056289	2354.218846
364.444478	2372.703077
364.832603	2409.671538
365.220665	2397.908846
365.608665	2408.831346
365.996601	2384.465769
366.384474	2394.548077
366.772284	2398.749038
367.160031	2423.114615
367.547715	2417.233269
367.935336	2396.228462
368.322893	2402.950000
368.710388	2395.388269
369.097820	2394.548077
369.485189	2396.228462
369.872495	2422.274423
370.259738	2381.945192
370.646918	2417.233269
371.034035	2397.908846
371.421090	2424.795000
371.808081	2373.543269
372.195010	2407.150962
372.581875	2450.000769
372.968678	2469.325192
373.355418	2450.840962
373.742096	2400.429423
374.128710	2371.022692
374.515262	2435.717500
374.901751	2375.223654
375.288177	2415.552885
375.674540	2449.160577
376.060841	2450.000769
376.447079	2439.918462
376.833254	2403.790192
377.219367	2417.233269
377.605417	2400.429423
377.991404	2440.758654
378.377329	2415.552885
378.763191	2436.557692
379.148991	2426.475385
379.534727	2416.393077
379.920402	2413.032308
380.306013	2420.594038
380.691563	2431.516538
381.077049	2378.584423
381.462474	2432.356731
381.847835	2423.954808
382.233134	2433.196923
382.618371	2448.320385
383.003545	2452.521346
383.388657	2506.293654
383.773706	2418.073462
384.158693	2464.284038
384.543618	2413.032308
384.928480	2428.155769
385.313280	2425.635192
385.698017	2451.681154
386.082692	2458.402692
386.467305	2497.891731
386.851856	2437.397885
387.236344	2493.690769
387.620770	2498.731923
388.005133	2507.133846
388.389435	2521.417115
388.773674	2473.526154
389.157851	2541.581731
389.541965	2500.412308
389.926018	2501.252500
390.310008	2512.175000
390.693936	2609.637308
391.077802	2539.061154
391.461606	2546.622885
391.845348	2594.513846
392.229027	2549.983654
392.612645	2513.015192
392.996200	2554.184615
393.379694	2571.828654
393.763125	2654.167500
394.146494	2588.632500
394.529801	2635.683269
394.913047	2583.591346
395.296230	2534.020000
395.679351	2639.044038
396.062410	2619.719615
396.445408	2587.792308
396.828343	2656.688077
397.211217	2634.002885
397.594028	2619.719615
397.976778	2670.131154
398.359466	2628.121538
398.742092	2619.719615
399.124656	2711.300577
399.507158	2655.007692
399.889598	2651.646923
400.271977	2711.300577
400.654294	2712.140769
401.036549	2751.629808
401.418742	2681.053654
401.800874	2766.753269
402.182944	2749.949423
402.564952	2759.191538
402.946898	2771.794423
403.328783	2743.227885
403.710606	2754.150385
404.092367	2788.598269
404.474067	2796.160000
404.855705	2766.753269
405.237282	2752.470000
405.618797	2792.799231
406.000250	2842.370577
406.381642	2864.215577
406.762972	2839.850000
407.144240	2788.598269
407.525447	2861.695000
407.906593	2899.503654
408.287677	2857.494038
408.668700	2875.978269
409.049661	2904.544808
409.430560	2880.179231
409.811399	2886.060577
410.192176	2960.837692
410.572891	2902.864423
410.953545	2949.075000
411.334138	2875.978269
411.714669	2965.038654
412.095139	2916.307500
412.475547	3033.934423
412.855894	2938.992692
413.236180	3004.527692
413.616405	3019.651154
413.996568	2981.842500
414.376670	3017.130577
414.756711	2964.198462
415.136691	2995.285577
415.516609	3030.573654
415.896466	2982.682692
416.276262	3026.372692
416.655997	3133.077115
417.035670	3033.094231
417.415283	3149.880962
417.794834	3091.907692
418.174324	3102.830192
418.553753	3090.227308
418.933121	3165.844615
419.312428	3147.360385
419.691674	3120.474231
420.070859	3227.178654
420.449983	3155.762308
420.829045	3247.343269
421.208047	3149.040769
421.586988	3162.483846
421.965867	3226.338462
422.344686	3243.142308
422.723444	3271.708846
423.102141	3181.808269
423.480777	3292.713654
423.859352	3311.197885
424.237866	3351.527115
424.616319	3322.120385
424.994712	3363.289808
425.373044	3349.846731
425.751314	3375.892692
426.129524	3424.623846
426.507673	3473.355000
426.885762	3441.427692
427.263789	3435.546346
427.641756	3406.139615
428.019662	3464.112885
428.397508	3475.035385
428.775292	3487.638269
429.153016	3522.086154
429.530679	3574.178077
429.908282	3506.122500
430.285824	3444.788462
430.663305	3521.245962
431.040726	3509.483269
431.418086	3528.807692
431.795385	3527.127308
432.172624	3579.219231
432.549802	3593.502500
432.926920	3513.684231
433.303977	3598.543654
433.680974	3622.069038
434.057910	3635.512115
434.434786	3671.640385
434.811601	3658.197308
435.188355	3754.819423
435.565050	3701.887308
435.941683	3719.531346
436.318257	3785.906538
436.694770	3733.814615
437.071222	3811.112308
437.447614	3772.463462
437.823946	3759.860577
438.200218	3776.664423
438.576429	3838.838654
438.952580	3775.824231
439.328670	3806.911346
439.704700	3842.199423
440.080670	3770.783077
440.456580	3832.957308
440.832429	3868.245385
441.208218	3838.838654
441.583947	3851.441538
441.959616	3800.189808
442.335224	3841.359231
442.710773	3834.637692
443.086261	3918.656923
443.461689	3926.218654
443.837057	3921.177500
444.212365	3977.470385
444.587612	4007.717308
444.962800	3973.269423
445.337927	3960.666538
445.712995	3979.990962
446.088002	4090.056154
446.462949	4101.818846
446.837837	4085.015000
447.212664	4034.603462
447.587431	4181.637115
447.962139	4442.096731
448.336786	4726.081731
448.711374	4779.013846
449.085901	4459.740769
449.460369	4437.895769
449.834776	4371.520577
450.209124	4434.535000
450.583412	4483.266154
450.957640	4665.587885
451.331808	4622.738077
451.705917	4453.019231
452.079965	4488.307308
452.453954	4474.024038
452.827883	4442.936923
453.201752	4447.137885
453.575562	4475.704423
453.949311	4595.851923
454.323001	4614.336154
454.696632	4601.733269
455.070202	4686.592692
455.443713	4726.081731
455.817164	4851.270385
456.190556	4857.991923
456.563888	4785.735385
456.937160	4920.166154
457.310373	4789.096154
457.683526	4908.403462
458.056619	4837.827308
458.429653	4875.635962
458.802628	4907.563269
459.175542	4949.572885
459.548398	4994.943269
459.921194	5168.022885
460.293930	5200.790385
460.666607	5456.208846
461.039224	5588.119038
461.411782	5733.472308
461.784280	5660.375577
462.156719	5603.242500
462.529099	5646.092308
462.901419	5549.470192
463.273680	5379.751346
463.645882	5377.230769
464.018024	5368.828846
464.390106	5480.574423
464.762130	5637.690385
465.134094	5877.145192
465.505999	6366.137115
465.877845	7076.939808
466.249631	7429.820577
466.621358	7328.157308
466.993026	7129.871923
467.364634	7027.368462
467.736184	6757.666731
468.107674	6643.400577
468.479105	6583.746923
468.850477	6526.613846
469.221790	6386.301731
469.593043	6243.469038
469.964238	6163.650769
470.335373	6107.357885
470.706449	6223.304423
471.077467	6319.086346
471.448425	6740.862885
471.819324	7384.450192
472.190164	7365.125769
472.560945	7073.579038
472.931667	6695.492500
473.302330	6506.449231
473.672934	6367.817500
474.043479	6521.572692
474.413965	6372.858654
474.784393	6287.999231
475.154761	6491.325769
475.525070	6511.490385
475.895321	6427.471154
476.265513	6550.139231
476.635645	6708.935577
477.005719	6704.734615
477.375734	6683.729808
477.745691	6825.722308
478.115588	6952.591346
478.485427	7145.835577
478.855207	7480.232115
479.224928	7864.200000
479.594591	8239.765962
479.964194	8357.392885
480.333739	8322.945000
480.703226	8436.370962
481.072653	8412.845577
481.442022	8585.925192
481.811333	8849.745577
482.180584	8549.796923
482.549777	8613.651538
482.918912	8581.724231
483.287988	8560.719423
483.657005	8403.603462
484.025964	8443.092500
484.394864	8406.124038
484.763706	8326.305769
485.132489	8424.608269
485.501213	8275.894231
485.869879	8385.119231
486.238487	8349.831154
486.607036	8491.823654
486.975527	8494.344231
487.343959	8445.613077
487.712333	8461.576731
488.080648	8515.349038
488.448905	8648.099423
488.817104	8575.842885
489.185244	8691.789423
489.553326	8875.791538
489.921350	9209.347885
490.289315	9892.424231
490.657222	10095.750769
491.025070	10351.169231
491.392861	10300.757692
491.760593	10145.322115
492.128267	10041.978462
492.495883	9753.792500
492.863440	9538.703269
493.230939	9342.098269
493.598380	9228.672308
493.965763	9207.667500
494.333088	9063.994615
494.700354	9018.624231
495.067563	9106.844423
495.434713	8992.578269
495.801805	9024.505577
496.168839	9000.140000
496.535815	9042.149615
496.902733	9027.866346
497.269593	9091.720962
497.636395	9016.943846
498.003139	9147.173654
498.369825	9129.529615
498.736453	9088.360192
499.103023	9100.963077
499.469535	9128.689423
499.835989	9210.188077
500.202385	9202.626346
500.568723	9136.251154
500.935003	9204.306731
501.301226	9272.362308
501.667390	9341.258077
502.033497	9447.962500
502.399546	9361.422692
502.765537	9389.149038
503.131470	9424.437115
503.497345	9576.511923
503.863163	9426.957692
504.228923	9453.843846
504.594625	9589.955000
504.960269	9505.095577
505.325856	9761.354231
505.691385	9582.393269
506.056856	9627.763654
506.422270	9710.942692
506.787625	9717.664231
507.152924	9670.613462
507.518164	9801.683462
507.883347	9633.645000
508.248472	9719.344615
508.613540	9917.630000
508.978550	9919.310385
509.343503	9810.085385
509.708398	9910.068269
510.073236	10083.147885
510.438016	10099.951731
510.802738	9914.269231
511.167403	10069.704808
511.532010	10274.711731
511.896561	10299.077308
512.261053	10488.960769
512.625488	10420.905192
512.989866	10383.096538
513.354186	10294.876346
513.718449	10354.530000
514.082655	10467.955962
514.446803	10521.728269
514.810894	10598.185769
515.174927	10559.536923
515.538904	10521.728269
515.902822	10741.858654
516.266684	10555.335962
516.630488	10748.580192
516.994235	10751.940962
517.357925	10881.330577
517.721558	10825.037692
518.085133	10892.253077
518.448651	11021.642692
518.812112	10909.056923
519.175516	10958.628269
519.538863	11057.770962
519.902152	11180.439038
520.265385	11105.661923
520.628560	11203.964423
520.991678	11126.666731
521.354739	11172.877308
521.717743	11364.441154
522.080690	11277.061154
522.443580	11439.218269
522.806413	11429.135962
523.169189	11534.160000
523.531908	11560.205962
523.894569	11586.251923
524.257174	11582.891154
524.619722	11671.111346
524.982213	11645.905577
525.344647	11659.348654
525.707025	11587.932308
526.069345	11824.866538
526.431608	11732.445385
526.793815	11713.120962
527.155964	11811.423462
527.518057	11776.135385
527.880093	11656.828077
528.242072	11868.556538
528.603995	11642.544808
528.965860	11807.222500
529.327669	11689.595577
529.689421	11766.053077
530.051117	11724.043462
530.412755	11829.907692
530.774337	11826.546923
531.135862	11760.171731
531.497331	11820.665577
531.858743	11841.670385
532.220098	11864.355577
532.581396	11844.190962
532.942638	11784.537308
533.303824	11880.319231
533.664953	11821.505769
534.026025	11821.505769
534.387040	11947.534615
534.747999	11776.135385
535.108902	11951.735577
535.469748	11918.127885
535.830537	11831.588077
536.191270	11780.336346
536.551947	11959.297308
536.912567	11940.813077
537.273131	11996.265769
537.633638	11865.195769
537.994089	11863.515385
538.354483	11729.084615
538.714821	11988.704038
539.075103	11930.730769
539.435328	11831.588077
539.795497	11945.014038
540.155609	11871.077115
540.515665	12109.691731
540.875665	11839.149808
541.235609	11939.132692
541.595496	11979.461923
541.955328	12141.619038
542.315102	11906.365192
542.674821	11855.953654
543.034483	11925.689615
543.394090	11942.493462
543.753640	11946.694423
544.113134	12262.606731
544.472571	12068.522308
544.831953	12260.926346
545.191278	12080.285000
545.550548	11985.343269
545.909761	12173.546346
546.268918	12190.350192
546.628019	12248.323462
546.987064	12234.040192
547.346053	12119.774038
547.704986	12146.660192
548.063863	11887.040769
548.422684	12066.841923
548.781449	12197.071731
549.140158	12177.747308
549.498811	12177.747308
549.857408	12010.549038
550.215949	12196.231538
550.574434	12105.490769
550.932864	12206.313846
551.291237	12354.187692
551.649555	12180.267885
552.007817	12404.599231
552.366022	12176.907115
552.724173	12351.667115
553.082267	12317.219231
553.440305	12481.896923
553.798288	12291.173269
554.156215	12352.507308
554.514086	12281.931154
554.871902	12344.945577
555.229661	12432.325577
555.587365	12320.580000
555.945014	12307.136923
556.302606	12381.073846
556.660143	12353.347500
557.017625	12437.366731
557.375050	12386.955192
557.732421	12583.560192
558.089735	12454.170577
558.446994	12470.974423
558.804197	12431.485385
559.161345	12610.446346
559.518437	12540.710385
559.875474	12368.470962
560.232455	12404.599231
560.589381	12675.981346
560.946251	12526.427115
561.303065	12675.141154
561.659825	12726.392885
562.016528	12534.829038
562.373177	12593.642500
562.729770	12492.819423
563.086307	12423.083462
563.442789	12724.712500
563.799216	12727.233077
564.155587	12623.049231
564.511904	12782.685769
564.868164	12749.078077
565.224370	12735.635000
565.580520	12702.867500
565.936615	12892.750962
566.292654	12785.206346
566.648638	12757.480000
567.004567	12887.709808
567.360441	12875.106923
567.716260	12851.581538
568.072023	12858.303077
568.427732	12959.126154
568.783385	12738.155577
569.138982	12973.409423
569.494525	12904.513654
569.850013	12796.969038
570.205445	12754.119231
570.560823	12906.194038
570.916145	12834.777692
571.271412	12780.165192
571.626625	12782.685769
571.981782	12731.434038
572.336884	12812.932692
572.691931	12753.279038
573.046923	12679.342115
573.401860	12646.574615
573.756743	12769.242692
574.111570	12665.058846
574.466342	12671.780385
574.821059	12780.165192
575.175722	12762.521154
575.530330	12697.826346
575.884882	12616.327692
576.239380	12758.320192
576.593823	12730.593846
576.948211	12597.843462
577.302544	12533.988846
577.656823	12507.942885
578.011047	12606.245385
578.365216	12437.366731
578.719330	12392.836538
579.073389	12377.713077
579.427394	12562.555385
579.781344	12429.805000
580.135239	12456.691154
580.489080	12458.371538
580.842866	12193.710962
581.196597	12373.512115
581.550273	12300.415385
581.903895	12327.301538
582.257463	12554.993654
582.610975	12350.826923
582.964434	12296.214423
583.317837	12342.425000
583.671186	12339.064231
584.024481	12421.403077
584.377721	12152.541538
584.730906	12307.977115
585.084037	12283.611538
585.437113	12228.158846
585.790135	12205.473654
586.143103	12004.667692
586.496016	12199.592308
586.848874	12237.400962
587.201679	12292.013462
587.554428	12121.454423
587.907124	12114.732885
588.259765	12040.795962
588.612352	12152.541538
588.964884	12013.069615
589.317362	12106.330962
589.669786	12004.667692
590.022155	12102.970192
590.374470	12123.134808
590.726731	12039.955769
591.078937	11863.515385
591.431090	12037.435192
591.783188	11910.566154
592.135232	11775.295192
592.487222	11887.040769
592.839157	11850.912500
593.191038	11738.326731
593.542866	11746.728654
593.894639	11613.978269
594.246358	11649.266346
594.598022	11709.760192
594.949633	11548.443269
595.301190	11574.489231
595.652692	11435.857500
596.004141	11707.239615
596.355535	11411.491923
596.706876	11406.450769
597.058162	11343.436346
597.409395	11351.838269
597.760573	11413.172308
598.111698	11400.569423
598.462768	11306.467885
598.813785	11424.935000
599.164748	11160.274423
599.515657	11356.879423
599.866511	11189.681154
600.217312	11376.203846
600.568060	11140.950000
600.918753	11323.271731
601.269392	11159.434231
601.619978	11160.274423
601.970510	11225.809423
602.320988	11286.303269
602.671412	11360.240192
603.021783	11354.358846
603.372100	11084.657115
603.722363	11105.661923
604.072572	11321.591346
604.422728	11251.855385
604.772830	11046.848462
605.122878	11188.000769
605.472872	11187.160577
605.822813	11405.610577
606.172701	11234.211346
606.522534	11242.613269
606.872314	11303.107115
607.222041	11205.644808
607.571714	11323.271731
607.921333	11107.342308
608.270899	11199.763462
608.620411	11283.782692
608.969870	11183.799808
609.319276	11248.494615
609.668627	11209.005577
610.017926	11310.668846
610.367171	11390.487115
610.716362	11411.491923
611.065500	11269.499423
611.414585	11418.213462
611.763616	11465.264231
612.112594	11445.099615
612.461518	11338.395192
612.810389	11435.017308
613.159207	11519.036538
613.507971	11367.801923
613.856682	11562.726538
614.205340	11425.775192
614.553945	11516.515962
614.902496	11429.135962
615.250994	11546.762885
615.599439	11584.571538
615.947830	11656.828077
616.296169	11640.024231
616.644454	11512.315000
616.992686	11676.152500
617.340864	11700.518077
617.688990	11587.932308
618.037063	11638.343846
618.385082	11740.847308
618.733048	11675.312308
619.080961	11668.590769
619.428821	11713.120962
619.776628	11692.116154
620.124382	11682.033846
620.472083	11682.874038
620.819731	11655.987885
621.167326	11678.673077
621.514868	11582.050962
621.862357	11645.065385
622.209793	11513.995385
622.557176	11564.406923
622.904506	11323.271731
623.251783	11203.124231
623.599007	11164.475385
623.946179	11048.528846
624.293297	11062.812115
624.640363	10982.993846
624.987376	11067.853269
625.334336	10943.504808
625.681243	10777.986923
626.028097	10899.814808
626.374899	10857.805192
626.721647	10849.403269
627.068343	10656.999231
627.414987	10728.415577
627.761577	10577.180962
628.108115	10728.415577
628.454600	10416.704231
628.801032	10425.946346
629.147412	10457.873654
629.493739	10458.713846
629.840014	10301.597885
630.186236	10408.302308
630.532405	10290.675385
630.878521	10461.234423
631.224585	10306.639038
631.570597	10317.561538
631.916556	10290.675385
632.262462	10232.702115
632.608316	10262.108846
632.954117	10126.837885
633.299866	10125.157500
633.645562	10177.249423
633.991206	10116.755577
634.336797	9872.259615
634.682336	9951.237692
635.027823	9936.954423
635.373257	9884.862500
635.718639	9732.787692
636.063968	9774.797308
636.409245	9617.681346
636.754470	9762.194423
637.099642	9605.918654
637.444762	9481.570192
637.789829	9455.524231
638.134845	9464.766346
638.479808	9372.345192
638.824719	9411.834231
639.169577	9258.079038
639.514383	9250.517308
639.859137	9169.018654
640.203839	9212.708654
640.548489	9193.384231
640.893086	9197.585192
641.237632	9166.498077
641.582125	9148.854038
641.926566	9075.757308
642.270955	9100.963077
642.615292	9148.854038
642.959576	9069.035769
643.303809	9068.195577
643.647990	9117.766923
643.992118	9093.401346
644.336195	9047.190769
644.680219	9097.602308
645.024192	8989.217500
645.368112	9168.178462
645.711981	9058.113269
646.055797	9284.965192
646.399562	9276.563269
646.743274	9348.819808
647.086935	9544.584615
647.430544	9391.669615
647.774101	9568.950192
648.117606	9580.712885
648.461059	9466.446731
648.804460	9494.173077
649.147810	9304.289615
649.491108	9297.568077
649.834354	9350.500192
650.177548	9125.328654
650.520690	8955.609808
650.863781	8979.975385
651.206820	8976.614615
651.549807	8936.285385
651.892742	8855.626923
652.235626	8785.890962
652.578458	8705.232500
652.921238	8641.377885
653.263967	8722.876538
653.606644	8606.089808
653.949269	8559.879231
654.291843	8481.741346
654.634365	8531.312692
654.976836	8605.249615
655.319255	8483.421731
655.661622	8447.293462
656.003938	8467.458077
656.346203	8408.644615
656.688416	8447.293462
657.030577	8306.141154
657.372687	8388.480000
657.714746	8309.501923
658.056753	8368.315385
658.398708	8292.698077
658.740612	8220.441538
659.082465	8343.109615
659.424266	8249.848269
659.766016	8212.039615
660.107715	8223.802308
660.449362	8297.739231
660.790958	8368.315385
661.132503	8303.620577
661.473996	8274.213846
661.815438	8267.492308
662.156829	8363.274231
662.498168	8142.303654
662.839456	8320.424423
663.180693	8310.342115
663.521879	8360.753654
663.863013	8186.833846
664.204097	8226.322885
664.545129	8431.329808
664.886110	8406.124038
665.227040	8396.041731
665.567918	8317.063654
665.908746	8407.804423
666.249522	8538.874423
666.590248	8485.102115
666.930922	8420.407308
667.271545	8357.392885
667.612118	8464.937500
667.952639	8474.179615
668.293109	8446.453269
668.633528	8363.274231
668.973896	8312.022500
669.314213	8391.000577
669.654480	8319.584231
669.994695	8321.264615
670.334859	8435.530769
670.674973	8329.666538
671.015035	8454.855192
671.355047	8238.925769
671.695008	8318.744038
672.034918	8332.187115
672.374777	8240.606154
672.714585	8254.889423
673.054342	8317.063654
673.394049	8165.829038
673.733705	8343.949808
674.073310	8293.538269
674.412864	8222.121923
674.752368	8244.807115
675.091820	8275.054038
675.431223	8185.993654
675.770574	8127.180192
676.109875	8116.257692
676.449125	8001.991538
676.788324	7984.347500
677.127473	7917.132115
677.466571	7973.425000
677.805619	7944.858462
678.144616	7979.306346
678.483562	7874.282308
678.822458	7665.074423
679.161303	7734.810385
679.500098	7681.878269
679.838842	7786.062115
680.177535	7811.267885
680.516179	7695.321346
680.854771	7800.345385
681.193314	8033.078654
681.531805	8081.809808
681.870247	8208.678846
682.208638	8404.443654
682.546978	8448.133654
682.885268	8494.344231
683.223508	8478.380577
683.561697	8405.283846
683.899836	8321.264615
684.237925	8286.816731
684.575963	8289.337308
684.913951	8164.148654
685.251889	8181.792692
685.589776	8202.797500
685.927614	8182.632885
686.265401	8257.410000
686.603137	8168.349615
686.940824	8297.739231
687.278460	8377.557500
687.616046	8351.511538
687.953582	8506.947115
688.291068	8519.550000
688.628504	8589.285962
688.965889	8552.317500
689.303224	8584.244808
689.640510	8404.443654
689.977745	8364.114423
690.314930	8275.054038
690.652065	8110.376346
690.989150	7966.703462
691.326185	7891.926346
691.663170	7688.599808
692.000105	7628.105962
692.336990	7402.094231
692.673825	7398.733462
693.010610	7393.692308
693.347345	7255.060577
693.684030	7051.734038
694.020665	7066.017308
694.357251	6968.555000
694.693786	6859.330000
695.030272	6826.562500
695.366707	6798.836154
695.703093	6724.899231
696.039429	6657.683846
696.375716	6616.514423
696.711952	6650.962308
697.048139	6545.938269
697.384276	6559.381346
697.720363	6574.504808
698.056400	6466.960192
698.392388	6518.211923
698.728326	6490.485577
699.064214	6453.517115
699.400053	6439.233846
699.735842	6422.430000
700.071581	6350.173462
700.407270	6410.667308
700.742910	6299.761923
701.078501	6267.834615
701.414042	6253.551346
701.749533	6118.280385
702.084974	6089.713846
702.420366	6099.796154
702.755709	6072.069808
703.091002	5957.803654
703.426246	6042.663077
703.761440	6030.900385
704.096584	5983.009423
704.431679	5990.571154
704.766725	5907.392115
705.101721	5925.036154
705.436668	5872.104038
705.771565	5817.491538
706.106413	5989.730962
706.441212	5944.360577
706.775961	5944.360577
707.110661	5950.241923
707.445311	6044.343462
707.779913	6028.379808
708.114465	6014.936731
708.448967	6033.420962
708.783421	6272.875769
709.117825	6204.820192
709.452180	6352.694038
709.786485	6318.246154
710.120742	6519.892308
710.454949	6477.882692
710.789107	6587.947885
711.123216	6782.032308
711.457275	6776.150962
711.791286	6959.312885
712.125247	6812.279231
712.459159	6931.586538
712.793023	6928.225769
713.126837	6820.681154
713.460602	6835.804615
713.794318	6806.397885
714.127985	6813.959615
714.461602	6558.541154
714.795171	6580.386154
715.128691	6468.640577
715.462162	6264.473846
715.795584	6188.856538
716.128957	6209.021154
716.462281	6162.810577
716.795556	6038.462115
717.128782	5962.844808
717.461960	5928.396923
717.795088	5987.210385
718.128167	5748.595769
718.461198	5707.426346
718.794180	5723.390000
719.127113	5601.562115
719.459997	5562.913269
719.792833	5562.073077
720.125619	5528.465385
720.458357	5463.770577
720.791046	5421.760962
721.123686	5380.591538
721.456278	5329.339808
721.788821	5334.380962
722.121315	5268.005769
722.453761	5268.005769
722.786158	5299.092885
723.118506	5272.206731
723.450805	5306.654615
723.783056	5298.252692
724.115259	5244.480385
724.447412	5237.758846
724.779518	5392.354231
725.111574	5367.148462
725.443582	5362.107308
725.775542	5383.952308
726.107453	5457.049038
726.439315	5405.797308
726.771129	5460.409808
727.102895	5673.818654
727.434612	5642.731538
727.766281	5601.562115
728.097901	5689.782308
728.429473	5732.632115
728.760996	5730.951731
729.092471	5712.467500
729.423897	5818.331731
729.755276	5689.782308
730.086606	5772.961346
730.417887	5783.883846
730.749120	5967.885962
731.080305	5898.150000
731.411442	6130.043077
731.742530	6115.759808
732.073570	6119.120577
732.404562	6211.541731
732.735506	6171.212500
733.066401	6196.418269
733.397249	6113.239231
733.728048	5962.844808
734.058798	5805.728846
734.389501	5675.499038
734.720156	5594.840577
735.050762	5490.656731
735.381320	5394.034615
735.711831	5326.819231
736.042293	5236.918654
736.372707	5214.233462
736.703073	5188.187500
737.033391	5236.078462
737.363661	5221.795192
737.693883	5247.841154
738.024056	5254.562692
738.354182	5276.407692
738.684260	5319.257500
739.014290	5404.957115
739.344272	5451.167692
739.674207	5513.341923
740.004093	5483.935192
740.333931	5571.315192
740.663722	5543.588846
740.993464	5572.995577
741.323159	5570.475000
741.652806	5404.116923
741.982405	5420.080577
742.311956	5462.930385
742.641460	5432.683462
742.970915	5271.366538
743.300323	5295.732115
743.629683	5255.402885
743.958996	5150.378846
744.288260	5062.998846
744.617477	5039.473462
744.946647	5061.318462
745.275768	4946.212115
745.604842	4916.805385
745.933869	4953.773846
746.262847	4878.156538
746.591778	4842.028269
746.920662	4908.403462
747.249498	4821.863654
747.578286	4856.311538
747.907027	4857.151731
748.235720	4929.408269
748.564365	4972.258077
748.892963	5010.066731
749.221514	4949.572885
749.550017	4971.417885
749.878473	4917.645577
750.206881	4938.650385
750.535242	4913.444615
750.863555	4864.713462
751.191821	4884.037885
751.520039	4836.146923
751.848210	4847.909615
752.176334	4830.265577
752.504411	4896.640769
752.832440	4801.699038
753.160421	4840.347885
753.488356	4768.931538
753.816243	4765.570769
754.144082	4710.958269
754.471875	4694.994615
754.799620	4765.570769
755.127318	4710.118077
755.454969	4746.246346
755.782572	4672.309423
756.110129	4731.122885
756.437638	4689.113269
756.765100	4693.314231
757.092515	4640.382115
757.419882	4607.614615
757.747203	4684.912308
758.074477	4730.282692
758.401703	4679.871154
758.728882	4668.948654
759.056014	4721.040577
759.383099	4692.474038
759.710138	4803.379423
760.037129	4863.033077
760.364073	4838.667500
760.690970	4810.100962
761.017820	4733.643462
761.344623	4816.822500
761.671379	4907.563269
761.998088	5063.839038
762.324751	5279.768462
762.651366	5753.636923
762.977935	6595.509615
763.304456	7178.603077
763.630931	7562.570962
763.957359	7595.338462
764.283740	7256.740962
764.610074	6840.845769
764.936362	6319.086346
765.262602	5965.365385
765.588796	5615.005192
765.914943	5303.293846
766.241044	5010.906923
766.567097	4837.827308
766.893104	4618.537115
767.219064	4543.760000
767.544978	4474.024038
767.870845	4363.118654
768.196665	4329.510962
768.522438	4250.532885
768.848165	4257.254423
769.173846	4209.363462
769.499479	4130.385385
769.825066	4090.056154
770.150607	4108.540385
770.476101	4040.484808
770.801548	4130.385385
771.126949	4011.918269
771.452303	4019.480000
771.777611	3948.903846
772.102872	3913.615769
772.428087	3881.688462
772.753256	3854.802308
773.078378	3822.875000
773.403453	3796.829038
773.728482	3764.061538
774.053465	3851.441538
774.378401	3685.923654
774.703291	3711.969615
775.028135	3748.097885
775.352932	3669.960000
775.677683	3625.429808
776.002388	3664.078654
776.327046	3691.805000
776.651658	3590.981923
776.976224	3577.538846
777.300743	3603.584808
777.625216	3584.260385
777.949643	3593.502500
778.274024	3626.270000
778.598359	3559.054615
778.922647	3543.090962
779.246889	3575.858462
779.571086	3603.584808
779.895236	3538.049808
780.219339	3556.534038
780.543397	3557.374231
780.867409	3580.059423
781.191374	3559.894808
781.515294	3546.451731
781.839167	3601.904423
782.162995	3559.054615
782.486776	3574.178077
782.810511	3488.478462
783.134201	3541.410577
783.457844	3544.771346
783.781441	3510.323462
784.104993	3525.446923
784.428498	3513.684231
784.751958	3507.802885
785.075372	3580.899615
785.398739	3545.611538
785.722061	3519.565577
786.045337	3489.318654
786.368568	3526.287115
786.691752	3572.497692
787.014891	3553.173269
787.337983	3622.909231
787.661030	3738.855769
787.984031	3902.693269
788.306987	3943.022500
788.629897	3997.635000
788.952760	3973.269423
789.275579	4009.397692
789.598351	3943.862692
789.921078	3869.925769
790.243759	3806.071154
790.566395	3703.567692
790.888984	3642.233654
791.211529	3656.516923
791.534027	3569.136923
791.856480	3542.250769
792.178888	3563.255577
792.501249	3440.587500
792.823566	3533.008654
793.145836	3439.747308
793.468062	3451.510000
793.790241	3493.519615
794.112375	3440.587500
794.434464	3515.364615
794.756507	3472.514808
795.078505	3551.492885
795.400457	3523.766538
795.722364	3583.420192
796.044226	3738.015577
796.366042	3710.289231
796.687812	3697.686346
797.009538	3750.618462
797.331218	3674.160962
797.652852	3672.480577
797.974442	3691.805000
798.295986	3667.439423
798.617484	3633.831731
798.938938	3604.425000
799.260346	3592.662308
799.581709	3547.291923
799.903026	3522.086154
800.224299	3537.209615
800.545526	3463.272692
800.866708	3443.108077
801.187845	3444.788462
801.508936	3435.546346
801.829983	3370.851538
802.150984	3385.134808
802.471940	3375.052500
802.792851	3344.805577
803.113717	3380.093654
803.434538	3306.156731
803.755314	3328.001731
804.076045	3337.243846
804.396731	3313.718462
804.717372	3282.631346
805.037967	3343.125192
805.358518	3378.413269
805.679024	3333.042885
805.999485	3359.929038
806.319901	3360.769231
806.640272	3320.440000
806.960598	3331.362500
807.280879	3322.960577
807.601115	3368.330962
807.921306	3403.619038
808.241453	3356.568269
808.561554	3392.696538
808.881611	3383.454423
809.201623	3384.294615
809.521590	3358.248654
809.841513	3349.006538
810.161390	3356.568269
810.481223	3371.691731
810.801011	3364.970192
811.120755	3310.357692
811.440453	3332.202692
811.760107	3296.074423
812.079716	3312.038077
812.399281	3296.914615
812.718801	3277.590192
813.038276	3223.817885
813.357707	3270.028462
813.677093	3310.357692
813.996434	3321.280192
814.315731	3243.142308
814.634983	3305.316538
814.954191	3331.362500
815.273354	3341.444808
815.592473	3301.955769
815.911547	3346.485962
816.230577	3365.810385
816.549562	3355.728077
816.868502	3466.633462
817.187399	3365.810385
817.506250	3443.948269
817.825058	3427.984615
818.143821	3552.333077
818.462539	3527.127308
818.781213	3638.872885
819.099843	3694.325577
819.418429	3894.291346
819.736970	4065.690577
820.055466	4221.126154
820.373919	4500.910192
820.692327	4965.536538
821.010691	5460.409808
821.329011	6539.216731
821.647286	8459.896346
821.965517	11051.049423
822.283704	13041.465000
822.601847	14373.169808
822.919945	14126.153269
823.237999	13075.072692
823.556010	11832.428269
823.873976	10660.360000
824.191897	9454.684038
824.509775	8366.635000
824.827609	7549.127885
825.145398	7009.724423
825.463144	6602.231154
825.780845	6506.449231
826.098502	6571.984231
826.416116	7045.852692
826.733685	7826.391346
827.051210	8222.121923
827.368692	8169.189808
827.686129	7687.759615
828.003522	6960.153077
828.320872	6256.912115
828.638177	5557.031923
828.955439	5164.662115
829.272656	4824.384231
829.589830	4536.198269
829.906960	4201.801731
830.224046	4060.649423
830.541088	3902.693269
830.858086	3851.441538
831.175041	3705.248077
831.491952	3577.538846
831.808819	3528.807692
832.125642	3670.800192
832.442421	3800.189808
832.759157	4002.676154
833.075849	4431.174231
833.392497	4937.810192
833.709101	5451.167692
834.025662	5628.448269
834.342179	5536.867308
834.658653	5125.173077
834.975083	4800.018654
835.291469	4505.951346
835.607811	4188.358654
835.924110	4022.840769
836.240366	3759.020385
836.556578	3659.877692
836.872746	3573.337885
837.188871	3458.231538
837.504952	3259.105962
837.820990	3239.781538
838.136984	3236.420769
838.452935	3180.968077
838.768842	3079.304808
839.084706	3179.287692
839.400526	3349.006538
839.716303	3539.730192
840.032037	3885.049231
840.347727	3931.259808
840.663373	3869.085577
840.978977	3629.630769
841.294537	3557.374231
841.610054	3344.805577
841.925527	3217.096346
842.240957	3249.863846
842.556344	3068.382308
842.871687	3068.382308
843.186987	3002.847308
843.502244	2944.033846
843.817458	2907.065385
844.132629	2833.968654
844.447756	2818.005000
844.762840	2765.913077
845.077881	2815.484423
845.392879	2775.995385
845.707833	2789.438462
846.022745	2711.300577
846.337613	2714.661346
846.652438	2739.867115
846.967221	2786.917885
847.281960	2720.542692
847.596656	2707.939808
847.911309	2739.867115
848.225919	2727.264231
848.540485	2692.816346
848.855009	2739.026923
849.169490	2694.496731
849.483928	2676.852692
849.798323	2691.976154
850.112675	2691.135962
850.426984	2699.537885
850.741251	2723.063269
851.055474	2728.944615
851.369654	2758.351346
851.683792	2770.114038
851.997887	2753.310192
852.311938	2724.743654
852.625947	2729.784808
852.939914	2701.218269
853.253837	2691.976154
853.567718	2702.058462
853.881555	2741.547500
854.195350	2666.770385
854.509103	2692.816346
854.822812	2686.094808
855.136479	2753.310192
855.450103	2677.692885
855.763685	2712.140769
856.077224	2690.295769
856.390720	2717.181923
856.704173	2679.373269
857.017584	2681.053654
857.330953	2727.264231
857.644278	2678.533077
857.957561	2718.862308
858.270802	2734.825962
858.584000	2699.537885
858.897155	2733.985769
859.210268	2704.579038
859.523339	2699.537885
859.836367	2696.177115
860.149352	2732.305385
860.462295	2737.346538
860.775195	2758.351346
861.088054	2718.022115
861.400869	2693.656538
861.713642	2659.208654
862.026373	2710.460385
862.339062	2662.569423
862.651708	2661.729231
862.964312	2730.625000
863.276873	2730.625000
863.589392	2668.450769
863.901869	2735.666154
864.214303	2689.455577
864.526696	2725.583846
864.839045	2745.748462
865.151353	2770.954231
865.463619	2744.068077
865.775842	2775.155192
866.088023	2731.465192
866.400162	2739.867115
866.712258	2772.634615
867.024313	2740.707308
867.336325	2723.903462
867.648296	2758.351346
867.960224	2750.789615
868.272110	2822.205962
868.583954	2763.392500
868.895755	2762.552308
869.207515	2789.438462
869.519233	2750.789615
869.830909	2771.794423
870.142542	2789.438462
870.454134	2820.525577
870.765684	2815.484423
871.077191	2791.118846
871.388657	2807.082500
871.700081	2830.607885
872.011463	2854.973462
872.322803	2766.753269
872.634101	2811.283462
872.945357	2777.675769
873.256571	2880.179231
873.567744	2871.777308
873.878874	2826.406923
874.189963	2863.375385
874.501010	2858.334231
874.812015	2887.740962
875.122979	2861.695000
875.433900	2902.864423
875.744780	2857.494038
876.055618	2930.590769
876.366415	2905.385000
876.677169	2860.014615
876.987882	2936.472115
877.298554	2977.641538
877.609183	2943.193654
877.919771	2961.677885
878.230317	2961.677885
878.540822	3008.728654
878.851285	3075.944038
879.161707	3171.725962
879.472087	3234.740385
879.782425	3406.979808
880.092722	3715.330385
880.402977	4164.833269
880.713191	4806.740192
881.023363	5473.852885
881.333494	5952.762500
881.643583	6245.989615
881.953631	6248.510192
882.263637	6281.277692
882.573602	6004.854423
882.883526	5833.455192
883.193408	5488.136154
883.503248	5271.366538
883.813048	4933.609231
884.122806	4771.452115
884.432522	4466.462308
884.742197	4263.975962
885.051831	4090.056154
885.361424	3823.715192
885.670975	3667.439423
885.980485	3581.739808
886.289954	3406.139615
886.599382	3370.011346
886.908768	3283.471538
887.218113	3211.215000
887.527417	3092.747885
887.836680	3100.309615
888.145901	3059.140192
888.455082	3021.331538
888.764221	2971.760192
889.073319	2981.002308
889.382376	2903.704615
889.691392	2923.029038
890.000366	2907.905577
890.309300	2920.508462
890.618193	2908.745769
890.927044	2900.343846
891.235855	2867.576346
891.544625	2902.024231
891.853353	2878.498846
892.162041	2942.353462
892.470687	2916.307500
892.779293	2977.641538
893.087858	3041.496154
893.396381	3158.282885
893.704864	3228.018846
894.013306	3465.793269
894.321707	3643.914038
894.630068	3783.385962
894.938387	3886.729615
895.246665	3859.843462
895.554903	3821.194615
895.863100	3676.681538
896.171256	3573.337885
896.479371	3519.565577
896.787446	3401.098462
897.095480	3338.084038
897.403473	3323.800769
897.711425	3164.164231
898.019336	3169.205385
898.327207	3143.159423
898.635038	3087.706731
898.942827	2967.559231
899.250576	2962.518077
899.558284	2919.668269
899.865952	2884.380192
900.173579	2877.658654
900.481165	2894.462500
900.788711	2836.489231
901.096216	2812.123654
901.403681	2824.726538
901.711105	2794.479615
902.018489	2797.840385
902.325832	2782.716923
902.633135	2832.288269
902.940397	2920.508462
903.247619	2910.426154
903.554800	3122.994808
903.861941	3489.318654
904.169041	3727.093077
904.476101	3939.661731
904.783121	4009.397692
905.090100	3861.523846
905.397039	3695.165769
905.703938	3675.841346
906.010796	3433.025769
906.317614	3378.413269
906.624391	3268.348077
906.931129	3179.287692
907.237826	3109.551731
907.544483	3101.990000
907.851099	2978.481731
908.157675	2881.859615
908.464211	2872.617500
908.770707	2839.850000
909.077163	2746.588654
909.383578	2698.697692
909.689954	2670.971346
909.996289	2702.898654
910.302584	2681.053654
910.608839	2660.048846
910.915054	2676.012500
911.221229	2640.724423
911.527363	2680.213462
911.833458	2659.208654
912.139513	2638.203846
912.445527	2695.336923
912.751502	2664.249808
913.057436	2690.295769
913.363331	2735.666154
913.669186	2733.145577
913.975000	2803.721731
914.280775	2830.607885
914.586510	2905.385000
914.892205	3073.423462
915.197859	3169.205385
915.503475	3409.500385
915.809050	3617.868077
916.114585	3755.659615
916.420081	3801.030000
916.725536	3780.025192
917.030952	3777.504615
917.336328	3769.102692
917.641665	3595.182885
917.946961	3601.904423
918.252218	3490.999038
918.557435	3432.185577
918.862612	3295.234231
919.167750	3272.549038
919.472848	3154.922115
919.777906	3122.994808
920.082925	3062.500962
920.387904	2988.564038
920.692843	2898.663462
920.997743	2883.540000
921.302603	2868.416538
921.607423	2831.448077
921.912204	2807.922692
922.216946	2766.753269
922.521647	2751.629808
922.826310	2748.269038
923.130932	2721.382885
923.435516	2686.935000
923.740059	2667.610577
924.044564	2687.775192
924.349028	2650.806731
924.653454	2589.472692
924.957840	2631.482308
925.262186	2610.477500
925.566493	2634.843077
925.870761	2645.765577
926.174989	2570.148269
926.479178	2539.061154
926.783328	2556.705192
927.087438	2597.034423
927.391509	2562.586538
927.695541	2591.153077
927.999533	2512.175000
928.303486	2561.746346
928.607400	2541.581731
928.911275	2555.865000
929.215110	2530.659231
929.518906	2565.947308
929.822663	2529.819038
930.126381	2535.700385
930.430060	2549.983654
930.733699	2581.910962
931.037299	2550.823846
931.340861	2527.298462
931.644383	2565.947308
931.947866	2576.869808
932.251309	2519.736731
932.554714	2523.937692
932.858080	2561.746346
933.161407	2600.395192
933.464694	2591.993269
933.767943	2538.220962
934.071153	2548.303269
934.374323	2498.731923
934.677455	2523.937692
934.980548	2579.390385
935.283602	2517.216154
935.586617	2518.056346
935.889593	2500.412308
936.192530	2570.988462
936.495428	2517.216154
936.798287	2518.056346
937.101108	2513.855385
937.403890	2553.344423
937.706632	2586.952115
938.009336	2581.070769
938.312002	2539.061154
938.614628	2576.029615
938.917216	2616.358846
939.219765	2623.920577
939.522275	2628.961731
939.824747	2622.240192
940.127179	2623.080385
940.429573	2598.714808
940.731929	2650.806731
941.034246	2661.729231
941.336524	2628.121538
941.638763	2619.719615
941.940964	2639.044038
942.243126	2581.070769
942.545250	2578.550192
942.847335	2556.705192
943.149381	2557.545385
943.451389	2599.555000
943.753359	2558.385577
944.055290	2586.111923
944.357182	2524.777885
944.659036	2598.714808
944.960851	2527.298462
945.262628	2495.371154
945.564367	2543.262115
945.866067	2560.906154
946.167729	2591.153077
946.469352	2572.668846
946.770937	2562.586538
947.072484	2568.467885
947.373992	2519.736731
947.675462	2605.436346
947.976893	2567.627692
948.278286	2570.988462
948.579641	2545.782692
948.880958	2484.448654
949.182236	2537.380769
949.483476	2487.809423
949.784678	2534.860192
950.085841	2527.298462
950.386967	2487.809423
950.688054	2533.179808
950.989103	2564.266923
951.290114	2546.622885
951.591087	2576.869808
951.892021	2584.431538
952.192917	2583.591346
952.493776	2548.303269
952.794596	2588.632500
953.095378	2545.782692
953.396122	2548.303269
953.696828	2525.618077
953.997496	2544.102308
954.298126	2532.339615
954.598718	2572.668846
954.899272	2549.143462
955.199788	2540.741538
955.500266	2483.608462
955.800706	2570.148269
956.101108	2557.545385
956.401472	2534.860192
956.701798	2511.334808
957.002087	2555.024808
957.302337	2492.850577
957.602550	2486.129038
957.902724	2481.087885
958.202861	2471.005577
958.502960	2489.489808
958.803022	2487.809423
959.103045	2465.964423
959.403031	2448.320385
959.702979	2456.722308
960.002889	2499.572115
960.302762	2505.453462
960.602596	2482.768269
960.902393	2471.845769
961.202153	2474.366346
961.501875	2499.572115
961.801559	2472.685962
962.101205	2477.727115
962.400814	2500.412308
962.700385	2439.078269
962.999918	2470.165385
963.299414	2432.356731
963.598873	2446.640000
963.898293	2486.129038
964.197677	2439.078269
964.497022	2430.676346
964.796331	2449.160577
965.095601	2459.242885
965.394835	2472.685962
965.694030	2450.840962
965.993189	2455.041923
966.292309	2480.247692
966.591393	2469.325192
966.890439	2437.397885
967.189447	2468.485000
967.488419	2421.434231
967.787353	2401.269615
968.086249	2423.954808
968.385108	2428.155769
968.683930	2487.809423
968.982714	2455.041923
969.281462	2442.439038
969.580172	2478.567308
969.878844	2448.320385
970.177480	2456.722308
970.476078	2465.124231
970.774639	2499.572115
971.073162	2466.804615
971.371649	2460.923269
971.670098	2465.964423
971.968510	2474.366346
972.266885	2428.995962
972.565223	2478.567308
972.863524	2478.567308
973.161788	2445.799808
973.460014	2470.165385
973.758204	2425.635192
974.056356	2444.959615
974.354471	2441.598846
974.652550	2471.845769
974.950591	2452.521346
975.248595	2451.681154
975.546563	2443.279231
975.844493	2503.773077
976.142386	2480.247692
976.440243	2507.974038
976.738062	2463.443846
977.035845	2410.511731
977.333590	2436.557692
977.631299	2457.562500
977.928971	2434.877308
978.226606	2457.562500
978.524204	2463.443846
978.821765	2460.923269
979.119290	2470.165385
979.416777	2439.918462
979.714228	2447.480192
980.011642	2462.603654
980.309020	2476.886923
980.606360	2483.608462
980.903664	2467.644808
981.200931	2416.393077
981.498162	2441.598846
981.795356	2464.284038
982.092513	2504.613269
982.389633	2515.535769
982.686717	2538.220962
982.983764	2522.257308
983.280775	2585.271731
983.577749	2535.700385
983.874686	2576.029615
984.171587	2572.668846
984.468451	2537.380769
984.765279	2537.380769
985.062070	2522.257308
985.358824	2614.678462
985.655543	2517.216154
985.952224	2513.015192
986.248869	2513.015192
986.545478	2458.402692
986.842050	2482.768269
987.138586	2468.485000
987.435086	2472.685962
987.731549	2455.882115
988.027975	2460.923269
988.324366	2440.758654
988.620719	2468.485000
988.917037	2445.799808
989.213318	2410.511731
989.509563	2419.753846
989.805772	2434.877308
990.101944	2439.918462
990.398080	2402.109808
990.694180	2402.950000
990.990244	2422.274423
991.286271	2454.201731
991.582262	2444.119423
991.878217	2486.129038
992.174136	2434.037115
992.470019	2444.959615
992.765865	2513.855385
993.061676	2439.078269
993.357450	2462.603654
993.653188	2438.238077
993.948890	2419.753846
994.244556	2432.356731
994.540186	2446.640000
994.835780	2405.470577
995.131337	2446.640000
995.426859	2467.644808
995.722345	2476.046731
996.017795	2486.129038
996.313208	2523.937692
996.608586	2465.124231
996.903928	2537.380769
997.199234	2523.097500
997.494504	2492.010385
997.789738	2492.850577
998.084936	2520.576923
998.380099	2474.366346
998.675225	2472.685962
998.970316	2431.516538
999.265371	2473.526154
999.560390	2479.407500
999.855373	2471.845769
1000.150320	2477.727115
1000.445232	2418.073462
1000.740108	2496.211346
1001.034948	2454.201731
1001.329752	2434.877308
1001.624521	2451.681154
1001.919254	2401.269615
1002.213951	2423.954808
1002.508613	2471.845769
1002.803239	2431.516538
1003.097829	2436.557692
1003.392384	2401.269615
1003.686903	2463.443846
1003.981386	2405.470577
1004.275834	2391.187308
1004.570246	2428.155769
1004.864623	2397.908846
1005.158964	2444.119423
1005.453270	2390.347115
1005.747540	2434.877308
1006.041775	2445.799808
1006.335974	2398.749038
1006.630138	2465.124231
1006.924266	2407.991154
1007.218359	2431.516538
1007.512416	2388.666731
1007.806438	2481.087885
1008.100425	2404.630385
1008.394376	2436.557692
1008.688292	2419.753846
1008.982172	2420.594038
1009.276017	2353.378654
1009.569827	2423.114615
1009.863602	2444.119423
1010.157341	2388.666731
1010.451045	2458.402692
1010.744714	2440.758654
1011.038347	2442.439038
1011.331945	2450.000769
1011.625508	2409.671538
1011.919036	2478.567308
1012.212528	2440.758654
1012.505986	2380.264808
1012.799408	2442.439038
1013.092795	2481.087885
1013.386147	2443.279231
1013.679464	2443.279231
1013.972745	2428.155769
1014.265992	2438.238077
1014.559204	2420.594038
1014.852380	2409.671538
1015.145521	2446.640000
1015.438628	2470.165385
1015.731699	2453.361538
1016.024736	2428.995962
1016.317737	2398.749038
1016.610703	2392.027500
1016.903635	2417.233269
1017.196531	2464.284038
1017.489393	2413.872500
1017.782219	2415.552885
1018.075011	2476.886923
1018.367768	2411.351923
1018.660490	2424.795000
1018.953177	2424.795000
1019.245829	2424.795000
