Dividing Wavelength (nm)	Counts (n)	Slit_number_7_of_a_total_of_40	
326.493990	2139.129615
326.888308	2139.129615
327.282561	2139.129615
327.676750	2033.265385
328.070874	2074.434808
328.464933	2042.507500
328.858929	2041.667308
329.252859	2073.594615
329.646726	2050.909423
330.040528	2080.316154
330.434265	2069.393654
330.827938	2124.846346
331.221547	2173.577500
331.615091	2213.066538
332.008571	2206.345000
332.401986	2210.545962
332.795338	2266.838846
333.188625	2257.596731
333.581847	2281.122115
333.975006	2277.761346
334.368100	2294.565192
334.761129	2332.373846
335.154095	2344.976731
335.546996	2415.552885
335.939833	2444.119423
336.332606	2442.439038
336.725315	2459.242885
337.117960	2497.891731
337.510540	2529.819038
337.903056	2486.969231
338.295508	2497.891731
338.687896	2533.179808
339.080220	2493.690769
339.472480	2516.375962
339.864676	2539.061154
340.256807	2547.463077
340.648875	2532.339615
341.040879	2555.024808
341.432818	2518.056346
341.824694	2510.494615
342.216506	2546.622885
342.608253	2560.906154
342.999937	2516.375962
343.391557	2550.823846
343.783113	2543.262115
344.174605	2502.932885
344.566033	2544.102308
344.957397	2479.407500
345.348697	2541.581731
345.739934	2521.417115
346.131106	2558.385577
346.522215	2508.814231
346.913260	2502.932885
347.304241	2528.138654
347.695159	2481.087885
348.086012	2526.458269
348.476802	2500.412308
348.867528	2472.685962
349.258191	2539.061154
349.648789	2512.175000
350.039324	2512.175000
350.429796	2504.613269
350.820203	2432.356731
351.210548	2517.216154
351.600828	2527.298462
351.991045	2532.339615
352.381198	2458.402692
352.771288	2534.860192
353.161314	2464.284038
353.551276	2504.613269
353.941175	2502.932885
354.331010	2537.380769
354.720782	2513.015192
355.110490	2471.845769
355.500135	2529.819038
355.889717	2521.417115
356.279235	2510.494615
356.668689	2471.005577
357.058080	2497.051538
357.447408	2507.974038
357.836672	2500.412308
358.225873	2469.325192
358.615010	2515.535769
359.004084	2507.133846
359.393095	2481.928077
359.782043	2487.809423
360.170927	2475.206538
360.559748	2456.722308
360.948505	2494.530962
361.337199	2480.247692
361.725830	2549.143462
362.114398	2485.288846
362.502903	2506.293654
362.891344	2547.463077
363.279722	2465.964423
363.668037	2545.782692
364.056289	2508.814231
364.444478	2507.974038
364.832603	2558.385577
365.220665	2533.179808
365.608665	2473.526154
365.996601	2513.855385
366.384474	2505.453462
366.772284	2559.225769
367.160031	2525.618077
367.547715	2556.705192
367.935336	2554.184615
368.322893	2508.814231
368.710388	2531.499423
369.097820	2575.189423
369.485189	2529.819038
369.872495	2568.467885
370.259738	2502.932885
370.646918	2523.937692
371.034035	2507.133846
371.421090	2526.458269
371.808081	2530.659231
372.195010	2549.143462
372.581875	2544.942500
372.968678	2514.695577
373.355418	2552.504231
373.742096	2547.463077
374.128710	2481.928077
374.515262	2554.184615
374.901751	2517.216154
375.288177	2570.148269
375.674540	2553.344423
376.060841	2560.906154
376.447079	2549.983654
376.833254	2507.974038
377.219367	2529.819038
377.605417	2552.504231
377.991404	2560.906154
378.377329	2534.860192
378.763191	2560.065962
379.148991	2565.947308
379.534727	2505.453462
379.920402	2561.746346
380.306013	2565.107115
380.691563	2546.622885
381.077049	2570.148269
381.462474	2574.349231
381.847835	2595.354038
382.233134	2562.586538
382.618371	2618.039231
383.003545	2539.901346
383.388657	2617.199038
383.773706	2589.472692
384.158693	2643.245000
384.543618	2625.600962
384.928480	2597.034423
385.313280	2677.692885
385.698017	2653.327308
386.082692	2686.935000
386.467305	2671.811538
386.851856	2650.806731
387.236344	2710.460385
387.620770	2691.135962
388.005133	2747.428846
388.389435	2694.496731
388.773674	2754.150385
389.157851	2769.273846
389.541965	2818.845192
389.926018	2759.191538
390.310008	2822.205962
390.693936	2804.561923
391.077802	2795.319808
391.461606	2874.297885
391.845348	2828.087308
392.229027	2902.864423
392.612645	3007.888462
392.996200	2968.399423
393.379694	2955.796538
393.763125	3024.692308
394.146494	3043.176538
394.529801	3056.619615
394.913047	3117.113462
395.296230	3085.186154
395.679351	3084.345962
396.062410	3187.689615
396.445408	3118.793846
396.828343	3228.018846
397.211217	3189.370000
397.594028	3181.808269
397.976778	3267.507885
398.359466	3225.498269
398.742092	3239.781538
399.124656	3362.449615
399.507158	3362.449615
399.889598	3348.166346
400.271977	3401.938654
400.654294	3442.267885
401.036549	3441.427692
401.418742	3520.405769
401.800874	3478.396154
402.182944	3556.534038
402.564952	3619.548462
402.946898	3622.069038
403.328783	3653.996346
403.710606	3706.088269
404.092367	3759.020385
404.474067	3838.838654
404.855705	3882.528654
405.237282	3827.916154
405.618797	3924.538269
406.000250	3920.337308
406.381642	4034.603462
406.762972	4064.850385
407.144240	4034.603462
407.525447	4115.261923
407.906593	4148.869615
408.287677	4222.806538
408.668700	4256.414231
409.049661	4269.857308
409.430560	4394.205769
409.811399	4404.288077
410.192176	4343.794231
410.572891	4484.946538
410.953545	4589.970577
411.334138	4580.728462
411.714669	4704.236731
412.095139	4513.513077
412.475547	4676.510385
412.855894	4657.185962
413.236180	4776.493269
413.616405	4704.236731
413.996568	4835.306731
414.376670	4918.485769
414.756711	4835.306731
415.136691	4943.691538
415.516609	4942.851346
415.896466	5099.127115
416.276262	5164.662115
416.655997	5218.434423
417.035670	5250.361731
417.415283	5525.944808
417.794834	5542.748654
418.174324	5599.881731
418.553753	5572.995577
418.933121	5737.673269
419.312428	5703.225385
419.691674	5702.385192
420.070859	5874.624615
420.449983	5830.934615
420.829045	5984.689808
421.208047	5934.278269
421.586988	6195.578077
421.965867	6303.122692
422.344686	6270.355192
422.723444	6407.306538
423.102141	6166.171346
423.480777	6464.439615
423.859352	6415.708462
424.237866	6794.635192
424.616319	6775.310769
424.994712	6982.838269
425.373044	6924.024808
425.751314	7189.525577
426.129524	7003.002885
426.507673	7357.564038
426.885762	7286.987885
427.263789	7491.994808
427.641756	7533.164231
428.019662	7567.612115
428.397508	7729.769231
428.775292	7765.897500
429.153016	7938.977115
429.530679	7929.735000
429.908282	7994.429808
430.285824	7901.168462
430.663305	8305.300962
431.040726	8078.449038
431.418086	8168.349615
431.795385	8459.056154
432.172624	8632.975962
432.549802	8569.121346
432.926920	8495.184423
433.303977	8590.126154
433.680974	8797.653654
434.057910	8897.636538
434.434786	8938.805962
434.811601	8960.650962
435.188355	9340.417885
435.565050	9355.541346
435.941683	9299.248462
436.318257	9540.383654
436.694770	9736.148462
437.071222	9931.073077
437.447614	9752.112115
437.823946	9953.758269
438.200218	9844.533269
438.576429	9853.775385
438.952580	9999.968846
439.328670	10012.571731
439.704700	10214.217885
440.080670	10102.472308
440.456580	10412.503269
440.832429	10646.916923
441.208218	10159.605385
441.583947	10453.672692
441.959616	10494.842115
442.335224	10749.420385
442.710773	10757.822308
443.086261	11170.356731
443.461689	10909.056923
443.837057	10968.710577
444.212365	11495.511154
444.587612	11424.094808
444.962800	11186.320385
445.337927	11313.189423
445.712995	10940.144038
446.088002	11834.948846
446.462949	11893.762308
446.837837	12061.800769
447.212664	11981.142308
447.587431	12855.782500
447.962139	13878.296538
448.336786	15586.407500
448.711374	15907.360962
449.085901	14595.820769
449.460369	14322.758269
449.834776	14049.695769
450.209124	14738.653462
450.583412	14890.728269
450.957640	15520.872500
451.331808	15157.909423
451.705917	14532.806346
452.079965	14385.772692
452.453954	14511.801538
452.827883	14264.785000
453.201752	14540.368077
453.575562	14595.820769
453.949311	15043.643269
454.323001	15280.577500
454.696632	15276.376538
455.070202	15862.830769
455.443713	16050.193654
455.817164	16619.003846
456.190556	16782.841346
456.563888	16751.754231
456.937160	17171.010192
457.310373	16566.071731
457.683526	16858.458654
458.056619	16835.773462
458.429653	16920.632885
458.802628	16962.642500
459.175542	16970.204231
459.548398	17709.573462
459.921194	18708.562115
460.293930	18748.051154
460.666607	20073.874615
461.039224	21135.877692
461.411782	21792.067885
461.784280	21988.672885
462.156719	21979.430769
462.529099	21713.930000
462.901419	21061.100577
463.273680	20391.467308
463.645882	20032.705192
464.018024	20101.600962
464.390106	20381.385000
464.762130	21354.327692
465.134094	23182.586154
465.505999	25769.538269
465.877845	29529.398846
466.249631	31824.804231
466.621358	31718.099808
466.993026	31424.032500
467.364634	30385.554808
467.736184	28848.843077
468.107674	27730.547115
468.479105	27592.755577
468.850477	27127.289038
469.221790	26190.474615
469.593043	25069.658077
469.964238	24441.194231
470.335373	24279.037115
470.706449	24980.597692
471.077467	25468.749423
471.448425	28145.602115
471.819324	30819.934231
472.190164	32144.917500
472.560945	30713.229808
472.931667	28307.759231
473.302330	27190.303462
473.672934	26232.484231
474.043479	26345.910192
474.413965	25870.361346
474.784393	25636.787885
475.154761	26504.706538
475.525070	26417.326538
475.895321	26151.825769
476.265513	26524.030962
476.635645	27384.387885
477.005719	27237.354231
477.375734	27652.409231
477.745691	28178.369615
478.115588	29043.767692
478.485427	30216.676154
478.855207	32393.614423
479.224928	34197.507308
479.594591	36312.271346
479.964194	36905.447115
480.333739	37962.409038
480.703226	37856.544808
481.072653	37866.627115
481.442022	38337.975000
481.811333	39104.230385
482.180584	38507.693846
482.549777	38576.589615
482.918912	37911.157308
483.287988	38053.990000
483.657005	37349.908846
484.025964	36936.534231
484.394864	37361.671538
484.763706	36966.781154
485.132489	36650.028654
485.501213	36356.801538
485.869879	36744.970385
486.238487	36389.569038
486.607036	36626.503269
486.975527	36444.181538
487.343959	36755.892885
487.712333	36943.255769
488.080648	37150.783269
488.448905	37721.273846
488.817104	37676.743654
489.185244	38021.222500
489.553326	38974.840769
489.921350	40840.067692
490.289315	43548.847692
490.657222	45023.385192
491.025070	46633.193654
491.392861	46648.317115
491.760593	46263.509038
492.128267	45218.309808
492.495883	43932.815577
492.863440	42803.597115
493.230939	41712.187308
493.598380	40543.479808
493.965763	40249.412500
494.333088	39486.517885
494.700354	39152.961538
495.067563	39078.184423
495.434713	39241.181731
495.801805	38932.831154
496.168839	38912.666538
496.535815	38952.995769
496.902733	39023.571923
497.269593	39049.617885
497.636395	38811.003269
498.003139	39109.271538
498.369825	38726.143846
498.736453	39482.316923
499.103023	39115.993077
499.469535	39025.252308
499.835989	39155.482115
500.202385	39148.760577
500.568723	39157.162500
500.935003	39426.024038
501.301226	39236.980769
501.667390	39918.376731
502.033497	40368.719808
502.399546	39984.751923
502.765537	39742.776538
503.131470	40328.390577
503.497345	40508.191731
503.863163	39589.021346
504.228923	40137.666923
504.594625	40818.222692
504.960269	40020.880192
505.325856	40907.283077
505.691385	40184.717692
506.056856	40434.254808
506.422270	40966.096538
506.787625	40724.121154
507.152924	40726.641731
507.518164	40931.648654
507.883347	40502.310385
508.248472	40823.263846
508.613540	41411.398462
508.978550	41642.451346
509.343503	41276.967692
509.708398	41684.460962
510.073236	42349.893269
510.438016	42225.544808
510.802738	41737.393077
511.167403	42099.515962
511.532010	42475.081923
511.896561	42957.352308
512.261053	43696.721538
512.625488	43696.721538
512.989866	43403.494423
513.354186	43336.279038
513.718449	43163.199423
514.082655	43947.939038
514.446803	43853.837500
514.810894	44573.042115
515.174927	44020.195577
515.538904	44079.849231
515.902822	44520.950192
516.266684	43918.532308
516.630488	44489.863077
516.994235	44029.437692
517.357925	44914.160192
517.721558	45412.394231
518.085133	45460.285192
518.448651	45777.037692
518.812112	45454.403846
519.175516	45520.779038
519.538863	45731.667308
519.902152	45445.161731
520.265385	46207.216154
520.628560	46229.901346
520.991678	45704.781154
521.354739	45993.807308
521.717743	46202.175000
522.080690	46418.104423
522.443580	46819.716346
522.806413	47140.669808
523.169189	46725.614808
523.531908	47176.798077
523.894569	46757.542115
524.257174	46889.452308
524.619722	47182.679423
524.982213	47040.686923
525.344647	46973.471538
525.707025	47033.125192
526.069345	47371.722692
526.431608	47450.700769
526.793815	47656.547885
527.155964	47159.154038
527.518057	47429.695962
527.880093	47133.108077
528.242072	47502.792692
528.603995	47023.883077
528.965860	47233.931154
529.327669	47379.284423
529.689421	46928.101154
530.051117	47215.446923
530.412755	47254.095769
530.774337	47015.481154
531.135862	46944.064808
531.497331	47291.064231
531.858743	46784.428269
532.220098	47511.194615
532.581396	46948.265769
532.942638	46413.903462
533.303824	46681.924808
533.664953	46508.845192
534.026025	46192.932885
534.387040	46500.443269
534.747999	47034.805577
535.108902	46702.929615
535.469748	46430.707308
535.830537	46454.232692
536.191270	46539.932308
536.551947	46188.731923
536.912567	46357.610577
537.273131	46516.406923
537.633638	45934.153654
537.994089	46009.770962
538.354483	45482.970385
538.714821	46021.533654
539.075103	46077.826538
539.435328	46066.904038
539.795497	45839.211923
540.155609	45946.756538
540.515665	46695.367885
540.875665	45837.531538
541.235609	45812.325769
541.595496	45911.468462
541.955328	46526.489231
542.315102	46234.942500
542.674821	45594.715962
543.034483	45729.986923
543.394090	45724.945769
543.753640	45422.476538
544.113134	46243.344423
544.472571	45327.534808
544.831953	46301.317692
545.191278	45650.168654
545.550548	45301.488846
545.909761	45712.342885
546.268918	45846.773654
546.628019	46021.533654
546.987064	45427.517692
547.346053	44963.731538
547.704986	45681.255769
548.063863	45013.302885
548.422684	45381.307115
548.781449	44873.830962
549.140158	45561.108269
549.498811	45222.510769
549.857408	44806.615577
550.215949	45160.336538
550.574434	45204.026538
550.932864	44830.140962
551.291237	45556.907308
551.649555	44812.496923
552.007817	45072.956538
552.366022	44925.082692
552.724173	45083.879038
553.082267	45221.670577
553.440305	45691.338077
553.798288	45049.431154
554.156215	45001.540192
554.514086	44995.658846
554.871902	44921.721923
555.229661	44940.206154
555.587365	44916.680769
555.945014	44546.996154
556.302606	44878.031923
556.660143	44871.310385
557.017625	45067.075192
557.375050	44735.199231
557.732421	44993.138269
558.089735	45120.007308
558.446994	44858.707500
558.804197	45196.464808
559.161345	45156.135577
559.518437	44462.136731
559.875474	44474.739615
560.232455	44379.797885
560.589381	44673.025000
560.946251	44385.679231
561.303065	45021.704808
561.659825	44967.092308
562.016528	44583.124423
562.373177	44270.572885
562.729770	44401.642885
563.086307	43994.149615
563.442789	44210.079038
563.799216	44682.267115
564.155587	44463.817115
564.511904	44485.662115
564.868164	44170.590000
565.224370	44127.740192
565.580520	44399.122308
565.936615	44103.374615
566.292654	44076.488462
566.648638	44362.994038
567.004567	44254.609231
567.360441	44326.025577
567.716260	43817.709231
568.072023	44373.076346
568.427732	44153.786154
568.783385	43874.002115
569.138982	43926.094038
569.494525	43921.052885
569.850013	44076.488462
570.205445	44067.246346
570.560823	43985.747692
570.916145	43429.540385
571.271412	43548.007500
571.626625	43210.250192
571.981782	43377.448462
572.336884	43062.376346
572.691931	43310.233077
573.046923	42840.565577
573.401860	42737.221923
573.756743	42373.418654
574.111570	42690.171154
574.466342	42501.968077
574.821059	42286.038654
575.175722	41939.039231
575.530330	42026.419231
575.884882	41897.029615
576.239380	41918.874615
576.593823	41500.458846
576.948211	41459.289423
577.302544	41060.198077
577.656823	40582.968846
578.011047	41155.139808
578.365216	40702.276154
578.719330	40595.571731
579.073389	40340.153269
579.427394	40188.078462
579.781344	40325.029808
580.135239	39903.253269
580.489080	40036.843846
580.842866	39458.791538
581.196597	40021.720385
581.550273	39767.982308
581.903895	39477.275769
582.257463	39780.585192
582.610975	39078.184423
582.964434	39557.094038
583.317837	39014.329808
583.671186	38874.017692
584.024481	38900.063654
584.377721	38442.999038
584.730906	38546.342692
585.084037	38553.904423
585.437113	38108.602500
585.790135	38473.245962
586.143103	37827.978269
586.496016	37899.394615
586.848874	37922.079808
587.201679	37937.203269
587.554428	37414.603654
587.907124	37500.303269
588.259765	37167.587115
588.612352	37595.245000
588.964884	36842.432692
589.317362	36937.374423
589.669786	36947.456731
590.022155	36911.328462
590.374470	36978.543846
590.726731	36545.004615
591.078937	36278.663654
591.431090	36286.225385
591.783188	35880.412500
592.135232	35673.725192
592.487222	35920.741731
592.839157	35619.952885
593.191038	35388.059808
593.542866	35022.576154
593.894639	34863.779808
594.246358	34968.803846
594.598022	34714.225577
594.949633	34326.056731
595.301190	34427.720000
595.652692	34289.088269
596.004141	34255.480577
596.355535	33427.891154
596.706876	33364.036538
597.058162	33164.910962
597.409395	33553.920000
597.760573	33616.934423
598.111698	32990.991154
598.462768	32977.548077
598.813785	33022.918462
599.164748	32778.422500
599.515657	32851.519231
599.866511	32176.844808
600.217312	32653.233846
600.568060	31711.378269
600.918753	32118.031346
601.269392	32202.890769
601.619978	31820.603269
601.970510	31917.225385
602.320988	31984.440769
602.671412	32267.585577
603.021783	31617.276731
603.372100	31731.542885
603.722363	31336.652500
604.072572	31519.814423
604.422728	31295.483077
604.772830	31103.079038
605.122878	31131.645577
605.472872	31043.425385
605.822813	31145.928846
606.172701	31044.265577
606.522534	30981.251154
606.872314	30998.055000
607.222041	30921.597500
607.571714	31204.742308
607.921333	30774.563846
608.270899	30816.573462
608.620411	30914.875962
608.969870	30624.169423
609.319276	30437.646731
609.668627	30641.813462
610.017926	30824.135192
610.367171	30923.277885
610.716362	30729.193462
611.065500	30604.845000
611.414585	30619.128269
611.763616	30711.549423
612.112594	30554.433462
612.461518	30649.375192
612.810389	30844.299808
613.159207	30607.365577
613.507971	30236.840769
613.856682	30694.745577
614.205340	30617.447885
614.553945	30640.973269
614.902496	30503.181731
615.250994	30467.893654
615.599439	30346.905962
615.947830	30579.639231
616.296169	30544.351154
616.644454	30509.063077
616.992686	30388.075385
617.340864	30902.273077
617.688990	30398.997885
618.037063	30649.375192
618.385082	30479.656346
618.733048	30660.297692
619.080961	30382.194038
619.428821	30631.731154
619.776628	30489.738654
620.124382	30202.392885
620.472083	30232.639808
620.819731	30295.654231
621.167326	30272.128846
621.514868	30192.310577
621.862357	29626.020962
622.209793	29436.977692
622.557176	29310.108654
622.904506	28932.022115
623.251783	28716.932885
623.599007	28501.003462
623.946179	28358.170769
624.293297	28211.977308
624.640363	27696.939423
624.987376	27691.898269
625.334336	27217.189615
625.681243	27032.347308
626.028097	26825.660000
626.374899	26746.681923
626.721647	26581.164038
627.068343	26376.997308
627.414987	26284.576154
627.761577	26073.687885
628.108115	26220.721538
628.454600	25506.558077
628.801032	25682.998462
629.147412	25445.224038
629.493739	25560.330385
629.840014	25178.042885
630.186236	25109.147115
630.532405	24969.675192
630.878521	24978.917308
631.224585	24772.230000
631.570597	24457.998077
631.916556	24310.124231
632.262462	24395.823846
632.608316	24377.339615
632.954117	24129.482885
633.299866	24031.180385
633.645562	24084.952692
633.991206	23729.551346
634.336797	23310.295385
634.682336	23356.505962
635.027823	23042.274038
635.373257	23035.552500
635.718639	22741.485192
636.063968	22459.180577
636.409245	22162.592692
636.754470	22144.108462
637.099642	21879.447885
637.444762	21722.331923
637.789829	21558.494423
638.134845	21347.606154
638.479808	21236.700769
638.824719	21193.010769
639.169577	20981.282308
639.514383	20731.745192
639.859137	20634.282885
640.203839	20654.447500
640.548489	20315.850000
640.893086	20422.554423
641.237632	20165.455577
641.582125	20131.847885
641.926566	20163.775192
642.270955	19912.557692
642.615292	19915.078269
642.959576	19996.576923
643.303809	19768.884808
643.647990	19681.504808
643.992118	19984.814231
644.336195	19712.591923
644.680219	19570.599423
645.024192	19538.672115
645.368112	19658.819615
645.711981	19650.417692
646.055797	20047.828654
646.399562	19974.731923
646.743274	20168.816346
647.086935	20399.869231
647.430544	20320.891154
647.774101	20379.704615
648.117606	20579.670385
648.461059	20725.023654
648.804460	20407.430962
649.147810	20161.254615
649.491108	20120.085192
649.834354	19882.310769
650.177548	19511.785962
650.520690	19141.261154
650.863781	19216.878462
651.206820	19232.842115
651.549807	18742.169808
651.892742	18422.056538
652.235626	18520.359038
652.578458	18116.226538
652.921238	17752.423269
653.263967	17842.323846
653.606644	17673.445192
653.949269	17661.682500
654.291843	17217.220769
654.634365	17602.028846
654.976836	17216.380577
655.319255	17156.726923
655.661622	17137.402500
656.003938	16899.628077
656.346203	16970.204231
656.688416	16981.126731
657.030577	16818.129423
657.372687	16677.817308
657.714746	16718.146538
658.056753	16881.143846
658.398708	16525.742500
658.740612	16529.103269
659.082465	16548.427692
659.424266	16369.466731
659.766016	16335.859038
660.107715	16373.667692
660.449362	16469.449615
660.790958	16242.597692
661.132503	16051.033846
661.473996	16206.469423
661.815438	16240.077115
662.156829	16279.566154
662.498168	16127.491346
662.839456	16129.171731
663.180693	16025.828077
663.521879	16086.321923
663.863013	16092.203269
664.204097	16014.905577
664.545129	16180.423462
664.886110	16078.760192
665.227040	16198.907692
665.567918	16175.382308
665.908746	16222.433077
666.249522	16207.309615
666.590248	16199.747885
666.930922	16114.048269
667.271545	16092.203269
667.612118	16156.057885
667.952639	16067.837692
668.293109	16034.230000
668.633528	15967.854808
668.973896	15928.365769
669.314213	15898.118846
669.654480	15821.661346
669.994695	15732.600962
670.334859	15579.685962
670.674973	15693.952115
671.015035	15807.378077
671.355047	15603.211346
671.695008	15646.061154
672.034918	15572.964423
672.374777	15473.821731
672.714585	15283.098077
673.054342	15514.150962
673.394049	15375.519231
673.733705	15455.337500
674.073310	15231.006154
674.412864	15224.284615
674.752368	15120.100769
675.091820	15204.960192
675.431223	15173.873077
675.770574	14958.783846
676.109875	14912.573269
676.449125	14826.873654
676.788324	14826.873654
677.127473	14510.961346
677.466571	14358.886538
677.805619	14227.816538
678.144616	14171.523654
678.483562	14165.642308
678.822458	14100.947500
679.161303	13985.841154
679.500098	13989.201923
679.838842	13900.981731
680.177535	13822.003654
680.516179	13806.880192
680.854771	14000.964615
681.193314	14064.819231
681.531805	14165.642308
681.870247	14416.859808
682.208638	14728.571154
682.546978	14945.340769
682.885268	15154.548654
683.223508	14993.231731
683.561697	15006.674808
683.899836	14861.321538
684.237925	14654.634231
684.575963	14852.079423
684.913951	14513.481923
685.251889	14572.295385
685.589776	14413.499038
685.927614	14337.881731
686.265401	14274.867308
686.603137	14278.228077
686.940824	14502.559423
687.278460	14521.043654
687.616046	14471.472308
687.953582	14881.486154
688.291068	14784.023846
688.628504	14760.498462
688.965889	14977.268077
689.303224	14920.135000
689.640510	14781.503269
689.977745	14623.547115
690.314930	14467.271346
690.652065	14268.145769
690.989150	14108.509231
691.326185	13601.033077
691.663170	13296.883462
692.000105	13012.058269
692.336990	12724.712500
692.673825	12497.860577
693.010610	12383.594423
693.347345	12078.604615
693.684030	11689.595577
694.020665	11729.084615
694.357251	11397.208654
694.693786	11369.482308
695.030272	11119.945192
695.366707	11008.199615
695.703093	10981.313462
696.039429	11111.543269
696.375716	10733.456731
696.711952	10699.849038
697.048139	10645.236538
697.384276	10579.701538
697.720363	10603.226923
698.056400	10578.021154
698.392388	10473.837308
698.728326	10403.261154
699.064214	10425.946346
699.400053	10277.232308
699.735842	10325.963462
700.071581	10220.099231
700.407270	10113.394808
700.742910	9939.475000
701.078501	9763.874808
701.414042	9714.303462
701.749533	9571.470769
702.084974	9428.638077
702.420366	9583.233462
702.755709	9388.308846
703.091002	9239.594808
703.426246	9236.234038
703.761440	9144.653077
704.096584	9151.374615
704.431679	9137.931538
704.766725	9055.592692
705.101721	9018.624231
705.436668	8982.495962
705.771565	9032.907500
706.106413	8942.166731
706.441212	8922.842308
706.775961	9024.505577
707.110661	9051.391731
707.445311	9124.488462
707.779913	9099.282692
708.114465	9232.873269
708.448967	9087.520000
708.783421	9428.638077
709.117825	9421.076346
709.452180	9584.913846
709.786485	9589.114808
710.120742	9826.049038
710.454949	9875.620385
710.789107	10028.535385
711.123216	10239.423654
711.457275	10332.685000
711.791286	10579.701538
712.125247	10593.984808
712.459159	10555.335962
712.793023	10885.531538
713.126837	10532.650769
713.460602	10566.258462
713.794318	10596.505385
714.127985	10504.924423
714.461602	10202.455192
714.795171	10118.435962
715.128691	9734.468077
715.462162	9616.000962
715.795584	9500.054423
716.128957	9321.933654
716.462281	9242.955577
716.795556	9049.711346
717.128782	8889.234615
717.461960	8716.995192
717.795088	8656.501346
718.128167	8581.724231
718.461198	8315.383269
718.794180	8318.744038
719.127113	8174.230962
719.459997	8172.550577
719.792833	8057.444231
720.125619	7986.027885
720.458357	7825.551154
720.791046	7842.355000
721.123686	7809.587500
721.456278	7675.996923
721.788821	7627.265769
722.121315	7526.442692
722.453761	7497.876154
722.786158	7591.137500
723.118506	7466.789038
723.450805	7417.217692
723.783056	7449.985192
724.115259	7476.871346
724.447412	7370.166923
724.779518	7530.643654
725.111574	7426.459808
725.443582	7481.912500
725.775542	7470.149808
726.107453	7670.115577
726.439315	7558.370000
726.771129	7728.929038
727.102895	7776.820000
727.434612	7923.853654
727.766281	7939.817308
728.097901	8101.974423
728.429473	8113.737115
728.760996	8091.892115
729.092471	8226.322885
729.423897	8075.928462
729.755276	8142.303654
730.086606	8173.390769
730.417887	8294.378462
730.749120	8397.722115
731.080305	8426.288654
731.411442	8522.070577
731.742530	8643.058269
732.073570	8695.150192
732.404562	8738.840192
732.735506	8692.629615
733.066401	8631.295577
733.397249	8728.757885
733.728048	8543.075385
734.058798	8276.734423
734.389501	8091.051923
734.720156	7887.725385
735.050762	7748.253462
735.381320	7507.958462
735.711831	7234.895962
736.042293	7188.685385
736.372707	7159.278654
736.703073	7055.935000
737.033391	7132.392500
737.363661	7024.007692
737.693883	7098.784808
738.024056	7179.443269
738.354182	7156.758077
738.684260	7249.179231
739.014290	7187.845192
739.344272	7273.544808
739.674207	7473.510577
740.004093	7427.300000
740.333931	7547.447500
740.663722	7552.488654
740.993464	7634.827500
741.323159	7619.704038
741.652806	7504.597692
741.982405	7401.254038
742.311956	7373.527692
742.641460	7340.760192
742.970915	7260.941923
743.300323	7125.670962
743.629683	6956.792308
743.958996	6899.659231
744.288260	6808.918462
744.617477	6728.260000
744.946647	6740.022692
745.275768	6705.574808
745.604842	6537.536346
745.933869	6435.873077
746.262847	6539.216731
746.591778	6444.275000
746.920662	6328.328462
747.249498	6427.471154
747.578286	6398.064423
747.907027	6394.703654
748.235720	6420.749615
748.564365	6596.349808
748.892963	6450.996538
749.221514	6408.146731
749.550017	6412.347692
749.878473	6474.521923
750.206881	6420.749615
750.535242	6351.853846
750.863555	6356.895000
751.191821	6322.447115
751.520039	6251.030769
751.848210	6226.665192
752.176334	6230.025962
752.504411	6257.752308
752.832440	6225.825000
753.160421	6161.130192
753.488356	6228.345577
753.816243	6190.536923
754.144082	6135.924423
754.471875	6143.486154
754.799620	6077.951154
755.127318	6020.818077
755.454969	6018.297500
755.782572	5966.205577
756.110129	6029.220000
756.437638	6109.878462
756.765100	5973.767308
757.092515	5888.907885
757.419882	5965.365385
757.747203	5925.876346
758.074477	5909.072500
758.401703	6010.735769
758.728882	6006.534808
759.056014	6079.631538
759.383099	6048.544423
759.710138	6072.069808
760.037129	6130.043077
760.364073	6112.399038
760.690970	6165.331154
761.017820	6188.016346
761.344623	6144.326346
761.671379	6294.720769
761.998088	6337.570577
762.324751	6558.541154
762.651366	7244.138077
762.977935	8237.245385
763.304456	9091.720962
763.630931	9860.496923
763.957359	10006.690385
764.283740	9884.022308
764.610074	9484.930962
764.936362	8786.731154
765.262602	8258.250192
765.588796	7618.023654
765.914943	7129.031731
766.241044	6704.734615
766.567097	6240.948462
766.893104	6011.575962
767.219064	5915.794038
767.544978	5759.518269
767.870845	5568.794615
768.196665	5427.642308
768.522438	5300.773269
768.848165	5283.969423
769.173846	5124.332885
769.499479	5133.575000
769.825066	5041.994038
770.150607	4955.454231
770.476101	4923.526923
770.801548	4910.924038
771.126949	4892.439808
771.452303	4871.435000
771.777611	4716.839615
772.102872	4709.277885
772.428087	4705.076923
772.753256	4642.062500
773.078378	4666.428077
773.403453	4574.006923
773.728482	4498.389615
774.053465	4509.312115
774.378401	4547.120769
774.703291	4394.205769
775.028135	4421.091923
775.352932	4426.133077
775.677683	4391.685192
776.002388	4315.227692
776.327046	4397.566538
776.651658	4232.888846
776.976224	4260.615192
777.300743	4279.939615
777.625216	4250.532885
777.949643	4203.482115
778.274024	4204.322308
778.598359	4169.874423
778.922647	4137.106923
779.246889	4141.307885
779.571086	4117.782500
779.895236	4167.353846
780.219339	4118.622692
780.543397	4094.257115
780.867409	4073.252308
781.191374	4182.477308
781.515294	4148.029423
781.839167	4173.235192
782.162995	4254.733846
782.486776	4195.080192
782.810511	4170.714615
783.134201	4131.225577
783.457844	4102.659038
783.781441	4093.416923
784.104993	4063.170000
784.428498	4040.484808
784.751958	4041.325000
785.075372	4052.247500
785.398739	4082.494423
785.722061	4023.680962
786.045337	4039.644615
786.368568	4066.530769
786.691752	4072.412115
787.014891	4119.462885
787.337983	4152.230385
787.661030	4337.912885
787.984031	4413.530192
788.306987	4554.682500
788.629897	4642.062500
788.952760	4716.839615
789.275579	4673.989808
789.598351	4625.258654
789.921078	4533.677692
790.243759	4463.101538
790.566395	4395.045962
790.888984	4275.738654
791.211529	4192.559615
791.534027	4181.637115
791.856480	4084.174808
792.178888	4091.736538
792.501249	4048.886731
792.823566	3965.707692
793.145836	4012.758462
793.468062	3937.141154
793.790241	3916.136346
794.112375	3908.574615
794.434464	3934.620577
794.756507	3901.012885
795.078505	3978.310577
795.400457	4059.809231
795.722364	4127.864808
796.044226	4185.838077
796.366042	4227.007500
796.687812	4260.615192
797.009538	4237.089808
797.331218	4352.196154
797.652852	4200.121346
797.974442	4251.373077
798.295986	4235.409423
798.617484	4200.121346
798.938938	4114.421731
799.260346	4154.750962
799.581709	4048.886731
799.903026	4044.685769
800.224299	4005.196731
800.545526	3965.707692
800.866708	3920.337308
801.187845	3941.342115
801.508936	3874.966923
801.829983	3917.816731
802.150984	3885.049231
802.471940	3849.761154
802.792851	3774.984038
803.113717	3831.276923
803.434538	3816.153462
803.755314	3780.025192
804.076045	3737.175385
804.396731	3785.906538
804.717372	3732.974423
805.037967	3698.526538
805.358518	3740.536154
805.679024	3729.613654
805.999485	3718.691154
806.319901	3769.942885
806.640272	3714.490192
806.960598	3817.833846
807.280879	3753.139038
807.601115	3819.514231
807.921306	3766.582115
808.241453	3820.354423
808.561554	3768.262500
808.881611	3764.061538
809.201623	3799.349615
809.521590	3769.942885
809.841513	3759.860577
810.161390	3810.272115
810.481223	3795.148654
810.801011	3796.829038
811.120755	3771.623269
811.440453	3766.582115
811.760107	3741.376346
812.079716	3712.809808
812.399281	3696.005962
812.718801	3736.335192
813.038276	3620.388654
813.357707	3725.412692
813.677093	3652.315962
813.996434	3635.512115
814.315731	3600.224038
814.634983	3651.475769
814.954191	3658.197308
815.273354	3657.357115
815.592473	3708.608846
815.911547	3690.124615
816.230577	3693.485385
816.549562	3783.385962
816.868502	3779.185000
817.187399	3801.030000
817.506250	3884.209038
817.825058	3801.870192
818.143821	3921.177500
818.462539	3961.506731
818.781213	4006.877115
819.099843	4089.215962
819.418429	4324.469808
819.736970	4551.321731
820.055466	4800.018654
820.373919	5167.182692
820.692327	5541.068269
821.010691	6219.943654
821.329011	7469.309615
821.647286	9623.562692
821.965517	12444.928462
822.283704	15270.495192
822.601847	17399.542500
822.919945	17512.128269
823.237999	16723.187692
823.556010	15514.991154
823.873976	14410.138269
824.191897	12976.770192
824.509775	11918.127885
824.827609	10641.875769
825.145398	9620.201923
825.463144	8824.539808
825.780845	8486.782500
826.098502	8357.392885
826.416116	8713.634423
826.733685	9205.987115
827.051210	9733.627885
827.368692	9805.044231
827.686129	9303.449423
828.003522	8654.820962
828.320872	7895.287115
828.638177	7213.891154
828.955439	6625.756538
829.272656	6116.600000
829.589830	5688.101923
829.906960	5278.088077
830.224046	4888.238846
830.541088	4589.130385
830.858086	4474.024038
831.175041	4157.271538
831.491952	4195.920385
831.808819	4106.860000
832.125642	4011.078077
832.442421	4216.925192
832.759157	4579.048077
833.075849	4977.299231
833.392497	5488.976346
833.709101	6013.256346
834.025662	6302.282500
834.342179	6301.442308
834.658653	5946.040962
834.975083	5638.530577
835.291469	5380.591538
835.607811	4987.381538
835.924110	4799.178462
836.240366	4560.563846
836.556578	4334.552115
836.872746	4116.102115
837.188871	3904.373654
837.504952	3813.632885
837.820990	3634.671923
838.136984	3551.492885
838.452935	3492.679423
838.768842	3441.427692
839.084706	3541.410577
839.400526	3683.403077
839.716303	3889.250192
840.032037	4190.039038
840.347727	4408.489038
840.663373	4323.629615
840.978977	4132.065769
841.294537	3901.853077
841.610054	3736.335192
841.925527	3627.110192
842.240957	3586.780962
842.556344	3466.633462
842.871687	3466.633462
843.186987	3294.394038
843.502244	3211.215000
843.817458	3167.525000
844.132629	3093.588077
844.447756	3082.665577
844.762840	3036.455000
845.077881	3049.057885
845.392879	3010.409038
845.707833	2973.440577
846.022745	2928.070192
846.337613	2964.198462
846.652438	2938.992692
846.967221	2928.070192
847.281960	2925.549615
847.596656	2891.941923
847.911309	2918.828077
848.225919	2875.138077
848.540485	2893.622308
848.855009	2905.385000
849.169490	2900.343846
849.483928	2898.663462
849.798323	2875.138077
850.112675	2887.740962
850.426984	2847.411731
850.741251	2840.690192
851.055474	2851.612692
851.369654	2875.138077
851.683792	2867.576346
851.997887	2841.530385
852.311938	2855.813654
852.625947	2839.850000
852.939914	2854.133269
853.253837	2861.695000
853.567718	2866.736154
853.881555	2852.452885
854.195350	2815.484423
854.509103	2815.484423
854.822812	2836.489231
855.136479	2833.968654
855.450103	2860.854808
855.763685	2820.525577
856.077224	2874.297885
856.390720	2854.133269
856.704173	2887.740962
857.017584	2886.900769
857.330953	2853.293077
857.644278	2851.612692
857.957561	2854.973462
858.270802	2888.581154
858.584000	2897.823269
858.897155	2919.668269
859.210268	2853.293077
859.523339	2886.900769
859.836367	2885.220385
860.149352	2849.932308
860.462295	2857.494038
860.775195	2855.813654
861.088054	2871.777308
861.400869	2833.128462
861.713642	2834.808846
862.026373	2818.845192
862.339062	2877.658654
862.651708	2871.777308
862.964312	2857.494038
863.276873	2813.804038
863.589392	2825.566731
863.901869	2868.416538
864.214303	2891.941923
864.526696	2891.941923
864.839045	2902.864423
865.151353	2914.627115
865.463619	2932.271154
865.775842	2902.024231
866.088023	2897.823269
866.400162	2944.033846
866.712258	2912.106538
867.024313	2941.513269
867.336325	2933.951538
867.648296	2959.157308
867.960224	2936.472115
868.272110	2950.755385
868.583954	2937.312308
868.895755	2942.353462
869.207515	2994.445385
869.519233	2901.184038
869.830909	2948.234808
870.142542	2911.266346
870.454134	2970.920000
870.765684	2974.280769
871.077191	3002.847308
871.388657	2981.002308
871.700081	3007.888462
872.011463	3009.568846
872.322803	3002.007115
872.634101	3004.527692
872.945357	3018.810962
873.256571	3060.820577
873.567744	3030.573654
873.878874	3054.099038
874.189963	3035.614808
874.501010	3075.944038
874.812015	3079.304808
875.122979	3012.089423
875.433900	3028.893269
875.744780	3039.815769
876.055618	3082.665577
876.366415	3080.145000
876.677169	3065.021538
876.987882	3122.154615
877.298554	3115.433077
877.609183	3075.103846
877.919771	3160.803462
878.230317	3166.684808
878.540822	3201.972885
878.851285	3287.672500
879.161707	3340.604615
879.472087	3517.885192
879.782425	3624.589615
880.092722	3907.734423
880.402977	4399.246923
880.713191	5043.674423
881.023363	5772.961346
881.333494	6283.798269
881.643583	6700.533654
881.953631	6915.622885
882.263637	7011.404808
882.573602	6729.940385
882.883526	6648.441731
883.193408	6481.243462
883.503248	6280.437500
883.813048	6089.713846
884.122806	5778.002500
884.432522	5452.007885
884.742197	5235.238269
885.051831	4893.280000
885.361424	4646.263462
885.670975	4370.680385
885.980485	4150.550000
886.289954	3991.753654
886.599382	3846.400385
886.908768	3680.042308
887.218113	3611.146538
887.527417	3481.756923
887.836680	3395.217115
888.145901	3286.832308
888.455082	3267.507885
888.764221	3223.817885
889.073319	3166.684808
889.382376	3142.319231
889.691392	3104.510577
890.000366	3056.619615
890.309300	3118.793846
890.618193	3088.546923
890.927044	3110.391923
891.235855	3111.232115
891.544625	3059.980385
891.853353	3098.629231
892.162041	3118.793846
892.470687	3145.680000
892.779293	3149.880962
893.087858	3191.050385
893.396381	3257.425577
893.704864	3412.020962
894.013306	3646.434615
894.321707	3744.737115
894.630068	3953.945000
894.938387	4048.886731
895.246665	4123.663846
895.554903	4109.380577
895.863100	3997.635000
896.171256	3932.100000
896.479371	3921.177500
896.787446	3784.226154
897.095480	3670.800192
897.403473	3617.868077
897.711425	3554.853654
898.019336	3570.817308
898.327207	3406.979808
898.635038	3346.485962
898.942827	3293.553846
899.250576	3191.890577
899.558284	3142.319231
899.865952	3111.232115
900.173579	3101.990000
900.481165	3072.583269
900.788711	3055.779423
901.096216	2975.120962
901.403681	3007.888462
901.711105	2974.280769
902.018489	2967.559231
902.325832	2981.002308
902.633135	2965.878846
902.940397	3049.057885
903.247619	3139.798654
903.554800	3292.713654
903.861941	3559.054615
904.169041	3851.441538
904.476101	4046.366154
904.783121	4101.818846
905.090100	4101.818846
905.397039	4033.763269
905.703938	3865.724808
906.010796	3805.230962
906.317614	3722.051923
906.624391	3597.703462
906.931129	3550.652692
907.237826	3503.601923
907.544483	3447.309038
907.851099	3280.110769
908.157675	3244.822692
908.464211	3110.391923
908.770707	3081.825385
909.077163	2968.399423
909.383578	2949.915192
909.689954	2895.302692
909.996289	2863.375385
910.302584	2836.489231
910.608839	2796.160000
910.915054	2744.068077
911.221229	2801.201154
911.527363	2788.598269
911.833458	2820.525577
912.139513	2804.561923
912.445527	2796.160000
912.751502	2851.612692
913.057436	2823.046154
913.363331	2836.489231
913.669186	2848.251923
913.975000	2909.585962
914.280775	2967.559231
914.586510	3005.367885
914.892205	3146.520192
915.197859	3308.677308
915.503475	3522.926346
915.809050	3669.960000
916.114585	3831.276923
916.420081	3985.032115
916.725536	4061.489615
917.030952	4024.521154
917.336328	4045.525962
917.641665	4013.598654
917.946961	3966.547885
918.252218	3906.894231
918.557435	3811.112308
918.862612	3729.613654
919.167750	3728.773462
919.472848	3602.744615
919.777906	3522.926346
920.082925	3440.587500
920.387904	3373.372115
920.692843	3254.905000
920.997743	3200.292500
921.302603	3132.236923
921.607423	3003.687500
921.912204	3037.295192
922.216946	2980.162115
922.521647	2974.280769
922.826310	2924.709423
923.130932	2924.709423
923.435516	2849.092115
923.740059	2833.968654
924.044564	2790.278654
924.349028	2821.365769
924.653454	2786.077692
924.957840	2809.603077
925.262186	2775.995385
925.566493	2712.980962
925.870761	2733.145577
926.174989	2706.259423
926.479178	2738.186731
926.783328	2717.181923
927.087438	2720.542692
927.391509	2720.542692
927.695541	2669.290962
927.999533	2720.542692
928.303486	2658.368462
928.607400	2652.487115
928.911275	2628.121538
929.215110	2656.688077
929.518906	2679.373269
929.822663	2682.734038
930.126381	2649.966538
930.430060	2719.702500
930.733699	2676.012500
931.037299	2685.254615
931.340861	2641.564615
931.644383	2668.450769
931.947866	2694.496731
932.251309	2644.925385
932.554714	2626.441154
932.858080	2705.419231
933.161407	2657.528269
933.464694	2641.564615
933.767943	2666.770385
934.071153	2631.482308
934.374323	2628.121538
934.677455	2625.600962
934.980548	2645.765577
935.283602	2618.879423
935.586617	2664.249808
935.889593	2650.806731
936.192530	2660.889038
936.495428	2612.998077
936.798287	2615.518654
937.101108	2652.487115
937.403890	2634.002885
937.706632	2637.363654
938.009336	2691.976154
938.312002	2690.295769
938.614628	2626.441154
938.917216	2679.373269
939.219765	2676.012500
939.522275	2740.707308
939.824747	2747.428846
940.127179	2699.537885
940.429573	2694.496731
940.731929	2752.470000
941.034246	2773.474808
941.336524	2710.460385
941.638763	2747.428846
941.940964	2779.356154
942.243126	2731.465192
942.545250	2729.784808
942.847335	2704.579038
943.149381	2670.131154
943.451389	2714.661346
943.753359	2669.290962
944.055290	2685.254615
944.357182	2707.939808
944.659036	2688.615385
944.960851	2710.460385
945.262628	2671.811538
945.564367	2685.254615
945.866067	2683.574231
946.167729	2696.177115
946.469352	2643.245000
946.770937	2649.126346
947.072484	2675.172308
947.373992	2625.600962
947.675462	2655.847885
947.976893	2648.286154
948.278286	2679.373269
948.579641	2658.368462
948.880958	2725.583846
949.182236	2644.925385
949.483476	2666.770385
949.784678	2649.966538
950.085841	2664.249808
950.386967	2686.094808
950.688054	2644.085192
950.989103	2679.373269
951.290114	2666.770385
951.591087	2667.610577
951.892021	2720.542692
952.192917	2622.240192
952.493776	2639.044038
952.794596	2678.533077
953.095378	2694.496731
953.396122	2690.295769
953.696828	2698.697692
953.997496	2685.254615
954.298126	2699.537885
954.598718	2712.980962
954.899272	2699.537885
955.199788	2697.017308
955.500266	2682.734038
955.800706	2623.080385
956.101108	2664.249808
956.401472	2622.240192
956.701798	2651.646923
957.002087	2653.327308
957.302337	2676.852692
957.602550	2647.445962
957.902724	2648.286154
958.202861	2620.559808
958.502960	2643.245000
958.803022	2648.286154
959.103045	2580.230577
959.403031	2630.642115
959.702979	2585.271731
960.002889	2562.586538
960.302762	2565.107115
960.602596	2544.102308
960.902393	2599.555000
961.202153	2550.823846
961.501875	2557.545385
961.801559	2574.349231
962.101205	2595.354038
962.400814	2565.947308
962.700385	2535.700385
962.999918	2553.344423
963.299414	2590.312885
963.598873	2549.143462
963.898293	2550.823846
964.197677	2550.823846
964.497022	2524.777885
964.796331	2518.896538
965.095601	2592.833462
965.394835	2555.024808
965.694030	2531.499423
965.993189	2601.235385
966.292309	2542.421923
966.591393	2530.659231
966.890439	2556.705192
967.189447	2584.431538
967.488419	2523.097500
967.787353	2577.710000
968.086249	2513.015192
968.385108	2534.860192
968.683930	2560.906154
968.982714	2548.303269
969.281462	2598.714808
969.580172	2528.138654
969.878844	2577.710000
970.177480	2524.777885
970.476078	2569.308077
970.774639	2552.504231
971.073162	2584.431538
971.371649	2558.385577
971.670098	2502.932885
971.968510	2581.910962
972.266885	2577.710000
972.565223	2555.024808
972.863524	2586.111923
973.161788	2485.288846
973.460014	2562.586538
973.758204	2556.705192
974.056356	2560.906154
974.354471	2579.390385
974.652550	2592.833462
974.950591	2531.499423
975.248595	2533.179808
975.546563	2538.220962
975.844493	2474.366346
976.142386	2555.865000
976.440243	2592.833462
976.738062	2548.303269
977.035845	2508.814231
977.333590	2548.303269
977.631299	2534.020000
977.928971	2522.257308
978.226606	2547.463077
978.524204	2559.225769
978.821765	2527.298462
979.119290	2590.312885
979.416777	2550.823846
979.714228	2602.075577
980.011642	2586.111923
980.309020	2564.266923
980.606360	2573.509038
980.903664	2578.550192
981.200931	2545.782692
981.498162	2574.349231
981.795356	2594.513846
982.092513	2597.874615
982.389633	2608.797115
982.686717	2614.678462
982.983764	2713.821154
983.280775	2689.455577
983.577749	2738.186731
983.874686	2712.140769
984.171587	2695.336923
984.468451	2728.104423
984.765279	2730.625000
985.062070	2746.588654
985.358824	2731.465192
985.655543	2695.336923
985.952224	2654.167500
986.248869	2688.615385
986.545478	2641.564615
986.842050	2642.404808
987.138586	2613.838269
987.435086	2569.308077
987.731549	2539.901346
988.027975	2596.194231
988.324366	2537.380769
988.620719	2526.458269
988.917037	2530.659231
989.213318	2541.581731
989.509563	2529.819038
989.805772	2556.705192
990.101944	2525.618077
990.398080	2553.344423
990.694180	2547.463077
990.990244	2519.736731
991.286271	2509.654423
991.582262	2577.710000
991.878217	2516.375962
992.174136	2519.736731
992.470019	2553.344423
992.765865	2507.133846
993.061676	2521.417115
993.357450	2499.572115
993.653188	2498.731923
993.948890	2546.622885
994.244556	2551.664038
994.540186	2547.463077
994.835780	2533.179808
995.131337	2581.910962
995.426859	2536.540577
995.722345	2530.659231
996.017795	2602.075577
996.313208	2631.482308
996.608586	2607.956923
996.903928	2630.642115
997.199234	2648.286154
997.494504	2673.491923
997.789738	2628.961731
998.084936	2660.889038
998.380099	2618.879423
998.675225	2639.044038
998.970316	2619.719615
999.265371	2599.555000
999.560390	2583.591346
999.855373	2539.901346
1000.150320	2623.920577
1000.445232	2588.632500
1000.740108	2578.550192
1001.034948	2566.787500
1001.329752	2588.632500
1001.624521	2566.787500
1001.919254	2493.690769
1002.213951	2569.308077
1002.508613	2555.024808
1002.803239	2544.102308
1003.097829	2521.417115
1003.392384	2528.138654
1003.686903	2556.705192
1003.981386	2528.138654
1004.275834	2534.860192
1004.570246	2518.896538
1004.864623	2492.010385
1005.158964	2551.664038
1005.453270	2513.855385
1005.747540	2508.814231
1006.041775	2509.654423
1006.335974	2577.710000
1006.630138	2520.576923
1006.924266	2467.644808
1007.218359	2524.777885
1007.512416	2509.654423
1007.806438	2533.179808
1008.100425	2568.467885
1008.394376	2530.659231
1008.688292	2535.700385
1008.982172	2506.293654
1009.276017	2516.375962
1009.569827	2535.700385
1009.863602	2450.840962
1010.157341	2492.010385
1010.451045	2462.603654
1010.744714	2546.622885
1011.038347	2493.690769
1011.331945	2503.773077
1011.625508	2499.572115
1011.919036	2496.211346
1012.212528	2551.664038
1012.505986	2516.375962
1012.799408	2546.622885
1013.092795	2502.932885
1013.386147	2487.809423
1013.679464	2481.928077
1013.972745	2547.463077
1014.265992	2507.974038
1014.559204	2496.211346
1014.852380	2503.773077
1015.145521	2532.339615
1015.438628	2528.138654
1015.731699	2515.535769
1016.024736	2502.932885
1016.317737	2513.015192
1016.610703	2527.298462
1016.903635	2498.731923
1017.196531	2521.417115
1017.489393	2502.932885
1017.782219	2520.576923
1018.075011	2541.581731
1018.367768	2547.463077
1018.660490	2512.175000
1018.953177	2512.175000
1019.245829	2512.175000
