Dividing Wavelength (nm)	Counts (n)	Slit_number_2_of_a_total_of_40	
326.493990	2093.759231
326.888308	2093.759231
327.282561	2093.759231
327.676750	2074.434808
328.070874	2097.120000
328.464933	2115.604231
328.858929	2121.485577
329.252859	2164.335385
329.646726	2144.170769
330.040528	2123.165962
330.434265	2134.088462
330.827938	2218.107692
331.221547	2205.504808
331.615091	2223.989038
332.008571	2239.112500
332.401986	2269.359423
332.795338	2292.044615
333.188625	2257.596731
333.581847	2301.286731
333.975006	2324.812115
334.368100	2389.506923
334.761129	2336.574808
335.154095	2397.068654
335.546996	2630.642115
335.939833	3254.064808
336.332606	3280.110769
336.725315	3266.667692
337.117960	3301.955769
337.510540	3296.074423
337.903056	3321.280192
338.295508	3356.568269
338.687896	3408.660192
339.080220	3398.577885
339.472480	3408.660192
339.864676	3406.979808
340.256807	3476.715769
340.648875	3464.953077
341.040879	3445.628654
341.432818	3491.839231
341.824694	3521.245962
342.216506	3516.204808
342.608253	3555.693846
342.999937	3554.013462
343.391557	3569.977115
343.783113	3546.451731
344.174605	3564.095769
344.566033	3576.698654
344.957397	3604.425000
345.348697	3604.425000
345.739934	3638.032692
346.131106	3616.187692
346.522215	3622.909231
346.913260	3713.650000
347.304241	3645.594423
347.695159	3630.470962
348.086012	3712.809808
348.476802	3731.294038
348.867528	3688.444231
349.258191	3710.289231
349.648789	3687.604038
350.039324	3796.829038
350.429796	3789.267308
350.820203	3743.056731
351.210548	3867.405192
351.600828	3851.441538
351.991045	3887.569808
352.381198	3851.441538
352.771288	3870.765962
353.161314	3961.506731
353.551276	3935.460769
353.941175	3936.300962
354.331010	3906.894231
354.720782	3937.981346
355.110490	4018.639808
355.500135	3981.671346
355.889717	3916.976538
356.279235	3918.656923
356.668689	3933.780385
357.058080	3921.177500
357.447408	3984.191923
357.836672	3970.748846
358.225873	3971.589038
358.615010	4012.758462
359.004084	4023.680962
359.393095	3998.475192
359.782043	4005.196731
360.170927	4001.835962
360.559748	4006.877115
360.948505	4071.571923
361.337199	4041.325000
361.725830	4148.029423
362.114398	4131.225577
362.502903	4225.327115
362.891344	4199.281154
363.279722	4165.673462
363.668037	4169.874423
364.056289	4254.733846
364.444478	4311.866923
364.832603	4333.711923
365.220665	4261.455385
365.608665	4345.474615
365.996601	4391.685192
366.384474	4430.334038
366.772284	4405.128269
367.160031	4425.292885
367.547715	4411.009615
367.935336	4477.384808
368.322893	4469.823077
368.710388	4500.910192
369.097820	4536.198269
369.485189	4461.421154
369.872495	4498.389615
370.259738	4605.094038
370.646918	4629.459615
371.034035	4580.728462
371.421090	4555.522692
371.808081	4706.757308
372.195010	4663.907500
372.581875	4658.866346
372.968678	4692.474038
373.355418	4731.963077
373.742096	4826.904808
374.128710	4853.790962
374.515262	4785.735385
374.901751	4856.311538
375.288177	4955.454231
375.674540	4907.563269
376.060841	4970.577692
376.447079	4988.221731
376.833254	5010.906923
377.219367	5078.122308
377.605417	5194.909038
377.991404	5132.734808
378.377329	5182.306154
378.763191	5154.579808
379.148991	5247.000962
379.534727	5312.535962
379.920402	5288.170385
380.306013	5307.494808
380.691563	5404.116923
381.077049	5367.148462
381.462474	5459.569615
381.847835	5493.177308
382.233134	5626.767885
382.618371	5567.954423
383.003545	5747.755577
383.388657	5689.782308
383.773706	5696.503846
384.158693	5861.181538
384.543618	5895.629423
384.928480	5847.738462
385.313280	5891.428462
385.698017	5929.237115
386.082692	5999.813269
386.467305	5998.973077
386.851856	6063.667885
387.236344	6134.244038
387.620770	6092.234423
388.005133	6252.711154
388.389435	6331.689231
388.773674	6235.067115
389.157851	6279.597308
389.541965	6335.890192
389.926018	6319.926538
390.310008	6393.023269
390.693936	6461.078846
391.077802	6575.345000
391.461606	6553.500000
391.845348	6630.797692
392.229027	6691.291538
392.612645	6755.146154
392.996200	6825.722308
393.379694	6829.923269
393.763125	7013.085192
394.146494	7048.373269
394.529801	7129.871923
394.913047	7307.152500
395.296230	7192.886346
395.679351	7194.566731
396.062410	7331.518077
396.445408	7207.169615
396.828343	7247.498846
397.211217	7297.070192
397.594028	7019.806731
397.976778	7166.840385
398.359466	7292.869231
398.742092	7232.375385
399.124656	7249.179231
399.507158	7399.573654
399.889598	7355.043462
400.271977	7414.697115
400.654294	7355.883654
401.036549	7508.798654
401.418742	7448.304808
401.800874	7605.420769
402.182944	7724.728077
402.564952	7944.858462
402.946898	7798.665000
403.328783	7784.381731
403.710606	7821.350192
404.092367	8065.846154
404.474067	8227.163077
404.855705	8111.216538
405.237282	7970.064231
405.618797	8314.543077
406.000250	8292.698077
406.381642	8525.431346
406.762972	8534.673462
407.144240	8257.410000
407.525447	8475.019808
407.906593	8450.654231
408.287677	8545.595962
408.668700	8711.113846
409.049661	8490.143269
409.430560	8758.164615
409.811399	8584.244808
410.192176	8776.648846
410.572891	8707.753077
410.953545	8912.760000
411.334138	8626.254423
411.714669	8885.873846
412.095139	8526.271538
412.475547	8784.210577
412.855894	8701.031538
413.236180	8746.401923
413.616405	8669.944423
413.996568	8843.024038
414.376670	8790.932115
414.756711	8632.135769
415.136691	8794.292885
415.516609	8905.198269
415.896466	8920.321731
416.276262	9048.030962
416.655997	9247.156538
417.035670	9253.878077
417.415283	9576.511923
417.794834	9754.632692
418.174324	9561.388462
418.553753	9363.103077
418.933121	9703.380962
419.312428	9648.768462
419.691674	9531.141538
420.070859	9721.865192
420.449983	9531.981731
420.829045	9817.647115
421.208047	9669.773269
421.586988	9947.036731
421.965867	10007.530577
422.344686	9998.288462
422.723444	10152.883846
423.102141	9522.739615
423.480777	10091.549808
423.859352	9763.874808
424.237866	10445.270769
424.616319	10182.290577
424.994712	10599.866154
425.373044	10440.229615
425.751314	10707.410769
426.129524	10414.183654
426.507673	10857.805192
426.885762	10590.624038
427.263789	10725.895000
427.641756	10674.643269
428.019662	10743.539038
428.397508	10834.279808
428.775292	10887.211923
429.153016	10855.284615
429.530679	10846.042500
429.908282	10891.412885
430.285824	10714.972500
430.663305	11090.538462
431.040726	10777.986923
431.418086	10749.420385
431.795385	11095.579615
432.172624	11322.431538
432.549802	11007.359423
432.926920	11148.511731
433.303977	11001.478077
433.680974	11040.967115
434.057910	11114.063846
434.434786	11214.886923
434.811601	11159.434231
435.188355	11747.568846
435.565050	11391.327308
435.941683	11456.022115
436.318257	11793.779423
436.694770	11814.784231
437.071222	11929.050385
437.447614	11640.024231
437.823946	11555.164808
438.200218	11732.445385
438.576429	11493.830769
438.952580	11673.631923
439.328670	11576.169615
439.704700	11740.847308
440.080670	11536.680577
440.456580	11753.450192
440.832429	11913.926923
441.208218	11317.390385
441.583947	11523.237500
441.959616	11588.772500
442.335224	11650.106538
442.710773	11736.646346
443.086261	11861.835000
443.461689	11634.142885
443.837057	11619.019423
444.212365	12073.563462
444.587612	11897.123077
444.962800	11803.861731
445.337927	11818.145000
445.712995	11372.843077
446.088002	12120.614231
446.462949	12111.372115
446.837837	12230.679423
447.212664	12384.434615
447.587431	13151.530192
447.962139	14517.682885
448.336786	15639.339615
448.711374	15639.339615
449.085901	14111.029808
449.460369	13841.328077
449.834776	13477.524808
450.209124	14219.414615
450.583412	14410.138269
450.957640	14815.110962
451.331808	14288.310385
451.705917	13473.323846
452.079965	13438.875962
452.453954	13437.195577
452.827883	13387.624231
453.201752	13386.784038
453.575562	13321.249038
453.949311	13759.829423
454.323001	13669.928846
454.696632	13537.178462
455.070202	14347.123846
455.443713	14302.593654
455.817164	14665.556731
456.190556	14889.047885
456.563888	14726.050577
456.937160	14832.755000
457.310373	14316.036731
457.683526	14336.201346
458.056619	14409.298077
458.429653	14382.411923
458.802628	14461.390000
459.175542	14415.179423
459.548398	15052.045192
459.921194	15667.906154
460.293930	15942.649038
460.666607	16933.235769
461.039224	17779.309423
461.411782	18263.260192
461.784280	17896.936346
462.156719	17706.212692
462.529099	17447.433462
462.901419	16891.226154
463.273680	16259.401538
463.645882	16074.559231
464.018024	16025.828077
464.390106	16215.711538
464.762130	17123.959423
465.134094	18648.908462
465.505999	21040.935962
465.877845	23781.643269
466.249631	24909.181346
466.621358	24449.596154
466.993026	23674.938846
467.364634	22643.182692
467.736184	21603.024615
468.107674	20871.217115
468.479105	20520.016731
468.850477	20299.046154
469.221790	19678.984231
469.593043	18668.232885
469.964238	18242.255385
470.335373	18316.192308
470.706449	18769.896154
471.077467	19302.578077
471.448425	21444.228269
471.819324	23422.040962
472.190164	23534.626731
472.560945	22020.600192
472.931667	20362.900769
473.302330	19663.020577
473.672934	18959.779615
474.043479	19155.544423
474.413965	18637.145769
474.784393	18620.341923
475.154761	19057.241923
475.525070	19121.096538
475.895321	18923.651346
476.265513	19341.226923
476.635645	19623.531538
477.005719	19637.814808
477.375734	19697.468462
477.745691	20108.322500
478.115588	20659.488654
478.485427	21514.804423
478.855207	22896.920769
479.224928	24401.705192
479.594591	25672.916154
479.964194	25449.425000
480.333739	25654.431923
480.703226	25794.744038
481.072653	25881.283846
481.442022	26033.358654
481.811333	26561.839615
482.180584	26239.205769
482.549777	25881.283846
482.918912	25485.553269
483.287988	25642.669231
483.657005	25211.650577
484.025964	24804.157308
484.394864	25006.643654
484.763706	24662.164808
485.132489	24174.853269
485.501213	24026.979423
485.869879	24239.548077
486.238487	23837.095962
486.607036	24216.022692
486.975527	23990.851154
487.343959	24045.463654
487.712333	24182.415000
488.080648	24146.286731
488.448905	24573.944615
488.817104	24316.845769
489.185244	24978.077115
489.553326	25484.713077
489.921350	26834.061923
490.289315	28715.252500
490.657222	29341.195769
491.025070	30110.811923
491.392861	29778.935962
491.760593	28899.254615
492.128267	28598.465769
492.495883	27479.329615
492.863440	26796.253269
493.230939	26029.157692
493.598380	25366.245962
493.965763	25400.693846
494.333088	24855.409038
494.700354	24575.625000
495.067563	24482.363654
495.434713	24589.908269
495.801805	24521.012500
496.168839	24473.121538
496.535815	24335.330000
496.902733	24317.685962
497.269593	24109.318269
497.636395	24089.153654
498.003139	24415.148269
498.369825	24231.986346
498.736453	24231.986346
499.103023	24043.783269
499.469535	24102.596731
499.835989	24253.831346
500.202385	24097.555577
500.568723	24194.177692
500.935003	24224.424615
501.301226	23926.156346
501.667390	24513.450769
502.033497	24659.644231
502.399546	24431.111923
502.765537	24375.659231
503.131470	24691.571538
503.497345	24719.297885
503.863163	24007.655000
504.228923	24473.121538
504.594625	24747.024231
504.960269	24408.426731
505.325856	24511.770385
505.691385	24454.637308
506.056856	24563.022115
506.422270	24764.668269
506.787625	24472.281346
507.152924	24514.290962
507.518164	24589.908269
507.883347	24237.027500
508.248472	24344.572115
508.613540	24740.302692
508.978550	24868.011923
509.343503	24831.883654
509.708398	24894.057885
510.073236	25258.701346
510.438016	25276.345385
510.802738	24934.387115
511.167403	25223.413269
511.532010	25246.098462
511.896561	25554.449038
512.261053	26255.169423
512.625488	25798.945000
512.989866	25761.976538
513.354186	25614.942885
513.718449	25626.705577
514.082655	26072.007500
514.446803	25837.593846
514.810894	26143.423846
515.174927	26098.893654
515.538904	25902.288654
515.902822	26369.435577
516.266684	26134.181731
516.630488	26281.215385
516.994235	26271.133077
517.357925	26398.002115
517.721558	26345.070000
518.085133	26624.013846
518.448651	26506.386923
518.812112	26261.890962
519.175516	26550.917115
519.538863	26717.275192
519.902152	26673.585192
520.265385	26631.575577
520.628560	26638.297115
520.991678	26911.359615
521.354739	26794.572885
521.717743	26948.328077
522.080690	26867.669615
522.443580	27013.863077
522.806413	27356.661538
523.169189	27155.855577
523.531908	26896.236154
523.894569	26993.698462
524.257174	27204.586731
524.619722	27205.426923
524.982213	27101.243077
525.344647	27273.482500
525.707025	27128.969423
526.069345	27288.605962
526.431608	27198.705385
526.793815	27309.610769
527.155964	27129.809615
527.518057	27155.015385
527.880093	27016.383654
528.242072	27218.029808
528.603995	27144.092885
528.965860	27007.141538
529.327669	26950.848654
529.689421	26855.906923
530.051117	26917.240962
530.412755	26950.008462
530.774337	26925.642885
531.135862	26795.413077
531.497331	26979.415192
531.858743	26742.480962
532.220098	27014.703269
532.581396	26856.747115
532.942638	26601.328654
533.303824	26658.461731
533.664953	26539.994615
534.026025	26430.769615
534.387040	26592.086538
534.747999	26674.425385
535.108902	26508.067308
535.469748	26512.268269
535.830537	26340.028846
536.191270	26595.447308
536.551947	26329.946538
536.912567	26437.491154
537.273131	26572.762115
537.633638	26114.857308
537.994089	26277.854615
538.354483	25980.426538
538.714821	26287.936923
539.075103	26287.936923
539.435328	26348.430769
539.795497	26240.045962
540.155609	26429.089231
540.515665	26389.600192
540.875665	26184.593269
541.235609	26137.542500
541.595496	26387.079615
541.955328	26533.273077
542.315102	26316.503462
542.674821	26097.213269
543.034483	26182.912885
543.394090	26141.743462
543.753640	26142.583654
544.113134	26697.110577
544.472571	25997.230385
544.831953	26645.018654
545.191278	26214.000000
545.550548	26068.646731
545.909761	26156.026731
546.268918	26301.380000
546.628019	26355.992500
546.987064	26139.222885
547.346053	25764.497115
547.704986	26242.566538
548.063863	25919.092500
548.422684	26143.423846
548.781449	25739.291346
549.140158	25985.467692
549.498811	26059.404615
549.857408	25477.991538
550.215949	26262.731154
550.574434	26150.145385
550.932864	25945.138462
551.291237	26100.574038
551.649555	25981.266731
552.007817	25982.947115
552.366022	25956.060962
552.724173	25987.988269
553.082267	26341.709231
553.440305	26388.760000
553.798288	26058.564423
554.156215	26265.251731
554.514086	26379.517885
554.871902	25996.390192
555.229661	26047.641923
555.587365	25864.480000
555.945014	26171.150192
556.302606	25982.106923
556.660143	26049.322308
557.017625	26298.019231
557.375050	26006.472500
557.732421	26353.471923
558.089735	26246.767500
558.446994	26228.283269
558.804197	26535.793654
559.161345	26296.338846
559.518437	25893.046538
559.875474	26140.063077
560.232455	26171.150192
560.589381	26332.467115
560.946251	26059.404615
561.303065	26230.803846
561.659825	26376.157115
562.016528	26264.411538
562.373177	25921.613077
562.729770	26129.140577
563.086307	25960.261923
563.442789	26187.113846
563.799216	26159.387500
564.155587	26144.264038
564.511904	26176.191346
564.868164	26111.496538
565.224370	26284.576154
565.580520	26307.261346
565.936615	26175.351154
566.292654	26073.687885
566.648638	26319.864231
567.004567	26308.101538
567.360441	26427.408846
567.716260	25787.182308
568.072023	26296.338846
568.427732	26240.886154
568.783385	26112.336731
569.138982	26281.215385
569.494525	26275.334038
569.850013	26167.789423
570.205445	25972.864808
570.560823	26282.055577
570.916145	25947.659038
571.271412	25996.390192
571.626625	25873.722115
571.981782	25911.530769
572.336884	25876.242692
572.691931	25755.255000
573.046923	25746.853077
573.401860	25754.414808
573.756743	25470.429808
574.111570	25706.523846
574.466342	25588.896923
574.821059	25784.661731
575.175722	25489.754231
575.530330	25388.090962
575.884882	25403.214423
576.239380	25277.185577
576.593823	25276.345385
576.948211	25114.188269
577.302544	24930.186154
577.656823	24848.687500
578.011047	25086.461923
578.365216	24994.880962
578.719330	24815.079808
579.073389	24786.513269
579.427394	24806.677885
579.781344	24699.973462
580.135239	24587.387692
580.489080	24479.843077
580.842866	24263.913654
581.196597	24558.821154
581.550273	24503.368462
581.903895	24361.375962
582.257463	24864.651154
582.610975	24436.993269
582.964434	24536.135962
583.317837	24424.390385
583.671186	24326.087885
584.024481	24501.688077
584.377721	24088.313462
584.730906	24386.581731
585.084037	24209.301154
585.437113	24066.468462
585.790135	24132.003462
586.143103	23906.831923
586.496016	23979.928654
586.848874	24162.250385
587.201679	24203.419808
587.554428	23837.936154
587.907124	23948.841538
588.259765	23750.556154
588.612352	23926.996538
588.964884	23615.285192
589.317362	23838.776346
589.669786	23536.307115
590.022155	23674.098654
590.374470	24046.303846
590.726731	23689.222115
591.078937	23418.680192
591.431090	23415.319423
591.783188	23056.557308
592.135232	23022.109423
592.487222	23217.034038
592.839157	23211.992885
593.191038	23000.264423
593.542866	22982.620385
593.894639	22573.446731
594.246358	22757.448846
594.598022	23006.985962
594.949633	22463.381538
595.301190	22624.698462
595.652692	22393.645577
596.004141	22567.565385
596.355535	21933.220192
596.706876	22055.048077
597.058162	21996.234615
597.409395	22048.326538
597.760573	22301.224423
598.111698	22006.316923
598.462768	21995.394423
598.813785	22111.340962
599.164748	21848.360769
599.515657	22016.399231
599.866511	21644.194038
600.217312	22023.960962
600.568060	21340.884615
600.918753	21736.615192
601.269392	21848.360769
601.619978	21486.237885
601.970510	21683.683077
602.320988	21833.237308
602.671412	22018.079615
603.021783	21568.576731
603.372100	21519.845577
603.722363	21560.174808
604.072572	21475.315385
604.422728	21517.325000
604.772830	21538.329808
605.122878	21535.809231
605.472872	21495.480000
605.822813	21518.165192
606.172701	21488.758462
606.522534	21494.639808
606.872314	21654.276346
607.222041	21463.552692
607.571714	21671.080192
607.921333	21374.492308
608.270899	21382.054038
608.620411	21558.494423
608.969870	21507.242692
609.319276	21525.726923
609.668627	21628.230385
610.017926	21506.402500
610.367171	21893.731154
610.716362	21823.155000
611.065500	21792.908077
611.414585	21592.942308
611.763616	21794.588462
612.112594	21717.290769
612.461518	21832.397115
612.810389	21971.869038
613.159207	21921.457500
613.507971	21765.181731
613.856682	21950.024038
614.205340	21957.585769
614.553945	22133.185962
614.902496	22022.280577
615.250994	22029.002115
615.599439	22147.469231
615.947830	22065.130385
616.296169	22106.299808
616.644454	22237.369808
616.992686	22298.703846
617.340864	22328.950769
617.688990	22233.168846
618.037063	22516.313654
618.385082	22427.253269
618.733048	22559.163462
619.080961	22554.962500
619.428821	22660.826731
619.776628	22717.959808
620.124382	22649.904231
620.472083	22510.432308
620.819731	22698.635385
621.167326	22420.531731
621.514868	22393.645577
621.862357	22125.624231
622.209793	22052.527500
622.557176	21845.840192
622.904506	21845.000000
623.251783	21550.932692
623.599007	21475.315385
623.946179	21281.230962
624.293297	21382.894231
624.640363	20953.555962
624.987376	20914.066923
625.334336	20598.154615
625.681243	20499.011923
626.028097	20440.198462
626.374899	20286.443269
626.721647	20249.474808
627.068343	20313.329423
627.414987	20109.162692
627.761577	20105.801923
628.108115	20167.976154
628.454600	19885.671538
628.801032	20010.020000
629.147412	20036.906154
629.493739	19861.305962
629.840014	19711.751731
630.186236	19822.657115
630.532405	19718.473269
630.878521	19784.848462
631.224585	19425.246154
631.570597	19435.328462
631.916556	19437.849038
632.262462	19544.553462
632.608316	19457.173462
632.954117	19683.185192
633.299866	19475.657692
633.645562	19493.301731
633.991206	19223.600000
634.336797	19055.561538
634.682336	19052.200769
635.027823	18635.465385
635.373257	18811.905769
635.718639	18556.487308
636.063968	18441.380962
636.409245	18204.446731
636.754470	18159.076346
637.099642	18233.853462
637.444762	17692.769615
637.789829	17620.513077
638.134845	17488.602885
638.479808	17627.234615
638.824719	17553.297692
639.169577	17536.493846
639.514383	17343.249615
639.859137	17154.206346
640.203839	17407.944423
640.548489	17127.320192
640.893086	17192.855192
641.237632	17049.182308
641.582125	17050.862692
641.926566	17076.908654
642.270955	16960.121923
642.615292	16952.560192
642.959576	16972.724808
643.303809	16784.521731
643.647990	16968.523846
643.992118	16931.555385
644.336195	16881.143846
644.680219	16874.422308
645.024192	16916.431923
645.368112	17126.480000
645.711981	16918.112308
646.055797	17342.409423
646.399562	17379.377885
646.743274	17759.985000
647.086935	17912.059808
647.430544	17770.067308
647.774101	17897.776538
648.117606	17830.561154
648.461059	18189.323269
648.804460	17986.836923
649.147810	17635.636538
649.491108	17584.384808
649.834354	17611.270962
650.177548	17171.850385
650.520690	17085.310577
650.863781	17181.932692
651.206820	16834.093077
651.549807	16793.763846
651.892742	16580.355000
652.235626	16458.527115
652.578458	16440.042885
652.921238	16140.934423
653.263967	16219.912500
653.606644	16000.622308
653.949269	15901.479615
654.291843	16114.048269
654.634365	16019.946731
654.976836	16114.888462
655.319255	15739.322500
655.661622	15788.893846
656.003938	15772.090000
656.346203	15828.382885
656.688416	15988.019423
657.030577	15645.220962
657.372687	15597.330000
657.714746	15680.509038
658.056753	15868.712115
658.398708	15508.269615
658.740612	15572.964423
659.082465	15701.513846
659.424266	15725.879423
659.766016	15528.434231
660.107715	15429.291538
660.449362	15644.380769
660.790958	15557.840962
661.132503	15530.114615
661.473996	15637.659231
661.815438	15532.635192
662.156829	15691.431538
662.498168	15488.945192
662.839456	15525.913654
663.180693	15629.257308
663.521879	15685.550192
663.863013	15509.109808
664.204097	15630.937692
664.545129	15704.874615
664.886110	15551.959615
665.227040	15762.847885
665.567918	15700.673654
665.908746	15788.053654
666.249522	15843.506346
666.590248	15810.738846
666.930922	15995.581154
667.271545	16000.622308
667.612118	15952.731346
667.952639	15805.697692
668.293109	15726.719615
668.633528	15809.898654
668.973896	15850.227885
669.314213	15821.661346
669.654480	15623.375962
669.994695	15827.542692
670.334859	15611.613269
670.674973	15588.087885
671.015035	15593.129038
671.355047	15598.170192
671.695008	15578.005577
672.034918	15436.013077
672.374777	15479.703077
672.714585	15646.061154
673.054342	15740.162692
673.394049	15513.310769
673.733705	15579.685962
674.073310	15509.950000
674.412864	15688.070769
674.752368	15456.177692
675.091820	15504.908846
675.431223	15378.039808
675.770574	15220.083654
676.109875	15300.742115
676.449125	15217.563077
676.788324	15219.243462
677.127473	14779.822885
677.466571	14842.837308
677.805619	14729.411346
678.144616	14742.854423
678.483562	14693.283077
678.822458	14455.508654
679.161303	14616.825577
679.500098	14436.184231
679.838842	14370.649231
680.177535	14550.450385
680.516179	14547.929808
680.854771	14714.287885
681.193314	14799.147308
681.531805	15213.362115
681.870247	15527.594038
682.208638	15686.390385
682.546978	15759.487115
682.885268	15864.511154
683.223508	15790.574231
683.561697	15753.605769
683.899836	15639.339615
684.237925	15402.405385
684.575963	15339.390962
684.913951	15186.475962
685.251889	15325.107692
685.589776	15346.112500
685.927614	15394.843654
686.265401	15374.679038
686.603137	15404.925962
686.940824	15525.913654
687.278460	15893.077692
687.616046	15854.428846
687.953582	16101.445385
688.291068	15987.179231
688.628504	16344.260962
688.965889	16213.190962
689.303224	16152.697115
689.640510	16103.965962
689.977745	15761.167500
690.314930	15488.105000
690.652065	15258.732500
690.989150	15059.606923
691.326185	14791.585577
691.663170	14396.695192
692.000105	14325.278846
692.336990	13950.553077
692.673825	13880.817115
693.010610	13682.531731
693.347345	13427.113269
693.684030	13286.801154
694.020665	13196.900577
694.357251	12929.719423
694.693786	12927.198846
695.030272	12686.903846
695.366707	12601.204231
695.703093	12331.502500
696.039429	12456.691154
696.375716	12293.693846
696.711952	12438.206923
697.048139	12230.679423
697.384276	12289.492885
697.720363	12164.304231
698.056400	12234.040192
698.392388	12165.984615
698.728326	12080.285000
699.064214	12102.970192
699.400053	12116.413269
699.735842	12031.553846
700.071581	11906.365192
700.407270	11769.413846
700.742910	11692.116154
701.078501	11559.365769
701.414042	11472.825962
701.749533	11414.012500
702.084974	11251.015192
702.420366	11293.865000
702.755709	11230.010385
703.091002	11122.465769
703.426246	11019.122115
703.761440	11106.502115
704.096584	10898.974615
704.431679	10892.253077
704.766725	10939.303846
705.101721	10837.640577
705.436668	10894.773654
705.771565	10835.120000
706.106413	10876.289423
706.441212	10854.444423
706.775961	10927.541154
707.110661	10945.185192
707.445311	11034.245577
707.779913	10961.148846
708.114465	11027.524038
708.448967	11151.032308
708.783421	11495.511154
709.117825	11614.818462
709.452180	11566.087308
709.786485	11779.496154
710.120742	12093.728077
710.454949	12093.728077
710.789107	12399.558077
711.123216	12680.182308
711.457275	12783.525962
711.791286	13059.949231
712.125247	12962.486923
712.459159	13021.300385
712.793023	13229.668077
713.126837	12993.574038
713.460602	13112.881346
713.794318	13102.799038
714.127985	12820.494423
714.461602	12427.284423
714.795171	12430.645192
715.128691	12040.795962
715.462162	11886.200577
715.795584	11695.476923
716.128957	11560.205962
716.462281	11470.305385
716.795556	11314.869808
717.128782	11303.107115
717.461960	11005.679038
717.795088	11012.400577
718.128167	10852.764038
718.461198	10635.994423
718.794180	10685.565769
719.127113	10528.449808
719.459997	10425.946346
719.792833	10294.036154
720.125619	10269.670577
720.458357	10314.200769
720.791046	10082.307692
721.123686	10146.162308
721.456278	10098.271346
721.788821	10062.983269
722.121315	9985.685577
722.453761	9945.356346
722.786158	9908.387885
723.118506	9828.569615
723.450805	9831.090192
723.783056	10040.298077
724.115259	9983.165000
724.447412	9884.862500
724.779518	9909.228077
725.111574	10081.467500
725.443582	10115.075192
725.775542	10110.034038
726.107453	10374.694615
726.439315	10178.929808
726.771129	10388.977885
727.102895	10624.231731
727.434612	10721.694038
727.766281	10764.543846
728.097901	10859.485577
728.429473	10996.436923
728.760996	10981.313462
729.092471	10996.436923
729.423897	11019.962308
729.755276	10793.950577
730.086606	11010.720192
730.417887	11151.032308
730.749120	11293.024808
731.080305	11431.656538
731.411442	11639.184038
731.742530	11608.937115
732.073570	11692.956346
732.404562	11924.009231
732.735506	11847.551731
733.066401	11727.404231
733.397249	11619.859615
733.728048	11378.724423
734.058798	11057.770962
734.389501	10825.037692
734.720156	10630.953269
735.050762	10364.612308
735.381320	10271.350962
735.711831	10131.038846
736.042293	9980.644423
736.372707	9931.073077
736.703073	9767.235577
737.033391	9941.155385
737.363661	9884.022308
737.693883	10049.540192
738.024056	10031.055962
738.354182	10178.089615
738.684260	10245.305000
739.014290	10407.462115
739.344272	10500.723462
739.674207	10672.122692
740.004093	10689.766731
740.333931	10830.078846
740.663722	10740.178269
740.993464	10777.146731
741.323159	10746.059615
741.652806	10713.292115
741.982405	10725.054808
742.311956	10401.580769
742.641460	10324.283077
742.970915	10334.365385
743.300323	10176.409231
743.629683	10144.481923
743.958996	9927.712308
744.288260	9737.828846
744.617477	9700.020192
744.946647	9585.754038
745.275768	9502.575000
745.604842	9399.231346
745.933869	9420.236154
746.262847	9347.139423
746.591778	9407.633269
746.920662	9335.376731
747.249498	9332.015962
747.578286	9286.645577
747.907027	9406.793077
748.235720	9565.589423
748.564365	9585.754038
748.892963	9535.342500
749.221514	9651.289038
749.550017	9537.022885
749.878473	9499.214231
750.206881	9468.967308
750.535242	9414.354808
750.863555	9355.541346
751.191821	9226.151731
751.520039	9357.221731
751.848210	9274.042692
752.176334	9376.546154
752.504411	9337.057115
752.832440	9335.376731
753.160421	9312.691538
753.488356	9146.333462
753.816243	9224.471346
754.144082	9257.238846
754.471875	9000.980192
754.799620	9121.967885
755.127318	9016.943846
755.454969	9027.866346
755.782572	9148.854038
756.110129	9040.469231
756.437638	9091.720962
756.765100	9127.009038
757.092515	9203.466538
757.419882	9072.396538
757.747203	9058.113269
758.074477	9221.950769
758.401703	9186.662692
758.728882	9291.686731
759.056014	9336.216923
759.383099	9386.628462
759.710138	9328.655192
760.037129	9539.543462
760.364073	9525.260192
760.690970	9500.894615
761.017820	9525.260192
761.344623	9513.497500
761.671379	9793.281538
761.998088	9856.295962
762.324751	10323.442885
762.651366	11462.743654
762.977935	13285.960962
763.304456	14742.854423
763.630931	15470.460962
763.957359	15361.235962
764.283740	14564.733654
764.610074	13716.979615
764.936362	12743.196731
765.262602	11775.295192
765.588796	10938.463654
765.914943	10467.955962
766.241044	9915.109423
766.567097	9609.279423
766.893104	9113.565962
767.219064	8925.362885
767.544978	8617.012308
767.870845	8532.993077
768.196665	8292.698077
768.522438	8263.291346
768.848165	8231.364038
769.173846	8068.366731
769.499479	8017.955192
769.825066	7980.146538
770.150607	7794.464038
770.476101	7890.245962
770.801548	7691.960577
771.126949	7775.979808
771.452303	7544.086731
771.777611	7516.360385
772.102872	7493.675192
772.428087	7411.336346
772.753256	7440.743077
773.078378	7357.564038
773.403453	7335.719038
773.728482	7224.813654
774.053465	7152.557115
774.378401	7102.145577
774.703291	7163.479615
775.028135	7003.843077
775.352932	6966.874615
775.677683	6931.586538
776.002388	6903.020000
776.327046	6904.700385
776.651658	6905.540577
776.976224	6827.402692
777.300743	6900.499423
777.625216	6792.954808
777.949643	6755.146154
778.274024	6821.521346
778.598359	6713.976731
778.922647	6758.506923
779.246889	6786.233269
779.571086	6673.647500
779.895236	6656.843654
780.219339	6739.182500
780.543397	6727.419808
780.867409	6827.402692
781.191374	6797.995962
781.515294	6774.470577
781.839167	6832.443846
782.162995	6844.206538
782.486776	6738.342308
782.810511	6739.182500
783.134201	6640.039808
783.457844	6838.325192
783.781441	6714.816923
784.104993	6660.204423
784.428498	6687.930769
784.751958	6774.470577
785.075372	6663.565192
785.398739	6621.555577
785.722061	6677.008269
786.045337	6648.441731
786.368568	6769.429423
786.691752	6663.565192
787.014891	6894.618077
787.337983	6949.230577
787.661030	7229.854808
787.984031	7625.585385
788.306987	7861.679423
788.629897	7865.040192
788.952760	7918.812500
789.275579	7838.994231
789.598351	7654.151923
789.921078	7551.648462
790.243759	7257.581154
790.566395	7218.932308
790.888984	7029.048846
791.211529	6982.838269
791.534027	6879.494615
791.856480	6746.744231
792.178888	6777.831346
792.501249	6671.126923
792.823566	6633.318269
793.145836	6633.318269
793.468062	6599.710577
793.790241	6562.742115
794.112375	6551.819615
794.434464	6685.410192
794.756507	6708.935577
795.078505	6740.862885
795.400457	6892.097500
795.722364	6966.034423
796.044226	7225.653846
796.366042	7380.249231
796.687812	7254.220385
797.009538	7410.496154
797.331218	7305.472115
797.652852	7268.503654
797.974442	7160.959038
798.295986	7084.501538
798.617484	6897.138654
798.938938	7038.290962
799.260346	6971.075577
799.581709	6920.664038
799.903026	6892.937692
800.224299	6784.552885
800.545526	6703.054231
800.866708	6643.400577
801.187845	6657.683846
801.508936	6571.144038
801.829983	6584.587115
802.150984	6526.613846
802.471940	6468.640577
802.792851	6477.042500
803.113717	6333.369615
803.434538	6333.369615
803.755314	6346.812692
804.076045	6393.023269
804.396731	6341.771538
804.717372	6276.236538
805.037967	6366.977308
805.358518	6340.091154
805.679024	6498.887500
805.999485	6472.001346
806.319901	6432.512308
806.640272	6429.991731
806.960598	6595.509615
807.280879	6475.362115
807.601115	6543.417692
807.921306	6489.645385
808.241453	6543.417692
808.561554	6493.006154
808.881611	6487.124808
809.201623	6547.618654
809.521590	6456.877885
809.841513	6384.621346
810.161390	6508.969808
810.481223	6435.873077
810.801011	6514.851154
811.120755	6454.357308
811.440453	6396.384038
811.760107	6347.652885
812.079716	6366.977308
812.399281	6265.314038
812.718801	6326.648077
813.038276	6348.493077
813.357707	6206.500577
813.677093	6260.272885
813.996434	6210.701538
814.315731	6215.742692
814.634983	6235.907308
814.954191	6277.076731
815.273354	6308.163846
815.592473	6325.807885
815.911547	6405.626154
816.230577	6397.224231
816.549562	6514.851154
816.868502	6564.422500
817.187399	6567.783269
817.506250	6724.899231
817.825058	6718.177692
818.143821	6872.773077
818.462539	6929.906154
818.781213	7118.109231
819.099843	7256.740962
819.418429	7930.575192
819.736970	8415.366154
820.055466	8958.970577
820.373919	9800.843269
820.692327	10737.657692
821.010691	12358.388654
821.329011	16508.098462
821.647286	24607.552308
821.965517	36062.734231
822.283704	44295.778654
822.601847	48833.657308
822.919945	45005.741154
823.237999	40094.817115
823.556010	34419.318077
823.873976	29527.718462
824.191897	25140.234231
824.509775	21859.283269
824.827609	19030.355769
825.145398	17076.068462
825.463144	15860.310192
825.780845	15759.487115
826.098502	16108.166923
826.416116	18161.596923
826.733685	20330.133269
827.051210	21692.925192
827.368692	21450.949808
827.686129	19573.960192
828.003522	16987.848269
828.320872	14652.953846
828.638177	12840.659038
828.955439	11596.334231
829.272656	10515.846923
829.589830	9698.339808
829.906960	8916.960962
830.224046	8298.579423
830.541088	7870.081346
830.858086	7597.859038
831.175041	7324.796538
831.491952	7195.406923
831.808819	7233.215577
832.125642	7372.687500
832.442421	7666.754808
832.759157	8366.635000
833.075849	9866.378269
833.392497	11729.084615
833.709101	13279.239423
834.025662	13757.308846
834.342179	13048.186538
834.658653	11679.513269
834.975083	10572.139808
835.291469	9653.809615
835.607811	8876.631731
835.924110	8240.606154
836.240366	7715.485962
836.556578	7263.462500
836.872746	6921.504231
837.188871	6577.025385
837.504952	6342.611731
837.820990	6140.965577
838.136984	5990.571154
838.452935	5921.675385
838.768842	5848.578654
839.084706	5993.931923
839.400526	6511.490385
839.716303	7430.660769
840.032037	8320.424423
840.347727	8485.942308
840.663373	8183.473077
840.978977	7467.629231
841.294537	6999.642115
841.610054	6490.485577
841.925527	6173.733077
842.240957	6025.019038
842.556344	5784.724038
842.871687	5575.516154
843.186987	5456.208846
843.502244	5305.814423
843.817458	5255.402885
844.132629	5148.698462
844.447756	5144.497500
844.762840	5061.318462
845.077881	4952.933654
845.392879	4921.846538
845.707833	4902.522115
846.022745	4848.749808
846.337613	4771.452115
846.652438	4814.301923
846.967221	4807.580385
847.281960	4741.205192
847.596656	4709.277885
847.911309	4785.735385
848.225919	4747.086538
848.540485	4773.972692
848.855009	4731.122885
849.169490	4719.360192
849.483928	4663.907500
849.798323	4721.040577
850.112675	4616.016538
850.426984	4631.980192
850.741251	4605.934231
851.055474	4635.340962
851.369654	4754.648269
851.683792	4666.428077
851.997887	4639.541923
852.311938	4600.893077
852.625947	4589.130385
852.939914	4611.815577
853.253837	4553.842308
853.567718	4605.934231
853.881555	4641.222308
854.195350	4645.423269
854.509103	4609.295000
854.822812	4630.299808
855.136479	4641.222308
855.450103	4579.048077
855.763685	4647.943846
856.077224	4659.706538
856.390720	4694.994615
856.704173	4657.185962
857.017584	4577.367692
857.330953	4640.382115
857.644278	4599.212692
857.957561	4624.418462
858.270802	4721.040577
858.584000	4710.958269
858.897155	4590.810769
859.210268	4629.459615
859.523339	4561.404038
859.836367	4597.532308
860.149352	4581.568654
860.462295	4561.404038
860.775195	4550.481538
861.088054	4579.048077
861.400869	4553.002115
861.713642	4575.687308
862.026373	4574.006923
862.339062	4475.704423
862.651708	4565.605000
862.964312	4561.404038
863.276873	4579.888269
863.589392	4577.367692
863.901869	4628.619423
864.214303	4720.200385
864.526696	4708.437692
864.839045	4736.164038
865.151353	4789.936346
865.463619	4726.921923
865.775842	4749.607115
866.088023	4792.456923
866.400162	4793.297115
866.712258	4679.030962
867.024313	4839.507692
867.336325	4734.483654
867.648296	4815.142115
867.960224	4795.817692
868.272110	4789.936346
868.583954	4798.338269
868.895755	4771.452115
869.207515	4685.752500
869.519233	4796.657885
869.830909	4852.950769
870.142542	4758.009038
870.454134	4884.037885
870.765684	4862.192885
871.077191	4913.444615
871.388657	4840.347885
871.700081	4974.778654
872.011463	4945.371923
872.322803	4979.819808
872.634101	5031.911731
872.945357	4943.691538
873.256571	5049.555769
873.567744	5109.209423
873.878874	5117.611346
874.189963	5067.199808
874.501010	5131.054423
874.812015	5060.478269
875.122979	5114.250577
875.433900	5104.168269
875.744780	5152.059231
876.055618	5142.817115
876.366415	5156.260192
876.677169	5247.841154
876.987882	5208.352115
877.298554	5231.877500
877.609183	5320.097692
877.919771	5310.015385
878.230317	5446.966731
878.540822	5626.767885
878.851285	5846.898269
879.161707	6098.955962
879.472087	6661.884808
879.782425	7258.421346
880.092722	8724.556923
880.402977	11034.245577
880.713191	14780.663077
881.023363	19563.037692
881.333494	22919.605962
881.643583	24605.031731
881.953631	24050.504808
882.263637	22761.649808
882.573602	21019.931154
882.883526	19017.752885
883.193408	17468.438269
883.503248	15946.009808
883.813048	14631.949038
884.122806	13287.641346
884.432522	12101.289808
884.742197	10949.386154
885.051831	9997.448269
885.361424	9005.181154
885.670975	8412.005385
885.980485	7710.444808
886.289954	7402.934423
886.599382	6954.271731
886.908768	6575.345000
887.218113	6255.231731
887.527417	6106.517692
887.836680	5865.382500
888.145901	5638.530577
888.455082	5572.155385
888.764221	5488.136154
889.073319	5356.225962
889.382376	5325.138846
889.691392	5272.206731
890.000366	5273.887115
890.309300	5242.800000
890.618193	5243.640192
890.927044	5142.817115
891.235855	5171.383654
891.544625	5261.284231
891.853353	5263.804808
892.162041	5388.993462
892.470687	5450.327500
892.779293	5566.274038
893.087858	5877.985385
893.396381	6318.246154
893.704864	6805.557692
894.013306	7656.672500
894.321707	8707.753077
894.630068	9462.245769
894.938387	9772.276731
895.246665	9711.782885
895.554903	9336.216923
895.863100	8713.634423
896.171256	8270.012885
896.479371	7822.190385
896.787446	7354.203269
897.095480	7043.332115
897.403473	6848.407500
897.711425	6540.897115
898.019336	6382.100769
898.327207	6089.713846
898.635038	6009.895577
898.942827	5837.656154
899.250576	5523.424231
899.558284	5416.719808
899.865952	5312.535962
900.173579	5232.717692
900.481165	5136.935769
900.788711	5091.565385
901.096216	5040.313654
901.403681	4976.459038
901.711105	4922.686731
902.018489	4947.052308
902.325832	4973.098269
902.633135	5028.550962
902.940397	5215.073654
903.247619	5658.695192
903.554800	6749.264808
903.861941	8333.867500
904.169041	10025.174615
904.476101	11002.318269
904.783121	11006.519231
905.090100	10309.159615
905.397039	9478.209423
905.703938	8574.162500
906.010796	8063.325577
906.317614	7468.469423
906.624391	7116.428846
906.931129	6665.245577
907.237826	6308.163846
907.544483	6057.786538
907.851099	5735.152692
908.157675	5476.373462
908.464211	5220.955000
908.770707	4906.723077
909.077163	4747.926731
909.383578	4578.207885
909.689954	4560.563846
909.996289	4474.024038
910.302584	4398.406731
910.608839	4358.077500
910.915054	4222.806538
911.221229	4324.469808
911.527363	4298.423846
911.833458	4312.707115
912.139513	4361.438269
912.445527	4350.515769
912.751502	4432.854615
913.057436	4487.467115
913.363331	4594.171538
913.669186	4697.515192
913.975000	4953.773846
914.280775	5273.887115
914.586510	5688.101923
914.892205	6277.076731
915.197859	7202.968654
915.503475	8367.475192
915.809050	9626.923462
916.114585	10373.014231
916.420081	10706.570577
916.725536	10711.611731
917.030952	10309.999808
917.336328	9739.509231
917.641665	9351.340385
917.946961	8832.941731
918.252218	8496.024615
918.557435	7968.383846
918.862612	7670.115577
919.167750	7261.782115
919.472848	6874.453462
919.777906	6599.710577
920.082925	6337.570577
920.387904	5899.830385
920.692843	5696.503846
920.997743	5446.126538
921.302603	5261.284231
921.607423	5099.967308
921.912204	4941.170962
922.216946	4829.425385
922.521647	4673.149615
922.826310	4632.820385
923.130932	4556.362885
923.435516	4404.288077
923.740059	4284.980769
924.044564	4284.980769
924.349028	4185.838077
924.653454	4119.462885
924.957840	4058.969038
925.262186	4028.722115
925.566493	4035.443654
925.870761	3900.172692
926.174989	3874.126731
926.479178	3890.930577
926.783328	3791.787885
927.087438	3791.787885
927.391509	3718.691154
927.695541	3706.928462
927.999533	3684.243269
928.303486	3638.872885
928.607400	3643.073846
928.911275	3635.512115
929.215110	3590.141731
929.518906	3602.744615
929.822663	3557.374231
930.126381	3617.027885
930.430060	3659.037500
930.733699	3634.671923
931.037299	3617.027885
931.340861	3627.950385
931.644383	3626.270000
931.947866	3612.826923
932.251309	3544.771346
932.554714	3661.558077
932.858080	3559.894808
933.161407	3511.163654
933.464694	3560.735000
933.767943	3568.296731
934.071153	3569.136923
934.374323	3555.693846
934.677455	3544.771346
934.980548	3481.756923
935.283602	3517.885192
935.586617	3534.689038
935.889593	3575.018269
936.192530	3519.565577
936.495428	3565.776154
936.798287	3502.761731
937.101108	3530.488077
937.403890	3580.059423
937.706632	3652.315962
938.009336	3717.010769
938.312002	3803.550577
938.614628	3901.853077
938.917216	3918.656923
939.219765	3964.867500
939.522275	3948.903846
939.824747	3991.753654
940.127179	3924.538269
940.429573	3995.114423
940.731929	4022.840769
941.034246	4008.557500
941.336524	3981.671346
941.638763	3969.908654
941.940964	3874.966923
942.243126	3859.003269
942.545250	3822.875000
942.847335	3887.569808
943.149381	3883.368846
943.451389	3739.695962
943.753359	3705.248077
944.055290	3723.732308
944.357182	3628.790577
944.659036	3648.955192
944.960851	3664.078654
945.262628	3596.023077
945.564367	3606.945577
945.866067	3596.863269
946.167729	3643.914038
946.469352	3622.909231
946.770937	3650.635577
947.072484	3543.931154
947.373992	3574.178077
947.675462	3576.698654
947.976893	3590.141731
948.278286	3503.601923
948.579641	3560.735000
948.880958	3533.008654
949.182236	3535.529231
949.483476	3512.003846
949.784678	3453.190385
950.085841	3464.953077
950.386967	3523.766538
950.688054	3474.195192
950.989103	3554.853654
951.290114	3512.003846
951.591087	3523.766538
951.892021	3569.136923
952.192917	3529.647885
952.493776	3655.676731
952.794596	3643.073846
953.095378	3681.722692
953.396122	3685.923654
953.696828	3641.393462
953.997496	3652.315962
954.298126	3590.141731
954.598718	3582.580000
954.899272	3543.090962
955.199788	3491.839231
955.500266	3501.081346
955.800706	3448.989423
956.101108	3368.330962
956.401472	3380.933846
956.701798	3321.280192
957.002087	3319.599808
957.302337	3295.234231
957.602550	3187.689615
957.902724	3232.219808
958.202861	3204.493462
958.502960	3127.195769
958.803022	3159.123077
959.103045	3137.278077
959.403031	3107.871346
959.702979	3091.907692
960.002889	3119.634038
960.302762	3069.222500
960.602596	3053.258846
960.902393	2980.162115
961.202153	2975.120962
961.501875	3013.769808
961.801559	2994.445385
962.101205	2949.075000
962.400814	2973.440577
962.700385	2935.631923
962.999918	2970.920000
963.299414	2959.997500
963.598873	2946.554423
963.898293	2941.513269
964.197677	2932.271154
964.497022	2897.823269
964.796331	2933.111346
965.095601	2904.544808
965.394835	2932.271154
965.694030	2854.133269
965.993189	2873.457692
966.292309	2939.832885
966.591393	2875.138077
966.890439	2919.668269
967.189447	2929.750577
967.488419	2933.111346
967.787353	2916.307500
968.086249	2876.818462
968.385108	2925.549615
968.683930	2935.631923
968.982714	2874.297885
969.281462	2931.430962
969.580172	2875.978269
969.878844	2855.813654
970.177480	2902.024231
970.476078	2928.910385
970.774639	2930.590769
971.073162	2951.595577
971.371649	2948.234808
971.670098	2925.549615
971.968510	2949.075000
972.266885	2926.389808
972.565223	2925.549615
972.863524	2950.755385
973.161788	2938.992692
973.460014	2932.271154
973.758204	2961.677885
974.056356	2915.467308
974.354471	2985.203269
974.652550	2955.796538
974.950591	2957.476923
975.248595	2908.745769
975.546563	2938.992692
975.844493	2945.714231
976.142386	2935.631923
976.440243	2924.709423
976.738062	2886.900769
977.035845	2902.024231
977.333590	2873.457692
977.631299	2910.426154
977.928971	2873.457692
978.226606	2934.791731
978.524204	2893.622308
978.821765	2894.462500
979.119290	2892.782115
979.416777	2813.804038
979.714228	2854.973462
980.011642	2862.535192
980.309020	2860.014615
980.606360	2902.864423
980.903664	2896.983077
981.200931	2967.559231
981.498162	3005.367885
981.795356	3031.413846
982.092513	3121.314423
982.389633	3227.178654
982.686717	3388.495577
982.983764	3483.437308
983.280775	3586.780962
983.577749	3606.945577
983.874686	3574.178077
984.171587	3534.689038
984.468451	3447.309038
984.765279	3439.747308
985.062070	3391.856346
985.358824	3317.079231
985.655543	3282.631346
985.952224	3229.699231
986.248869	3155.762308
986.545478	3101.149808
986.842050	2967.559231
987.138586	2962.518077
987.435086	2890.261538
987.731549	2854.133269
988.027975	2817.164808
988.324366	2760.031731
988.620719	2779.356154
988.917037	2788.598269
989.213318	2722.223077
989.509563	2725.583846
989.805772	2761.712115
990.101944	2733.145577
990.398080	2716.341731
990.694180	2771.794423
990.990244	2734.825962
991.286271	2741.547500
991.582262	2684.414423
991.878217	2740.707308
992.174136	2705.419231
992.470019	2722.223077
992.765865	2743.227885
993.061676	2743.227885
993.357450	2749.949423
993.653188	2760.031731
993.948890	2742.387692
994.244556	2794.479615
994.540186	2833.128462
994.835780	2829.767692
995.131337	2902.024231
995.426859	2904.544808
995.722345	2997.806154
996.017795	2980.162115
996.313208	3080.985192
996.608586	3101.990000
996.903928	3143.999615
997.199234	3139.798654
997.494504	3144.839808
997.789738	3139.798654
998.084936	3065.861731
998.380099	3031.413846
998.675225	3051.578462
998.970316	2975.961154
999.265371	2918.828077
999.560390	2964.198462
999.855373	2870.096923
1000.150320	2828.927500
1000.445232	2794.479615
1000.740108	2762.552308
1001.034948	2757.511154
1001.329752	2761.712115
1001.624521	2739.867115
1001.919254	2750.789615
1002.213951	2721.382885
1002.508613	2750.789615
1002.803239	2689.455577
1003.097829	2665.930192
1003.392384	2675.172308
1003.686903	2672.651731
1003.981386	2717.181923
1004.275834	2623.080385
1004.570246	2623.920577
1004.864623	2656.688077
1005.158964	2626.441154
1005.453270	2623.080385
1005.747540	2566.787500
1006.041775	2639.044038
1006.335974	2645.765577
1006.630138	2599.555000
1006.924266	2580.230577
1007.218359	2637.363654
1007.512416	2648.286154
1007.806438	2606.276538
1008.100425	2591.153077
1008.394376	2597.034423
1008.688292	2647.445962
1008.982172	2602.915769
1009.276017	2607.956923
1009.569827	2600.395192
1009.863602	2597.034423
1010.157341	2639.044038
1010.451045	2636.523462
1010.744714	2640.724423
1011.038347	2602.075577
1011.331945	2598.714808
1011.625508	2602.075577
1011.919036	2597.874615
1012.212528	2641.564615
1012.505986	2658.368462
1012.799408	2589.472692
1013.092795	2572.668846
1013.386147	2603.755962
1013.679464	2543.262115
1013.972745	2570.148269
1014.265992	2562.586538
1014.559204	2500.412308
1014.852380	2582.751154
1015.145521	2559.225769
1015.438628	2595.354038
1015.731699	2604.596154
1016.024736	2593.673654
1016.317737	2614.678462
1016.610703	2658.368462
1016.903635	2569.308077
1017.196531	2555.024808
1017.489393	2595.354038
1017.782219	2586.111923
1018.075011	2593.673654
1018.367768	2609.637308
1018.660490	2618.039231
1018.953177	2618.039231
1019.245829	2618.039231
