Dividing Wavelength (nm)	Counts (n)	Slit_number_3_of_a_total_of_40	
326.493990	2116.444423
326.888308	2116.444423
327.282561	2116.444423
327.676750	2070.233846
328.070874	2027.384038
328.464933	2055.950577
328.858929	2064.352500
329.252859	2064.352500
329.646726	2113.083654
330.040528	2123.165962
330.434265	2129.047308
330.827938	2191.221538
331.221547	2197.943077
331.615091	2186.180385
332.008571	2208.865577
332.401986	2232.390962
332.795338	2213.906731
333.188625	2250.035000
333.581847	2277.761346
333.975006	2303.807308
334.368100	2337.415000
334.761129	2374.383462
335.154095	2332.373846
335.546996	2467.644808
335.939833	2500.412308
336.332606	2581.070769
336.725315	2554.184615
337.117960	2548.303269
337.510540	2572.668846
337.903056	2598.714808
338.295508	2575.189423
338.687896	2591.993269
339.080220	2616.358846
339.472480	2579.390385
339.864676	2555.865000
340.256807	2588.632500
340.648875	2592.833462
341.040879	2607.956923
341.432818	2591.153077
341.824694	2606.276538
342.216506	2630.642115
342.608253	2607.956923
342.999937	2615.518654
343.391557	2639.884231
343.783113	2605.436346
344.174605	2594.513846
344.566033	2602.075577
344.957397	2654.167500
345.348697	2572.668846
345.739934	2592.833462
346.131106	2581.910962
346.522215	2574.349231
346.913260	2625.600962
347.304241	2623.080385
347.695159	2596.194231
348.086012	2619.719615
348.476802	2624.760769
348.867528	2602.915769
349.258191	2640.724423
349.648789	2659.208654
350.039324	2601.235385
350.429796	2578.550192
350.820203	2589.472692
351.210548	2628.961731
351.600828	2596.194231
351.991045	2628.121538
352.381198	2552.504231
352.771288	2591.153077
353.161314	2606.276538
353.551276	2573.509038
353.941175	2637.363654
354.331010	2638.203846
354.720782	2635.683269
355.110490	2681.053654
355.500135	2604.596154
355.889717	2636.523462
356.279235	2650.806731
356.668689	2607.956923
357.058080	2600.395192
357.447408	2669.290962
357.836672	2639.884231
358.225873	2624.760769
358.615010	2620.559808
359.004084	2699.537885
359.393095	2648.286154
359.782043	2634.843077
360.170927	2646.605769
360.559748	2682.734038
360.948505	2621.400000
361.337199	2670.971346
361.725830	2647.445962
362.114398	2705.419231
362.502903	2660.048846
362.891344	2637.363654
363.279722	2681.053654
363.668037	2669.290962
364.056289	2632.322500
364.444478	2712.140769
364.832603	2676.012500
365.220665	2719.702500
365.608665	2690.295769
365.996601	2681.053654
366.384474	2669.290962
366.772284	2740.707308
367.160031	2707.939808
367.547715	2755.830769
367.935336	2733.145577
368.322893	2698.697692
368.710388	2742.387692
369.097820	2725.583846
369.485189	2775.155192
369.872495	2755.830769
370.259738	2743.227885
370.646918	2768.433654
371.034035	2782.716923
371.421090	2788.598269
371.808081	2779.356154
372.195010	2740.707308
372.581875	2785.237500
372.968678	2786.077692
373.355418	2800.360962
373.742096	2837.329423
374.128710	2815.484423
374.515262	2800.360962
374.901751	2780.196346
375.288177	2802.041346
375.674540	2823.886346
376.060841	2851.612692
376.447079	2786.077692
376.833254	2838.169615
377.219367	2884.380192
377.605417	2913.786923
377.991404	2885.220385
378.377329	2867.576346
378.763191	2940.673077
379.148991	2912.946731
379.534727	2941.513269
379.920402	2921.348654
380.306013	2964.198462
380.691563	3003.687500
381.077049	2970.079808
381.462474	2953.275962
381.847835	3056.619615
382.233134	3010.409038
382.618371	3033.094231
383.003545	3018.810962
383.388657	3079.304808
383.773706	3072.583269
384.158693	3037.295192
384.543618	3149.040769
384.928480	3155.762308
385.313280	3132.236923
385.698017	3268.348077
386.082692	3205.333654
386.467305	3247.343269
386.851856	3260.786346
387.236344	3285.992115
387.620770	3306.996923
388.005133	3277.590192
388.389435	3389.335769
388.773674	3347.326154
389.157851	3423.783654
389.541965	3433.865962
389.926018	3434.706154
390.310008	3518.725385
390.693936	3531.328269
391.077802	3543.931154
391.461606	3634.671923
391.845348	3677.521731
392.229027	3738.855769
392.612645	3768.262500
392.996200	3826.235769
393.379694	3849.761154
393.763125	3903.533462
394.146494	3926.218654
394.529801	3977.470385
394.913047	3974.109615
395.296230	4073.252308
395.679351	4050.567115
396.062410	4101.818846
396.445408	4111.060962
396.828343	4303.465000
397.211217	4284.140577
397.594028	4193.399808
397.976778	4345.474615
398.359466	4432.014423
398.742092	4437.895769
399.124656	4457.220192
399.507158	4539.559038
399.889598	4542.919808
400.271977	4571.486346
400.654294	4685.752500
401.036549	4758.849231
401.418742	4787.415769
401.800874	4897.480962
402.182944	4968.897308
402.564952	4994.103077
402.946898	5052.076346
403.328783	5089.044808
403.710606	5158.780769
404.092367	5217.594231
404.474067	5275.567500
404.855705	5323.458462
405.237282	5436.044231
405.618797	5483.095000
406.000250	5601.562115
406.381642	5727.590962
406.762972	5771.280962
407.144240	5693.143077
407.525447	5861.181538
407.906593	5855.300192
408.287677	5777.162308
408.668700	6065.348269
409.049661	5984.689808
409.430560	6042.663077
409.811399	6040.982692
410.192176	6174.573269
410.572891	6117.440192
410.953545	6219.943654
411.334138	6218.263269
411.714669	6296.401154
412.095139	6268.674808
412.475547	6336.730385
412.855894	6282.117885
413.236180	6456.877885
413.616405	6403.105577
413.996568	6467.800385
414.376670	6546.778462
414.756711	6560.221538
415.136691	6625.756538
415.516609	6649.281923
415.896466	6829.083077
416.276262	7001.322500
416.655997	6915.622885
417.035670	6981.998077
417.415283	7031.569423
417.794834	7080.300577
418.174324	7143.315000
418.553753	7013.085192
418.933121	7187.005000
419.312428	7144.995385
419.691674	7061.816346
420.070859	7217.251923
420.449983	7140.794423
420.829045	7217.251923
421.208047	7381.929615
421.586988	7396.212885
421.965867	7472.670385
422.344686	7523.081923
422.723444	7445.784231
423.102141	7291.188846
423.480777	7510.479038
423.859352	7268.503654
424.237866	7547.447500
424.616319	7598.699231
424.994712	7739.851538
425.373044	7675.156731
425.751314	7799.505192
426.129524	7572.653269
426.507673	7870.081346
426.885762	7754.134808
427.263789	7917.972308
427.641756	7839.834423
428.019662	7937.296731
428.397508	7839.834423
428.775292	8010.393462
429.153016	8057.444231
429.530679	7984.347500
429.908282	7938.977115
430.285824	8016.274808
430.663305	8217.920962
431.040726	8168.349615
431.418086	7962.502500
431.795385	8223.802308
432.172624	8296.058846
432.549802	8154.906538
432.926920	8341.429231
433.303977	8322.945000
433.680974	8503.586346
434.057910	8532.993077
434.434786	8536.353846
434.811601	8456.535577
435.188355	8836.302500
435.565050	8670.784615
435.941683	8585.925192
436.318257	8765.726346
436.694770	8699.351154
437.071222	8822.019231
437.447614	8822.019231
437.823946	8658.181731
438.200218	8682.547308
438.576429	8820.338846
438.952580	8671.624808
439.328670	8744.721538
439.704700	8901.837500
440.080670	8830.421154
440.456580	8863.188654
440.832429	8916.120769
441.208218	8686.748269
441.583947	8836.302500
441.959616	8808.576154
442.335224	8928.723654
442.710773	8774.128269
443.086261	8916.960962
443.461689	8887.554231
443.837057	8782.530192
444.212365	9021.144808
444.587612	9017.784038
444.962800	8851.425962
445.337927	9131.210000
445.712995	8895.956154
446.088002	9311.011154
446.462949	9710.102500
446.837837	9923.511346
447.212664	9874.780192
447.587431	10496.522500
447.962139	10660.360000
448.336786	10858.645385
448.711374	10532.650769
449.085901	10166.326923
449.460369	10131.038846
449.834776	10130.198654
450.209124	10246.145192
450.583412	10123.477115
450.957640	10194.053269
451.331808	9894.104615
451.705917	9811.765769
452.079965	9809.245192
452.453954	9784.039423
452.827883	9811.765769
453.201752	9706.741731
453.575562	9895.785000
453.949311	10112.554615
454.323001	10290.675385
454.696632	10304.118462
455.070202	10574.660385
455.443713	10415.023846
455.817164	10693.127500
456.190556	10699.008846
456.563888	10443.590385
456.937160	10494.001923
457.310373	10437.709038
457.683526	10489.800962
458.056619	10611.628846
458.429653	10774.626154
458.802628	11001.478077
459.175542	11163.635192
459.548398	11537.520769
459.921194	12019.791154
460.293930	12084.485962
460.666607	12544.071154
461.039224	12682.702885
461.411782	12800.329808
461.784280	12502.061538
462.156719	12361.749423
462.529099	12226.478462
462.901419	12118.093654
463.273680	12339.904423
463.645882	12459.211731
464.018024	13068.351154
464.390106	13616.996731
464.762130	14667.237115
465.134094	15318.386154
465.505999	16126.651154
465.877845	16687.899615
466.249631	16720.667115
466.621358	16321.575769
466.993026	15993.900769
467.364634	15573.804615
467.736184	15053.725577
468.107674	14764.699423
468.479105	14477.353654
468.850477	14208.492115
469.221790	14106.828846
469.593043	13969.877500
469.964238	14184.966731
470.335373	14603.382500
470.706449	15252.851154
471.077467	15731.760769
471.448425	15976.256731
471.819324	15941.808846
472.190164	15725.039231
472.560945	15164.630962
472.931667	14510.961346
473.302330	14188.327500
473.672934	13985.841154
474.043479	14197.569615
474.413965	14014.407692
474.784393	14028.690962
475.154761	14285.789808
475.525070	14320.237692
475.895321	14214.373462
476.265513	14447.946923
476.635645	14563.893462
477.005719	14904.171346
477.375734	15320.066538
477.745691	15650.262115
478.115588	16260.241731
478.485427	16731.589615
478.855207	17418.866923
479.224928	17985.156538
479.594591	18263.260192
479.964194	18532.121731
480.333739	18300.228654
480.703226	18552.286346
481.072653	18611.940000
481.442022	18754.772692
481.811333	18588.414615
482.180584	18227.131923
482.549777	18247.296538
482.918912	18007.001538
483.287988	18025.485769
483.657005	17775.948654
484.025964	17339.888846
484.394864	17696.130385
484.763706	17491.963654
485.132489	17301.240000
485.501213	17433.150192
485.869879	17514.648846
486.238487	17300.399808
486.607036	17513.808654
486.975527	17260.910769
487.343959	17437.351154
487.712333	17581.864231
488.080648	17554.978077
488.448905	17998.599615
488.817104	18165.797885
489.185244	18786.700000
489.553326	19139.580769
489.921350	19973.051538
490.289315	20499.852115
490.657222	20770.394038
491.025070	20876.258269
491.392861	20435.997500
491.760593	20250.315000
492.128267	19536.991731
492.495883	19479.858654
492.863440	18930.372885
493.230939	18648.068269
493.598380	18348.119615
493.965763	18385.088077
494.333088	17978.435000
494.700354	17908.699038
495.067563	17658.321731
495.434713	17771.747692
495.801805	17886.013846
496.168839	17901.977500
496.535815	17705.372500
496.902733	17917.941154
497.269593	17702.011731
497.636395	17397.862115
498.003139	17832.241538
498.369825	17754.943846
498.736453	17744.861538
499.103023	17803.675000
499.469535	17666.723654
499.835989	17968.352692
500.202385	17720.495962
500.568723	17738.980192
500.935003	17991.878077
501.301226	17859.967885
501.667390	18134.710769
502.033497	18190.163462
502.399546	18185.122308
502.765537	18075.897308
503.131470	18169.998846
503.497345	18164.117500
503.863163	17919.621538
504.228923	17942.306731
504.594625	18235.533846
504.960269	18185.962500
505.325856	18416.175192
505.691385	18017.924038
506.056856	18123.788269
506.422270	18237.214231
506.787625	18371.645000
507.152924	18231.332885
507.518164	18400.211538
507.883347	18300.228654
508.248472	18326.274615
508.613540	18253.177885
508.978550	18590.935192
509.343503	18574.131346
509.708398	18480.870000
510.073236	18500.194423
510.438016	18411.974231
510.802738	18656.470192
511.167403	18764.014808
511.532010	18810.225385
511.896561	18839.632115
512.261053	19092.530000
512.625488	18885.842692
512.989866	19072.365385
513.354186	19034.556731
513.718449	19028.675385
514.082655	18935.414038
514.446803	19114.375000
514.810894	19268.970385
515.174927	19192.512885
515.538904	19278.212500
515.902822	19161.425769
516.266684	19168.147308
516.630488	19544.553462
516.994235	19384.076731
517.357925	19274.011538
517.721558	19526.069231
518.085133	19547.074038
518.448651	19605.047308
518.812112	19472.296923
519.175516	19348.788654
519.538863	19570.599423
519.902152	19216.038269
520.265385	19484.059615
520.628560	19436.168654
520.991678	19426.926538
521.354739	19485.740000
521.717743	19540.352500
522.080690	19391.638462
522.443580	19663.860769
522.806413	19632.773654
523.169189	19456.333269
523.531908	19605.047308
523.894569	19542.032885
524.257174	19442.050000
524.619722	19737.797692
524.982213	19626.892308
525.344647	19579.001346
525.707025	19486.580192
526.069345	19626.052115
526.431608	19363.912115
526.793815	19382.396346
527.155964	19429.447115
527.518057	19494.141923
527.880093	19467.255769
528.242072	19371.473846
528.603995	19419.364808
528.965860	19445.410769
529.327669	19315.180962
529.689421	19269.810577
530.051117	19363.912115
530.412755	19439.529423
530.774337	19357.190577
531.135862	19117.735769
531.497331	19316.861346
531.858743	19143.781731
532.220098	19279.052692
532.581396	19276.532115
532.942638	19173.188462
533.303824	19247.125385
533.664953	19341.226923
534.026025	19154.704231
534.387040	19244.604808
534.747999	19170.667885
535.108902	19226.120577
535.469748	19327.783846
535.830537	19010.191154
536.191270	19195.033462
536.551947	19037.077308
536.912567	19155.544423
537.273131	19124.457308
537.633638	19037.917500
537.994089	19151.343462
538.354483	18957.259038
538.714821	19212.677500
539.075103	19238.723462
539.435328	19253.006731
539.795497	19266.449808
540.155609	19098.411346
540.515665	19416.004038
540.875665	19235.362692
541.235609	19431.127500
541.595496	19383.236538
541.955328	19395.839423
542.315102	19440.369615
542.674821	19237.043077
543.034483	19423.565769
543.394090	19153.023846
543.753640	19359.711154
544.113134	19487.420385
544.472571	19296.696731
544.831953	19600.006154
545.191278	19244.604808
545.550548	19099.251538
545.909761	19240.403846
546.268918	19146.302308
546.628019	19021.113654
546.987064	19227.800962
547.346053	19014.392115
547.704986	19177.389423
548.063863	18924.491538
548.422684	19061.442885
548.781449	18984.985385
549.140158	19059.762500
549.498811	19016.912692
549.857408	18954.738462
550.215949	19099.251538
550.574434	18994.227500
550.932864	19072.365385
551.291237	19180.750192
551.649555	18937.094423
552.007817	19009.350962
552.366022	19080.767308
552.724173	19106.813269
553.082267	19225.280385
553.440305	19316.021154
553.798288	19012.711731
554.156215	19139.580769
554.514086	19260.568462
554.871902	19147.982692
555.229661	19070.685000
555.587365	19110.174038
555.945014	19129.498462
556.302606	19032.876346
556.660143	18996.748077
557.017625	19176.549231
557.375050	19005.150000
557.732421	19064.803654
558.089735	19158.065000
558.446994	19119.416154
558.804197	19084.968269
559.161345	19023.634231
559.518437	18915.249423
559.875474	19065.643846
560.232455	18877.440769
560.589381	18853.075192
560.946251	18862.317308
561.303065	19162.265962
561.659825	18868.198654
562.016528	19074.885962
562.373177	18895.084808
562.729770	18858.956538
563.086307	18748.891346
563.442789	18828.709615
563.799216	19042.958654
564.155587	18801.823462
564.511904	18689.237692
564.868164	18814.426346
565.224370	18870.719231
565.580520	18790.060769
565.936615	18827.869423
566.292654	18837.951731
566.648638	18800.983269
567.004567	18765.695192
567.360441	18611.940000
567.716260	18870.719231
568.072023	18945.496346
568.427732	18893.404423
568.783385	18679.995577
569.138982	18774.937308
569.494525	18668.232885
569.850013	18719.484615
570.205445	18580.852885
570.560823	18479.189615
570.916145	18500.194423
571.271412	18536.322692
571.626625	18571.610769
571.981782	18332.996154
572.336884	18407.773269
572.691931	18451.463269
573.046923	18271.662115
573.401860	18354.000962
573.756743	18212.848654
574.111570	18198.565385
574.466342	18191.843846
574.821059	18086.819808
575.175722	18171.679231
575.530330	18003.640769
575.884882	18202.766346
576.239380	17971.713462
576.593823	17894.415769
576.948211	17867.529615
577.302544	17735.619423
577.656823	17660.842308
578.011047	17912.900000
578.365216	17637.316923
578.719330	17686.048077
579.073389	17529.772308
579.427394	17434.830577
579.781344	17452.474615
580.135239	17571.781923
580.489080	17692.769615
580.842866	17313.002692
581.196597	17602.869038
581.550273	17454.995192
581.903895	17333.167308
582.257463	17633.956154
582.610975	17444.912885
582.964434	17409.624808
583.317837	17265.111731
583.671186	17300.399808
584.024481	17434.830577
584.377721	17026.497115
584.730906	17123.119231
585.084037	17279.395000
585.437113	17231.504038
585.790135	17182.772885
586.143103	17153.366154
586.496016	17154.206346
586.848874	17184.453269
587.201679	17027.337308
587.554428	16868.540962
587.907124	17058.424423
588.259765	16829.051923
588.612352	17031.538269
588.964884	16768.558077
589.317362	16872.741923
589.669786	16710.584808
590.022155	16800.485385
590.374470	16913.911346
590.726731	16758.475769
591.078937	16629.086154
591.431090	16695.461346
591.783188	16547.587500
592.135232	16527.422885
592.487222	16487.933846
592.839157	16467.769231
593.191038	16416.517500
593.542866	16293.009231
593.894639	16117.409038
594.246358	16135.893269
594.598022	16208.149808
594.949633	16139.254038
595.301190	15935.927500
595.652692	16053.554423
596.004141	15949.370577
596.355535	15783.012500
596.706876	15793.935000
597.058162	15725.879423
597.409395	15942.649038
597.760573	15934.247115
598.111698	15694.792308
598.462768	15763.688077
598.813785	15638.499423
599.164748	15628.417115
599.515657	15540.196923
599.866511	15578.845769
600.217312	15551.959615
600.568060	15437.693462
600.918753	15483.904038
601.269392	15559.521346
601.619978	15441.054231
601.970510	15522.552885
602.320988	15496.506923
602.671412	15604.891731
603.021783	15401.565192
603.372100	15504.068654
603.722363	15194.877885
604.072572	15378.039808
604.422728	15336.870385
604.772830	15304.102885
605.122878	15342.751731
605.472872	15202.439615
605.822813	15328.468462
606.172701	15219.243462
606.522534	15132.703654
606.872314	15291.500000
607.222041	15364.596731
607.571714	15188.996538
607.921333	15252.851154
608.270899	15233.526731
608.620411	15306.623462
608.969870	15358.715385
609.319276	15275.536346
609.668627	15404.925962
610.017926	15471.301154
610.367171	15400.725000
610.716362	15245.289423
611.065500	15207.480769
611.414585	15352.834038
611.763616	15376.359423
612.112594	15363.756538
612.461518	15352.834038
612.810389	15334.349808
613.159207	15292.340192
613.507971	15178.914231
613.856682	15210.841538
614.205340	15231.006154
614.553945	15376.359423
614.902496	15341.911538
615.250994	15351.993846
615.599439	15327.628269
615.947830	15446.935577
616.296169	15376.359423
616.644454	15310.824423
616.992686	15435.172885
617.340864	15429.291538
617.688990	15236.887500
618.037063	15422.570000
618.385082	15304.102885
618.733048	15314.185192
619.080961	15387.281923
619.428821	15369.637885
619.776628	15362.916346
620.124382	15258.732500
620.472083	15346.112500
620.819731	15377.199615
621.167326	15325.107692
621.514868	15207.480769
621.862357	14999.113077
622.209793	14983.989615
622.557176	15021.798269
622.904506	14751.256346
623.251783	14749.575962
623.599007	14726.890769
623.946179	14651.273462
624.293297	14526.084808
624.640363	14450.467500
624.987376	14377.370769
625.334336	14344.603269
625.681243	14189.167692
626.028097	14130.354231
626.374899	14243.780192
626.721647	14048.855577
627.068343	14043.814423
627.414987	13857.291731
627.761577	13695.134615
628.108115	13690.933654
628.454600	13636.321154
628.801032	13834.606538
629.147412	13676.650385
629.493739	13653.965192
629.840014	13497.689423
630.186236	13527.096154
630.532405	13486.766923
630.878521	13473.323846
631.224585	13432.994615
631.570597	13444.757308
631.916556	13361.578269
632.262462	13288.481538
632.608316	13400.227115
632.954117	13265.796346
633.299866	13409.469231
633.645562	13250.672885
633.991206	13070.871731
634.336797	12930.559615
634.682336	12898.632308
635.027823	12882.668654
635.373257	12673.460769
635.718639	12785.206346
636.063968	12575.998462
636.409245	12571.797500
636.754470	12552.473077
637.099642	12441.567692
637.444762	12387.795385
637.789829	12213.875577
638.134845	12181.108077
638.479808	12221.437308
638.824719	12116.413269
639.169577	11976.941346
639.514383	12006.348077
639.859137	11961.817885
640.203839	12024.832308
640.548489	11792.099038
640.893086	11916.447500
641.237632	11782.016731
641.582125	11787.057885
641.926566	11738.326731
642.270955	11794.619615
642.615292	11783.697115
642.959576	11677.832885
643.303809	11650.106538
643.647990	11683.714231
643.992118	11687.075000
644.336195	11641.704615
644.680219	11644.225192
645.024192	11861.835000
645.368112	11863.515385
645.711981	11708.079808
646.055797	11879.479038
646.399562	11797.140192
646.743274	11954.256154
647.086935	12186.989423
647.430544	12173.546346
647.774101	11940.813077
648.117606	12176.066923
648.461059	12198.752115
648.804460	12189.510000
649.147810	12124.815192
649.491108	12039.115577
649.834354	11976.101154
650.177548	11738.326731
650.520690	11824.026346
650.863781	11677.832885
651.206820	11587.932308
651.549807	11463.583846
651.892742	11262.777885
652.235626	11280.421923
652.578458	11266.138654
652.921238	11039.286731
653.263967	11106.502115
653.606644	11083.816923
653.949269	10828.398462
654.291843	10831.759231
654.634365	11022.482885
654.976836	10879.650192
655.319255	10945.185192
655.661622	10835.120000
656.003938	10743.539038
656.346203	10730.095962
656.688416	10735.977308
657.030577	10861.165962
657.372687	10646.076731
657.714746	10750.260577
658.056753	10793.950577
658.398708	10606.587692
658.740612	10670.442308
659.082465	10690.606923
659.424266	10634.314038
659.766016	10666.241346
660.107715	10598.185769
660.449362	10674.643269
660.790958	10569.619231
661.132503	10485.600000
661.473996	10450.311923
661.815438	10636.834615
662.156829	10608.268077
662.498168	10620.030769
662.839456	10542.733077
663.180693	10621.711154
663.521879	10620.870962
663.863013	10499.883269
664.204097	10523.408654
664.545129	10661.200192
664.886110	10694.807885
665.227040	10618.350385
665.567918	10546.934038
665.908746	10621.711154
666.249522	10662.040385
666.590248	10695.648077
666.930922	10677.163846
667.271545	10635.154231
667.612118	10683.045192
667.952639	10625.912115
668.293109	10665.401154
668.633528	10622.551346
668.973896	10505.764615
669.314213	10536.851731
669.654480	10535.171346
669.994695	10483.079423
670.334859	10410.822885
670.674973	10462.914808
671.015035	10557.856538
671.355047	10495.682308
671.695008	10530.970385
672.034918	10299.917500
672.374777	10304.958654
672.714585	10399.900385
673.054342	10417.544423
673.394049	10359.571154
673.733705	10415.864038
674.073310	10514.166538
674.412864	10387.297500
674.752368	10294.876346
675.091820	10262.108846
675.431223	10216.738462
675.770574	10103.312500
676.109875	10022.654038
676.449125	10043.658846
676.788324	10013.411923
677.127473	9881.501731
677.466571	9899.145769
677.805619	9780.678654
678.144616	9863.017500
678.483562	9754.632692
678.822458	9695.819231
679.161303	9731.107308
679.500098	9761.354231
679.838842	9640.366538
680.177535	9585.754038
680.516179	9666.412500
680.854771	9710.942692
681.193314	9801.683462
681.531805	9897.465385
681.870247	10309.159615
682.208638	10293.195962
682.546978	10432.667885
682.885268	10593.144615
683.223508	10543.573269
683.561697	10440.229615
683.899836	10400.740577
684.237925	10384.776923
684.575963	10170.527885
684.913951	10113.394808
685.251889	10220.099231
685.589776	10225.980577
685.927614	10093.230192
686.265401	10107.513462
686.603137	10109.193846
686.940824	10331.844808
687.278460	10271.350962
687.616046	10272.191154
687.953582	10504.084231
688.291068	10439.389423
688.628504	10389.818077
688.965889	10525.929231
689.303224	10483.079423
689.640510	10423.425769
689.977745	10189.852308
690.314930	10052.900962
690.652065	9984.005192
690.989150	9862.177308
691.326185	9638.686154
691.663170	9541.223846
692.000105	9332.856154
692.336990	9212.708654
692.673825	9127.009038
693.010610	8982.495962
693.347345	8816.137885
693.684030	8716.995192
694.020665	8791.772308
694.357251	8399.402500
694.693786	8546.436154
695.030272	8407.804423
695.366707	8289.337308
695.703093	8266.652115
696.039429	8248.167885
696.375716	8211.199423
696.711952	8152.385962
697.048139	8113.737115
697.384276	8012.914038
697.720363	8088.531346
698.056400	8030.558077
698.392388	8007.872885
698.728326	8119.618462
699.064214	8007.032692
699.400053	8014.594423
699.735842	7865.880385
700.071581	7833.953077
700.407270	7785.221923
700.742910	7791.103269
701.078501	7690.280192
701.414042	7607.101154
701.749533	7602.900192
702.084974	7576.854231
702.420366	7538.205385
702.755709	7402.094231
703.091002	7304.631923
703.426246	7308.832885
703.761440	7365.125769
704.096584	7347.481731
704.431679	7250.019423
704.766725	7288.668269
705.101721	7202.968654
705.436668	7222.293077
705.771565	7214.731346
706.106413	7257.581154
706.441212	7229.854808
706.775961	7320.595577
707.110661	7268.503654
707.445311	7419.738269
707.779913	7360.084615
708.114465	7329.837692
708.448967	7398.733462
708.783421	7643.229423
709.117825	7559.210192
709.452180	7714.645769
709.786485	7791.103269
710.120742	7916.291923
710.454949	7942.337885
710.789107	7965.023077
711.123216	8180.952500
711.457275	8245.647308
711.791286	8379.237885
712.125247	8380.078077
712.459159	8385.959423
712.793023	8662.382692
713.126837	8357.392885
713.460602	8413.685769
713.794318	8319.584231
714.127985	8201.117115
714.461602	8084.330385
714.795171	7979.306346
715.128691	7938.136923
715.462162	7749.933846
715.795584	7674.316538
716.128957	7534.844615
716.462281	7519.721154
716.795556	7418.057885
717.128782	7391.171731
717.461960	7271.024231
717.795088	7170.201154
718.128167	7066.017308
718.461198	6995.441154
718.794180	6975.276538
719.127113	6810.598846
719.459997	6849.247692
719.792833	6753.465769
720.125619	6755.146154
720.458357	6585.427308
720.791046	6568.623462
721.123686	6720.698269
721.456278	6556.020577
721.788821	6495.526731
722.121315	6536.696154
722.453761	6538.376538
722.786158	6530.814808
723.118506	6526.613846
723.450805	6382.940962
723.783056	6473.681731
724.115259	6509.810000
724.447412	6402.265385
724.779518	6539.216731
725.111574	6442.594615
725.443582	6536.696154
725.775542	6579.545962
726.107453	6614.834038
726.439315	6710.615962
726.771129	6692.131731
727.102895	6782.872500
727.434612	6846.727115
727.766281	6828.242885
728.097901	7014.765577
728.429473	6997.121538
728.760996	6970.235385
729.092471	7062.656538
729.423897	6983.678462
729.755276	6913.102308
730.086606	7033.249808
730.417887	6979.477500
730.749120	7235.736154
731.080305	7231.535192
731.411442	7367.646346
731.742530	7375.208077
732.073570	7345.801346
732.404562	7387.810962
732.735506	7470.149808
733.066401	7441.583269
733.397249	7346.641538
733.728048	7213.891154
734.058798	7081.980962
734.389501	6897.138654
734.720156	6661.884808
735.050762	6592.989038
735.381320	6581.226346
735.711831	6514.851154
736.042293	6350.173462
736.372707	6324.967692
736.703073	6290.519808
737.033391	6351.013654
737.363661	6277.916923
737.693883	6244.309231
738.024056	6320.766731
738.354182	6376.219423
738.684260	6485.444423
739.014290	6482.083654
739.344272	6510.650192
739.674207	6614.834038
740.004093	6738.342308
740.333931	6710.615962
740.663722	6681.209231
740.993464	6704.734615
741.323159	6618.194808
741.652806	6602.231154
741.982405	6588.788077
742.311956	6514.010962
742.641460	6399.744808
742.970915	6452.676923
743.300323	6336.730385
743.629683	6247.670000
743.958996	6188.856538
744.288260	6118.280385
744.617477	6109.038269
744.946647	6019.137692
745.275768	5890.588269
745.604842	5906.551923
745.933869	5908.232308
746.262847	5888.907885
746.591778	5798.167115
746.920662	5776.322115
747.249498	5825.893462
747.578286	5793.125962
747.907027	5894.789231
748.235720	5925.876346
748.564365	5951.082115
748.892963	5946.040962
749.221514	5922.515577
749.550017	5870.423654
749.878473	5867.903077
750.206881	5791.445577
750.535242	5756.997692
750.863555	5792.285769
751.191821	5771.280962
751.520039	5709.106731
751.848210	5767.080000
752.176334	5747.755577
752.504411	5753.636923
752.832440	5678.019615
753.160421	5710.787115
753.488356	5667.097115
753.816243	5637.690385
754.144082	5696.503846
754.471875	5580.557308
754.799620	5567.954423
755.127318	5562.073077
755.454969	5530.145769
755.782572	5510.821346
756.110129	5533.506538
756.437638	5517.542885
756.765100	5527.625192
757.092515	5516.702692
757.419882	5552.830962
757.747203	5570.475000
758.074477	5615.005192
758.401703	5525.944808
758.728882	5528.465385
759.056014	5604.922885
759.383099	5625.087500
759.710138	5698.184231
760.037129	5702.385192
760.364073	5734.312500
760.690970	5736.833077
761.017820	5682.220577
761.344623	5827.573846
761.671379	5851.099231
761.998088	6094.755000
762.324751	6463.599423
762.651366	7123.990577
762.977935	7927.214423
763.304456	8708.593269
763.630931	9220.270385
763.957359	9135.410962
764.283740	8738.840192
764.610074	8088.531346
764.936362	7457.546923
765.262602	7044.172308
765.588796	6524.093269
765.914943	6139.285192
766.241044	5855.300192
766.567097	5702.385192
766.893104	5522.584038
767.219064	5324.298654
767.544978	5196.589423
767.870845	5186.507115
768.196665	5136.095577
768.522438	4962.175769
768.848165	4922.686731
769.173846	4908.403462
769.499479	4852.950769
769.825066	4777.333462
770.150607	4720.200385
770.476101	4739.524808
770.801548	4720.200385
771.126949	4653.825192
771.452303	4672.309423
771.777611	4562.244231
772.102872	4567.285385
772.428087	4600.893077
772.753256	4546.280577
773.078378	4500.070000
773.403453	4449.658462
773.728482	4445.457500
774.053465	4336.232500
774.378401	4396.726346
774.703291	4366.479423
775.028135	4272.377885
775.352932	4228.687885
775.677683	4310.186538
776.002388	4235.409423
776.327046	4237.930000
776.651658	4168.194038
776.976224	4204.322308
777.300743	4210.203654
777.625216	4091.736538
777.949643	4205.162500
778.274024	4206.002692
778.598359	4114.421731
778.922647	4127.864808
779.246889	4113.581538
779.571086	4185.838077
779.895236	4118.622692
780.219339	4210.203654
780.543397	4141.307885
780.867409	4141.307885
781.191374	4108.540385
781.515294	4184.157692
781.839167	4148.029423
782.162995	4134.586346
782.486776	4080.814038
782.810511	4145.508846
783.134201	4064.010192
783.457844	4081.654231
783.781441	4064.850385
784.104993	4108.540385
784.428498	4074.932692
784.751958	4024.521154
785.075372	4037.964231
785.398739	4066.530769
785.722061	4044.685769
786.045337	4070.731731
786.368568	4121.143269
786.691752	4142.148077
787.014891	4169.034231
787.337983	4237.930000
787.661030	4411.009615
787.984031	4538.718846
788.306987	4678.190769
788.629897	4768.931538
788.952760	4712.638654
789.275579	4647.943846
789.598351	4555.522692
789.921078	4476.544615
790.243759	4448.818269
790.566395	4288.341538
790.888984	4238.770192
791.211529	4258.094615
791.534027	4104.339423
791.856480	4117.782500
792.178888	4134.586346
792.501249	4038.804423
792.823566	4013.598654
793.145836	4009.397692
793.468062	4083.334615
793.790241	3991.753654
794.112375	3952.264615
794.434464	4048.046538
794.756507	4137.947115
795.078505	4148.029423
795.400457	4211.884038
795.722364	4215.244808
796.044226	4323.629615
796.366042	4393.365577
796.687812	4467.302500
797.009538	4390.845000
797.331218	4357.237308
797.652852	4297.583654
797.974442	4274.898462
798.295986	4369.000000
798.617484	4192.559615
798.938938	4255.574038
799.260346	4184.157692
799.581709	4126.184423
799.903026	4168.194038
800.224299	4120.303077
800.545526	4091.736538
800.866708	4070.731731
801.187845	3985.032115
801.508936	3979.990962
801.829983	4008.557500
802.150984	3935.460769
802.471940	3935.460769
802.792851	3956.465577
803.113717	3930.419615
803.434538	3837.158269
803.755314	3921.177500
804.076045	3899.332500
804.396731	3886.729615
804.717372	3931.259808
805.037967	3909.414808
805.358518	3830.436731
805.679024	3928.739231
805.999485	3880.008077
806.319901	3927.899038
806.640272	3933.780385
806.960598	3963.187115
807.280879	3909.414808
807.601115	3938.821538
807.921306	3895.971731
808.241453	3965.707692
808.561554	4026.201538
808.881611	3973.269423
809.201623	3989.233077
809.521590	3957.305769
809.841513	3937.981346
810.161390	3958.145962
810.481223	3933.780385
810.801011	3892.610962
811.120755	3910.255000
811.440453	3930.419615
811.760107	3917.816731
812.079716	3894.291346
812.399281	3846.400385
812.718801	3913.615769
813.038276	3832.957308
813.357707	3803.550577
813.677093	3885.889423
813.996434	3864.884615
814.315731	3921.177500
814.634983	3894.291346
814.954191	3917.816731
815.273354	3898.492308
815.592473	3969.908654
815.911547	3964.867500
816.230577	3995.114423
816.549562	4106.019808
816.868502	4045.525962
817.187399	4137.106923
817.506250	4134.586346
817.825058	4223.646731
818.143821	4263.135769
818.462539	4373.200962
818.781213	4490.827885
819.099843	4693.314231
819.418429	5018.468654
819.736970	5330.180000
820.055466	5662.896154
820.373919	6214.062308
820.692327	7176.922692
821.010691	8659.862115
821.329011	11220.768269
821.647286	14704.205577
821.965517	18585.053846
822.283704	20912.386538
822.601847	21220.737115
822.919945	19207.636346
823.237999	17160.087692
823.556010	14803.348269
823.873976	12733.114423
824.191897	10867.047308
824.509775	9782.359038
824.827609	8797.653654
825.145398	8288.497115
825.463144	8182.632885
825.780845	8412.845577
826.098502	8977.454808
826.416116	9861.337115
826.733685	10722.534231
827.051210	10862.846346
827.368692	10462.074615
827.686129	9313.531731
828.003522	8191.875000
828.320872	7190.365769
828.638177	6476.202308
828.955439	5830.934615
829.272656	5252.882308
829.589830	5050.395962
829.906960	4819.343077
830.224046	4677.350577
830.541088	4477.384808
830.858086	4374.881346
831.175041	4314.387500
831.491952	4390.004808
831.808819	4408.489038
832.125642	4565.605000
832.442421	4922.686731
832.759157	5406.637500
833.075849	6181.294808
833.392497	6806.397885
833.709101	7249.179231
834.025662	7088.702500
834.342179	6654.323077
834.658653	5919.995000
834.975083	5382.271923
835.291469	4922.686731
835.607811	4649.624231
835.924110	4361.438269
836.240366	4203.482115
836.556578	4037.964231
836.872746	3944.702885
837.188871	3794.308462
837.504952	3679.202115
837.820990	3659.877692
838.136984	3600.224038
838.452935	3664.078654
838.768842	3669.119808
839.084706	3869.925769
839.400526	4206.842885
839.716303	4551.321731
840.032037	4737.004231
840.347727	4642.062500
840.663373	4444.617308
840.978977	4065.690577
841.294537	3799.349615
841.610054	3591.822115
841.925527	3530.488077
842.240957	3491.839231
842.556344	3351.527115
842.871687	3291.873462
843.186987	3311.197885
843.502244	3217.096346
843.817458	3195.251346
844.132629	3170.885769
844.447756	3155.762308
844.762840	3125.515385
845.077881	3149.040769
845.392879	3057.459808
845.707833	3093.588077
846.022745	3029.733462
846.337613	3077.624423
846.652438	3028.893269
846.967221	3052.418654
847.281960	3032.254038
847.596656	2992.765000
847.911309	2991.084615
848.225919	3036.455000
848.540485	2997.806154
848.855009	2984.363077
849.169490	3042.336346
849.483928	2990.244423
849.798323	2998.646346
850.112675	2999.486538
850.426984	2991.924808
850.741251	2989.404231
851.055474	3021.331538
851.369654	2994.445385
851.683792	2949.075000
851.997887	3027.212885
852.311938	2975.961154
852.625947	2970.079808
852.939914	2985.203269
853.253837	2968.399423
853.567718	2986.043462
853.881555	2942.353462
854.195350	2996.965962
854.509103	2922.188846
854.822812	2996.125769
855.136479	2982.682692
855.450103	2959.997500
855.763685	2981.842500
856.077224	2949.075000
856.390720	2992.765000
856.704173	2986.043462
857.017584	2979.321923
857.330953	2980.162115
857.644278	2981.002308
857.957561	2943.193654
858.270802	2997.806154
858.584000	2958.317115
858.897155	2992.765000
859.210268	2985.203269
859.523339	2977.641538
859.836367	2966.719038
860.149352	2938.992692
860.462295	2932.271154
860.775195	2965.878846
861.088054	2924.709423
861.400869	2931.430962
861.713642	2931.430962
862.026373	2940.673077
862.339062	2957.476923
862.651708	3019.651154
862.964312	2976.801346
863.276873	2967.559231
863.589392	2982.682692
863.901869	3025.532500
864.214303	2987.723846
864.526696	3010.409038
864.839045	3004.527692
865.151353	3043.176538
865.463619	2999.486538
865.775842	3011.249231
866.088023	2992.765000
866.400162	3026.372692
866.712258	2987.723846
867.024313	2999.486538
867.336325	3102.830192
867.648296	3044.856923
867.960224	3006.208077
868.272110	3012.929615
868.583954	3028.053077
868.895755	3011.249231
869.207515	2987.723846
869.519233	2996.125769
869.830909	3113.752692
870.142542	3059.140192
870.454134	3054.099038
870.765684	3082.665577
871.077191	3092.747885
871.388657	3065.021538
871.700081	3054.939231
872.011463	3080.985192
872.322803	3115.433077
872.634101	3049.057885
872.945357	3087.706731
873.256571	3096.108654
873.567744	3092.747885
873.878874	3091.067500
874.189963	3133.917308
874.501010	3193.570962
874.812015	3171.725962
875.122979	3108.711538
875.433900	3136.437885
875.744780	3165.004423
876.055618	3106.190962
876.366415	3165.004423
876.677169	3114.592885
876.987882	3189.370000
877.298554	3219.616923
877.609183	3172.566154
877.919771	3237.260962
878.230317	3286.832308
878.540822	3362.449615
878.851285	3517.885192
879.161707	3689.284423
879.472087	3945.543077
879.782425	4364.799038
880.092722	5054.596923
880.402977	5811.610192
880.713191	6485.444423
881.023363	7039.131154
881.333494	7115.588654
881.643583	7120.629808
881.953631	6791.274423
882.263637	6413.187885
882.573602	6067.028654
882.883526	5639.370769
883.193408	5309.175192
883.503248	5028.550962
883.813048	4742.045385
884.122806	4533.677692
884.432522	4296.743462
884.742197	4150.550000
885.051831	3964.867500
885.361424	3859.003269
885.670975	3677.521731
885.980485	3632.991538
886.289954	3514.524423
886.599382	3447.309038
886.908768	3367.490769
887.218113	3317.079231
887.527417	3254.064808
887.836680	3222.137500
888.145901	3170.045577
888.455082	3047.377500
888.764221	3098.629231
889.073319	3084.345962
889.382376	3045.697115
889.691392	3083.505769
890.000366	3101.149808
890.309300	3082.665577
890.618193	3049.057885
890.927044	3080.145000
891.235855	3059.980385
891.544625	3047.377500
891.853353	3101.990000
892.162041	3135.597692
892.470687	3160.803462
892.779293	3234.740385
893.087858	3294.394038
893.396381	3418.742500
893.704864	3637.192500
894.013306	3816.153462
894.321707	3937.981346
894.630068	3979.150769
894.938387	3891.770769
895.246665	3837.158269
895.554903	3659.877692
895.863100	3529.647885
896.171256	3464.112885
896.479371	3400.258269
896.787446	3302.795962
897.095480	3228.859038
897.403473	3238.101154
897.711425	3194.411154
898.019336	3143.999615
898.327207	3176.767115
898.635038	3136.437885
898.942827	3075.944038
899.250576	3029.733462
899.558284	2966.719038
899.865952	3026.372692
900.173579	2982.682692
900.481165	2969.239615
900.788711	2920.508462
901.096216	2917.987885
901.403681	2886.900769
901.711105	2941.513269
902.018489	2909.585962
902.325832	2971.760192
902.633135	3049.898077
902.940397	3146.520192
903.247619	3332.202692
903.554800	3606.945577
903.861941	3795.148654
904.169041	3928.739231
904.476101	3764.061538
904.783121	3733.814615
905.090100	3648.115000
905.397039	3478.396154
905.703938	3342.285000
906.010796	3271.708846
906.317614	3133.077115
906.624391	3100.309615
906.931129	3028.893269
907.237826	3021.331538
907.544483	3064.181346
907.851099	3006.208077
908.157675	2949.915192
908.464211	2856.653846
908.770707	2882.699808
909.077163	2890.261538
909.383578	2804.561923
909.689954	2780.196346
909.996289	2791.118846
910.302584	2791.118846
910.608839	2741.547500
910.915054	2744.908269
911.221229	2809.603077
911.527363	2732.305385
911.833458	2714.661346
912.139513	2716.341731
912.445527	2751.629808
912.751502	2773.474808
913.057436	2799.520769
913.363331	2857.494038
913.669186	2861.695000
913.975000	2915.467308
914.280775	2984.363077
914.586510	3115.433077
914.892205	3187.689615
915.197859	3298.595000
915.503475	3468.313846
915.809050	3574.178077
916.114585	3588.461346
916.420081	3548.132115
916.725536	3541.410577
917.030952	3496.040192
917.336328	3415.381731
917.641665	3340.604615
917.946961	3265.827500
918.252218	3214.575769
918.557435	3185.169038
918.862612	3135.597692
919.167750	3127.195769
919.472848	3107.871346
919.777906	2994.445385
920.082925	3000.326731
920.387904	2972.600385
920.692843	2912.946731
920.997743	2886.900769
921.302603	2870.937115
921.607423	2823.886346
921.912204	2862.535192
922.216946	2839.009808
922.521647	2807.082500
922.826310	2806.242308
923.130932	2769.273846
923.435516	2715.501538
923.740059	2724.743654
924.044564	2726.424038
924.349028	2717.181923
924.653454	2714.661346
924.957840	2691.976154
925.262186	2653.327308
925.566493	2673.491923
925.870761	2672.651731
926.174989	2662.569423
926.479178	2655.847885
926.783328	2577.710000
927.087438	2634.843077
927.391509	2641.564615
927.695541	2639.884231
927.999533	2636.523462
928.303486	2630.642115
928.607400	2619.719615
928.911275	2618.879423
929.215110	2598.714808
929.518906	2555.865000
929.822663	2591.153077
930.126381	2621.400000
930.430060	2653.327308
930.733699	2626.441154
931.037299	2627.281346
931.340861	2598.714808
931.644383	2656.688077
931.947866	2605.436346
932.251309	2611.317692
932.554714	2606.276538
932.858080	2629.801923
933.161407	2619.719615
933.464694	2589.472692
933.767943	2631.482308
934.071153	2606.276538
934.374323	2617.199038
934.677455	2597.034423
934.980548	2609.637308
935.283602	2578.550192
935.586617	2597.874615
935.889593	2603.755962
936.192530	2602.075577
936.495428	2623.080385
936.798287	2624.760769
937.101108	2625.600962
937.403890	2612.157885
937.706632	2579.390385
938.009336	2633.162692
938.312002	2687.775192
938.614628	2687.775192
938.917216	2675.172308
939.219765	2699.537885
939.522275	2666.770385
939.824747	2664.249808
940.127179	2696.177115
940.429573	2711.300577
940.731929	2645.765577
941.034246	2649.966538
941.336524	2702.058462
941.638763	2684.414423
941.940964	2613.838269
942.243126	2638.203846
942.545250	2717.181923
942.847335	2672.651731
943.149381	2650.806731
943.451389	2646.605769
943.753359	2642.404808
944.055290	2607.956923
944.357182	2640.724423
944.659036	2673.491923
944.960851	2639.044038
945.262628	2655.007692
945.564367	2654.167500
945.866067	2597.034423
946.167729	2621.400000
946.469352	2579.390385
946.770937	2598.714808
947.072484	2564.266923
947.373992	2610.477500
947.675462	2596.194231
947.976893	2618.039231
948.278286	2615.518654
948.579641	2591.153077
948.880958	2583.591346
949.182236	2631.482308
949.483476	2613.838269
949.784678	2616.358846
950.085841	2625.600962
950.386967	2639.044038
950.688054	2643.245000
950.989103	2631.482308
951.290114	2559.225769
951.591087	2633.162692
951.892021	2626.441154
952.192917	2631.482308
952.493776	2665.930192
952.794596	2645.765577
953.095378	2618.039231
953.396122	2630.642115
953.696828	2645.765577
953.997496	2602.915769
954.298126	2639.884231
954.598718	2605.436346
954.899272	2655.847885
955.199788	2607.116731
955.500266	2602.915769
955.800706	2581.070769
956.101108	2602.915769
956.401472	2602.915769
956.701798	2567.627692
957.002087	2580.230577
957.302337	2566.787500
957.602550	2552.504231
957.902724	2629.801923
958.202861	2613.838269
958.502960	2543.262115
958.803022	2546.622885
959.103045	2606.276538
959.403031	2582.751154
959.702979	2551.664038
960.002889	2578.550192
960.302762	2541.581731
960.602596	2538.220962
960.902393	2577.710000
961.202153	2521.417115
961.501875	2567.627692
961.801559	2581.070769
962.101205	2532.339615
962.400814	2576.029615
962.700385	2574.349231
962.999918	2534.860192
963.299414	2509.654423
963.598873	2592.833462
963.898293	2554.184615
964.197677	2494.530962
964.497022	2544.102308
964.796331	2534.860192
965.095601	2505.453462
965.394835	2564.266923
965.694030	2507.133846
965.993189	2540.741538
966.292309	2543.262115
966.591393	2569.308077
966.890439	2539.061154
967.189447	2544.942500
967.488419	2466.804615
967.787353	2553.344423
968.086249	2534.020000
968.385108	2521.417115
968.683930	2552.504231
968.982714	2543.262115
969.281462	2571.828654
969.580172	2587.792308
969.878844	2540.741538
970.177480	2541.581731
970.476078	2520.576923
970.774639	2543.262115
971.073162	2539.901346
971.371649	2517.216154
971.670098	2560.906154
971.968510	2518.056346
972.266885	2517.216154
972.565223	2523.097500
972.863524	2589.472692
973.161788	2593.673654
973.460014	2529.819038
973.758204	2561.746346
974.056356	2586.952115
974.354471	2544.102308
974.652550	2530.659231
974.950591	2569.308077
975.248595	2584.431538
975.546563	2475.206538
975.844493	2534.860192
976.142386	2513.015192
976.440243	2569.308077
976.738062	2558.385577
977.035845	2570.148269
977.333590	2508.814231
977.631299	2555.024808
977.928971	2608.797115
978.226606	2539.061154
978.524204	2543.262115
978.821765	2555.024808
979.119290	2517.216154
979.416777	2586.111923
979.714228	2559.225769
980.011642	2551.664038
980.309020	2537.380769
980.606360	2561.746346
980.903664	2589.472692
981.200931	2565.947308
981.498162	2611.317692
981.795356	2591.993269
982.092513	2583.591346
982.389633	2567.627692
982.686717	2648.286154
982.983764	2618.879423
983.280775	2597.034423
983.577749	2603.755962
983.874686	2625.600962
984.171587	2613.838269
984.468451	2612.157885
984.765279	2639.044038
985.062070	2635.683269
985.358824	2595.354038
985.655543	2602.075577
985.952224	2576.029615
986.248869	2552.504231
986.545478	2606.276538
986.842050	2551.664038
987.138586	2542.421923
987.435086	2559.225769
987.731549	2511.334808
988.027975	2564.266923
988.324366	2545.782692
988.620719	2515.535769
988.917037	2506.293654
989.213318	2530.659231
989.509563	2492.850577
989.805772	2520.576923
990.101944	2540.741538
990.398080	2568.467885
990.694180	2521.417115
990.990244	2507.974038
991.286271	2551.664038
991.582262	2561.746346
991.878217	2551.664038
992.174136	2496.211346
992.470019	2530.659231
992.765865	2549.143462
993.061676	2570.988462
993.357450	2508.814231
993.653188	2504.613269
993.948890	2551.664038
994.244556	2551.664038
994.540186	2588.632500
994.835780	2538.220962
995.131337	2545.782692
995.426859	2520.576923
995.722345	2558.385577
996.017795	2532.339615
996.313208	2569.308077
996.608586	2523.097500
996.903928	2580.230577
997.199234	2618.039231
997.494504	2609.637308
997.789738	2575.189423
998.084936	2585.271731
998.380099	2533.179808
998.675225	2602.075577
998.970316	2602.915769
999.265371	2596.194231
999.560390	2515.535769
999.855373	2566.787500
1000.150320	2565.947308
1000.445232	2505.453462
1000.740108	2515.535769
1001.034948	2566.787500
1001.329752	2533.179808
1001.624521	2545.782692
1001.919254	2528.978846
1002.213951	2539.901346
1002.508613	2534.860192
1002.803239	2526.458269
1003.097829	2524.777885
1003.392384	2525.618077
1003.686903	2516.375962
1003.981386	2517.216154
1004.275834	2548.303269
1004.570246	2500.412308
1004.864623	2523.937692
1005.158964	2563.426731
1005.453270	2547.463077
1005.747540	2518.896538
1006.041775	2502.092692
1006.335974	2525.618077
1006.630138	2519.736731
1006.924266	2518.056346
1007.218359	2527.298462
1007.512416	2525.618077
1007.806438	2502.092692
1008.100425	2528.138654
1008.394376	2490.330000
1008.688292	2549.983654
1008.982172	2512.175000
1009.276017	2518.896538
1009.569827	2556.705192
1009.863602	2560.906154
1010.157341	2526.458269
1010.451045	2500.412308
1010.744714	2550.823846
1011.038347	2471.845769
1011.331945	2538.220962
1011.625508	2531.499423
1011.919036	2477.727115
1012.212528	2570.148269
1012.505986	2505.453462
1012.799408	2471.005577
1013.092795	2550.823846
1013.386147	2495.371154
1013.679464	2497.891731
1013.972745	2460.083077
1014.265992	2520.576923
1014.559204	2530.659231
1014.852380	2533.179808
1015.145521	2471.845769
1015.438628	2505.453462
1015.731699	2492.850577
1016.024736	2518.056346
1016.317737	2491.170192
1016.610703	2481.928077
1016.903635	2495.371154
1017.196531	2511.334808
1017.489393	2478.567308
1017.782219	2476.886923
1018.075011	2522.257308
1018.367768	2503.773077
1018.660490	2536.540577
1018.953177	2536.540577
1019.245829	2536.540577
