Dividing Wavelength (nm)	Counts (n)	Slit_number_10_of_a_total_of_40	
326.493990	2417.233269
326.888308	2417.233269
327.282561	2417.233269
327.676750	2348.337500
328.070874	2305.487692
328.464933	2384.465769
328.858929	2442.439038
329.252859	2369.342308
329.646726	2366.821731
330.040528	2400.429423
330.434265	2465.124231
330.827938	2415.552885
331.221547	2491.170192
331.615091	2483.608462
332.008571	2458.402692
332.401986	2562.586538
332.795338	2555.024808
333.188625	2549.983654
333.581847	2598.714808
333.975006	2598.714808
334.368100	2637.363654
334.761129	2633.162692
335.154095	2644.085192
335.546996	2674.332115
335.939833	2786.077692
336.332606	2823.886346
336.725315	2796.160000
337.117960	2871.777308
337.510540	2823.886346
337.903056	2899.503654
338.295508	2888.581154
338.687896	2857.494038
339.080220	2931.430962
339.472480	2817.164808
339.864676	2887.740962
340.256807	2958.317115
340.648875	2893.622308
341.040879	2878.498846
341.432818	2900.343846
341.824694	2923.869231
342.216506	2854.973462
342.608253	2916.307500
342.999937	2837.329423
343.391557	2871.777308
343.783113	2879.339038
344.174605	2862.535192
344.566033	2877.658654
344.957397	2869.256731
345.348697	2900.343846
345.739934	2865.895962
346.131106	2881.019423
346.522215	2875.138077
346.913260	2874.297885
347.304241	2870.937115
347.695159	2877.658654
348.086012	2875.138077
348.476802	2869.256731
348.867528	2844.050962
349.258191	2878.498846
349.648789	2791.118846
350.039324	2839.850000
350.429796	2879.339038
350.820203	2857.494038
351.210548	2878.498846
351.600828	2896.983077
351.991045	2864.215577
352.381198	2849.092115
352.771288	2869.256731
353.161314	2860.014615
353.551276	2869.256731
353.941175	2871.777308
354.331010	2857.494038
354.720782	2845.731346
355.110490	2869.256731
355.500135	2865.895962
355.889717	2845.731346
356.279235	2878.498846
356.668689	2854.973462
357.058080	2881.019423
357.447408	2870.937115
357.836672	2859.174423
358.225873	2895.302692
358.615010	2856.653846
359.004084	2861.695000
359.393095	2871.777308
359.782043	2845.731346
360.170927	2873.457692
360.559748	2860.854808
360.948505	2854.973462
361.337199	2843.210769
361.725830	2885.220385
362.114398	2847.411731
362.502903	2893.622308
362.891344	2841.530385
363.279722	2857.494038
363.668037	2923.869231
364.056289	2894.462500
364.444478	2850.772500
364.832603	2868.416538
365.220665	2915.467308
365.608665	2874.297885
365.996601	2861.695000
366.384474	2868.416538
366.772284	2833.128462
367.160031	2868.416538
367.547715	2907.065385
367.935336	2849.092115
368.322893	2861.695000
368.710388	2865.895962
369.097820	2891.941923
369.485189	2893.622308
369.872495	2884.380192
370.259738	2883.540000
370.646918	2908.745769
371.034035	2855.813654
371.421090	2887.740962
371.808081	2891.101731
372.195010	2840.690192
372.581875	2878.498846
372.968678	2872.617500
373.355418	2897.823269
373.742096	2875.138077
374.128710	2896.142885
374.515262	2914.627115
374.901751	2907.905577
375.288177	2888.581154
375.674540	2914.627115
376.060841	2859.174423
376.447079	2898.663462
376.833254	2889.421346
377.219367	2902.024231
377.605417	2930.590769
377.991404	2944.874038
378.377329	2896.142885
378.763191	2886.060577
379.148991	2946.554423
379.534727	2933.111346
379.920402	2957.476923
380.306013	2944.033846
380.691563	2986.883654
381.077049	2975.961154
381.462474	2965.038654
381.847835	2975.120962
382.233134	3008.728654
382.618371	2968.399423
383.003545	2966.719038
383.388657	3029.733462
383.773706	3065.021538
384.158693	3052.418654
384.543618	3074.263654
384.928480	3153.241731
385.313280	3122.994808
385.698017	3125.515385
386.082692	3158.282885
386.467305	3158.282885
386.851856	3199.452308
387.236344	3246.503077
387.620770	3299.435192
388.005133	3328.001731
388.389435	3338.924231
388.773674	3342.285000
389.157851	3435.546346
389.541965	3430.505192
389.926018	3490.158846
390.310008	3516.204808
390.693936	3627.950385
391.077802	3610.306346
391.461606	3603.584808
391.845348	3705.248077
392.229027	3747.257692
392.612645	3843.879808
392.996200	3837.998462
393.379694	3925.378462
393.763125	3949.744038
394.146494	4041.325000
394.529801	4087.535577
394.913047	4159.792115
395.296230	4158.111731
395.679351	4200.961538
396.062410	4309.346346
396.445408	4355.556923
396.828343	4371.520577
397.211217	4434.535000
397.594028	4410.169423
397.976778	4449.658462
398.359466	4526.115962
398.742092	4588.290192
399.124656	4658.026154
399.507158	4698.355385
399.889598	4714.319038
400.271977	4806.740192
400.654294	4936.970000
401.036549	4924.367115
401.418742	4926.047500
401.800874	5115.930962
402.182944	5131.054423
402.564952	5221.795192
402.946898	5220.955000
403.328783	5258.763654
403.710606	5392.354231
404.092367	5498.218462
404.474067	5741.034038
404.855705	5615.845385
405.237282	5619.206154
405.618797	5807.409231
406.000250	5992.251538
406.381642	6079.631538
406.762972	6089.713846
407.144240	6105.677500
407.525447	6201.459423
407.906593	6230.866154
408.287677	6352.694038
408.668700	6513.170769
409.049661	6408.146731
409.430560	6478.722885
409.811399	6616.514423
410.192176	6820.681154
410.572891	6878.654423
410.953545	7115.588654
411.334138	6919.823846
411.714669	7199.607885
412.095139	6829.083077
412.475547	7211.370577
412.855894	7318.915192
413.236180	7339.079808
413.616405	7337.399423
413.996568	7412.176538
414.376670	7347.481731
414.756711	7371.007115
415.136691	7606.260962
415.516609	7694.481154
415.896466	7800.345385
416.276262	7905.369423
416.655997	8157.427115
417.035670	8099.453846
417.415283	8632.135769
417.794834	8767.406731
418.174324	8640.537692
418.553753	8690.949231
418.933121	8960.650962
419.312428	8848.065192
419.691674	8979.135192
420.070859	9197.585192
420.449983	9114.406154
420.829045	9423.596923
421.208047	9184.142115
421.586988	9442.081154
421.965867	9748.751346
422.344686	9842.012692
422.723444	10031.055962
423.102141	9488.291731
423.480777	10062.143077
423.859352	9942.835769
424.237866	10546.093846
424.616319	10427.626731
424.994712	10999.797692
425.373044	10709.931346
425.751314	11129.187308
426.129524	10809.074038
426.507673	11435.857500
426.885762	11308.148269
427.263789	11528.278654
427.641756	11651.786923
428.019662	11804.701923
428.397508	11960.137500
428.775292	11929.050385
429.153016	12097.088846
429.530679	12235.720577
429.908282	12366.790577
430.285824	12127.335769
430.663305	12752.438846
431.040726	12340.744615
431.418086	12302.935962
431.795385	12835.617885
432.172624	13054.908077
432.549802	12828.056154
432.926920	13132.205769
433.303977	12906.194038
433.680974	13177.576154
434.057910	13464.921923
434.434786	13585.909615
434.811601	13331.331346
435.188355	14084.983846
435.565050	13942.991346
435.941683	13933.749231
436.318257	14558.852308
436.694770	14678.999808
437.071222	15154.548654
437.447614	14714.287885
437.823946	14731.091731
438.200218	14918.454615
438.576429	14704.205577
438.952580	14933.578077
439.328670	14903.331154
439.704700	15279.737308
440.080670	15162.110385
440.456580	15378.039808
440.832429	15753.605769
441.208218	14990.711154
441.583947	15551.959615
441.959616	15399.884808
442.335224	15544.397885
442.710773	15864.511154
443.086261	16250.999615
443.461689	15883.835577
443.837057	16086.321923
444.212365	16625.725385
444.587612	16438.362500
444.962800	16419.878269
445.337927	16692.940769
445.712995	15768.729231
446.088002	17411.305192
446.462949	17462.556923
446.837837	17517.169423
447.212664	17395.341538
447.587431	18685.036731
447.962139	20408.271154
448.336786	23358.186346
448.711374	23785.844231
449.085901	21242.582115
449.460369	20945.154038
449.834776	19882.310769
450.209124	21508.923077
450.583412	21485.397692
450.957640	22679.310962
451.331808	22115.541923
451.705917	20839.289808
452.079965	20666.210192
452.453954	20809.042885
452.827883	20503.212885
453.201752	20759.471538
453.575562	20951.875577
453.949311	22044.965769
454.323001	21882.808654
454.696632	21694.605577
455.070202	23071.680769
455.443713	22989.341923
455.817164	23928.676923
456.190556	24395.823846
456.563888	24209.301154
456.937160	25298.190385
457.310373	23762.318846
457.683526	24458.838269
458.056619	24121.080962
458.429653	23957.243462
458.802628	24212.661923
459.175542	24325.247692
459.548398	25425.059423
459.921194	26533.273077
460.293930	26685.347885
460.666607	28440.509615
461.039224	30148.620577
461.411782	31362.698462
461.784280	30918.236731
462.156719	31108.960385
462.529099	31009.817692
462.901419	29513.435192
463.273680	28858.085192
463.645882	28665.681154
464.018024	28420.345000
464.390106	28947.145577
464.762130	30477.975962
465.134094	32657.434808
465.505999	36443.341346
465.877845	41868.463077
466.249631	45037.668462
466.621358	45693.858654
466.993026	44520.110000
467.364634	43295.109615
467.736184	40710.678077
468.107674	39599.103654
468.479105	38717.741923
468.850477	38299.326154
469.221790	37227.240769
469.593043	35372.096154
469.964238	34629.366154
470.335373	34231.115000
470.706449	35194.815577
471.077467	35645.158654
471.448425	39504.161923
471.819324	44102.534423
472.190164	45674.534231
472.560945	43289.228269
472.931667	39919.216923
473.302330	38331.253462
473.672934	37034.836731
474.043479	37390.238077
474.413965	36916.369615
474.784393	36308.910577
475.154761	37291.935577
475.525070	37515.426731
475.895321	37081.047308
476.265513	37487.700385
476.635645	39068.102115
477.005719	38915.187115
477.375734	39262.186538
477.745691	39676.401346
478.115588	41158.500577
478.485427	42632.197885
478.855207	45202.346154
479.224928	47855.673462
479.594591	50711.487115
479.964194	51287.859038
480.333739	52085.201538
480.703226	52135.613077
481.072653	52565.791538
481.442022	52953.120192
481.811333	53746.261731
482.180584	52964.882885
482.549777	52906.069423
482.918912	52707.784038
483.287988	52392.711923
483.657005	51829.783077
484.025964	51255.091538
484.394864	51770.969615
484.763706	51245.849423
485.132489	51014.796538
485.501213	50721.569423
485.869879	51207.200577
486.238487	50489.676346
486.607036	51204.680000
486.975527	50567.814231
487.343959	51218.123077
487.712333	51504.628654
488.080648	51673.507308
488.448905	52410.355962
488.817104	52320.455385
489.185244	52895.146923
489.553326	53757.184231
489.921350	55837.500385
490.289315	58499.229615
490.657222	59772.120962
491.025070	60763.547885
491.392861	60759.346923
491.760593	60426.630769
492.128267	59509.140769
492.495883	58484.946346
492.863440	57633.831538
493.230939	56129.047115
493.598380	55296.416538
493.965763	55188.031731
494.333088	54420.936154
494.700354	53854.646538
495.067563	53794.152692
495.434713	53584.104615
495.801805	54177.280385
496.168839	53505.966731
496.535815	53468.158077
496.902733	53871.450385
497.269593	53521.090192
497.636395	53731.978462
498.003139	54115.946346
498.369825	53877.331731
498.736453	54389.008846
499.103023	53990.757692
499.469535	54129.389423
499.835989	54101.663077
500.202385	53990.757692
500.568723	54081.498462
500.935003	54640.226346
501.301226	54429.338077
501.667390	55308.179231
502.033497	55637.534615
502.399546	55373.714231
502.765537	54467.146731
503.131470	55136.780000
503.497345	55542.592885
503.863163	54376.405962
504.228923	55314.900769
504.594625	55660.219808
504.960269	55325.823269
505.325856	55969.410577
505.691385	55146.022115
506.056856	55496.382308
506.422270	56329.012885
506.787625	55804.732885
507.152924	56045.868077
507.518164	56407.990962
507.883347	55525.789038
508.248472	55880.350192
508.613540	56615.518462
508.978550	56938.152308
509.343503	56742.387500
509.708398	57110.391731
510.073236	57660.717692
510.438016	57681.722500
510.802738	57322.960385
511.167403	57653.155962
511.532010	57993.433846
511.896561	58431.174038
512.261053	59079.802500
512.625488	59051.235962
512.989866	58728.602115
513.354186	58576.527308
513.718449	58649.624038
514.082655	59149.538462
514.446803	59032.751731
514.810894	59278.087885
515.174927	59449.487115
515.538904	59273.046731
515.902822	59775.481731
516.266684	59220.114615
516.630488	59704.065385
516.994235	59608.283462
517.357925	60143.485962
517.721558	60357.735000
518.085133	60461.078654
518.448651	60311.524423
518.812112	60367.817308
519.175516	60329.168462
519.538863	60668.606154
519.902152	60643.400385
520.265385	61173.561731
520.628560	61029.888846
520.991678	60741.702885
521.354739	61026.528077
521.717743	61030.729038
522.080690	61103.825769
522.443580	61439.902692
522.806413	61633.987115
523.169189	61527.282692
523.531908	61669.275192
523.894569	61597.018654
524.257174	61754.134615
524.619722	61865.040000
524.982213	61927.214231
525.344647	61843.195000
525.707025	61768.417885
526.069345	62110.376154
526.431608	62101.134038
526.793815	62291.017500
527.155964	61896.967308
527.518057	61933.935769
527.880093	61889.405577
528.242072	62152.385769
528.603995	61793.623654
528.965860	61814.628462
529.327669	61865.040000
529.689421	61828.071538
530.051117	61576.013846
530.412755	61632.306731
530.774337	61832.272500
531.135862	61509.638654
531.497331	61636.507692
531.858743	61721.367115
532.220098	61844.035192
532.581396	61550.808077
532.942638	61382.769615
533.303824	61773.459038
533.664953	61619.703846
534.026025	61444.103654
534.387040	61733.970000
534.747999	61694.480962
535.108902	61729.769038
535.469748	61550.808077
535.830537	61536.524808
536.191270	61580.214808
536.551947	61406.295000
536.912567	61498.716154
537.273131	61544.926731
537.633638	61073.578846
537.994089	61348.321731
538.354483	60838.325000
538.714821	61340.760000
539.075103	61470.149615
539.435328	61186.164615
539.795497	61148.355962
540.155609	61141.634423
540.515665	61459.227115
540.875665	60737.501923
541.235609	61360.084423
541.595496	61111.387500
541.955328	61481.912308
542.315102	61001.322308
542.674821	60873.613077
543.034483	60934.947115
543.394090	61040.811346
543.753640	60834.124038
544.113134	61507.958269
544.472571	60723.218654
544.831953	61518.880769
545.191278	60859.329808
545.550548	60778.671346
545.909761	61162.639231
546.268918	61360.924615
546.628019	61623.904808
546.987064	61171.041154
547.346053	60704.734423
547.704986	61159.278462
548.063863	60846.726923
548.422684	61051.733846
548.781449	60976.116538
549.140158	61223.973269
549.498811	60998.801731
549.857408	60578.705577
550.215949	61332.358077
550.574434	61290.348462
550.932864	60840.005385
551.291237	61549.127692
551.649555	61253.380000
552.007817	61313.033654
552.366022	60980.317500
552.724173	60940.828462
553.082267	61506.277885
553.440305	61573.493269
553.798288	60847.567115
554.156215	61127.351154
554.514086	61318.074808
554.871902	60943.349038
555.229661	61016.445769
555.587365	61004.683077
555.945014	60872.772885
556.302606	60720.698077
556.660143	60988.719423
557.017625	61123.990385
557.375050	60598.030000
557.732421	61102.145385
558.089735	60912.261923
558.446994	61100.465000
558.804197	61381.089231
559.161345	61232.375192
559.518437	60681.209038
559.875474	60781.191923
560.232455	60895.458077
560.589381	60934.947115
560.946251	60798.835962
561.303065	61360.084423
561.659825	61307.152308
562.016528	60999.641923
562.373177	60837.484808
562.729770	61074.419038
563.086307	60561.901731
563.442789	60850.087692
563.799216	61045.852500
564.155587	61049.213269
564.511904	60930.746154
564.868164	60887.056154
565.224370	61126.510962
565.580520	60744.223462
565.936615	61017.285962
566.292654	60750.104808
566.648638	60990.399808
567.004567	60942.508846
567.360441	60782.872308
567.716260	60602.230962
568.072023	60883.695385
568.427732	60825.722115
568.783385	60450.156154
569.138982	60806.397692
569.494525	60944.189231
569.850013	60856.809231
570.205445	60637.519038
570.560823	60569.463462
570.916145	60182.975000
571.271412	60305.643077
571.626625	60056.105962
571.981782	59993.931731
572.336884	59906.551731
572.691931	60098.955769
573.046923	59536.867115
573.401860	59399.075577
573.756743	59485.615385
574.111570	59709.946731
574.466342	59620.046154
574.821059	59746.075000
575.175722	59243.640000
575.530330	59513.341731
575.884882	59024.349808
576.239380	58973.098077
576.593823	59082.323077
576.948211	59039.473269
577.302544	58553.001923
577.656823	58646.263269
578.011047	58852.110385
578.365216	58567.285192
578.719330	58360.597885
579.073389	58411.849615
579.427394	58299.263846
579.781344	58052.247308
580.135239	57788.426923
580.489080	57901.012692
580.842866	57313.718269
581.196597	57765.741731
581.550273	57703.567500
581.903895	57654.836346
582.257463	57768.262308
582.610975	57216.255962
582.964434	57590.141538
583.317837	56803.721538
583.671186	56580.230385
584.024481	56834.808654
584.377721	56432.356538
584.730906	56513.855192
585.084037	56760.871731
585.437113	56190.381154
585.790135	56388.666538
586.143103	55983.693846
586.496016	55865.226731
586.848874	55719.033269
587.201679	55807.253462
587.554428	55474.537308
587.907124	55193.072885
588.259765	54761.214038
588.612352	55163.666154
588.964884	54499.914231
589.317362	54841.032308
589.669786	54814.986346
590.022155	54451.183077
590.374470	54855.315577
590.726731	54553.686538
591.078937	53788.271346
591.431090	53943.706923
591.783188	53572.341923
592.135232	53282.475577
592.487222	53565.620385
592.839157	53504.286346
593.191038	53119.478269
593.542866	53011.093462
593.894639	52444.803846
594.246358	52651.491154
594.598022	52577.554231
594.949633	52516.220192
595.301190	52278.445769
595.652692	52033.949808
596.004141	52545.626923
596.355535	51224.004423
596.706876	50809.789615
597.058162	50712.327308
597.409395	51172.752692
597.760573	51220.643654
598.111698	50700.564615
598.462768	50525.804615
598.813785	50685.441154
599.164748	49803.239231
599.515657	50175.444423
599.866511	49357.097115
600.217312	50163.681731
600.568060	48684.103077
600.918753	49365.499038
601.269392	49545.300192
601.619978	49095.797308
601.970510	49307.525769
602.320988	49357.097115
602.671412	49956.154231
603.021783	49105.039423
603.372100	48657.216923
603.722363	48590.001538
604.072572	48721.071538
604.422728	48674.020769
604.772830	48634.531731
605.122878	48065.721538
605.472872	48158.142692
605.822813	48442.967885
606.172701	48014.469808
606.522534	48532.868462
606.872314	48605.965192
607.222041	48048.917692
607.571714	48670.660000
607.921333	47617.058846
608.270899	47832.148077
608.620411	48461.452115
608.969870	48012.789423
609.319276	47522.117115
609.668627	47625.460769
610.017926	47979.181731
610.367171	48004.387500
610.716362	47909.445769
611.065500	47988.423846
611.414585	47748.969038
611.763616	48179.987692
612.112594	47700.237885
612.461518	48129.576154
612.810389	48095.128269
613.159207	47690.155577
613.507971	47659.908654
613.856682	48215.275769
614.205340	47688.475192
614.553945	48858.022885
614.902496	47906.085000
615.250994	48429.524808
615.599439	47978.341538
615.947830	48085.045962
616.296169	48166.544615
616.644454	48055.639231
616.992686	48006.908077
617.340864	48393.396538
617.688990	47486.829038
618.037063	48419.442500
618.385082	47994.305192
618.733048	48200.152308
619.080961	47953.975962
619.428821	47787.617885
619.776628	47741.407308
620.124382	47679.233077
620.472083	47622.100000
620.819731	48148.900577
621.167326	47296.105385
621.514868	47596.894231
621.862357	46913.817885
622.209793	47144.030577
622.557176	46552.535192
622.904506	46177.809423
623.251783	45892.984231
623.599007	45313.251538
623.946179	45267.881154
624.293297	45025.065577
624.640363	44570.521538
624.987376	44405.003654
625.334336	44199.156538
625.681243	43572.373077
626.028097	43441.303077
626.374899	43100.185000
626.721647	42768.309038
627.068343	42613.713654
627.414987	42280.997500
627.761577	41927.276538
628.108115	42177.653846
628.454600	41508.860769
628.801032	41420.640577
629.147412	41311.415577
629.493739	41291.250962
629.840014	40643.462692
630.186236	41065.239231
630.532405	40429.213654
630.878521	40241.850769
631.224585	40142.708077
631.570597	39623.469231
631.916556	40243.531154
632.262462	39889.810192
632.608316	39833.517308
632.954117	39531.048077
633.299866	39311.757885
633.645562	39265.547308
633.991206	38878.218654
634.336797	38257.316538
634.682336	38247.234231
635.027823	37963.249231
635.373257	37630.533077
635.718639	37289.415000
636.063968	37050.800385
636.409245	36336.636923
636.754470	36030.806923
637.099642	35903.097692
637.444762	35188.934231
637.789829	35654.400769
638.134845	34872.181731
638.479808	34810.007500
638.824719	34403.354423
639.169577	33967.294615
639.514383	33983.258269
639.859137	33538.796538
640.203839	33798.415962
640.548489	33548.038654
640.893086	33309.424038
641.237632	32901.090577
641.582125	32920.415000
641.926566	32937.218846
642.270955	32780.102885
642.615292	32696.923846
642.959576	32544.849038
643.303809	32334.800962
643.647990	32497.798269
643.992118	32281.028654
644.336195	31911.344038
644.680219	32099.547115
645.024192	32240.699423
645.368112	32533.086346
645.711981	32453.268077
646.055797	33296.821154
646.399562	32774.221538
646.743274	33542.157308
647.086935	33724.479038
647.430544	33792.534615
647.774101	34042.911923
648.117606	34073.999038
648.461059	34180.703462
648.804460	34085.761731
649.147810	33323.707308
649.491108	33337.150385
649.834354	33047.284038
650.177548	32427.222115
650.520690	32011.326923
650.863781	31859.252115
651.206820	31690.373462
651.549807	31168.614038
651.892742	30637.612500
652.235626	30368.750962
652.578458	30246.082885
652.921238	29777.255577
653.263967	30078.884615
653.606644	29463.863846
653.949269	29497.471538
654.291843	28947.145577
654.634365	29317.670385
654.976836	28664.840962
655.319255	28703.489808
655.661622	28350.609038
656.003938	28206.095962
656.346203	28025.454615
656.688416	28344.727692
657.030577	28019.573269
657.372687	27969.161731
657.714746	28139.720769
658.056753	28232.982115
658.398708	27557.467500
658.740612	27706.181538
659.082465	27822.128077
659.424266	27653.249423
659.766016	27627.203462
660.107715	27423.036731
660.449362	27381.027115
660.790958	27316.332308
661.132503	27314.651923
661.473996	27331.455769
661.815438	27346.579231
662.156829	27646.527885
662.498168	27121.407692
662.839456	27002.940577
663.180693	27087.800000
663.521879	27197.865192
663.863013	27136.531154
664.204097	27124.768462
664.545129	27493.612885
664.886110	27391.949615
665.227040	27323.894038
665.567918	27231.472885
665.908746	27443.201346
666.249522	27391.109423
666.590248	27306.250000
666.930922	27276.843269
667.271545	27206.267115
667.612118	27450.763077
667.952639	27249.957115
668.293109	27271.802115
668.633528	27191.983846
668.973896	26981.935769
669.314213	27266.760962
669.654480	26699.631154
669.994695	26767.686731
670.334859	26815.577692
670.674973	26482.861538
671.015035	26588.725769
671.355047	26516.469231
671.695008	26480.340962
672.034918	26424.888269
672.374777	26396.321731
672.714585	26163.588462
673.054342	26060.244808
673.394049	26119.898462
673.733705	26087.130962
674.073310	25898.087692
674.412864	25856.918269
674.752368	25677.117115
675.091820	25747.693269
675.431223	25329.277500
675.770574	25304.071731
676.109875	25314.154038
676.449125	24963.793846
676.788324	25020.086731
677.127473	24606.712115
677.466571	24426.070769
677.805619	24101.756538
678.144616	24075.710577
678.483562	23826.173462
678.822458	23746.355192
679.161303	23523.704231
679.500098	23422.881154
679.838842	23301.893462
680.177535	23159.060769
680.516179	23383.392115
680.854771	23310.295385
681.193314	23918.594615
681.531805	24362.216154
681.870247	24831.043462
682.208638	25566.211731
682.546978	25871.201538
682.885268	25887.165192
683.223508	25746.012885
683.561697	25505.717885
683.899836	25427.580000
684.237925	24925.985192
684.575963	24909.181346
684.913951	24389.942500
685.251889	24526.893846
685.589776	24594.949423
685.927614	24475.642115
686.265401	24568.903462
686.603137	24432.792308
686.940824	24786.513269
687.278460	24935.227308
687.616046	24831.883654
687.953582	25294.829615
688.291068	25225.093654
688.628504	25549.407885
688.965889	25400.693846
689.303224	25366.245962
689.640510	25108.306923
689.977745	24662.164808
690.314930	24298.361538
690.652065	23902.630962
690.989150	23658.135000
691.326185	22999.424231
691.663170	22492.788269
692.000105	22086.135192
692.336990	21443.388077
692.673825	21129.156154
693.010610	20718.302115
693.347345	20274.680577
693.684030	19903.315577
694.020665	19497.502692
694.357251	19162.265962
694.693786	19041.278269
695.030272	18912.728846
695.366707	18469.107308
695.703093	18324.594231
696.039429	18266.620962
696.375716	18007.841731
696.711952	17816.277885
697.048139	17630.595385
697.384276	17640.677692
697.720363	17575.142692
698.056400	17412.145385
698.392388	17302.920385
698.728326	17303.760577
699.064214	17144.124038
699.400053	17121.438846
699.735842	16902.148654
700.071581	16837.453846
700.407270	16485.413269
700.742910	16313.173846
701.078501	16205.629231
701.414042	16032.549615
701.749533	15796.455577
702.084974	15552.799808
702.420366	15685.550192
702.755709	15525.073462
703.091002	15217.563077
703.426246	15094.895000
703.761440	15073.050000
704.096584	14999.113077
704.431679	14920.135000
704.766725	14883.166538
705.101721	14683.200769
705.436668	14729.411346
705.771565	14510.961346
706.106413	14777.302308
706.441212	14705.045769
706.775961	14813.430577
707.110661	14751.256346
707.445311	14960.464231
707.779913	14876.445000
708.114465	14945.340769
708.448967	15235.207115
708.783421	15447.775769
709.117825	15672.947308
709.452180	15851.068077
709.786485	15970.375385
710.120742	16457.686923
710.454949	16509.778846
710.789107	16696.301538
711.123216	17258.390192
711.457275	17591.106346
711.791286	17817.958269
712.125247	17970.873269
712.459159	17744.021346
712.793023	18306.110000
713.126837	17583.544615
713.460602	17705.372500
713.794318	17823.839615
714.127985	17349.130962
714.461602	16867.700769
714.795171	16824.850962
715.128691	16066.157308
715.462162	15913.242308
715.795584	15630.937692
716.128957	15499.027500
716.462281	15162.950577
716.795556	15027.679615
717.128782	14673.958654
717.461960	14437.024423
717.795088	14233.697885
718.128167	13882.497500
718.461198	13678.330769
718.794180	13659.846538
719.127113	13463.241538
719.459997	13297.723654
719.792833	13080.954038
720.125619	13034.743462
720.458357	12678.501923
720.791046	12640.693269
721.123686	12501.221346
721.456278	12362.589615
721.788821	12310.497692
722.121315	12070.202692
722.453761	12206.313846
722.786158	12082.805577
723.118506	12078.604615
723.450805	12013.069615
723.783056	12172.706154
724.115259	12012.229423
724.447412	11958.457115
724.779518	12055.919423
725.111574	12056.759615
725.443582	12245.802885
725.775542	12181.108077
726.107453	12490.298846
726.439315	12253.364615
726.771129	12567.596538
727.102895	12901.993077
727.434612	12916.276346
727.766281	13002.816154
728.097901	13267.476731
728.429473	13286.801154
728.760996	13336.372500
729.092471	13342.253846
729.423897	13298.563846
729.755276	13248.992500
730.086606	13332.171538
730.417887	13544.740192
730.749120	13832.085962
731.080305	14041.293846
731.411442	14224.455769
731.742530	14370.649231
732.073570	14389.133462
732.404562	14626.067692
732.735506	14584.898269
733.066401	14553.811154
733.397249	14232.017500
733.728048	13952.233462
734.058798	13450.638654
734.389501	13000.295577
734.720156	12545.751538
735.050762	12255.885192
735.381320	11939.132692
735.711831	11784.537308
736.042293	11473.666154
736.372707	11530.799231
736.703073	11375.363654
737.033391	11447.620192
737.363661	11333.354038
737.693883	11359.400000
738.024056	11405.610577
738.354182	11625.740962
738.684260	11796.300000
739.014290	11929.050385
739.344272	12116.413269
739.674207	12176.907115
740.004093	12152.541538
740.333931	12296.214423
740.663722	12365.950385
740.993464	12542.390769
741.323159	12243.282308
741.652806	12023.992115
741.982405	12141.619038
742.311956	11886.200577
742.641460	11750.929615
742.970915	11442.579038
743.300323	11337.555000
743.629683	11224.129038
743.958996	11067.013077
744.288260	10794.790769
744.617477	10759.502692
744.946647	10606.587692
745.275768	10363.772115
745.604842	10242.784423
745.933869	10162.125962
746.262847	10159.605385
746.591778	10094.910577
746.920662	10033.576538
747.249498	9968.881731
747.578286	10103.312500
747.907027	10114.235000
748.235720	10281.433269
748.564365	10137.760385
748.892963	10162.966154
749.221514	10268.830385
749.550017	10174.728846
749.878473	10015.092308
750.206881	9918.470192
750.535242	9957.959231
750.863555	9776.477692
751.191821	9700.860385
751.520039	9767.235577
751.848210	9660.531154
752.176334	9684.896731
752.504411	9724.385769
752.832440	9596.676538
753.160421	9623.562692
753.488356	9633.645000
753.816243	9525.260192
754.144082	9369.824615
754.471875	9430.318462
754.799620	9325.294423
755.127318	9335.376731
755.454969	9311.851346
755.782572	9324.454231
756.110129	9244.635962
756.437638	9262.280000
756.765100	9236.234038
757.092515	9263.120192
757.419882	9331.175769
757.747203	9202.626346
758.074477	9242.955577
758.401703	9153.055000
758.728882	9381.587308
759.056014	9278.243654
759.383099	9381.587308
759.710138	9591.635385
760.037129	9649.608654
760.364073	9621.882308
760.690970	9568.950192
761.017820	9710.942692
761.344623	9738.669038
761.671379	9852.935192
761.998088	10135.239808
762.324751	10910.737308
762.651366	12441.567692
762.977935	14770.580769
763.304456	16725.708269
763.630931	17830.561154
763.957359	17529.772308
764.283740	16455.166346
764.610074	15183.115192
764.936362	13398.546731
765.262602	12418.882500
765.588796	11296.385577
765.914943	10525.929231
766.241044	9878.140962
766.567097	9501.734808
766.893104	8967.372500
767.219064	8562.399808
767.544978	8382.598654
767.870845	8188.514231
768.196665	8111.216538
768.522438	7849.076538
768.848165	7774.299423
769.173846	7612.142308
769.499479	7524.762308
769.825066	7423.939231
770.150607	7291.188846
770.476101	7217.251923
770.801548	7214.731346
771.126949	7029.889038
771.452303	6986.199038
771.777611	6906.380769
772.102872	6822.361538
772.428087	6843.366346
772.753256	6754.305962
773.078378	6696.332692
773.403453	6591.308654
773.728482	6470.320962
774.053465	6440.914231
774.378401	6409.827115
774.703291	6256.912115
775.028135	6256.071923
775.352932	6254.391538
775.677683	6207.340769
776.002388	6158.609615
776.327046	6045.183654
776.651658	6097.275577
776.976224	6014.096538
777.300743	5919.154808
777.625216	5828.414038
777.949643	5861.181538
778.274024	5859.501154
778.598359	5874.624615
778.922647	5834.295385
779.246889	5893.108846
779.571086	5796.486731
779.895236	5805.728846
780.219339	5803.208269
780.543397	5825.053269
780.867409	5867.062885
781.191374	5794.806346
781.515294	5799.847500
781.839167	5814.970962
782.162995	5848.578654
782.486776	5800.687692
782.810511	5783.883846
783.134201	5788.084808
783.457844	5728.431154
783.781441	5726.750769
784.104993	5680.540192
784.428498	5759.518269
784.751958	5673.818654
785.075372	5655.334423
785.398739	5639.370769
785.722061	5617.525769
786.045337	5539.387885
786.368568	5667.097115
786.691752	5726.750769
787.014891	5883.866731
787.337983	6005.694615
787.661030	6196.418269
787.984031	6607.272308
788.306987	6868.572115
788.629897	6868.572115
788.952760	6935.787500
789.275579	6846.727115
789.598351	6674.487692
789.921078	6435.873077
790.243759	6208.180962
790.566395	6085.512885
790.888984	5956.123269
791.211529	5801.527885
791.534027	5767.080000
791.856480	5582.237692
792.178888	5547.789808
792.501249	5511.661538
792.823566	5385.632692
793.145836	5430.162885
793.468062	5399.075769
793.790241	5393.194423
794.112375	5389.833654
794.434464	5493.177308
794.756507	5494.857692
795.078505	5513.341923
795.400457	5731.791923
795.722364	5840.176731
796.044226	5936.798846
796.366042	6186.335962
796.687812	6096.435385
797.009538	6219.103462
797.331218	6070.389423
797.652852	6076.270769
797.974442	6049.384615
798.295986	5924.195962
798.617484	5820.852308
798.938938	5746.915385
799.260346	5705.745962
799.581709	5618.365962
799.903026	5584.758269
800.224299	5586.438654
800.545526	5488.976346
800.866708	5387.313077
801.187845	5317.577115
801.508936	5262.124423
801.829983	5284.809615
802.150984	5172.223846
802.471940	5110.889808
802.792851	5175.584615
803.113717	5136.095577
803.434538	5125.173077
803.755314	5113.410385
804.076045	5109.209423
804.396731	5063.839038
804.717372	5134.415192
805.037967	4966.376731
805.358518	5078.962500
805.679024	5099.127115
805.999485	5102.487885
806.319901	5152.899423
806.640272	5121.812308
806.960598	5136.935769
807.280879	5184.826731
807.601115	5181.465962
807.921306	5130.214231
808.241453	5169.703269
808.561554	5139.456346
808.881611	5156.260192
809.201623	5182.306154
809.521590	5105.848654
809.841513	5102.487885
810.161390	5108.369231
810.481223	5152.059231
810.801011	5131.054423
811.120755	5041.994038
811.440453	4942.011154
811.760107	4973.938462
812.079716	4996.623654
812.399281	4847.069423
812.718801	4989.902115
813.038276	4963.015962
813.357707	4936.129808
813.677093	4933.609231
813.996434	4871.435000
814.315731	4863.873269
814.634983	4894.960385
814.954191	4850.430192
815.273354	4922.686731
815.592473	4939.490577
815.911547	5052.916538
816.230577	5061.318462
816.549562	5173.064038
816.868502	5241.959808
817.187399	5294.051731
817.506250	5417.560000
817.825058	5354.545577
818.143821	5434.363846
818.462539	5621.726731
818.781213	5768.760385
819.099843	6025.019038
819.418429	6521.572692
819.736970	6918.143462
820.055466	7512.159423
820.373919	8046.521731
820.692327	9176.580385
821.010691	10747.740000
821.329011	14124.472885
821.647286	20335.174423
821.965517	27842.292692
822.283704	33423.690192
822.601847	36410.573846
822.919945	34029.468846
823.237999	30527.547308
823.556010	26021.595962
823.873976	22186.118077
824.191897	18662.351538
824.509775	16214.031154
824.827609	14010.206731
825.145398	12801.170000
825.463144	12113.892692
825.780845	12221.437308
826.098502	12950.724231
826.416116	14711.767308
826.733685	16508.938654
827.051210	17653.280577
827.368692	17163.448462
827.686129	15309.144038
828.003522	13261.595385
828.320872	11408.971346
828.638177	9742.870000
828.955439	8730.438269
829.272656	7893.606731
829.589830	7294.549615
829.906960	6715.657115
830.224046	6286.318846
830.541088	6020.818077
830.858086	5719.189038
831.175041	5604.922885
831.491952	5602.402308
831.808819	5578.876923
832.125642	5771.280962
832.442421	6043.503269
832.759157	6822.361538
833.075849	7954.100577
833.392497	9508.456346
833.709101	10725.895000
834.025662	10986.354615
834.342179	10370.493654
834.658653	9229.512500
834.975083	8208.678846
835.291469	7292.869231
835.607811	6580.386154
835.924110	6125.001923
836.240366	5722.549808
836.556578	5309.175192
836.872746	5131.054423
837.188871	4886.558462
837.504952	4709.277885
837.820990	4524.435577
838.136984	4506.791538
838.452935	4445.457500
838.768842	4405.968462
839.084706	4583.249038
839.400526	5024.350000
839.716303	5668.777500
840.032037	6317.405962
840.347727	6680.369038
840.663373	6199.779038
840.978977	5714.988077
841.294537	5184.826731
841.610054	4837.827308
841.925527	4573.166731
842.240957	4363.958846
842.556344	4200.961538
842.871687	4067.370962
843.186987	3985.872308
843.502244	3927.058846
843.817458	3844.720000
844.132629	3799.349615
844.447756	3746.417500
844.762840	3704.407885
845.077881	3707.768654
845.392879	3685.923654
845.707833	3644.754231
846.022745	3538.890000
846.337613	3530.488077
846.652438	3580.899615
846.967221	3610.306346
847.281960	3537.209615
847.596656	3509.483269
847.911309	3471.674615
848.225919	3460.752115
848.540485	3488.478462
848.855009	3488.478462
849.169490	3500.241154
849.483928	3494.359808
849.798323	3450.669808
850.112675	3445.628654
850.426984	3427.144423
850.741251	3404.459231
851.055474	3388.495577
851.369654	3475.035385
851.683792	3446.468846
851.997887	3441.427692
852.311938	3496.040192
852.625947	3433.025769
852.939914	3399.418077
853.253837	3411.180769
853.567718	3455.710962
853.881555	3422.943462
854.195350	3420.422885
854.509103	3449.829615
854.822812	3438.066923
855.136479	3449.829615
855.450103	3392.696538
855.763685	3425.464038
856.077224	3446.468846
856.390720	3436.386538
856.704173	3426.304231
857.017584	3401.098462
857.330953	3452.350192
857.644278	3459.911923
857.957561	3484.277500
858.270802	3443.108077
858.584000	3455.710962
858.897155	3476.715769
859.210268	3431.345385
859.523339	3378.413269
859.836367	3396.897500
860.149352	3387.655385
860.462295	3416.221923
860.775195	3393.536731
861.088054	3446.468846
861.400869	3421.263077
861.713642	3433.865962
862.026373	3451.510000
862.339062	3464.112885
862.651708	3411.180769
862.964312	3462.432500
863.276873	3398.577885
863.589392	3446.468846
863.901869	3522.926346
864.214303	3473.355000
864.526696	3538.049808
864.839045	3585.940769
865.151353	3560.735000
865.463619	3596.023077
865.775842	3530.488077
866.088023	3531.328269
866.400162	3588.461346
866.712258	3508.643077
867.024313	3593.502500
867.336325	3616.187692
867.648296	3569.977115
867.960224	3539.730192
868.272110	3533.008654
868.583954	3548.132115
868.895755	3635.512115
869.207515	3565.776154
869.519233	3587.621154
869.830909	3575.858462
870.142542	3627.110192
870.454134	3632.151346
870.765684	3677.521731
871.077191	3612.826923
871.388657	3648.115000
871.700081	3671.640385
872.011463	3684.243269
872.322803	3656.516923
872.634101	3653.996346
872.945357	3706.928462
873.256571	3720.371538
873.567744	3754.819423
873.878874	3743.056731
874.189963	3846.400385
874.501010	3767.422308
874.812015	3785.066346
875.122979	3787.586923
875.433900	3764.901731
875.744780	3781.705577
876.055618	3787.586923
876.366415	3745.577308
876.677169	3806.071154
876.987882	3851.441538
877.298554	3866.565000
877.609183	3905.213846
877.919771	3952.264615
878.230317	3960.666538
878.540822	4063.170000
878.851285	4258.094615
879.161707	4418.571346
879.472087	4698.355385
879.782425	5111.730000
880.092722	5951.082115
880.402977	7166.000192
880.713191	8931.244231
881.023363	10861.165962
881.333494	11873.597692
881.643583	12576.838654
881.953631	12144.979808
882.263637	11510.634615
882.573602	10804.032885
882.883526	10147.002500
883.193408	9248.836923
883.503248	8522.910769
883.813048	7781.020962
884.122806	7192.886346
884.432522	6651.802500
884.742197	6208.180962
885.051831	5803.208269
885.361424	5490.656731
885.670975	5162.981731
885.980485	4943.691538
886.289954	4749.607115
886.599382	4584.929423
886.908768	4433.694808
887.218113	4335.392308
887.527417	4210.203654
887.836680	4055.608269
888.145901	4032.923077
888.455082	3969.068462
888.764221	3912.775577
889.073319	3850.601346
889.382376	3853.962115
889.691392	3763.221346
890.000366	3840.519038
890.309300	3817.833846
890.618193	3764.901731
890.927044	3844.720000
891.235855	3759.020385
891.544625	3801.870192
891.853353	3830.436731
892.162041	3847.240577
892.470687	3922.857885
892.779293	4069.891538
893.087858	4196.760577
893.396381	4437.055577
893.704864	4649.624231
894.013306	5061.318462
894.321707	5552.830962
894.630068	6033.420962
894.938387	6162.810577
895.246665	6032.580769
895.554903	5734.312500
895.863100	5370.509231
896.171256	5163.821923
896.479371	4949.572885
896.787446	4712.638654
897.095480	4515.193462
897.403473	4384.963654
897.711425	4278.259231
898.019336	4144.668654
898.327207	4043.845577
898.635038	3990.913462
898.942827	3918.656923
899.250576	3899.332500
899.558284	3807.751538
899.865952	3731.294038
900.173579	3707.768654
900.481165	3706.088269
900.788711	3639.713077
901.096216	3640.553269
901.403681	3599.383846
901.711105	3592.662308
902.018489	3543.931154
902.325832	3598.543654
902.633135	3671.640385
902.940397	3684.243269
903.247619	3993.434038
903.554800	4486.626923
903.861941	5245.320577
904.169041	6026.699423
904.476101	6355.214615
904.783121	6314.885385
905.090100	5910.752885
905.397039	5514.182115
905.703938	5183.986538
906.010796	4860.512500
906.317614	4546.280577
906.624391	4347.155000
906.931129	4208.523269
907.237826	3987.552692
907.544483	3930.419615
907.851099	3722.892115
908.157675	3654.836538
908.464211	3580.059423
908.770707	3528.807692
909.077163	3515.364615
909.383578	3339.764423
909.689954	3355.728077
909.996289	3302.795962
910.302584	3296.074423
910.608839	3247.343269
910.915054	3242.302115
911.221229	3243.982500
911.527363	3285.151923
911.833458	3299.435192
912.139513	3308.677308
912.445527	3317.919423
912.751502	3326.321346
913.057436	3358.248654
913.363331	3393.536731
913.669186	3492.679423
913.975000	3552.333077
914.280775	3648.955192
914.586510	3907.734423
914.892205	4270.697500
915.197859	4639.541923
915.503475	5047.875385
915.809050	5482.254808
916.114585	5702.385192
916.420081	5816.651346
916.725536	5835.975769
917.030952	5621.726731
917.336328	5415.879615
917.641665	5176.424808
917.946961	4986.541346
918.252218	4767.251154
918.557435	4613.495962
918.862612	4464.781923
919.167750	4256.414231
919.472848	4190.039038
919.777906	4021.160385
920.082925	3956.465577
920.387904	3843.879808
920.692843	3713.650000
920.997743	3632.151346
921.302603	3630.470962
921.607423	3574.178077
921.912204	3510.323462
922.216946	3414.541538
922.521647	3464.112885
922.826310	3379.253462
923.130932	3367.490769
923.435516	3303.636154
923.740059	3282.631346
924.044564	3258.265769
924.349028	3209.534615
924.653454	3208.694423
924.957840	3213.735577
925.262186	3166.684808
925.566493	3118.793846
925.870761	3139.798654
926.174989	3114.592885
926.479178	3156.602500
926.783328	3088.546923
927.087438	3079.304808
927.391509	3000.326731
927.695541	3116.273269
927.999533	3074.263654
928.303486	3067.542115
928.607400	3075.103846
928.911275	3063.341154
929.215110	3044.856923
929.518906	2993.605192
929.822663	2983.522885
930.126381	3006.208077
930.430060	3031.413846
930.733699	3000.326731
931.037299	3033.934423
931.340861	3050.738269
931.644383	3026.372692
931.947866	3023.011923
932.251309	3014.610000
932.554714	3038.975577
932.858080	3003.687500
933.161407	3034.774615
933.464694	3048.217692
933.767943	2968.399423
934.071153	2973.440577
934.374323	2997.806154
934.677455	3047.377500
934.980548	3022.171731
935.283602	3001.166923
935.586617	2999.486538
935.889593	3019.651154
936.192530	3016.290385
936.495428	2986.043462
936.798287	3008.728654
937.101108	2986.043462
937.403890	3042.336346
937.706632	3019.651154
938.009336	3080.145000
938.312002	3085.186154
938.614628	3167.525000
938.917216	3167.525000
939.219765	3154.081923
939.522275	3199.452308
939.824747	3178.447500
940.127179	3172.566154
940.429573	3215.415962
940.731929	3204.493462
941.034246	3173.406346
941.336524	3222.137500
941.638763	3128.035962
941.940964	3143.159423
942.243126	3165.844615
942.545250	3184.328846
942.847335	3165.004423
943.149381	3116.273269
943.451389	3059.980385
943.753359	3075.944038
944.055290	3071.743077
944.357182	3112.072308
944.659036	3106.190962
944.960851	3029.733462
945.262628	3092.747885
945.564367	3028.893269
945.866067	3074.263654
946.167729	3035.614808
946.469352	3028.053077
946.770937	3049.057885
947.072484	3034.774615
947.373992	3019.651154
947.675462	3051.578462
947.976893	3035.614808
948.278286	3029.733462
948.579641	3008.728654
948.880958	3043.176538
949.182236	3058.300000
949.483476	3084.345962
949.784678	3028.053077
950.085841	3020.491346
950.386967	3067.542115
950.688054	2997.806154
950.989103	3035.614808
951.290114	3045.697115
951.591087	3032.254038
951.892021	3048.217692
952.192917	3072.583269
952.493776	3068.382308
952.794596	3106.190962
953.095378	3086.866538
953.396122	3074.263654
953.696828	3098.629231
953.997496	3038.975577
954.298126	3065.021538
954.598718	3061.660769
954.899272	3101.149808
955.199788	3021.331538
955.500266	3046.537308
955.800706	3020.491346
956.101108	3027.212885
956.401472	3023.852115
956.701798	2972.600385
957.002087	2934.791731
957.302337	2963.358269
957.602550	2958.317115
957.902724	2953.275962
958.202861	2932.271154
958.502960	2932.271154
958.803022	2938.152500
959.103045	2938.992692
959.403031	2922.188846
959.702979	2930.590769
960.002889	2866.736154
960.302762	2890.261538
960.602596	2905.385000
960.902393	2885.220385
961.202153	2854.133269
961.501875	2896.142885
961.801559	2887.740962
962.101205	2886.060577
962.400814	2889.421346
962.700385	2854.973462
962.999918	2846.571538
963.299414	2883.540000
963.598873	2865.895962
963.898293	2852.452885
964.197677	2873.457692
964.497022	2912.946731
964.796331	2898.663462
965.095601	2885.220385
965.394835	2872.617500
965.694030	2862.535192
965.993189	2879.339038
966.292309	2878.498846
966.591393	2886.060577
966.890439	2847.411731
967.189447	2939.832885
967.488419	2889.421346
967.787353	2839.850000
968.086249	2900.343846
968.385108	2891.941923
968.683930	2875.978269
968.982714	2807.082500
969.281462	2870.096923
969.580172	2843.210769
969.878844	2895.302692
970.177480	2903.704615
970.476078	2880.179231
970.774639	2914.627115
971.073162	2884.380192
971.371649	2873.457692
971.670098	2892.782115
971.968510	2921.348654
972.266885	2878.498846
972.565223	2896.983077
972.863524	2898.663462
973.161788	2901.184038
973.460014	2886.060577
973.758204	2908.745769
974.056356	2887.740962
974.354471	2880.179231
974.652550	2902.024231
974.950591	2888.581154
975.248595	2865.055769
975.546563	2920.508462
975.844493	2867.576346
976.142386	2949.075000
976.440243	2848.251923
976.738062	2892.782115
977.035845	2907.905577
977.333590	2844.891154
977.631299	2866.736154
977.928971	2864.215577
978.226606	2892.782115
978.524204	2870.937115
978.821765	2852.452885
979.119290	2883.540000
979.416777	2831.448077
979.714228	2873.457692
980.011642	2861.695000
980.309020	2845.731346
980.606360	2839.009808
980.903664	2871.777308
981.200931	2896.142885
981.498162	2900.343846
981.795356	2926.389808
982.092513	2928.070192
982.389633	2942.353462
982.686717	3012.089423
982.983764	3020.491346
983.280775	3045.697115
983.577749	3086.866538
983.874686	3025.532500
984.171587	2999.486538
984.468451	3028.893269
984.765279	2997.806154
985.062070	2997.806154
985.358824	2948.234808
985.655543	2992.765000
985.952224	2917.147692
986.248869	2890.261538
986.545478	2934.791731
986.842050	2834.808846
987.138586	2886.900769
987.435086	2894.462500
987.731549	2847.411731
988.027975	2853.293077
988.324366	2826.406923
988.620719	2842.370577
988.917037	2808.762885
989.213318	2875.978269
989.509563	2827.247115
989.805772	2841.530385
990.101944	2841.530385
990.398080	2825.566731
990.694180	2829.767692
990.990244	2891.941923
991.286271	2849.932308
991.582262	2854.133269
991.878217	2859.174423
992.174136	2852.452885
992.470019	2839.009808
992.765865	2818.005000
993.061676	2846.571538
993.357450	2874.297885
993.653188	2850.772500
993.948890	2857.494038
994.244556	2868.416538
994.540186	2842.370577
994.835780	2863.375385
995.131337	2886.060577
995.426859	2870.096923
995.722345	2915.467308
996.017795	2892.782115
996.313208	2989.404231
996.608586	2927.230000
996.903928	2934.791731
997.199234	2951.595577
997.494504	2917.987885
997.789738	2918.828077
998.084936	2925.549615
998.380099	2893.622308
998.675225	2861.695000
998.970316	2867.576346
999.265371	2846.571538
999.560390	2860.014615
999.855373	2865.895962
1000.150320	2871.777308
1000.445232	2818.005000
1000.740108	2880.179231
1001.034948	2869.256731
1001.329752	2860.014615
1001.624521	2839.850000
1001.919254	2838.169615
1002.213951	2835.649038
1002.508613	2860.854808
1002.803239	2842.370577
1003.097829	2859.174423
1003.392384	2860.854808
1003.686903	2839.850000
1003.981386	2812.963846
1004.275834	2809.603077
1004.570246	2797.840385
1004.864623	2823.046154
1005.158964	2808.762885
1005.453270	2839.850000
1005.747540	2877.658654
1006.041775	2827.247115
1006.335974	2859.174423
1006.630138	2778.515962
1006.924266	2840.690192
1007.218359	2821.365769
1007.512416	2839.850000
1007.806438	2790.278654
1008.100425	2815.484423
1008.394376	2806.242308
1008.688292	2824.726538
1008.982172	2804.561923
1009.276017	2799.520769
1009.569827	2860.854808
1009.863602	2791.959038
1010.157341	2824.726538
1010.451045	2801.201154
1010.744714	2821.365769
1011.038347	2795.319808
1011.331945	2776.835577
1011.625508	2804.561923
1011.919036	2795.319808
1012.212528	2863.375385
1012.505986	2839.009808
1012.799408	2843.210769
1013.092795	2849.092115
1013.386147	2820.525577
1013.679464	2828.087308
1013.972745	2821.365769
1014.265992	2827.247115
1014.559204	2824.726538
1014.852380	2797.000192
1015.145521	2812.963846
1015.438628	2821.365769
1015.731699	2807.082500
1016.024736	2844.891154
1016.317737	2839.850000
1016.610703	2791.959038
1016.903635	2804.561923
1017.196531	2809.603077
1017.489393	2779.356154
1017.782219	2784.397308
1018.075011	2820.525577
1018.367768	2810.443269
1018.660490	2826.406923
1018.953177	2826.406923
1019.245829	2826.406923
