Dividing Wavelength (nm)	Counts (n)	Slit_number_40_of_a_total_of_40	
326.493990	2132.744154
326.888308	2132.744154
327.282561	2132.744154
327.676750	2123.081942
328.070874	2111.907385
328.464933	2123.586058
328.858929	2135.936885
329.252859	2156.689635
329.646726	2170.216731
330.040528	2179.206788
330.434265	2184.331962
330.827938	2216.511327
331.221547	2216.679365
331.615091	2257.428692
332.008571	2271.375885
332.401986	2301.622808
332.795338	2313.805596
333.188625	2332.793942
333.581847	2333.382077
333.975006	2360.268231
334.368100	2387.574481
334.761129	2414.880731
335.154095	2421.182173
335.546996	2476.130750
335.939833	2598.630788
336.332606	2613.082096
336.725315	2614.594442
337.117960	2620.139712
337.510540	2632.574558
337.903056	2656.436019
338.295508	2658.116404
338.687896	2671.895558
339.080220	2661.981288
339.472480	2661.813250
339.864676	2683.742269
340.256807	2672.819769
340.648875	2686.346865
341.040879	2675.592404
341.432818	2673.912019
341.824694	2682.986096
342.216506	2676.012500
342.608253	2684.834519
342.999937	2677.188769
343.391557	2673.828000
343.783113	2672.903788
344.174605	2682.734038
344.566033	2680.801596
344.957397	2675.004269
345.348697	2668.618808
345.739934	2674.164077
346.131106	2656.688077
346.522215	2673.155846
346.913260	2669.122923
347.304241	2666.938423
347.695159	2665.090000
348.086012	2663.073538
348.476802	2670.551250
348.867528	2666.854404
349.258191	2677.188769
349.648789	2658.956596
350.039324	2662.821481
350.429796	2660.552962
350.820203	2645.513519
351.210548	2676.684654
351.600828	2633.414750
351.991045	2663.073538
352.381198	2650.302615
352.771288	2667.610577
353.161314	2656.940135
353.551276	2650.386635
353.941175	2669.963115
354.331010	2653.075250
354.720782	2642.404808
355.110490	2644.085192
355.500135	2647.950077
355.889717	2664.921962
356.279235	2658.536500
356.668689	2666.098231
357.058080	2659.292673
357.447408	2661.309135
357.836672	2651.478885
358.225873	2665.090000
358.615010	2663.409615
359.004084	2635.515231
359.393095	2656.352000
359.782043	2665.678135
360.170927	2645.513519
360.559748	2649.714481
360.948505	2677.692885
361.337199	2651.058788
361.725830	2666.854404
362.114398	2672.903788
362.502903	2657.864346
362.891344	2674.836231
363.279722	2661.309135
363.668037	2667.610577
364.056289	2668.366750
364.444478	2668.114692
364.832603	2669.795077
365.220665	2666.770385
365.608665	2676.936712
365.996601	2676.768673
366.384474	2653.831423
366.772284	2668.702827
367.160031	2676.936712
367.547715	2668.114692
367.935336	2662.065308
368.322893	2675.928481
368.710388	2689.035481
369.097820	2673.071827
369.485189	2674.416135
369.872495	2675.340346
370.259738	2682.229923
370.646918	2678.785135
371.034035	2683.490212
371.421090	2687.859212
371.808081	2668.786846
372.195010	2681.221692
372.581875	2692.228212
372.968678	2694.244673
373.355418	2684.918538
373.742096	2697.269365
374.128710	2674.920250
374.515262	2688.027250
374.901751	2693.320462
375.288177	2705.755308
375.674540	2714.325269
376.060841	2724.575615
376.447079	2722.643173
376.833254	2727.432269
377.219367	2740.455250
377.605417	2760.787904
377.991404	2766.417192
378.377329	2765.829058
378.763191	2762.972404
379.148991	2790.950808
379.534727	2804.982019
379.920402	2828.843481
380.306013	2837.245404
380.691563	2859.930596
381.077049	2858.838346
381.462474	2895.890827
381.847835	2909.417923
382.233134	2942.017385
382.618371	2950.923423
383.003545	2970.835981
383.388657	3011.837365
383.773706	3037.547250
384.158693	3068.970442
384.543618	3099.805500
384.928480	3126.775673
385.313280	3150.889192
385.698017	3191.638519
386.082692	3228.018846
386.467305	3258.097731
386.851856	3316.743154
387.236344	3373.036038
387.620770	3403.451000
388.005133	3439.747308
388.389435	3476.379692
388.773674	3516.456865
389.157851	3585.772731
389.541965	3646.518635
389.926018	3635.176038
390.310008	3696.426058
390.693936	3738.687731
391.077802	3802.290288
391.461606	3835.561904
391.845348	3874.378788
392.229027	3928.991288
392.612645	3986.880538
392.996200	4047.290365
393.379694	4128.536962
393.763125	4194.155981
394.146494	4228.771904
394.529801	4289.265750
394.913047	4386.980115
395.296230	4393.113519
395.679351	4446.969846
396.062410	4515.025423
396.445408	4483.602231
396.828343	4558.883462
397.211217	4635.256942
397.594028	4557.371115
397.976778	4649.708250
398.359466	4719.108135
398.742092	4730.030635
399.124656	4760.109519
399.507158	4837.575250
399.889598	4858.664077
400.271977	4930.164442
400.654294	4943.019385
401.036549	5030.147327
401.418742	5069.216269
401.800874	5189.951904
402.182944	5229.272904
402.564952	5346.479731
402.946898	5282.709135
403.328783	5331.608327
403.710606	5410.670423
404.092367	5519.811404
404.474067	5681.380385
404.855705	5605.511019
405.237282	5602.570346
405.618797	5741.118058
406.000250	5849.082769
406.381642	6034.681250
406.762972	6034.597231
407.144240	5995.696327
407.525447	6113.911385
407.906593	6096.099308
408.287677	6225.236865
408.668700	6300.602115
409.049661	6279.177212
409.430560	6388.906327
409.811399	6399.660788
410.192176	6514.263019
410.572891	6548.626885
410.953545	6761.531615
411.334138	6571.312077
411.714669	6846.054962
412.095139	6593.493154
412.475547	6828.747000
412.855894	6769.849519
413.236180	6954.691827
413.616405	6811.355019
413.996568	6959.732981
414.376670	6972.671942
414.756711	6938.896212
415.136691	7066.269365
415.516609	7189.777635
415.896466	7196.835250
416.276262	7320.763615
416.655997	7486.449538
417.035670	7517.872731
417.415283	7892.178404
417.794834	7988.716500
418.174324	7925.618058
418.553753	7912.427038
418.933121	8146.252558
419.312428	8084.750481
419.691674	8054.503558
420.070859	8252.536885
420.449983	8146.168538
420.829045	8415.870269
421.208047	8340.673058
421.586988	8568.029096
421.965867	8697.586750
422.344686	8723.380654
422.723444	8974.766192
423.102141	8471.659038
423.480777	9006.189385
423.859352	8795.805231
424.237866	9337.057115
424.616319	9234.973750
424.994712	9564.161096
425.373044	9515.934058
425.751314	9847.978058
426.129524	9443.257423
426.507673	9973.670827
426.885762	9914.857365
427.263789	10013.663981
427.641756	9982.156769
428.019662	10169.099558
428.397508	10211.445250
428.775292	10411.411019
429.153016	10415.275904
429.530679	10457.789635
429.908282	10553.907635
430.285824	10389.566019
430.663305	10796.219096
431.040726	10595.749212
431.418086	10564.326019
431.795385	10888.892308
432.172624	11138.429423
432.549802	10932.918385
432.926920	11086.085442
433.303977	11003.074442
433.680974	11244.881788
434.057910	11314.701769
434.434786	11379.480596
434.811601	11311.677077
435.188355	11876.958462
435.565050	11742.443673
435.941683	11685.310596
436.318257	12171.865962
436.694770	12178.755538
437.071222	12555.413750
437.447614	12225.470231
437.823946	12240.929769
438.200218	12293.525808
438.576429	12153.045654
438.952580	12300.751462
439.328670	12310.833769
439.704700	12554.489538
440.080670	12391.744288
440.456580	12761.260865
440.832429	12913.671750
441.208218	12392.080365
441.583947	12685.811596
441.959616	12764.621635
442.335224	12911.487250
442.710773	12996.262654
443.086261	13320.660904
443.461689	13032.054846
443.837057	13152.034308
444.212365	13568.013519
444.587612	13564.736769
444.962800	13434.590981
445.337927	13638.337615
445.712995	12987.524654
446.088002	14026.506462
446.462949	14126.069250
446.837837	14221.431077
447.212664	14142.789077
447.587431	15087.669346
447.962139	16546.411231
448.336786	18605.806596
448.711374	18935.161981
449.085901	17067.414481
449.460369	16680.337885
449.834776	16134.212885
450.209124	17226.630923
450.583412	17336.192000
450.957640	18218.645981
451.331808	17605.389615
451.705917	16625.977442
452.079965	16583.043615
452.453954	16723.859846
452.827883	16568.760346
453.201752	16601.611865
453.575562	16716.214096
453.949311	17495.996577
454.323001	17468.522288
454.696632	17361.985904
455.070202	18235.365808
455.443713	18433.315115
455.817164	18932.137288
456.190556	19372.818154
456.563888	19186.043404
456.937160	19796.023019
457.310373	18884.582404
457.683526	19171.424058
458.056619	19171.592096
458.429653	19074.129788
458.802628	19245.613038
459.175542	19260.316404
459.548398	20178.898654
459.921194	20991.616673
460.293930	21327.693596
460.666607	22672.253346
461.039224	23906.579865
461.411782	24741.899058
461.784280	24423.802250
462.156719	24582.178500
462.529099	24401.537154
462.901419	23546.053346
463.273680	22793.073000
463.645882	22729.974558
464.018024	22641.838385
464.390106	22831.889885
464.762130	24123.517519
465.134094	25955.220769
465.505999	29114.931981
465.877845	33103.072808
466.249631	35538.622269
466.621358	35598.612000
466.993026	34725.232096
467.364634	33609.036615
467.736184	32063.838942
468.107674	31068.715173
468.479105	30629.042538
468.850477	30260.198115
469.221790	29403.033923
469.593043	28169.631615
469.964238	27568.474019
470.335373	27322.801788
470.706449	28040.998173
471.077467	28401.944788
471.448425	31912.688346
471.819324	35544.083519
472.190164	36685.988885
472.560945	34177.678769
472.931667	31357.657308
473.302330	30217.012231
473.672934	29303.303096
474.043479	29730.792942
474.413965	29205.756769
474.784393	28892.617096
475.154761	29736.674288
475.525070	29798.932538
475.895321	29439.582288
476.265513	30053.006692
476.635645	30931.511769
477.005719	30814.304942
477.375734	31275.234442
477.745691	31878.912615
478.115588	32898.654019
478.485427	34150.204481
478.855207	36515.849942
479.224928	38743.283769
479.594591	41137.747827
479.964194	41512.053500
480.333739	42085.652788
480.703226	42083.216231
481.072653	42430.299673
481.442022	43043.051923
481.811333	43955.584788
482.180584	43252.679904
482.549777	42925.761077
482.918912	42591.700615
483.287988	42486.004423
483.657005	42008.439115
484.025964	41671.690038
484.394864	42005.162365
484.763706	41750.836154
485.132489	41148.250231
485.501213	41084.143558
485.869879	41453.408077
486.238487	41057.509462
486.607036	41462.482154
486.975527	41249.829481
487.343959	41509.784981
487.712333	41715.548077
488.080648	41977.099942
488.448905	42542.381327
488.817104	42532.130981
489.185244	43381.733442
489.553326	44207.306404
489.921350	46335.513519
490.289315	49613.355769
490.657222	51409.854962
491.025070	52602.171865
491.392861	52316.002365
491.760593	51724.422962
492.128267	50499.254538
492.495883	49330.294981
492.863440	48103.026077
493.230939	46844.249962
493.598380	46009.266846
493.965763	45780.734538
494.333088	45060.353654
494.700354	44626.226288
495.067563	44509.775635
495.434713	44568.084981
495.801805	44659.077808
496.168839	44518.933731
496.535815	44344.005692
496.902733	44512.800327
497.269593	44276.454231
497.636395	44324.681269
498.003139	44934.996962
498.369825	44600.852481
498.736453	45091.020673
499.103023	44780.905692
499.469535	44888.702365
499.835989	45125.720615
500.202385	44878.788096
500.568723	45004.900962
500.935003	45257.126692
501.301226	45079.342000
501.667390	45927.516135
502.033497	46556.232038
502.399546	46216.458269
502.765537	45746.874788
503.131470	46461.878442
503.497345	46834.083635
503.863163	45567.073635
504.228923	46381.051942
504.594625	47061.103596
504.960269	46279.220635
505.325856	47290.728154
505.691385	46568.666885
506.056856	46982.965712
506.422270	47606.892519
506.787625	47099.248327
507.152924	47485.820808
507.518164	47744.263962
507.883347	47120.925288
508.248472	47538.332827
508.613540	48111.343981
508.978550	48444.144154
509.343503	48305.260365
509.708398	48632.767327
510.073236	49332.395462
510.438016	49435.571077
510.802738	48878.355538
511.167403	49590.754596
511.532010	49969.681327
511.896561	50390.365615
512.261053	51346.840538
512.625488	50978.668269
512.989866	50932.625731
513.354186	50812.394212
513.718449	50929.517019
514.082655	51656.535423
514.446803	51377.003442
514.810894	52019.414481
515.174927	51955.391827
515.538904	51791.218250
515.902822	52566.295654
516.266684	51992.528327
516.630488	52454.634096
516.994235	52395.988673
517.357925	53006.052308
517.721558	53233.072269
518.085133	53592.002423
518.448651	53758.780596
518.812112	53465.049365
519.175516	53593.262712
519.538863	53961.434981
519.902152	54038.648654
520.265385	54504.031173
520.628560	54653.081288
520.991678	54357.585654
521.354739	54600.485250
521.717743	54841.620442
522.080690	54751.803885
522.443580	55321.958385
522.806413	55489.156654
523.169189	55458.825712
523.531908	55673.494846
523.894569	55509.069212
524.257174	55500.415231
524.619722	56045.700038
524.982213	55894.549442
525.344647	55883.458904
525.707025	55898.582365
526.069345	56334.810212
526.431608	56257.008404
526.793815	56532.759519
527.155964	56114.175712
527.518057	56327.668577
527.880093	56137.028942
528.242072	56621.903923
528.603995	56256.252231
528.965860	56400.093154
529.327669	56454.201538
529.689421	56333.381885
530.051117	56358.083538
530.412755	56502.512596
530.774337	56472.601750
531.135862	56399.168942
531.497331	56577.709808
531.858743	56472.601750
532.220098	56860.098442
532.581396	56535.196077
532.942638	56296.917538
533.303824	56499.487904
533.664953	56481.843865
534.026025	56195.926423
534.387040	56673.659769
534.747999	56641.060308
535.108902	56674.836038
535.469748	56295.321173
535.830537	56360.436077
536.191270	56602.999596
536.551947	56339.431269
536.912567	56545.530442
537.273131	56627.617231
537.633638	56255.075962
537.994089	56390.851038
538.354483	56103.421250
538.714821	56668.198519
539.075103	56886.648519
539.435328	56746.672481
539.795497	56557.209115
540.155609	56619.887462
540.515665	56979.153692
540.875665	56438.826019
541.235609	56847.243500
541.595496	56746.672481
541.955328	57392.696346
542.315102	56855.561404
542.674821	56645.345288
543.034483	56675.172115
543.394090	56681.641596
543.753640	56641.228346
544.113134	57520.321558
544.472571	56624.676558
544.831953	57621.984827
545.191278	56914.542904
545.550548	56722.727000
545.909761	57237.176750
546.268918	57261.542327
546.628019	57540.990288
546.987064	57133.833096
547.346053	56568.635731
547.704986	57341.192558
548.063863	56935.715750
548.422684	57118.205519
548.781449	56965.962673
549.140158	57251.207962
549.498811	57159.038865
549.857408	56685.674519
550.215949	57494.107558
550.574434	57335.563269
550.932864	57133.749077
551.291237	57764.229385
551.649555	57495.283827
552.007817	57645.510212
552.366022	57439.074962
552.724173	57517.800981
553.082267	57801.533923
553.440305	58139.375250
553.798288	57500.913115
554.156215	57785.402231
554.514086	57996.710596
554.871902	57780.361077
555.229661	57904.457481
555.587365	57734.990692
555.945014	57717.514692
556.302606	57707.012288
556.660143	57928.739038
557.017625	58048.970558
557.375050	57889.586077
557.732421	58205.330346
558.089735	58196.172250
558.446994	58160.212019
558.804197	58497.129135
559.161345	58542.163442
559.518437	57937.393019
559.875474	58216.336865
560.232455	58350.179500
560.589381	58497.885308
560.946251	58243.223019
561.303065	58898.236942
561.659825	58669.536596
562.016528	58342.617769
562.373177	58249.524462
562.729770	58629.963538
563.086307	58249.608481
563.442789	58700.455673
563.799216	58724.569192
564.155587	58555.858577
564.511904	58602.741308
564.868164	58614.419981
565.224370	58891.851481
565.580520	58690.121308
565.936615	58898.657038
566.292654	58668.864442
566.648638	58974.190327
567.004567	58920.838115
567.360441	58900.505462
567.716260	58865.553462
568.072023	59102.571712
568.427732	59116.854981
568.783385	58716.839423
569.138982	59164.745942
569.494525	59122.904365
569.850013	58927.475635
570.205445	58958.226673
570.560823	58996.035327
570.916145	58814.385750
571.271412	58861.772596
571.626625	58692.137769
571.981782	58735.239635
572.336884	58530.400750
572.691931	58850.514019
573.046923	58435.795096
573.401860	58466.630154
573.756743	58369.419904
574.111570	58510.824269
574.466342	58417.983019
574.821059	58640.045846
575.175722	58212.135904
575.530330	58289.601635
575.884882	58037.375904
576.239380	58052.331327
576.593823	57964.027115
576.948211	57957.977731
577.302544	57549.980346
577.656823	57628.202250
578.011047	57846.568231
578.365216	57592.830154
578.719330	57391.856154
579.073389	57386.142846
579.427394	57365.390096
579.781344	57311.701808
580.135239	57102.661962
580.489080	57124.422942
580.842866	56705.251000
581.196597	57008.308365
581.550273	57024.524077
581.903895	56920.928365
582.257463	57261.206250
582.610975	56704.662865
582.964434	56980.918096
583.317837	56648.454000
583.671186	56544.690250
584.024481	56699.873769
584.377721	56327.752596
584.730906	56543.345942
585.084037	56645.177250
585.437113	56369.594173
585.790135	56469.325000
586.143103	56059.143115
586.496016	56185.760096
586.848874	56193.573885
587.201679	56223.400712
587.554428	55665.765077
587.907124	55909.084769
588.259765	55611.152577
588.612352	55915.134154
588.964884	55331.284519
589.317362	55570.739327
589.669786	55489.912827
590.022155	55423.285577
590.374470	55789.693442
590.726731	55285.662077
591.078937	54823.136212
591.431090	54937.990500
591.783188	54616.280865
592.135232	54308.266365
592.487222	54518.734538
592.839157	54726.850173
593.191038	54370.524615
593.542866	54114.181942
593.894639	53413.293519
594.246358	53774.660231
594.598022	53762.057346
594.949633	53258.530096
595.301190	53316.335327
595.652692	53140.147000
596.004141	53428.753058
596.355535	52468.833346
596.706876	52396.828865
597.058162	52182.579827
597.409395	52674.932519
597.760573	52809.699365
598.111698	52345.157038
598.462768	52312.809635
598.813785	52320.539404
599.164748	51797.939788
599.515657	52143.426865
599.866511	51495.554577
600.217312	52209.045885
600.568060	50925.400077
600.918753	51840.285481
601.269392	51732.740865
601.619978	51239.295923
601.970510	51472.197231
602.320988	51681.993250
602.671412	52000.846231
603.021783	51718.793673
603.372100	51267.526385
603.722363	51387.841923
604.072572	51442.370404
604.422728	51409.098788
604.772830	51150.739654
605.122878	51251.646750
605.472872	51137.632654
605.822813	51327.600135
606.172701	51087.389154
606.522534	51408.678692
606.872314	51589.067981
607.222041	51252.066846
607.571714	51662.668827
607.921333	50997.236519
608.270899	51225.600788
608.620411	51548.066596
608.969870	51348.436904
609.319276	51267.022269
609.668627	51281.893673
610.017926	51724.422962
610.367171	51891.117115
610.716362	51781.135942
611.065500	51667.205865
611.414585	51695.856423
611.763616	52021.514962
612.112594	51748.704519
612.461518	52016.305769
612.810389	52219.464269
613.159207	51971.019404
613.507971	51927.329404
613.856682	52436.149865
614.205340	52177.118577
614.553945	52866.244308
614.902496	52215.263308
615.250994	52531.763750
615.599439	52473.202346
615.947830	52717.614288
616.296169	52638.216115
616.644454	52615.867000
616.992686	52639.812481
617.340864	53120.318462
617.688990	52518.320673
618.037063	53191.902846
618.385082	53023.024192
618.733048	53241.222135
619.080961	53300.455692
619.428821	53133.845558
619.776628	53235.256769
620.124382	52938.668885
620.472083	53092.760154
620.819731	53249.372000
621.167326	52753.742558
621.514868	52747.189058
621.862357	52272.144327
622.209793	52282.730750
622.557176	51862.634596
622.904506	51642.336173
623.251783	51128.390538
623.599007	50831.046481
623.946179	50688.717904
624.293297	50547.313538
624.640363	49847.769423
624.987376	49768.287231
625.334336	49416.666750
625.681243	49029.674173
626.028097	48858.190923
626.374899	48637.052308
626.721647	48559.418538
627.068343	48301.059404
627.414987	47922.804827
627.761577	47510.858538
628.108115	47792.575019
628.454600	47079.671846
628.801032	47155.877288
629.147412	47139.913635
629.493739	47011.532250
629.840014	46518.927500
630.186236	46882.226654
630.532405	46212.089269
630.878521	46447.595173
631.224585	46209.232615
631.570597	45778.213962
631.916556	45826.945115
632.262462	45748.387135
632.608316	45629.079827
632.954117	45538.507096
633.299866	45362.402788
633.645562	45280.820115
633.991206	44730.746212
634.336797	44224.446327
634.682336	44218.901058
635.027823	43844.847442
635.373257	43718.902615
635.718639	43250.243346
636.063968	43085.481635
636.409245	42396.187865
636.754470	42298.473500
637.099642	42070.025212
637.444762	41491.636827
637.789829	41581.201327
638.134845	41123.632596
638.479808	41055.408981
638.824719	40880.060846
639.169577	40341.833654
639.514383	40465.762019
639.859137	40077.425135
640.203839	40236.053442
640.548489	39738.659596
640.893086	39824.779308
641.237632	39413.169096
641.582125	39496.936269
641.926566	39288.568577
642.270955	39316.715019
642.615292	39233.788038
642.959576	39167.832942
643.303809	39036.426865
643.647990	39140.526692
643.992118	39016.598327
644.336195	38867.632231
644.680219	38857.717962
645.024192	39038.863423
645.368112	39475.175288
645.711981	39329.906038
646.055797	40058.856885
646.399562	39801.842058
646.743274	40742.353327
647.086935	41076.497808
647.430544	40974.414442
647.774101	41141.444673
648.117606	41325.026692
648.461059	41689.586135
648.804460	41404.844962
649.147810	40653.124904
649.491108	40545.328231
649.834354	40255.293846
650.177548	39436.946538
650.520690	38922.160712
650.863781	38896.366808
651.206820	38735.554000
651.549807	38195.142308
651.892742	37710.939481
652.235626	37462.158538
652.578458	37188.507904
652.921238	36510.976827
653.263967	36801.935423
653.606644	36390.577269
653.949269	36306.558038
654.291843	35874.111058
654.634365	36236.654038
654.976836	35784.798615
655.319255	35691.033154
655.661622	35684.815731
656.003938	35532.404846
656.346203	35270.180827
656.688416	35577.019058
657.030577	35205.822096
657.372687	35026.777115
657.714746	35256.233635
658.056753	35378.733673
658.398708	34741.279769
658.740612	34710.360692
659.082465	34963.342596
659.424266	34703.891212
659.766016	34785.473885
660.107715	34545.094865
660.449362	34649.026654
660.790958	34663.814038
661.132503	34680.365827
661.473996	34651.799288
661.815438	34739.515365
662.156829	34835.381308
662.498168	34583.659692
662.839456	34579.374712
663.180693	34667.006769
663.521879	34882.432077
663.863013	34751.446096
664.204097	34670.451558
664.545129	35093.068288
664.886110	35066.854288
665.227040	35093.656423
665.567918	35104.915000
665.908746	35242.370462
666.249522	35335.043673
666.590248	35281.859500
666.930922	35433.010096
667.271545	35411.417154
667.612118	35437.631154
667.952639	35272.197288
668.293109	35326.389692
668.633528	35210.275115
668.973896	35113.568981
669.314213	35149.697250
669.654480	34864.199904
669.994695	34946.370712
670.334859	34702.126808
670.674973	34557.949808
671.015035	34739.263308
671.355047	34722.627500
671.695008	34609.117519
672.034918	34463.932288
672.374777	34546.355154
672.714585	34389.155173
673.054342	34539.549596
673.394049	34381.257365
673.733705	34534.172365
674.073310	34322.191846
674.412864	34376.216212
674.752368	34016.949981
675.091820	34326.896923
675.431223	33887.812423
675.770574	33700.113462
676.109875	33527.874038
676.449125	33280.521423
676.788324	33133.907865
677.127473	32671.634058
677.466571	32568.542462
677.805619	32284.473442
678.144616	32275.903481
678.483562	32182.474096
678.822458	31814.553885
679.161303	31708.437596
679.500098	31612.655673
679.838842	31546.868615
680.177535	31598.456423
680.516179	31732.047000
680.854771	31783.550788
681.193314	32349.756385
681.531805	33204.652058
681.870247	33862.270577
682.208638	34844.455385
682.546978	35435.782731
682.885268	35699.519096
683.223508	35331.514865
683.561697	35008.124846
683.899836	34833.364846
684.237925	34328.325250
684.575963	34196.919173
684.913951	33655.079154
685.251889	33738.594269
685.589776	33681.797269
685.927614	33573.832558
686.265401	33642.728327
686.603137	33611.221115
686.940824	34017.538115
687.278460	34371.931231
687.616046	34381.593442
687.953582	35091.892019
688.291068	34954.772635
688.628504	35332.607115
688.965889	35440.403788
689.303224	35209.518942
689.640510	34968.635808
689.977745	34355.043365
690.314930	33726.915596
690.652065	33379.244019
690.989150	32697.259923
691.326185	31837.827212
691.663170	31242.887038
692.000105	30570.817212
692.336990	29817.248731
692.673825	29420.593942
693.010610	28948.741942
693.347345	28258.607981
693.684030	27661.231250
694.020665	27383.043577
694.357251	26696.354404
694.693786	26684.759750
695.030272	26401.614942
695.366707	25816.000904
695.703093	25469.673635
696.039429	25466.144827
696.375716	25188.125192
696.711952	25142.082654
697.048139	24936.571615
697.384276	24692.075654
697.720363	24818.272538
698.056400	24762.399750
698.392388	24518.407904
698.728326	24516.643500
699.064214	24380.112250
699.400053	24394.059442
699.735842	24042.186904
700.071581	23767.275981
700.407270	23548.741962
700.742910	23382.299865
701.078501	23084.115615
701.414042	22871.126865
701.749533	22517.321885
702.084974	22192.503538
702.420366	22426.161019
702.755709	22024.969192
703.091002	21687.211885
703.426246	21752.410808
703.761440	21614.367212
704.096584	21360.293058
704.431679	21294.926096
704.766725	21225.778269
705.101721	21147.136269
705.436668	21183.684635
705.771565	20863.403327
706.106413	21178.895538
706.441212	21183.096500
706.775961	21267.619846
707.110661	21343.153135
707.445311	21700.486923
707.779913	21436.582519
708.114465	21706.704346
708.448967	21965.399558
708.783421	22648.139827
709.117825	22859.700250
709.452180	22989.173885
709.786485	23349.280308
710.120742	24118.896462
710.454949	24110.494538
710.789107	24623.768019
711.123216	25312.557673
711.457275	25512.355404
711.791286	26194.423519
712.125247	26304.656750
712.459159	26089.231442
712.793023	26923.626423
713.126837	25970.260212
713.460602	26347.590577
713.794318	26095.280827
714.127985	25875.654558
714.461602	24939.680327
714.795171	25095.536000
715.128691	24018.661519
715.462162	23484.299212
715.795584	23083.359442
716.128957	22824.832269
716.462281	22457.080096
716.795556	22253.585519
717.128782	21666.795212
717.461960	21146.380096
717.795088	21151.001154
718.128167	20657.892288
718.461198	20235.779673
718.794180	20101.180865
719.127113	19705.366269
719.459997	19536.823692
719.792833	19162.938115
720.125619	19143.361635
720.458357	18753.596423
720.791046	18627.651596
721.123686	18419.283904
721.456278	18099.926808
721.788821	18105.051981
722.121315	17831.989481
722.453761	17905.170231
722.786158	17788.719577
723.118506	17847.112942
723.450805	17667.143750
723.783056	17799.137962
724.115259	17646.054923
724.447412	17568.673212
724.779518	17891.895192
725.111574	17854.506635
725.443582	18088.164115
725.775542	17976.922654
726.107453	18534.894365
726.439315	18304.009519
726.771129	18771.996635
727.102895	19103.032404
727.434612	19362.819865
727.766281	19526.405308
728.097901	19977.840635
728.429473	20080.260077
728.760996	20104.625654
729.092471	20267.118846
729.423897	20180.579038
729.755276	19980.949346
730.086606	20017.161635
730.417887	20514.639500
730.749120	21041.524096
731.080305	21288.120538
731.411442	21776.020212
731.742530	21931.539808
732.073570	22049.670846
732.404562	22497.241288
732.735506	22426.497096
733.066401	22389.612654
733.397249	22089.495962
733.728048	21534.548942
734.058798	20742.919750
734.389501	19982.797769
734.720156	19491.285269
735.050762	18832.490481
735.381320	18396.514692
735.711831	18026.914096
736.042293	17496.332654
736.372707	17493.728058
736.703073	17170.001962
737.033391	17353.163885
737.363661	17258.474212
737.693883	17305.272923
738.024056	17368.539404
738.354182	17563.632058
738.684260	17839.551212
739.014290	18034.643865
739.344272	18275.695038
739.674207	18594.800077
740.004093	18773.508981
740.333931	18849.042269
740.663722	18941.211365
740.993464	19115.215192
741.323159	18954.150327
741.652806	18715.619731
741.982405	18582.785327
742.311956	18282.080500
742.641460	18227.299962
742.970915	17879.376327
743.300323	17524.311058
743.629683	17320.480404
743.958996	17057.836288
744.288260	16770.406500
744.617477	16386.270577
744.946647	16368.626538
745.275768	16051.285904
745.604842	15836.112654
745.933869	15584.979173
746.262847	15613.461692
746.591778	15478.442788
746.920662	15341.323404
747.249498	15291.163923
747.578286	15326.956115
747.907027	15465.335788
748.235720	15752.009404
748.564365	15811.158942
748.892963	15733.189096
749.221514	15867.955942
749.550017	15699.917481
749.878473	15768.561192
750.206881	15557.000769
750.535242	15454.245250
750.863555	15306.875519
751.191821	15225.796962
751.520039	15270.579212
751.848210	15141.861750
752.176334	15165.555173
752.504411	15024.402865
752.832440	14877.117154
753.160421	14989.786942
753.488356	14910.136712
753.816243	14736.048865
754.144082	14562.381115
754.471875	14477.017577
754.799620	14418.456173
755.127318	14367.792577
755.454969	14343.006904
755.782572	14298.980827
756.110129	14367.120423
756.437638	14233.697885
756.765100	14262.936577
757.092515	14226.052135
757.419882	14167.238673
757.747203	14193.872769
758.074477	14263.188635
758.401703	14219.582654
758.728882	14373.505885
759.056014	14426.438000
759.383099	14536.755250
759.710138	14679.671962
760.037129	14870.983750
760.364073	14933.746115
760.690970	14873.588346
761.017820	14928.788981
761.344623	15051.289019
761.671379	15445.003135
761.998088	15819.308808
762.324751	16913.407231
762.651366	19238.975519
762.977935	23168.134846
763.304456	26839.439154
763.630931	29201.975904
763.957359	29308.512288
764.283740	27670.977481
764.610074	25864.059904
764.936362	23510.093115
765.262602	21532.784538
765.588796	19470.028404
765.914943	17931.552269
766.241044	16509.862865
766.567097	15482.475712
766.893104	14507.768615
767.219064	13910.139827
767.544978	13297.135519
767.870845	12810.580154
768.196665	12517.857154
768.522438	12232.275788
768.848165	11954.004096
769.173846	11718.918288
769.499479	11528.362673
769.825066	11381.749115
770.150607	11093.563154
770.476101	11067.853269
770.801548	10887.379962
771.126949	10715.896712
771.452303	10603.478981
771.777611	10387.465538
772.102872	10382.844481
772.428087	10241.524135
772.753256	10093.398231
773.078378	9989.382423
773.403453	9797.230442
773.728482	9652.297269
774.053465	9555.675154
774.378401	9441.409000
774.703291	9362.598962
775.028135	9223.967231
775.352932	9166.582096
775.677683	9028.538500
776.002388	8913.348135
776.327046	8959.558712
776.651658	8817.482192
776.976224	8738.252058
777.300743	8724.472904
777.625216	8654.400865
777.949643	8568.113115
778.274024	8589.874096
778.598359	8513.920712
778.922647	8490.311308
779.246889	8443.260538
779.571086	8457.039692
779.895236	8433.178231
780.219339	8432.422058
780.543397	8398.898385
780.867409	8495.856577
781.191374	8527.111731
781.515294	8443.344558
781.839167	8571.137808
782.162995	8552.653577
782.486776	8510.559942
782.810511	8468.970423
783.134201	8387.219712
783.457844	8399.234462
783.781441	8319.584231
784.104993	8324.961462
784.428498	8258.418231
784.751958	8264.719673
785.075372	8207.922673
785.398739	8161.628077
785.722061	8181.960731
786.045337	8185.153462
786.368568	8321.348635
786.691752	8270.264942
787.014891	8509.299654
787.337983	8708.677288
787.661030	9209.347885
787.984031	9754.128577
788.306987	10222.367750
788.629897	10536.767712
788.952760	10637.506769
789.275579	10585.414846
789.598351	10351.505308
789.921078	10019.293269
790.243759	9680.779788
790.566395	9390.745404
790.888984	9129.361577
791.211529	8935.697250
791.534027	8673.305192
791.856480	8448.217673
792.178888	8337.984442
792.501249	8211.367462
792.823566	8013.502173
793.145836	7987.624250
793.468062	7918.728481
793.790241	7816.729135
794.112375	7850.252808
794.434464	7963.678769
794.756507	7932.507635
795.078505	8013.418154
795.400457	8259.426462
795.722364	8528.540058
796.044226	8789.755846
796.366042	9067.439404
796.687812	9096.510058
797.009538	9229.848577
797.331218	9146.753558
797.652852	9160.700750
797.974442	9021.144808
798.295986	8955.777846
798.617484	8810.004481
798.938938	8668.684135
799.260346	8611.130962
799.581709	8417.718692
799.903026	8319.416192
800.224299	8212.375692
800.545526	8053.663365
800.866708	7952.420192
801.187845	7868.989096
801.508936	7729.853250
801.829983	7680.702000
802.150984	7520.561346
802.471940	7433.517423
802.792851	7400.245808
803.113717	7355.043462
803.434538	7318.999212
803.755314	7261.782115
804.076045	7237.584577
804.396731	7159.278654
804.717372	7170.201154
805.037967	7154.741615
805.358518	7171.461442
805.679024	7217.756038
805.999485	7229.770788
806.319901	7234.391846
806.640272	7266.067096
806.960598	7331.938173
807.280879	7317.570885
807.601115	7400.497865
807.921306	7323.788308
808.241453	7370.418981
808.561554	7398.901500
808.881611	7366.974192
809.201623	7384.534212
809.521590	7329.585635
809.841513	7321.267731
810.161390	7370.839077
810.481223	7235.820173
810.801011	7256.740962
811.120755	7243.297885
811.440453	7137.685712
811.760107	7145.331462
812.079716	7118.781385
812.399281	7080.384596
812.718801	7047.365038
813.038276	7028.628750
813.357707	6975.696635
813.677093	7020.226827
813.996434	6890.921231
814.315731	6948.726462
814.634983	6937.131808
814.954191	6933.518981
815.273354	7026.612288
815.592473	7066.941519
815.911547	7170.033115
816.230577	7228.342462
816.549562	7420.830519
816.868502	7505.101808
817.187399	7611.218096
817.506250	7759.680077
817.825058	7835.969538
818.143821	8091.388000
818.462539	8316.223462
818.781213	8604.241385
819.099843	8992.242192
819.418429	9826.049038
819.736970	10652.798269
820.055466	11680.101404
820.373919	13041.801077
820.692327	14796.878788
821.010691	17348.206750
821.329011	22798.366212
821.647286	32121.980250
821.965517	44591.106250
822.283704	54192.823942
822.601847	59490.572519
822.919945	58925.627212
823.237999	56749.865212
823.556010	53013.109923
823.873976	47948.094615
824.191897	42343.423788
824.509775	37821.508788
824.827609	32957.719538
825.145398	29372.366904
825.463144	26799.782077
825.780845	25684.174731
826.098502	25532.940115
826.416116	27359.182115
826.733685	30340.688538
827.051210	32480.910404
827.368692	32653.233846
827.686129	30446.804827
828.003522	27148.461885
828.320872	23684.096942
828.638177	20769.889923
828.955439	18473.980423
829.272656	16427.440000
829.589830	14696.979923
829.906960	13156.403308
830.224046	11793.443346
830.541088	10705.814404
830.858086	9998.540519
831.175041	9405.280731
831.491952	9066.431173
831.808819	8911.415692
832.125642	9052.063885
832.442421	9426.705635
832.759157	10486.944308
833.075849	12366.874596
833.392497	15102.624769
833.709101	17718.311462
834.025662	18793.001442
834.342179	18369.292462
834.658653	16863.583827
834.975083	15242.012673
835.291469	13773.524558
835.607811	12381.493942
835.924110	11435.857500
836.240366	10510.721750
836.556578	9577.352115
836.872746	8801.686577
837.188871	8129.532731
837.504952	7486.197481
837.820990	7047.785135
838.136984	6700.869731
838.452935	6537.872423
838.768842	6395.795904
839.084706	6457.886115
839.400526	7029.552962
839.716303	8188.346192
840.032037	9547.021173
840.347727	10157.000788
840.663373	9896.121077
840.978977	9026.858115
841.294537	8246.823577
841.610054	7591.053481
841.925527	7122.982346
842.240957	6736.409865
842.556344	6415.204346
842.871687	6061.063288
843.186987	5719.357077
843.502244	5421.004788
843.817458	5187.683385
844.132629	4973.182288
844.447756	4837.575250
844.762840	4725.157519
845.077881	4626.098846
845.392879	4531.241135
845.707833	4447.810038
846.022745	4412.353923
846.337613	4366.311385
846.652438	4280.863827
846.967221	4293.130635
847.281960	4234.989327
847.596656	4231.208462
847.911309	4188.610712
848.225919	4141.055827
848.540485	4143.240327
848.855009	4098.290038
849.169490	4109.296558
849.483928	4077.033173
849.798323	4073.504365
850.112675	4028.974173
850.426984	4030.318481
850.741251	4039.224519
851.055474	4009.985827
851.369654	4022.672731
851.683792	4004.440558
851.997887	4023.428904
852.311938	4036.619923
852.625947	4003.432327
852.939914	3999.819500
853.253837	4016.035212
853.567718	4010.489942
853.881555	3999.567442
854.195350	4010.153865
854.509103	4001.247827
854.822812	3995.282462
855.136479	3993.602077
855.450103	4007.801327
855.763685	3990.493365
856.077224	3993.097962
856.390720	4002.172038
856.704173	4019.900096
857.017584	4013.934731
857.330953	4012.254346
857.644278	4061.321577
857.957561	4078.293462
858.270802	4059.557173
858.584000	4063.842154
858.897155	4067.370962
859.210268	4049.726923
859.523339	4051.575346
859.836367	4043.761558
860.149352	4024.437135
860.462295	4018.135692
860.775195	3998.727250
861.088054	3994.274231
861.400869	3998.811269
861.713642	3989.317096
862.026373	4020.740288
862.339062	4012.758462
862.651708	4016.371288
862.964312	4030.570538
863.276873	4046.618212
863.589392	4099.802385
863.901869	4107.700192
864.214303	4145.340808
864.526696	4180.544865
864.839045	4254.229731
865.151353	4300.692365
865.463619	4295.903269
865.775842	4304.137154
866.088023	4339.341212
866.400162	4334.048000
866.712258	4345.558635
867.024313	4330.435173
867.336325	4340.601500
867.648296	4363.958846
867.960224	4357.489365
868.272110	4392.189308
868.583954	4392.693423
868.895755	4382.863173
869.207515	4390.676962
869.519233	4418.739385
869.830909	4421.343981
870.142542	4457.808327
870.454134	4471.251404
870.765684	4498.893731
871.077191	4514.605327
871.388657	4549.725365
871.700081	4602.573462
872.011463	4626.518942
872.322803	4653.741173
872.634101	4685.248385
872.945357	4720.200385
873.256571	4769.771731
873.567744	4808.672635
873.878874	4825.728538
874.189963	4872.443231
874.501010	4895.212442
874.812015	4900.673692
875.122979	4951.085231
875.433900	4944.027615
875.744780	4991.414462
876.055618	4999.648346
876.366415	5034.600346
876.677169	5054.092808
876.987882	5090.641173
877.298554	5158.696750
877.609183	5216.670019
877.919771	5322.618269
878.230317	5420.080577
878.540822	5603.242500
878.851285	5872.104038
879.161707	6220.951885
879.472087	6744.727769
879.782425	7544.338788
880.092722	8928.807673
880.402977	11111.795327
880.713191	14053.224577
881.023363	17597.995923
881.333494	20536.316462
881.643583	22602.517385
881.953631	23280.888654
882.263637	23180.653712
882.573602	22393.141462
882.883526	21525.894962
883.193408	20333.830115
883.503248	19095.890769
883.813048	17762.085481
884.122806	16509.190712
884.432522	15137.660788
884.742197	13806.292058
885.051831	12560.790981
885.361424	11371.078673
885.670975	10358.562923
885.980485	9446.282115
886.289954	8711.449923
886.599382	8096.849250
886.908768	7557.445788
887.218113	7114.328365
887.527417	6730.528519
887.836680	6420.161481
888.145901	6113.659327
888.455082	5876.136962
888.764221	5667.265154
889.073319	5508.216750
889.382376	5375.046269
889.691392	5268.845962
890.000366	5219.694712
890.309300	5192.052385
890.618193	5147.606212
890.927044	5141.388788
891.235855	5111.477942
891.544625	5144.665538
891.853353	5129.037962
892.162041	5221.627154
892.470687	5341.690635
892.779293	5509.729096
893.087858	5750.024096
893.396381	6163.902827
893.704864	6685.158135
894.013306	7489.390212
894.321707	8554.838077
894.630068	9477.705308
894.938387	10086.340615
895.246665	10234.298481
895.554903	9962.244212
895.863100	9504.591462
896.171256	9117.094769
896.479371	8649.611769
896.787446	8179.440154
897.095480	7789.590923
897.403473	7466.873058
897.711425	7136.425423
898.019336	6855.885212
898.327207	6578.621750
898.635038	6263.885712
898.942827	5955.703173
899.250576	5744.478827
899.558284	5516.114558
899.865952	5350.932750
900.173579	5167.014654
900.481165	5032.247808
900.788711	4948.060538
901.096216	4825.308442
901.403681	4756.244635
901.711105	4700.119788
902.018489	4655.421558
902.325832	4698.607442
902.633135	4711.462385
902.940397	4894.204212
903.247619	5304.218058
903.554800	6105.509462
903.861941	7508.966692
904.169041	9106.256288
904.476101	10267.654115
904.783121	10618.098327
905.090100	10386.793385
905.397039	9791.013019
905.703938	9183.806038
906.010796	8577.523269
906.317614	8134.741923
906.624391	7609.117615
906.931129	7203.724827
907.237826	6816.396173
907.544483	6447.047635
907.851099	6061.903481
908.157675	5651.889635
908.464211	5241.203635
908.770707	4892.775885
909.077163	4581.568654
909.383578	4387.904327
909.689954	4196.592538
909.996289	4099.970423
910.302584	4010.910038
910.608839	3933.864404
910.915054	3903.197385
911.221229	3862.700115
911.527363	3851.021442
911.833458	3848.836942
912.139513	3837.074250
912.445527	3857.070827
912.751502	3929.243346
913.057436	3981.083212
913.363331	4093.416923
913.669186	4229.612096
913.975000	4410.253442
914.280775	4701.128019
914.586510	5141.304769
914.892205	5683.396846
915.197859	6432.176231
915.503475	7454.102135
915.809050	8475.271865
916.114585	9271.858192
916.420081	9866.210231
916.725536	10109.529923
917.030952	9948.128981
917.336328	9765.303135
917.641665	9500.054423
917.946961	9177.252538
918.252218	8866.381385
918.557435	8458.972135
918.862612	8082.397942
919.167750	7709.604615
919.472848	7338.995788
919.777906	6951.247038
920.082925	6548.374827
920.387904	6131.135327
920.692843	5786.068346
920.997743	5497.798365
921.302603	5174.324327
921.607423	4982.592442
921.912204	4784.643135
922.216946	4651.388635
922.521647	4490.239750
922.826310	4362.110423
923.130932	4259.690981
923.435516	4137.190942
923.740059	4042.585288
924.044564	3979.906942
924.349028	3918.152808
924.653454	3845.812250
924.957840	3739.948019
925.262186	3707.516596
925.566493	3647.190788
925.870761	3577.034731
926.174989	3527.295346
926.479178	3478.480173
926.783328	3445.712673
927.087438	3400.762385
927.391509	3395.217115
927.695541	3340.268538
927.999533	3315.230808
928.303486	3283.555558
928.607400	3257.929692
928.911275	3226.002385
929.215110	3217.432423
929.518906	3206.425904
929.822663	3185.169038
930.126381	3185.673154
930.430060	3185.253058
930.733699	3174.918692
931.037299	3202.056904
931.340861	3196.427615
931.644383	3189.201962
931.947866	3192.646750
932.251309	3177.439269
932.554714	3189.790096
932.858080	3193.150865
933.161407	3194.747231
933.464694	3192.814788
933.767943	3159.627192
934.071153	3168.785288
934.374323	3164.920404
934.677455	3167.693038
934.980548	3158.198865
935.283602	3152.905654
935.586617	3134.757500
935.889593	3142.403250
936.192530	3137.866212
936.495428	3153.073692
936.798287	3155.090154
937.101108	3186.681385
937.403890	3215.920077
937.706632	3256.837442
938.009336	3320.524019
938.312002	3390.344000
938.614628	3455.038808
938.917216	3499.064885
939.219765	3548.048096
939.522275	3599.047769
939.824747	3596.527192
940.127179	3614.339269
940.429573	3624.673635
940.731929	3619.632481
941.034246	3632.319385
941.336524	3619.548462
941.638763	3602.744615
941.940964	3627.698327
942.243126	3588.125269
942.545250	3564.767923
942.847335	3526.707212
943.149381	3522.422231
943.451389	3478.648212
943.753359	3431.261365
944.055290	3398.073769
944.357182	3375.976712
944.659036	3362.029519
944.960851	3337.916000
945.262628	3307.417019
945.564367	3319.347750
945.866067	3296.998635
946.167729	3293.217769
946.469352	3294.394038
946.770937	3294.478058
947.072484	3256.669404
947.373992	3263.895058
947.675462	3267.675923
947.976893	3254.652942
948.278286	3241.041827
948.579641	3218.020558
948.880958	3239.445462
949.182236	3239.949577
949.483476	3231.547654
949.784678	3222.473577
950.085841	3225.246212
950.386967	3220.961231
950.688054	3225.666308
950.989103	3229.195115
951.290114	3259.274000
951.591087	3287.168385
951.892021	3287.000346
952.192917	3335.731500
952.493776	3362.029519
952.794596	3359.676981
953.095378	3375.640635
953.396122	3403.787077
953.696828	3389.083712
953.997496	3372.952019
954.298126	3374.464365
954.598718	3343.965385
954.899272	3318.591577
955.199788	3313.802481
955.500266	3303.216058
955.800706	3269.944442
956.101108	3213.987635
956.401472	3183.488654
956.701798	3163.576096
957.002087	3116.945423
957.302337	3097.116885
957.602550	3063.593212
957.902724	3025.700538
958.202861	2999.486538
958.502960	2956.972808
958.803022	2931.094885
959.103045	2931.683019
959.403031	2900.595904
959.702979	2864.803712
960.002889	2876.062288
960.302762	2854.973462
960.602596	2845.899385
960.902393	2835.060904
961.202153	2812.543750
961.501875	2823.130173
961.801559	2809.435038
962.101205	2793.051288
962.400814	2813.383942
962.700385	2785.573577
962.999918	2789.858558
963.299414	2759.023500
963.598873	2776.415481
963.898293	2768.769731
964.197677	2762.048192
964.497022	2746.588654
964.796331	2739.699077
965.095601	2751.881865
965.394835	2753.142154
965.694030	2734.237827
965.993189	2754.402442
966.292309	2735.246058
966.591393	2737.346538
966.890439	2750.705596
967.189447	2739.951135
967.488419	2736.674385
967.787353	2729.364712
968.086249	2732.053327
968.385108	2744.320135
968.683930	2738.354769
968.982714	2737.346538
969.281462	2734.153808
969.580172	2746.588654
969.878844	2761.628096
970.177480	2759.107519
970.476078	2770.366096
970.774639	2763.896615
971.073162	2787.337981
971.371649	2779.524192
971.670098	2803.301635
971.968510	2799.016654
972.266885	2798.260481
972.565223	2808.930923
972.863524	2812.879827
973.161788	2809.687096
973.460014	2823.382231
973.758204	2832.960423
974.056356	2833.128462
974.354471	2845.227231
974.652550	2834.808846
974.950591	2840.102058
975.248595	2826.827019
975.546563	2837.581481
975.844493	2831.027981
976.142386	2825.230654
976.440243	2827.163096
976.738062	2822.458019
977.035845	2813.215904
977.333590	2815.232365
977.631299	2806.746423
977.928971	2782.296827
978.226606	2785.993673
978.524204	2787.506019
978.821765	2775.575288
979.119290	2790.362673
979.416777	2770.534135
979.714228	2784.229269
980.011642	2790.110615
980.309020	2793.051288
980.606360	2797.924404
980.903664	2822.374000
981.200931	2841.866462
981.498162	2854.889442
981.795356	2923.113058
982.092513	2995.705673
982.389633	3084.345962
982.686717	3191.134404
982.983764	3291.705423
983.280775	3364.634115
983.577749	3407.567942
983.874686	3431.009308
984.171587	3428.236673
984.468451	3377.237000
984.765279	3364.130000
985.062070	3313.970519
985.358824	3279.774692
985.655543	3242.302115
985.952224	3171.221846
986.248869	3110.643981
986.545478	3047.461519
986.842050	2981.338385
987.138586	2930.170673
987.435086	2873.961808
987.731549	2815.400404
988.027975	2800.865077
988.324366	2760.787904
988.620719	2747.680904
988.917037	2738.774865
989.213318	2714.661346
989.509563	2701.470327
989.805772	2710.628423
990.101944	2690.127731
990.398080	2691.976154
990.694180	2680.129442
990.990244	2689.539596
991.286271	2685.254615
991.582262	2691.472038
991.878217	2698.865731
992.174136	2689.119500
992.470019	2686.514904
992.765865	2697.101327
993.061676	2707.519712
993.357450	2713.653115
993.653188	2712.308808
993.948890	2724.659635
994.244556	2748.353058
994.540186	2752.217942
994.835780	2785.321519
995.131337	2818.341077
995.426859	2853.209058
995.722345	2909.165865
996.017795	2952.771846
996.313208	2989.656288
996.608586	3028.893269
996.903928	3057.711865
997.199234	3083.421750
997.494504	3086.446442
997.789738	3068.718385
998.084936	3058.720096
998.380099	3032.842173
998.675225	3027.548962
998.970316	2997.722135
999.265371	2943.109635
999.560390	2917.735827
999.855373	2870.685058
1000.150320	2845.143212
1000.445232	2808.426808
1000.740108	2793.387365
1001.034948	2753.562250
1001.329752	2735.834192
1001.624521	2732.893519
1001.919254	2701.890423
1002.213951	2711.636654
1002.508613	2676.684654
1002.803239	2686.094808
1003.097829	2681.473750
1003.392384	2663.493635
1003.686903	2653.663385
1003.981386	2666.686365
1004.275834	2653.075250
1004.570246	2644.589308
1004.864623	2651.814962
1005.158964	2631.146231
1005.453270	2651.142808
1005.747540	2620.223731
1006.041775	2609.049173
1006.335974	2635.179154
1006.630138	2631.818385
1006.924266	2624.172635
1007.218359	2644.589308
1007.512416	2615.350615
1007.806438	2605.772423
1008.100425	2613.502192
1008.394376	2619.635596
1008.688292	2609.637308
1008.982172	2634.086904
1009.276017	2629.969962
1009.569827	2618.459327
1009.863602	2624.508712
1010.157341	2609.637308
1010.451045	2618.039231
1010.744714	2609.973385
1011.038347	2618.375308
1011.331945	2625.853019
1011.625508	2623.332442
1011.919036	2600.731269
1012.212528	2621.400000
1012.505986	2626.525173
1012.799408	2607.116731
1013.092795	2615.014538
1013.386147	2622.576269
1013.679464	2602.579692
1013.972745	2608.293000
1014.265992	2608.208981
1014.559204	2608.965154
1014.852380	2606.192519
1015.145521	2604.092038
1015.438628	2611.569750
1015.731699	2628.037519
1016.024736	2603.503904
1016.317737	2624.592731
1016.610703	2604.932231
1016.903635	2626.693212
1017.196531	2615.266596
1017.489393	2624.256654
1017.782219	2614.090327
1018.075011	2630.390058
1018.367768	2622.576269
1018.660490	2606.360558
1018.953177	2606.360558
1019.245829	2606.360558
