Dividing Wavelength (nm)	Counts (n)	Slit_number_6_of_a_total_of_40	
326.493990	2108.042500
326.888308	2108.042500
327.282561	2108.042500
327.676750	2068.553462
328.070874	2081.156346
328.464933	2056.790769
328.858929	2078.635769
329.252859	2105.521923
329.646726	2086.197500
330.040528	2137.449231
330.434265	2092.919038
330.827938	2107.202308
331.221547	2191.221538
331.615091	2217.267500
332.008571	2244.153654
332.401986	2218.947885
332.795338	2252.555577
333.188625	2333.214038
333.581847	2319.770962
333.975006	2328.172885
334.368100	2330.693462
334.761129	2367.661923
335.154095	2376.063846
335.546996	2402.950000
335.939833	2493.690769
336.332606	2485.288846
336.725315	2471.845769
337.117960	2504.613269
337.510540	2501.252500
337.903056	2518.896538
338.295508	2523.937692
338.687896	2514.695577
339.080220	2555.865000
339.472480	2623.080385
339.864676	2585.271731
340.256807	2543.262115
340.648875	2560.906154
341.040879	2534.020000
341.432818	2555.024808
341.824694	2561.746346
342.216506	2617.199038
342.608253	2586.952115
342.999937	2579.390385
343.391557	2567.627692
343.783113	2569.308077
344.174605	2617.199038
344.566033	2566.787500
344.957397	2576.869808
345.348697	2593.673654
345.739934	2574.349231
346.131106	2562.586538
346.522215	2618.879423
346.913260	2599.555000
347.304241	2597.034423
347.695159	2571.828654
348.086012	2556.705192
348.476802	2571.828654
348.867528	2542.421923
349.258191	2597.034423
349.648789	2574.349231
350.039324	2634.002885
350.429796	2572.668846
350.820203	2549.143462
351.210548	2571.828654
351.600828	2539.061154
351.991045	2581.070769
352.381198	2592.833462
352.771288	2534.020000
353.161314	2577.710000
353.551276	2591.153077
353.941175	2605.436346
354.331010	2513.855385
354.720782	2584.431538
355.110490	2603.755962
355.500135	2618.879423
355.889717	2618.039231
356.279235	2628.961731
356.668689	2663.409615
357.058080	2719.702500
357.447408	2702.058462
357.836672	2729.784808
358.225873	2826.406923
358.615010	2806.242308
359.004084	2824.726538
359.393095	2990.244423
359.782043	3111.232115
360.170927	3259.105962
360.559748	3452.350192
360.948505	3696.846154
361.337199	3991.753654
361.725830	4396.726346
362.114398	4833.626346
362.502903	5407.477692
362.891344	6161.130192
363.279722	6769.429423
363.668037	7631.466731
364.056289	8450.654231
364.444478	9629.444038
364.832603	10773.785962
365.220665	11893.762308
365.608665	13222.946538
365.996601	14284.949615
366.384474	15891.397308
366.772284	16997.090385
367.160031	18009.522115
367.547715	19097.571154
367.935336	20490.610000
368.322893	20910.706154
368.710388	21537.489615
369.097820	23015.387885
369.485189	22836.426923
369.872495	23837.095962
370.259738	24188.296346
370.646918	24681.489231
371.034035	24442.874615
371.421090	24618.474808
371.808081	25124.270577
372.195010	24868.011923
372.581875	24915.062692
372.968678	24936.067500
373.355418	24823.481731
373.742096	25055.374808
374.128710	25279.706154
374.515262	24792.394615
374.901751	24702.494038
375.288177	24774.750577
375.674540	24800.796538
376.060841	24349.613269
376.447079	24492.445962
376.833254	24409.266923
377.219367	24388.262115
377.605417	24491.605769
377.991404	24094.194808
378.377329	24409.266923
378.763191	24341.211346
379.148991	24692.411731
379.534727	25049.493462
379.920402	24994.880962
380.306013	25708.204231
380.691563	26413.125577
381.077049	26988.657308
381.462474	27653.249423
381.847835	29082.416538
382.233134	30388.075385
382.618371	31144.248462
383.003545	33073.330000
383.388657	34579.794808
383.773706	36422.336538
384.158693	38048.108654
384.543618	40259.494808
384.928480	42407.026346
385.313280	44541.114808
385.698017	47066.732885
386.082692	49924.226923
386.467305	50905.571538
386.851856	53837.842692
387.236344	56558.385385
387.620770	57103.670192
388.005133	58863.032885
388.389435	60897.978654
388.773674	61396.212692
389.157851	62367.475000
389.541965	63409.313462
389.926018	62844.704231
390.310008	64022.653846
390.693936	64077.266346
391.077802	64412.503077
391.461606	64258.747885
391.845348	64150.363077
392.229027	63719.344423
392.612645	64044.498846
392.996200	62971.573269
393.379694	62397.721923
393.763125	61949.899423
394.146494	61323.115962
394.529801	60198.098462
394.913047	59877.145000
395.296230	58201.801538
395.679351	56414.712500
396.062410	56439.078077
396.445408	53772.307692
396.828343	52952.280000
397.211217	51851.628077
397.594028	49117.642308
397.976778	48379.953462
398.359466	47609.497115
398.742092	45179.660962
399.124656	44491.543462
399.507158	43311.073269
399.889598	42352.413846
400.271977	41917.194231
400.654294	41140.856538
401.036549	40720.760385
401.418742	39447.028846
401.800874	40152.790385
402.182944	39399.978077
402.564952	40230.928269
402.946898	38923.589038
403.328783	38939.552692
403.710606	39124.395000
404.092367	40658.586154
404.474067	41672.698269
404.855705	40854.350962
405.237282	40687.152692
405.618797	43621.944423
406.000250	44825.099808
406.381642	46653.358269
406.762972	47731.325000
407.144240	47405.330385
407.525447	49308.365962
407.906593	49664.607500
408.287677	51819.700769
408.668700	53687.448269
409.049661	54832.630385
409.430560	55606.447500
409.811399	55856.824808
410.192176	57275.069423
410.572891	57560.734808
410.953545	59951.081923
411.334138	58939.490385
411.714669	60847.567115
412.095139	58349.675385
412.475547	60784.552692
412.855894	59514.181923
413.236180	60078.791154
413.616405	58360.597885
413.996568	58562.244038
414.376670	57140.638654
414.756711	55059.482308
415.136691	54320.113077
415.516609	53264.831538
415.896466	50916.494038
416.276262	49473.883846
416.655997	46944.064808
417.035670	43857.198269
417.415283	43049.773462
417.794834	41510.541154
418.174324	38937.032115
418.553753	36904.606923
418.933121	36776.057500
419.312428	34651.211154
419.691674	32844.797692
420.070859	32862.441731
420.449983	31286.240962
420.829045	31333.291731
421.208047	29704.158846
421.586988	29970.499808
421.965867	30406.559615
422.344686	30208.274231
422.723444	30166.264615
423.102141	27546.545000
423.480777	29494.110769
423.859352	28781.627692
424.237866	30761.120769
424.616319	30442.687885
424.994712	31476.964615
425.373044	31592.070962
425.751314	32805.308654
426.129524	31288.761538
426.507673	33704.314423
426.885762	32795.226346
427.263789	34180.703462
427.641756	34323.536154
428.019662	35337.648269
428.397508	35697.250577
428.775292	37079.366923
429.153016	37988.455000
429.530679	38894.182308
429.908282	40106.579808
430.285824	40245.211538
430.663305	43388.370962
431.040726	43049.773462
431.418086	44152.945962
431.795385	46487.000192
432.172624	49106.719808
432.549802	49906.582885
432.926920	51060.166923
433.303977	52449.004808
433.680974	54578.892308
434.057910	55708.950962
434.434786	57024.692115
434.811601	57322.120192
435.188355	60666.085577
435.565050	60333.369423
435.941683	60377.899615
436.318257	62309.501731
436.694770	62604.409231
437.071222	63926.031731
437.447614	63464.766154
437.823946	64199.094231
438.200218	64610.788462
438.576429	64860.325577
438.952580	65135.068462
439.328670	65308.148077
439.704700	65535.000000
440.080670	64816.635577
440.456580	65335.034231
440.832429	65419.893654
441.208218	63379.066538
441.583947	63605.078269
441.959616	62923.682308
442.335224	62253.208846
442.710773	61770.098269
443.086261	61208.009615
443.461689	58999.144038
443.837057	57572.497500
444.212365	56847.411538
444.587612	55147.702500
444.962800	51838.185000
445.337927	50875.324615
445.712995	45881.221538
446.088002	47204.524423
446.462949	45210.748077
446.837837	42964.073846
447.212664	39454.590577
447.587431	39217.656346
447.962139	37770.005000
448.336786	37084.408077
448.711374	35307.401346
449.085901	32258.343462
449.460369	32475.113077
449.834776	31495.448846
450.209124	31678.610769
450.583412	29748.689038
450.957640	30281.370962
451.331808	29321.871346
451.705917	28415.303846
452.079965	27901.946346
452.453954	27579.312500
452.827883	27006.301346
453.201752	26109.816154
453.575562	26278.694808
453.949311	26341.709231
454.323001	25851.036923
454.696632	24789.874038
455.070202	25492.274808
455.443713	24578.145577
455.817164	24548.738846
456.190556	23882.466346
456.563888	23343.903077
456.937160	23364.907885
457.310373	22373.480962
457.683526	22924.647115
458.056619	23125.453077
458.429653	22607.054423
458.802628	22693.594231
459.175542	22273.498077
459.548398	22959.095000
459.921194	23325.418846
460.293930	22440.696346
460.666607	22946.492115
461.039224	23209.472308
461.411782	23449.767308
461.784280	23065.799423
462.156719	24095.035000
462.529099	24981.437885
462.901419	25310.793269
463.273680	25451.105385
463.645882	25992.189231
464.018024	26729.878077
464.390106	27297.007885
464.762130	28452.272308
465.134094	28853.884231
465.505999	29778.935962
465.877845	30796.408846
466.249631	31436.635385
466.621358	31778.593654
466.993026	32930.497308
467.364634	33761.447500
467.736184	34330.257692
468.107674	35490.563269
468.479105	36454.263846
468.850477	37314.620769
469.221790	38059.871346
469.593043	37939.723846
469.964238	38674.892115
470.335373	39452.910192
470.706449	40942.571154
471.077467	40393.925577
471.448425	40647.663654
471.819324	42224.704615
472.190164	42925.425000
472.560945	42819.560769
472.931667	42200.339038
473.302330	42924.584808
473.672934	42833.844038
474.043479	43465.668654
474.413965	42828.802885
474.784393	42363.336346
475.154761	42862.410577
475.525070	42335.610000
475.895321	41399.635769
476.265513	41621.446538
476.635645	41636.570000
477.005719	40743.445577
477.375734	40099.858269
477.745691	39269.748269
478.115588	38989.964231
478.485427	38337.134808
478.855207	38222.868654
479.224928	37441.489808
479.594591	36576.091731
479.964194	35315.803269
480.333739	34957.041154
480.703226	34577.274231
481.072653	33755.566154
481.442022	33027.959615
481.811333	32712.047308
482.180584	31652.564808
482.549777	31052.667500
482.918912	30266.247500
483.287988	29787.337885
483.657005	28884.131154
484.025964	28336.325769
484.394864	28326.243462
484.763706	27725.505962
485.132489	26924.802692
485.501213	26612.251154
485.869879	25966.983462
486.238487	25449.425000
486.607036	24857.089423
486.975527	24052.185192
487.343959	23511.941538
487.712333	22946.492115
488.080648	22702.836346
488.448905	22261.735385
488.817104	21712.249615
489.185244	21324.080769
489.553326	20666.210192
489.921350	20202.424038
490.289315	19828.538462
490.657222	19213.517692
491.025070	18899.285769
491.392861	18399.371346
491.760593	17808.716154
492.128267	17195.375769
492.495883	16950.039615
492.863440	16550.108077
493.230939	15937.607885
493.598380	15541.037115
493.965763	15066.328462
494.333088	14579.857115
494.700354	14096.746538
495.067563	13748.906923
495.434713	13556.502885
495.801805	13122.963654
496.168839	12706.228269
496.535815	12331.502500
496.902733	12023.151923
497.269593	11671.951538
497.636395	11268.659231
498.003139	11120.785385
498.369825	10866.207115
498.736453	10646.916923
499.103023	10304.118462
499.469535	9922.671154
499.835989	9733.627885
500.202385	9424.437115
500.568723	9107.684615
500.935003	9034.587885
501.301226	8714.474615
501.667390	8497.705000
502.033497	8466.617885
502.399546	8137.262500
502.765537	7869.241154
503.131470	7807.907115
503.497345	7769.258269
503.863163	7444.103846
504.228923	7405.455000
504.594625	7218.092115
504.960269	7050.893846
505.325856	7045.852692
505.691385	6832.443846
506.056856	6730.780577
506.422270	6657.683846
506.787625	6557.700962
507.152924	6403.105577
507.518164	6340.091154
507.883347	6163.650769
508.248472	6072.910000
508.613540	5934.278269
508.978550	5900.670577
509.343503	5814.130769
509.708398	5786.404423
510.073236	5665.416731
510.438016	5583.918077
510.802738	5472.172500
511.167403	5379.751346
511.532010	5255.402885
511.896561	5191.548269
512.261053	5180.625769
512.625488	5058.797885
512.989866	4991.582500
513.354186	5011.747115
513.718449	4888.238846
514.082655	4874.795769
514.446803	4747.926731
514.810894	4671.469231
515.174927	4630.299808
515.538904	4509.312115
515.902822	4537.038462
516.266684	4489.987692
516.630488	4432.854615
516.994235	4342.113846
517.357925	4282.460192
517.721558	4316.067885
518.085133	4225.327115
518.448651	4174.915577
518.812112	4089.215962
519.175516	4121.143269
519.538863	4034.603462
519.902152	3981.671346
520.265385	3974.109615
520.628560	4022.000577
520.991678	3887.569808
521.354739	3853.121923
521.717743	3779.185000
522.080690	3792.628077
522.443580	3756.499808
522.806413	3729.613654
523.169189	3626.270000
523.531908	3660.717885
523.894569	3664.078654
524.257174	3654.836538
524.619722	3654.836538
524.982213	3685.923654
525.344647	3582.580000
525.707025	3508.643077
526.069345	3528.807692
526.431608	3502.761731
526.793815	3474.195192
527.155964	3432.185577
527.518057	3434.706154
527.880093	3368.330962
528.242072	3355.728077
528.603995	3426.304231
528.965860	3341.444808
529.327669	3393.536731
529.689421	3320.440000
530.051117	3303.636154
530.412755	3306.996923
530.774337	3276.750000
531.135862	3272.549038
531.497331	3285.992115
531.858743	3205.333654
532.220098	3228.859038
532.581396	3180.968077
532.942638	3163.324038
533.303824	3138.118269
533.664953	3128.035962
534.026025	3142.319231
534.387040	3113.752692
534.747999	3083.505769
535.108902	3078.464615
535.469748	3080.145000
535.830537	3067.542115
536.191270	3073.423462
536.551947	3067.542115
536.912567	3035.614808
537.273131	3046.537308
537.633638	2988.564038
537.994089	3017.970769
538.354483	3041.496154
538.714821	2941.513269
539.075103	2965.878846
539.435328	3002.847308
539.795497	2962.518077
540.155609	2995.285577
540.515665	2997.806154
540.875665	2954.956346
541.235609	2951.595577
541.595496	2930.590769
541.955328	2942.353462
542.315102	2870.096923
542.674821	2944.033846
543.034483	2923.029038
543.394090	2886.060577
543.753640	2907.065385
544.113134	2874.297885
544.472571	2870.096923
544.831953	2896.142885
545.191278	2909.585962
545.550548	2872.617500
545.909761	2927.230000
546.268918	2844.050962
546.628019	2889.421346
546.987064	2886.060577
547.346053	2872.617500
547.704986	2848.251923
548.063863	2848.251923
548.422684	2839.009808
548.781449	2812.963846
549.140158	2844.050962
549.498811	2860.854808
549.857408	2794.479615
550.215949	2809.603077
550.574434	2827.247115
550.932864	2816.324615
551.291237	2819.685385
551.649555	2827.247115
552.007817	2818.845192
552.366022	2849.932308
552.724173	2838.169615
553.082267	2798.680577
553.440305	2821.365769
553.798288	2831.448077
554.156215	2808.762885
554.514086	2825.566731
554.871902	2770.954231
555.229661	2807.082500
555.587365	2755.830769
555.945014	2806.242308
556.302606	2793.639423
556.660143	2778.515962
557.017625	2814.644231
557.375050	2805.402115
557.732421	2775.155192
558.089735	2791.118846
558.446994	2770.114038
558.804197	2754.990577
559.161345	2765.072885
559.518437	2736.506346
559.875474	2730.625000
560.232455	2835.649038
560.589381	2814.644231
560.946251	2780.196346
561.303065	2738.186731
561.659825	2783.557115
562.016528	2739.867115
562.373177	2786.077692
562.729770	2749.949423
563.086307	2808.762885
563.442789	2782.716923
563.799216	2791.959038
564.155587	2741.547500
564.511904	2802.881538
564.868164	2748.269038
565.224370	2736.506346
565.580520	2790.278654
565.936615	2776.835577
566.292654	2781.876731
566.648638	2749.949423
567.004567	2742.387692
567.360441	2739.867115
567.716260	2809.603077
568.072023	2770.114038
568.427732	2804.561923
568.783385	2797.840385
569.138982	2738.186731
569.494525	2777.675769
569.850013	2746.588654
570.205445	2789.438462
570.560823	2726.424038
570.916145	2791.959038
571.271412	2778.515962
571.626625	2775.155192
571.981782	2765.072885
572.336884	2778.515962
572.691931	2729.784808
573.046923	2754.990577
573.401860	2718.862308
573.756743	2736.506346
574.111570	2729.784808
574.466342	2766.753269
574.821059	2765.913077
575.175722	2768.433654
575.530330	2735.666154
575.884882	2735.666154
576.239380	2754.150385
576.593823	2738.186731
576.948211	2751.629808
577.302544	2699.537885
577.656823	2703.738846
578.011047	2717.181923
578.365216	2730.625000
578.719330	2788.598269
579.073389	2739.026923
579.427394	2744.908269
579.781344	2714.661346
580.135239	2743.227885
580.489080	2741.547500
580.842866	2766.753269
581.196597	2779.356154
581.550273	2709.620192
581.903895	2711.300577
582.257463	2690.295769
582.610975	2713.821154
582.964434	2712.980962
583.317837	2772.634615
583.671186	2716.341731
584.024481	2715.501538
584.377721	2720.542692
584.730906	2680.213462
585.084037	2720.542692
585.437113	2661.729231
585.790135	2722.223077
586.143103	2723.903462
586.496016	2749.109231
586.848874	2731.465192
587.201679	2728.944615
587.554428	2711.300577
587.907124	2708.780000
588.259765	2712.980962
588.612352	2723.063269
588.964884	2691.976154
589.317362	2694.496731
589.669786	2704.579038
590.022155	2689.455577
590.374470	2712.140769
590.726731	2686.094808
591.078937	2718.022115
591.431090	2688.615385
591.783188	2691.976154
592.135232	2704.579038
592.487222	2678.533077
592.839157	2684.414423
593.191038	2684.414423
593.542866	2687.775192
593.894639	2699.537885
594.246358	2662.569423
594.598022	2695.336923
594.949633	2724.743654
595.301190	2742.387692
595.652692	2683.574231
596.004141	2698.697692
596.355535	2676.012500
596.706876	2701.218269
597.058162	2664.249808
597.409395	2660.889038
597.760573	2633.162692
598.111698	2648.286154
598.462768	2681.053654
598.813785	2665.930192
599.164748	2670.971346
599.515657	2649.966538
599.866511	2664.249808
600.217312	2686.094808
600.568060	2680.213462
600.918753	2686.094808
601.269392	2649.966538
601.619978	2684.414423
601.970510	2660.889038
602.320988	2636.523462
602.671412	2701.218269
603.021783	2663.409615
603.372100	2654.167500
603.722363	2649.966538
604.072572	2634.843077
604.422728	2695.336923
604.772830	2690.295769
605.122878	2635.683269
605.472872	2681.893846
605.822813	2651.646923
606.172701	2665.930192
606.522534	2668.450769
606.872314	2690.295769
607.222041	2633.162692
607.571714	2679.373269
607.921333	2701.218269
608.270899	2657.528269
608.620411	2650.806731
608.969870	2626.441154
609.319276	2646.605769
609.668627	2650.806731
610.017926	2665.930192
610.367171	2662.569423
610.716362	2681.893846
611.065500	2705.419231
611.414585	2631.482308
611.763616	2650.806731
612.112594	2707.099615
612.461518	2687.775192
612.810389	2621.400000
613.159207	2662.569423
613.507971	2699.537885
613.856682	2655.847885
614.205340	2655.847885
614.553945	2657.528269
614.902496	2700.378077
615.250994	2663.409615
615.599439	2624.760769
615.947830	2646.605769
616.296169	2665.930192
616.644454	2697.017308
616.992686	2676.852692
617.340864	2672.651731
617.688990	2653.327308
618.037063	2665.090000
618.385082	2673.491923
618.733048	2618.039231
619.080961	2634.843077
619.428821	2626.441154
619.776628	2610.477500
620.124382	2678.533077
620.472083	2670.131154
620.819731	2639.884231
621.167326	2659.208654
621.514868	2671.811538
621.862357	2660.889038
622.209793	2635.683269
622.557176	2671.811538
622.904506	2607.956923
623.251783	2678.533077
623.599007	2644.085192
623.946179	2629.801923
624.293297	2645.765577
624.640363	2654.167500
624.987376	2640.724423
625.334336	2644.085192
625.681243	2590.312885
626.028097	2649.966538
626.374899	2623.920577
626.721647	2561.746346
627.068343	2645.765577
627.414987	2623.080385
627.761577	2568.467885
628.108115	2602.075577
628.454600	2648.286154
628.801032	2644.925385
629.147412	2600.395192
629.493739	2653.327308
629.840014	2632.322500
630.186236	2581.910962
630.532405	2611.317692
630.878521	2634.843077
631.224585	2649.966538
631.570597	2634.002885
631.916556	2644.925385
632.262462	2635.683269
632.608316	2648.286154
632.954117	2625.600962
633.299866	2655.847885
633.645562	2614.678462
633.991206	2623.920577
634.336797	2627.281346
634.682336	2690.295769
635.027823	2607.956923
635.373257	2622.240192
635.718639	2612.157885
636.063968	2617.199038
636.409245	2584.431538
636.754470	2600.395192
637.099642	2531.499423
637.444762	2574.349231
637.789829	2593.673654
638.134845	2620.559808
638.479808	2577.710000
638.824719	2589.472692
639.169577	2634.843077
639.514383	2585.271731
639.859137	2649.966538
640.203839	2596.194231
640.548489	2567.627692
640.893086	2581.910962
641.237632	2628.961731
641.582125	2607.116731
641.926566	2628.961731
642.270955	2578.550192
642.615292	2611.317692
642.959576	2607.116731
643.303809	2582.751154
643.647990	2579.390385
643.992118	2601.235385
644.336195	2640.724423
644.680219	2655.847885
645.024192	2595.354038
645.368112	2591.993269
645.711981	2603.755962
646.055797	2618.879423
646.399562	2621.400000
646.743274	2612.998077
647.086935	2621.400000
647.430544	2581.910962
647.774101	2634.002885
648.117606	2560.906154
648.461059	2579.390385
648.804460	2535.700385
649.147810	2636.523462
649.491108	2553.344423
649.834354	2622.240192
650.177548	2609.637308
650.520690	2598.714808
650.863781	2542.421923
651.206820	2566.787500
651.549807	2576.029615
651.892742	2611.317692
652.235626	2619.719615
652.578458	2591.153077
652.921238	2591.993269
653.263967	2578.550192
653.606644	2591.993269
653.949269	2607.956923
654.291843	2641.564615
654.634365	2550.823846
654.976836	2604.596154
655.319255	2601.235385
655.661622	2578.550192
656.003938	2552.504231
656.346203	2577.710000
656.688416	2590.312885
657.030577	2616.358846
657.372687	2572.668846
657.714746	2566.787500
658.056753	2578.550192
658.398708	2576.029615
658.740612	2594.513846
659.082465	2576.029615
659.424266	2544.942500
659.766016	2576.029615
660.107715	2630.642115
660.449362	2552.504231
660.790958	2584.431538
661.132503	2581.070769
661.473996	2586.111923
661.815438	2601.235385
662.156829	2564.266923
662.498168	2591.993269
662.839456	2565.107115
663.180693	2560.906154
663.521879	2536.540577
663.863013	2612.157885
664.204097	2553.344423
664.545129	2595.354038
664.886110	2590.312885
665.227040	2588.632500
665.567918	2562.586538
665.908746	2588.632500
666.249522	2559.225769
666.590248	2540.741538
666.930922	2502.092692
667.271545	2553.344423
667.612118	2544.102308
667.952639	2618.039231
668.293109	2561.746346
668.633528	2569.308077
668.973896	2563.426731
669.314213	2533.179808
669.654480	2581.910962
669.994695	2562.586538
670.334859	2540.741538
670.674973	2563.426731
671.015035	2556.705192
671.355047	2544.942500
671.695008	2565.947308
672.034918	2561.746346
672.374777	2610.477500
672.714585	2544.942500
673.054342	2552.504231
673.394049	2607.116731
673.733705	2532.339615
674.073310	2506.293654
674.412864	2560.906154
674.752368	2591.153077
675.091820	2553.344423
675.431223	2561.746346
675.770574	2602.075577
676.109875	2565.107115
676.449125	2581.070769
676.788324	2523.097500
677.127473	2552.504231
677.466571	2582.751154
677.805619	2554.184615
678.144616	2570.148269
678.483562	2552.504231
678.822458	2559.225769
679.161303	2624.760769
679.500098	2551.664038
679.838842	2580.230577
680.177535	2555.865000
680.516179	2557.545385
680.854771	2551.664038
681.193314	2539.061154
681.531805	2562.586538
681.870247	2591.153077
682.208638	2526.458269
682.546978	2556.705192
682.885268	2555.865000
683.223508	2523.937692
683.561697	2573.509038
683.899836	2567.627692
684.237925	2573.509038
684.575963	2500.412308
684.913951	2549.983654
685.251889	2532.339615
685.589776	2586.111923
685.927614	2549.983654
686.265401	2541.581731
686.603137	2562.586538
686.940824	2503.773077
687.278460	2550.823846
687.616046	2570.148269
687.953582	2579.390385
688.291068	2563.426731
688.628504	2591.993269
688.965889	2586.952115
689.303224	2540.741538
689.640510	2550.823846
689.977745	2520.576923
690.314930	2583.591346
690.652065	2555.865000
690.989150	2608.797115
691.326185	2573.509038
691.663170	2535.700385
692.000105	2502.092692
692.336990	2559.225769
692.673825	2534.020000
693.010610	2558.385577
693.347345	2507.974038
693.684030	2577.710000
694.020665	2538.220962
694.357251	2513.855385
694.693786	2552.504231
695.030272	2537.380769
695.366707	2581.910962
695.703093	2515.535769
696.039429	2600.395192
696.375716	2540.741538
696.711952	2576.029615
697.048139	2530.659231
697.384276	2555.865000
697.720363	2518.896538
698.056400	2539.901346
698.392388	2567.627692
698.728326	2514.695577
699.064214	2521.417115
699.400053	2502.092692
699.735842	2513.855385
700.071581	2519.736731
700.407270	2503.773077
700.742910	2555.865000
701.078501	2581.910962
701.414042	2526.458269
701.749533	2495.371154
702.084974	2575.189423
702.420366	2510.494615
702.755709	2565.947308
703.091002	2539.901346
703.426246	2522.257308
703.761440	2535.700385
704.096584	2570.148269
704.431679	2552.504231
704.766725	2509.654423
705.101721	2541.581731
705.436668	2502.092692
705.771565	2536.540577
706.106413	2569.308077
706.441212	2560.065962
706.775961	2563.426731
707.110661	2550.823846
707.445311	2516.375962
707.779913	2593.673654
708.114465	2602.075577
708.448967	2536.540577
708.783421	2500.412308
709.117825	2529.819038
709.452180	2492.850577
709.786485	2567.627692
710.120742	2571.828654
710.454949	2519.736731
710.789107	2499.572115
711.123216	2504.613269
711.457275	2560.065962
711.791286	2541.581731
712.125247	2498.731923
712.459159	2566.787500
712.793023	2501.252500
713.126837	2586.952115
713.460602	2515.535769
713.794318	2544.102308
714.127985	2521.417115
714.461602	2563.426731
714.795171	2501.252500
715.128691	2583.591346
715.462162	2513.855385
715.795584	2553.344423
716.128957	2560.906154
716.462281	2565.107115
716.795556	2553.344423
717.128782	2571.828654
717.461960	2566.787500
717.795088	2524.777885
718.128167	2544.102308
718.461198	2558.385577
718.794180	2558.385577
719.127113	2534.860192
719.459997	2549.143462
719.792833	2570.148269
720.125619	2534.860192
720.458357	2544.102308
720.791046	2534.020000
721.123686	2517.216154
721.456278	2502.932885
721.788821	2607.956923
722.121315	2530.659231
722.453761	2556.705192
722.786158	2545.782692
723.118506	2533.179808
723.450805	2513.855385
723.783056	2552.504231
724.115259	2541.581731
724.447412	2554.184615
724.779518	2561.746346
725.111574	2504.613269
725.443582	2523.937692
725.775542	2560.065962
726.107453	2523.097500
726.439315	2528.978846
726.771129	2528.978846
727.102895	2551.664038
727.434612	2570.148269
727.766281	2509.654423
728.097901	2530.659231
728.429473	2547.463077
728.760996	2555.865000
729.092471	2507.974038
729.423897	2568.467885
729.755276	2523.097500
730.086606	2543.262115
730.417887	2512.175000
730.749120	2530.659231
731.080305	2573.509038
731.411442	2593.673654
731.742530	2546.622885
732.073570	2560.906154
732.404562	2528.138654
732.735506	2541.581731
733.066401	2494.530962
733.397249	2491.170192
733.728048	2555.024808
734.058798	2528.978846
734.389501	2544.942500
734.720156	2557.545385
735.050762	2574.349231
735.381320	2535.700385
735.711831	2560.906154
736.042293	2503.773077
736.372707	2468.485000
736.703073	2517.216154
737.033391	2552.504231
737.363661	2502.932885
737.693883	2518.896538
738.024056	2488.649615
738.354182	2543.262115
738.684260	2507.133846
739.014290	2500.412308
739.344272	2572.668846
739.674207	2565.107115
740.004093	2529.819038
740.333931	2567.627692
740.663722	2566.787500
740.993464	2534.860192
741.323159	2473.526154
741.652806	2526.458269
741.982405	2560.906154
742.311956	2523.097500
742.641460	2554.184615
742.970915	2534.860192
743.300323	2534.860192
743.629683	2551.664038
743.958996	2519.736731
744.288260	2539.901346
744.617477	2530.659231
744.946647	2491.170192
745.275768	2528.138654
745.604842	2487.809423
745.933869	2560.065962
746.262847	2546.622885
746.591778	2523.937692
746.920662	2527.298462
747.249498	2534.020000
747.578286	2523.097500
747.907027	2578.550192
748.235720	2476.046731
748.564365	2534.860192
748.892963	2568.467885
749.221514	2500.412308
749.550017	2527.298462
749.878473	2564.266923
750.206881	2544.102308
750.535242	2516.375962
750.863555	2554.184615
751.191821	2538.220962
751.520039	2519.736731
751.848210	2587.792308
752.176334	2506.293654
752.504411	2543.262115
752.832440	2544.102308
753.160421	2531.499423
753.488356	2524.777885
753.816243	2550.823846
754.144082	2577.710000
754.471875	2564.266923
754.799620	2505.453462
755.127318	2592.833462
755.454969	2539.061154
755.782572	2570.148269
756.110129	2548.303269
756.437638	2559.225769
756.765100	2518.896538
757.092515	2547.463077
757.419882	2491.170192
757.747203	2527.298462
758.074477	2553.344423
758.401703	2554.184615
758.728882	2556.705192
759.056014	2523.097500
759.383099	2489.489808
759.710138	2538.220962
760.037129	2531.499423
760.364073	2489.489808
760.690970	2506.293654
761.017820	2518.056346
761.344623	2512.175000
761.671379	2502.092692
761.998088	2529.819038
762.324751	2568.467885
762.651366	2497.891731
762.977935	2513.855385
763.304456	2554.184615
763.630931	2518.056346
763.957359	2549.143462
764.283740	2497.051538
764.610074	2532.339615
764.936362	2538.220962
765.262602	2577.710000
765.588796	2517.216154
765.914943	2567.627692
766.241044	2462.603654
766.567097	2532.339615
766.893104	2524.777885
767.219064	2494.530962
767.544978	2565.107115
767.870845	2531.499423
768.196665	2551.664038
768.522438	2562.586538
768.848165	2555.865000
769.173846	2529.819038
769.499479	2517.216154
769.825066	2512.175000
770.150607	2525.618077
770.476101	2527.298462
770.801548	2536.540577
771.126949	2502.932885
771.452303	2524.777885
771.777611	2508.814231
772.102872	2528.978846
772.428087	2511.334808
772.753256	2496.211346
773.078378	2539.061154
773.403453	2492.010385
773.728482	2533.179808
774.053465	2490.330000
774.378401	2513.015192
774.703291	2518.896538
775.028135	2479.407500
775.352932	2580.230577
775.677683	2518.896538
776.002388	2517.216154
776.327046	2499.572115
776.651658	2519.736731
776.976224	2548.303269
777.300743	2537.380769
777.625216	2507.974038
777.949643	2510.494615
778.274024	2515.535769
778.598359	2517.216154
778.922647	2505.453462
779.246889	2530.659231
779.571086	2548.303269
779.895236	2517.216154
780.219339	2538.220962
780.543397	2518.896538
780.867409	2514.695577
781.191374	2519.736731
781.515294	2520.576923
781.839167	2507.133846
782.162995	2612.998077
782.486776	2558.385577
782.810511	2518.056346
783.134201	2523.937692
783.457844	2575.189423
783.781441	2534.020000
784.104993	2498.731923
784.428498	2542.421923
784.751958	2563.426731
785.075372	2564.266923
785.398739	2529.819038
785.722061	2468.485000
786.045337	2565.107115
786.368568	2551.664038
786.691752	2503.773077
787.014891	2529.819038
787.337983	2522.257308
787.661030	2475.206538
787.984031	2530.659231
788.306987	2506.293654
788.629897	2523.097500
788.952760	2537.380769
789.275579	2574.349231
789.598351	2574.349231
789.921078	2492.010385
790.243759	2521.417115
790.566395	2524.777885
790.888984	2490.330000
791.211529	2469.325192
791.534027	2522.257308
791.856480	2589.472692
792.178888	2513.015192
792.501249	2507.133846
792.823566	2515.535769
793.145836	2523.937692
793.468062	2504.613269
793.790241	2487.809423
794.112375	2511.334808
794.434464	2534.020000
794.756507	2509.654423
795.078505	2525.618077
795.400457	2574.349231
795.722364	2547.463077
796.044226	2531.499423
796.366042	2515.535769
796.687812	2530.659231
797.009538	2531.499423
797.331218	2520.576923
797.652852	2517.216154
797.974442	2556.705192
798.295986	2529.819038
798.617484	2475.206538
798.938938	2536.540577
799.260346	2467.644808
799.581709	2528.138654
799.903026	2538.220962
800.224299	2557.545385
800.545526	2522.257308
800.866708	2500.412308
801.187845	2545.782692
801.508936	2530.659231
801.829983	2482.768269
802.150984	2547.463077
802.471940	2506.293654
802.792851	2545.782692
803.113717	2520.576923
803.434538	2482.768269
803.755314	2511.334808
804.076045	2519.736731
804.396731	2529.819038
804.717372	2523.097500
805.037967	2568.467885
805.358518	2549.143462
805.679024	2513.015192
805.999485	2507.974038
806.319901	2541.581731
806.640272	2544.102308
806.960598	2516.375962
807.280879	2505.453462
807.601115	2485.288846
807.921306	2525.618077
808.241453	2538.220962
808.561554	2560.065962
808.881611	2523.937692
809.201623	2555.024808
809.521590	2532.339615
809.841513	2540.741538
810.161390	2519.736731
810.481223	2506.293654
810.801011	2495.371154
811.120755	2492.010385
811.440453	2514.695577
811.760107	2474.366346
812.079716	2524.777885
812.399281	2567.627692
812.718801	2531.499423
813.038276	2519.736731
813.357707	2542.421923
813.677093	2552.504231
813.996434	2504.613269
814.315731	2537.380769
814.634983	2529.819038
814.954191	2508.814231
815.273354	2525.618077
815.592473	2527.298462
815.911547	2544.942500
816.230577	2492.850577
816.549562	2560.906154
816.868502	2539.901346
817.187399	2531.499423
817.506250	2535.700385
817.825058	2565.107115
818.143821	2507.133846
818.462539	2506.293654
818.781213	2547.463077
819.099843	2515.535769
819.418429	2470.165385
819.736970	2509.654423
820.055466	2509.654423
820.373919	2558.385577
820.692327	2535.700385
821.010691	2523.097500
821.329011	2561.746346
821.647286	2507.133846
821.965517	2530.659231
822.283704	2523.097500
822.601847	2534.020000
822.919945	2528.978846
823.237999	2456.722308
823.556010	2507.974038
823.873976	2546.622885
824.191897	2531.499423
824.509775	2482.768269
824.827609	2504.613269
825.145398	2525.618077
825.463144	2512.175000
825.780845	2507.133846
826.098502	2523.097500
826.416116	2530.659231
826.733685	2550.823846
827.051210	2530.659231
827.368692	2508.814231
827.686129	2527.298462
828.003522	2524.777885
828.320872	2570.148269
828.638177	2526.458269
828.955439	2481.928077
829.272656	2507.974038
829.589830	2494.530962
829.906960	2502.932885
830.224046	2505.453462
830.541088	2468.485000
830.858086	2534.020000
831.175041	2512.175000
831.491952	2518.056346
831.808819	2523.097500
832.125642	2508.814231
832.442421	2492.010385
832.759157	2544.102308
833.075849	2453.361538
833.392497	2556.705192
833.709101	2467.644808
834.025662	2549.143462
834.342179	2543.262115
834.658653	2533.179808
834.975083	2534.020000
835.291469	2534.020000
835.607811	2508.814231
835.924110	2498.731923
836.240366	2553.344423
836.556578	2492.850577
836.872746	2523.937692
837.188871	2508.814231
837.504952	2527.298462
837.820990	2485.288846
838.136984	2497.891731
838.452935	2513.855385
838.768842	2539.061154
839.084706	2494.530962
839.400526	2528.978846
839.716303	2542.421923
840.032037	2489.489808
840.347727	2567.627692
840.663373	2530.659231
840.978977	2514.695577
841.294537	2578.550192
841.610054	2555.024808
841.925527	2479.407500
842.240957	2518.896538
842.556344	2492.010385
842.871687	2568.467885
843.186987	2539.061154
843.502244	2481.928077
843.817458	2533.179808
844.132629	2497.051538
844.447756	2537.380769
844.762840	2526.458269
845.077881	2544.102308
845.392879	2497.891731
845.707833	2526.458269
846.022745	2494.530962
846.337613	2502.932885
846.652438	2528.138654
846.967221	2544.942500
847.281960	2499.572115
847.596656	2529.819038
847.911309	2561.746346
848.225919	2513.855385
848.540485	2480.247692
848.855009	2549.983654
849.169490	2539.061154
849.483928	2577.710000
849.798323	2482.768269
850.112675	2531.499423
850.426984	2486.129038
850.741251	2518.056346
851.055474	2553.344423
851.369654	2560.065962
851.683792	2494.530962
851.997887	2549.983654
852.311938	2520.576923
852.625947	2516.375962
852.939914	2490.330000
853.253837	2489.489808
853.567718	2507.974038
853.881555	2528.138654
854.195350	2482.768269
854.509103	2513.015192
854.822812	2518.056346
855.136479	2539.061154
855.450103	2465.124231
855.763685	2514.695577
856.077224	2516.375962
856.390720	2523.097500
856.704173	2523.097500
857.017584	2471.845769
857.330953	2503.773077
857.644278	2511.334808
857.957561	2566.787500
858.270802	2491.170192
858.584000	2534.860192
858.897155	2523.097500
859.210268	2522.257308
859.523339	2533.179808
859.836367	2456.722308
860.149352	2510.494615
860.462295	2528.138654
860.775195	2517.216154
861.088054	2529.819038
861.400869	2521.417115
861.713642	2514.695577
862.026373	2517.216154
862.339062	2528.978846
862.651708	2511.334808
862.964312	2466.804615
863.276873	2488.649615
863.589392	2561.746346
863.901869	2530.659231
864.214303	2525.618077
864.526696	2514.695577
864.839045	2550.823846
865.151353	2502.092692
865.463619	2482.768269
865.775842	2499.572115
866.088023	2500.412308
866.400162	2513.015192
866.712258	2540.741538
867.024313	2511.334808
867.336325	2477.727115
867.648296	2548.303269
867.960224	2525.618077
868.272110	2491.170192
868.583954	2530.659231
868.895755	2500.412308
869.207515	2520.576923
869.519233	2479.407500
869.830909	2472.685962
870.142542	2528.138654
870.454134	2462.603654
870.765684	2524.777885
871.077191	2507.974038
871.388657	2523.097500
871.700081	2486.129038
872.011463	2518.056346
872.322803	2455.882115
872.634101	2534.020000
872.945357	2474.366346
873.256571	2501.252500
873.567744	2528.978846
873.878874	2508.814231
874.189963	2496.211346
874.501010	2525.618077
874.812015	2532.339615
875.122979	2501.252500
875.433900	2518.896538
875.744780	2539.901346
876.055618	2534.020000
876.366415	2497.051538
876.677169	2488.649615
876.987882	2540.741538
877.298554	2526.458269
877.609183	2549.983654
877.919771	2484.448654
878.230317	2474.366346
878.540822	2496.211346
878.851285	2511.334808
879.161707	2487.809423
879.472087	2513.855385
879.782425	2455.882115
880.092722	2533.179808
880.402977	2546.622885
880.713191	2550.823846
881.023363	2514.695577
881.333494	2534.860192
881.643583	2539.901346
881.953631	2499.572115
882.263637	2556.705192
882.573602	2520.576923
882.883526	2475.206538
883.193408	2494.530962
883.503248	2523.937692
883.813048	2551.664038
884.122806	2515.535769
884.432522	2544.102308
884.742197	2458.402692
885.051831	2509.654423
885.361424	2472.685962
885.670975	2474.366346
885.980485	2497.891731
886.289954	2540.741538
886.599382	2529.819038
886.908768	2487.809423
887.218113	2534.020000
887.527417	2481.928077
887.836680	2504.613269
888.145901	2529.819038
888.455082	2505.453462
888.764221	2509.654423
889.073319	2514.695577
889.382376	2508.814231
889.691392	2520.576923
890.000366	2501.252500
890.309300	2477.727115
890.618193	2495.371154
890.927044	2498.731923
891.235855	2507.974038
891.544625	2539.061154
891.853353	2527.298462
892.162041	2520.576923
892.470687	2564.266923
892.779293	2538.220962
893.087858	2498.731923
893.396381	2534.860192
893.704864	2519.736731
894.013306	2489.489808
894.321707	2490.330000
894.630068	2555.024808
894.938387	2525.618077
895.246665	2581.910962
895.554903	2494.530962
895.863100	2513.015192
896.171256	2514.695577
896.479371	2530.659231
896.787446	2487.809423
897.095480	2520.576923
897.403473	2502.932885
897.711425	2480.247692
898.019336	2538.220962
898.327207	2494.530962
898.635038	2494.530962
898.942827	2466.804615
899.250576	2528.138654
899.558284	2535.700385
899.865952	2526.458269
900.173579	2528.978846
900.481165	2518.056346
900.788711	2544.102308
901.096216	2485.288846
901.403681	2513.015192
901.711105	2481.928077
902.018489	2513.855385
902.325832	2494.530962
902.633135	2547.463077
902.940397	2511.334808
903.247619	2471.845769
903.554800	2479.407500
903.861941	2485.288846
904.169041	2465.124231
904.476101	2517.216154
904.783121	2502.092692
905.090100	2492.850577
905.397039	2522.257308
905.703938	2488.649615
906.010796	2528.138654
906.317614	2523.937692
906.624391	2508.814231
906.931129	2502.092692
907.237826	2549.143462
907.544483	2476.886923
907.851099	2507.974038
908.157675	2497.891731
908.464211	2494.530962
908.770707	2507.974038
909.077163	2509.654423
909.383578	2529.819038
909.689954	2503.773077
909.996289	2476.886923
910.302584	2518.896538
910.608839	2490.330000
910.915054	2523.097500
911.221229	2497.051538
911.527363	2546.622885
911.833458	2493.690769
912.139513	2534.860192
912.445527	2528.138654
912.751502	2513.015192
913.057436	2524.777885
913.363331	2467.644808
913.669186	2515.535769
913.975000	2459.242885
914.280775	2539.901346
914.586510	2492.010385
914.892205	2475.206538
915.197859	2512.175000
915.503475	2471.005577
915.809050	2533.179808
916.114585	2518.056346
916.420081	2567.627692
916.725536	2498.731923
917.030952	2589.472692
917.336328	2491.170192
917.641665	2490.330000
917.946961	2511.334808
918.252218	2522.257308
918.557435	2597.874615
918.862612	2488.649615
919.167750	2516.375962
919.472848	2535.700385
919.777906	2477.727115
920.082925	2507.974038
920.387904	2486.969231
920.692843	2528.138654
920.997743	2509.654423
921.302603	2504.613269
921.607423	2471.845769
921.912204	2539.061154
922.216946	2502.092692
922.521647	2507.133846
922.826310	2515.535769
923.130932	2493.690769
923.435516	2513.855385
923.740059	2492.010385
924.044564	2532.339615
924.349028	2524.777885
924.653454	2559.225769
924.957840	2528.978846
925.262186	2504.613269
925.566493	2515.535769
925.870761	2517.216154
926.174989	2593.673654
926.479178	2498.731923
926.783328	2501.252500
927.087438	2496.211346
927.391509	2487.809423
927.695541	2509.654423
927.999533	2527.298462
928.303486	2522.257308
928.607400	2544.102308
928.911275	2486.969231
929.215110	2529.819038
929.518906	2528.138654
929.822663	2482.768269
930.126381	2538.220962
930.430060	2481.087885
930.733699	2502.932885
931.037299	2500.412308
931.340861	2534.860192
931.644383	2489.489808
931.947866	2511.334808
932.251309	2561.746346
932.554714	2529.819038
932.858080	2523.097500
933.161407	2507.974038
933.464694	2502.092692
933.767943	2518.056346
934.071153	2544.102308
934.374323	2518.056346
934.677455	2512.175000
934.980548	2555.865000
935.283602	2483.608462
935.586617	2465.964423
935.889593	2513.855385
936.192530	2490.330000
936.495428	2513.855385
936.798287	2526.458269
937.101108	2487.809423
937.403890	2492.850577
937.706632	2493.690769
938.009336	2457.562500
938.312002	2509.654423
938.614628	2540.741538
938.917216	2518.056346
939.219765	2487.809423
939.522275	2518.056346
939.824747	2514.695577
940.127179	2513.855385
940.429573	2546.622885
940.731929	2455.041923
941.034246	2497.051538
941.336524	2513.855385
941.638763	2497.891731
941.940964	2539.061154
942.243126	2525.618077
942.545250	2519.736731
942.847335	2514.695577
943.149381	2500.412308
943.451389	2512.175000
943.753359	2486.969231
944.055290	2525.618077
944.357182	2497.051538
944.659036	2514.695577
944.960851	2487.809423
945.262628	2528.138654
945.564367	2501.252500
945.866067	2534.860192
946.167729	2497.051538
946.469352	2457.562500
946.770937	2485.288846
947.072484	2533.179808
947.373992	2490.330000
947.675462	2502.932885
947.976893	2522.257308
948.278286	2517.216154
948.579641	2524.777885
948.880958	2518.056346
949.182236	2529.819038
949.483476	2530.659231
949.784678	2502.932885
950.085841	2497.051538
950.386967	2478.567308
950.688054	2486.129038
950.989103	2486.129038
951.290114	2534.020000
951.591087	2532.339615
951.892021	2481.928077
952.192917	2514.695577
952.493776	2528.138654
952.794596	2485.288846
953.095378	2487.809423
953.396122	2517.216154
953.696828	2502.092692
953.997496	2542.421923
954.298126	2503.773077
954.598718	2525.618077
954.899272	2507.974038
955.199788	2523.097500
955.500266	2540.741538
955.800706	2570.988462
956.101108	2486.969231
956.401472	2479.407500
956.701798	2485.288846
957.002087	2494.530962
957.302337	2471.005577
957.602550	2508.814231
957.902724	2529.819038
958.202861	2513.855385
958.502960	2495.371154
958.803022	2507.133846
959.103045	2505.453462
959.403031	2477.727115
959.702979	2469.325192
960.002889	2535.700385
960.302762	2514.695577
960.602596	2523.937692
960.902393	2484.448654
961.202153	2548.303269
961.501875	2515.535769
961.801559	2539.061154
962.101205	2539.901346
962.400814	2473.526154
962.700385	2508.814231
962.999918	2463.443846
963.299414	2534.860192
963.598873	2530.659231
963.898293	2477.727115
964.197677	2529.819038
964.497022	2457.562500
964.796331	2480.247692
965.095601	2486.129038
965.394835	2503.773077
965.694030	2502.932885
965.993189	2505.453462
966.292309	2510.494615
966.591393	2506.293654
966.890439	2491.170192
967.189447	2530.659231
967.488419	2557.545385
967.787353	2531.499423
968.086249	2471.005577
968.385108	2492.010385
968.683930	2620.559808
968.982714	2499.572115
969.281462	2531.499423
969.580172	2518.896538
969.878844	2535.700385
970.177480	2492.850577
970.476078	2480.247692
970.774639	2467.644808
971.073162	2522.257308
971.371649	2480.247692
971.670098	2541.581731
971.968510	2475.206538
972.266885	2495.371154
972.565223	2508.814231
972.863524	2477.727115
973.161788	2541.581731
973.460014	2567.627692
973.758204	2481.087885
974.056356	2480.247692
974.354471	2507.974038
974.652550	2564.266923
974.950591	2534.860192
975.248595	2476.046731
975.546563	2519.736731
975.844493	2492.010385
976.142386	2485.288846
976.440243	2507.133846
976.738062	2496.211346
977.035845	2516.375962
977.333590	2522.257308
977.631299	2461.763462
977.928971	2481.087885
978.226606	2538.220962
978.524204	2524.777885
978.821765	2462.603654
979.119290	2535.700385
979.416777	2478.567308
979.714228	2545.782692
980.011642	2533.179808
980.309020	2491.170192
980.606360	2552.504231
980.903664	2535.700385
981.200931	2507.133846
981.498162	2530.659231
981.795356	2489.489808
982.092513	2515.535769
982.389633	2507.133846
982.686717	2525.618077
982.983764	2492.010385
983.280775	2513.855385
983.577749	2488.649615
983.874686	2519.736731
984.171587	2461.763462
984.468451	2496.211346
984.765279	2565.947308
985.062070	2495.371154
985.358824	2502.932885
985.655543	2500.412308
985.952224	2542.421923
986.248869	2517.216154
986.545478	2510.494615
986.842050	2495.371154
987.138586	2539.901346
987.435086	2554.184615
987.731549	2507.133846
988.027975	2472.685962
988.324366	2507.133846
988.620719	2492.850577
988.917037	2531.499423
989.213318	2476.886923
989.509563	2507.974038
989.805772	2467.644808
990.101944	2513.015192
990.398080	2527.298462
990.694180	2486.129038
990.990244	2510.494615
991.286271	2476.886923
991.582262	2526.458269
991.878217	2481.087885
992.174136	2494.530962
992.470019	2489.489808
992.765865	2525.618077
993.061676	2459.242885
993.357450	2491.170192
993.653188	2505.453462
993.948890	2526.458269
994.244556	2462.603654
994.540186	2513.015192
994.835780	2521.417115
995.131337	2512.175000
995.426859	2479.407500
995.722345	2551.664038
996.017795	2496.211346
996.313208	2528.138654
996.608586	2564.266923
996.903928	2557.545385
997.199234	2553.344423
997.494504	2507.133846
997.789738	2507.974038
998.084936	2543.262115
998.380099	2503.773077
998.675225	2513.855385
998.970316	2511.334808
999.265371	2535.700385
999.560390	2521.417115
999.855373	2543.262115
1000.150320	2524.777885
1000.445232	2472.685962
1000.740108	2523.097500
1001.034948	2525.618077
1001.329752	2556.705192
1001.624521	2502.092692
1001.919254	2541.581731
1002.213951	2484.448654
1002.508613	2497.051538
1002.803239	2499.572115
1003.097829	2534.020000
1003.392384	2468.485000
1003.686903	2482.768269
1003.981386	2479.407500
1004.275834	2517.216154
1004.570246	2501.252500
1004.864623	2539.901346
1005.158964	2461.763462
1005.453270	2449.160577
1005.747540	2502.932885
1006.041775	2512.175000
1006.335974	2570.148269
1006.630138	2569.308077
1006.924266	2491.170192
1007.218359	2539.901346
1007.512416	2493.690769
1007.806438	2486.129038
1008.100425	2512.175000
1008.394376	2497.051538
1008.688292	2502.932885
1008.982172	2528.138654
1009.276017	2529.819038
1009.569827	2503.773077
1009.863602	2496.211346
1010.157341	2494.530962
1010.451045	2534.020000
1010.744714	2476.046731
1011.038347	2499.572115
1011.331945	2528.138654
1011.625508	2484.448654
1011.919036	2509.654423
1012.212528	2459.242885
1012.505986	2546.622885
1012.799408	2462.603654
1013.092795	2518.896538
1013.386147	2532.339615
1013.679464	2539.901346
1013.972745	2507.974038
1014.265992	2489.489808
1014.559204	2535.700385
1014.852380	2556.705192
1015.145521	2486.129038
1015.438628	2483.608462
1015.731699	2513.855385
1016.024736	2492.010385
1016.317737	2481.087885
1016.610703	2506.293654
1016.903635	2536.540577
1017.196531	2501.252500
1017.489393	2486.129038
1017.782219	2534.020000
1018.075011	2521.417115
1018.367768	2518.056346
1018.660490	2499.572115
1018.953177	2499.572115
1019.245829	2499.572115
