Dividing Wavelength (nm)	Counts (n)	Slit_number_3_of_a_total_of_40	
326.493990	2068.553462
326.888308	2068.553462
327.282561	2068.553462
327.676750	2079.475962
328.070874	2029.904615
328.464933	2056.790769
328.858929	2066.873077
329.252859	2093.759231
329.646726	2089.558269
330.040528	2064.352500
330.434265	2114.764038
330.827938	2141.650192
331.221547	2134.928654
331.615091	2193.742115
332.008571	2188.700962
332.401986	2208.865577
332.795338	2298.766154
333.188625	2266.838846
333.581847	2291.204423
333.975006	2243.313462
334.368100	2330.693462
334.761129	2361.780577
335.154095	2336.574808
335.546996	2427.315577
335.939833	2518.896538
336.332606	2520.576923
336.725315	2518.896538
337.117960	2552.504231
337.510540	2609.637308
337.903056	2570.148269
338.295508	2597.874615
338.687896	2587.792308
339.080220	2624.760769
339.472480	2560.065962
339.864676	2588.632500
340.256807	2593.673654
340.648875	2591.993269
341.040879	2635.683269
341.432818	2587.792308
341.824694	2609.637308
342.216506	2607.116731
342.608253	2558.385577
342.999937	2639.044038
343.391557	2628.961731
343.783113	2611.317692
344.174605	2616.358846
344.566033	2564.266923
344.957397	2624.760769
345.348697	2624.760769
345.739934	2571.828654
346.131106	2630.642115
346.522215	2596.194231
346.913260	2608.797115
347.304241	2610.477500
347.695159	2557.545385
348.086012	2599.555000
348.476802	2618.039231
348.867528	2544.102308
349.258191	2597.034423
349.648789	2565.107115
350.039324	2574.349231
350.429796	2606.276538
350.820203	2600.395192
351.210548	2582.751154
351.600828	2570.988462
351.991045	2573.509038
352.381198	2586.111923
352.771288	2612.998077
353.161314	2560.906154
353.551276	2573.509038
353.941175	2593.673654
354.331010	2597.874615
354.720782	2596.194231
355.110490	2583.591346
355.500135	2583.591346
355.889717	2652.487115
356.279235	2607.116731
356.668689	2628.121538
357.058080	2552.504231
357.447408	2639.044038
357.836672	2638.203846
358.225873	2604.596154
358.615010	2645.765577
359.004084	2624.760769
359.393095	2617.199038
359.782043	2681.053654
360.170927	2712.980962
360.559748	2662.569423
360.948505	2775.155192
361.337199	2783.557115
361.725830	2841.530385
362.114398	2870.096923
362.502903	2902.024231
362.891344	2968.399423
363.279722	3023.011923
363.668037	3109.551731
364.056289	3236.420769
364.444478	3273.389231
364.832603	3348.166346
365.220665	3485.117692
365.608665	3631.311154
365.996601	3716.170577
366.384474	3803.550577
366.772284	3917.816731
367.160031	3969.908654
367.547715	4112.741346
367.935336	4148.869615
368.322893	4186.678269
368.710388	4273.218077
369.097820	4358.077500
369.485189	4430.334038
369.872495	4482.425962
370.259738	4639.541923
370.646918	4649.624231
371.034035	4673.149615
371.421090	4696.675000
371.808081	4842.028269
372.195010	4906.723077
372.581875	4973.938462
372.968678	5003.345192
373.355418	5055.437115
373.742096	5199.950192
374.128710	5389.833654
374.515262	5332.700577
374.901751	5466.291154
375.288177	5679.700000
375.674540	5840.176731
376.060841	5902.350962
376.447079	6066.188462
376.833254	6314.045192
377.219367	6454.357308
377.605417	6711.456154
377.991404	6818.160577
378.377329	7094.583846
378.763191	7427.300000
379.148991	7613.822692
379.534727	8139.783077
379.920402	8389.320192
380.306013	8958.130385
380.691563	9422.756731
381.077049	9920.150577
381.462474	10452.832500
381.847835	11119.105000
382.233134	11903.844615
382.618371	12492.819423
383.003545	13341.413654
383.388657	14116.911154
383.773706	14970.546538
384.158693	15749.404808
384.543618	16563.551154
384.928480	17248.307885
385.313280	18115.386346
385.698017	18902.646538
386.082692	19768.884808
386.467305	19933.562500
386.851856	20607.396731
387.236344	21382.054038
387.620770	21313.998462
388.005133	21976.910192
388.389435	22312.146923
388.773674	22356.677115
389.157851	22117.222308
389.541965	22339.873269
389.926018	21377.853077
390.310008	21698.806538
390.693936	21134.197308
391.077802	20877.938654
391.461606	20458.682692
391.845348	19693.267500
392.229027	19235.362692
392.612645	19031.195962
392.996200	18091.860962
393.379694	17568.421154
393.763125	17150.845577
394.146494	16636.647885
394.529801	16075.399423
394.913047	15893.917885
395.296230	15140.265385
395.679351	14610.104038
396.062410	14649.593077
396.445408	13904.342500
396.828343	13772.432308
397.211217	13595.991923
397.594028	13088.515769
397.976778	13009.537692
398.359466	12974.249615
398.742092	12660.857885
399.124656	12678.501923
399.507158	12653.296154
399.889598	12672.620577
400.271977	12660.017692
400.654294	12890.230385
401.036549	12866.705000
401.418742	12820.494423
401.800874	13490.967885
402.182944	13653.965192
402.564952	14210.172500
402.946898	14278.228077
403.328783	14499.198654
403.710606	15046.163846
404.092367	16206.469423
404.474067	17012.213846
404.855705	17045.821538
405.237282	17526.411538
405.618797	19071.525192
406.000250	20045.308077
406.381642	21659.317500
406.762972	22477.664808
407.144240	22713.758846
407.525447	24398.344423
407.906593	24857.089423
408.287677	26634.936346
408.668700	28261.548654
409.049661	29385.725962
409.430560	30398.157692
409.811399	31176.175769
410.192176	33024.598846
410.572891	33726.999615
410.953545	36223.210962
411.334138	35773.708077
411.714669	38085.077115
412.095139	36366.883846
412.475547	38695.896923
412.855894	37818.736154
413.236180	38812.683654
413.616405	37640.615385
413.996568	37845.622308
414.376670	36930.652885
414.756711	35373.776538
415.136691	34873.862115
415.516609	33947.970192
415.896466	32519.643269
416.276262	31729.862500
416.655997	30141.058846
417.035670	27974.202885
417.415283	27525.540192
417.794834	26435.810769
418.174324	24888.176538
418.553753	23621.166538
418.933121	23585.038269
419.312428	22149.149615
419.691674	21173.686346
420.070859	21216.536154
420.449983	20154.533077
420.829045	20140.249808
421.208047	19159.745385
421.586988	19574.800385
421.965867	19807.533654
422.344686	19439.529423
422.723444	19787.369038
423.102141	18313.671731
423.480777	19465.575385
423.859352	18927.012115
424.237866	20441.878846
424.616319	19873.068654
424.994712	20798.120385
425.373044	20538.500962
425.751314	21380.373654
426.129524	20684.694423
426.507673	22073.532308
426.885762	21377.853077
427.263789	22285.260769
427.641756	22146.629038
428.019662	23011.186923
428.397508	22866.673846
428.775292	23618.645962
429.153016	24299.201731
429.530679	24394.983654
429.908282	25167.960577
430.285824	25050.333654
430.663305	26808.856154
431.040726	26464.377308
431.418086	27251.637500
431.795385	28571.579615
432.172624	30057.879808
432.549802	30406.559615
432.926920	31003.096154
433.303977	31979.399615
433.680974	33397.644231
434.057910	34413.436731
434.434786	35479.640769
434.811601	35681.286923
435.188355	39026.932692
435.565050	38801.761154
435.941683	39100.869615
436.318257	40898.040962
436.694770	41751.676346
437.071222	43606.820962
437.447614	43113.628077
437.823946	44052.963077
438.200218	44860.387885
438.576429	45446.842115
438.952580	45677.895000
439.328670	46375.254615
439.704700	46728.975577
440.080670	45739.229038
440.456580	46528.169615
440.832429	46768.464615
441.208218	43974.825192
441.583947	44804.095000
441.959616	43825.270962
442.335224	43016.165769
442.710773	42477.602500
443.086261	42052.465192
443.461689	39633.551538
443.837057	38155.653269
444.212365	37543.993269
444.587612	36415.615000
444.962800	33948.810385
445.337927	33532.075000
445.712995	30080.565000
446.088002	31026.621538
446.462949	30136.857885
446.837837	28865.646923
447.212664	26967.652500
447.587431	26902.957692
447.962139	25944.298269
448.336786	25970.344231
448.711374	25287.267885
449.085901	23281.728846
449.460369	23758.117885
449.834776	23507.740577
450.209124	23925.316154
450.583412	22937.250000
450.957640	23691.742692
451.331808	23423.721346
451.705917	22990.182115
452.079965	23240.559423
452.453954	23185.106731
452.827883	23245.600577
453.201752	23017.908462
453.575562	23164.101923
453.949311	24094.194808
454.323001	24070.669423
454.696632	23718.628846
455.070202	25013.365192
455.443713	24360.535769
455.817164	24839.445385
456.190556	24930.186154
456.563888	24982.278077
456.937160	25331.798077
457.310373	24904.980385
457.683526	26121.578846
458.056619	26834.902115
458.429653	27172.659423
458.802628	27507.896154
459.175542	27981.764615
459.548398	28843.801923
459.921194	30218.356538
460.293930	29559.645769
460.666607	30731.714038
461.039224	31780.274038
461.411782	32488.556154
461.784280	32723.810000
462.156719	34359.664423
462.529099	35561.979615
462.901419	36608.019038
463.273680	36984.425192
463.645882	38455.601923
464.018024	39575.578269
464.390106	40777.893462
464.762130	42514.570962
465.134094	43329.557500
465.505999	44823.419423
465.877845	46547.494038
466.249631	47689.315385
466.621358	48116.133077
466.993026	49864.573269
467.364634	50695.523462
467.736184	51571.003846
468.107674	52974.965192
468.479105	54205.006731
468.850477	55321.622308
469.221790	55760.202692
469.593043	55670.302115
469.964238	56615.518462
470.335373	57525.446731
470.706449	58827.744808
471.077467	58260.615000
471.448425	58535.357885
471.819324	59762.038654
472.190164	60261.112885
472.560945	60216.582692
472.931667	59951.081923
473.302330	60375.379038
473.672934	60379.580000
474.043479	60832.443654
474.413965	60162.810385
474.784393	59843.537308
475.154761	60624.075962
475.525070	60061.147115
475.895321	59607.443269
476.265513	59841.016731
476.635645	59781.363077
477.005719	59412.518654
477.375734	58951.253077
477.745691	58182.477115
478.115588	58476.544423
478.485427	58305.985385
478.855207	58219.445577
479.224928	57584.260192
479.594591	57253.224423
479.964194	56433.196731
480.333739	56442.438846
480.703226	56462.603462
481.072653	56286.163077
481.442022	55986.214423
481.811333	56051.749423
482.180584	55192.232692
482.549777	55294.736154
482.918912	55018.312885
483.287988	54939.334808
483.657005	54479.749615
484.025964	54520.078846
484.394864	54937.654423
484.763706	54992.266923
485.132489	54855.315577
485.501213	54649.468462
485.869879	55066.203846
486.238487	54383.127500
486.607036	54828.429423
486.975527	54216.769423
487.343959	54105.864038
487.712333	54375.565769
488.080648	54270.541731
488.448905	54694.838846
488.817104	54610.819615
489.185244	54899.845769
489.553326	54639.386154
489.921350	54689.797692
490.289315	54791.460962
490.657222	54639.386154
491.025070	55035.116731
491.392861	54516.718077
491.760593	54623.422500
492.128267	54545.284615
492.495883	54662.071346
492.863440	54816.666731
493.230939	54291.546538
493.598380	54160.476538
493.965763	54596.536346
494.333088	54356.241346
494.700354	54459.585000
495.067563	54515.037692
495.434713	54438.580192
495.801805	54866.238077
496.168839	54816.666731
496.535815	54449.502692
496.902733	54772.976731
497.269593	54553.686538
497.636395	54625.102885
498.003139	54979.664038
498.369825	54661.231154
498.736453	55188.031731
499.103023	54898.165385
499.469535	54582.253077
499.835989	54898.165385
500.202385	54861.196923
500.568723	54995.627692
500.935003	55004.869808
501.301226	54672.153654
501.667390	55096.450769
502.033497	55502.263654
502.399546	55237.603077
502.765537	54418.415577
503.131470	55262.808846
503.497345	55920.679423
503.863163	54828.429423
504.228923	55328.343846
504.594625	55966.890000
504.960269	55701.389231
505.325856	56304.647308
505.691385	55540.072308
506.056856	55814.815192
506.422270	56229.870192
506.787625	56285.322885
507.152924	56158.453846
507.518164	56253.395577
507.883347	55365.312308
508.248472	56276.920962
508.613540	56535.700192
508.978550	56667.610385
509.343503	56526.458077
509.708398	56649.966346
510.073236	56957.476731
510.438016	56802.041154
510.802738	56344.976538
511.167403	56923.028846
511.532010	56911.266154
511.896561	57264.987115
512.261053	57940.501731
512.625488	57575.018077
512.989866	57467.473462
513.354186	57298.594808
513.718449	57323.800577
514.082655	57780.025000
514.446803	57417.061923
514.810894	57743.056538
515.174927	57790.107308
515.538904	57577.538654
515.902822	58267.336538
516.266684	57425.463846
516.630488	57757.339808
516.994235	57858.162885
517.357925	58190.038846
517.721558	58268.176731
518.085133	58448.818077
518.448651	58276.578654
518.812112	58292.542308
519.175516	58159.791923
519.538863	58483.265962
519.902152	58425.292692
520.265385	58700.875769
520.628560	58679.870962
520.991678	58502.590385
521.354739	58647.943654
521.717743	58655.505385
522.080690	58701.715962
522.443580	59092.405385
522.806413	58981.500000
523.169189	58871.434808
523.531908	59077.281923
523.894569	59009.226346
524.257174	59061.318269
524.619722	59335.220962
524.982213	59142.816923
525.344647	58953.773654
525.707025	58915.124808
526.069345	59196.589231
526.431608	59100.807308
526.793815	59413.358846
527.155964	59012.587115
527.518057	59054.596731
527.880093	58908.403269
528.242072	59110.049423
528.603995	58555.522500
528.965860	58864.713269
529.327669	58830.265385
529.689421	58662.226923
530.051117	58714.318846
530.412755	58589.970385
530.774337	58720.200192
531.135862	58370.680192
531.497331	58617.696731
531.858743	58121.143077
532.220098	58385.803654
532.581396	58085.855000
532.942638	57734.654615
533.303824	58098.457885
533.664953	57890.090192
534.026025	57369.170962
534.387040	57727.933077
534.747999	57450.669615
535.108902	57553.173077
535.469748	57156.602308
535.830537	57238.941154
536.191270	57006.207885
536.551947	56668.450577
536.912567	57043.176346
537.273131	56971.760000
537.633638	56351.698077
537.994089	56610.477308
538.354483	56060.151346
538.714821	56388.666538
539.075103	56628.961538
539.435328	56161.814615
539.795497	55956.807692
540.155609	55806.413269
540.515665	56049.228846
540.875665	55598.045577
541.235609	55512.345962
541.595496	55353.549615
541.955328	55812.294615
542.315102	55267.850000
542.674821	54503.275000
543.034483	54817.506923
543.394090	54717.524038
543.753640	54388.168654
544.113134	55146.862308
544.472571	54130.229615
544.831953	55209.036538
545.191278	54323.473846
545.550548	54049.571154
545.909761	54143.672692
546.268918	54227.691923
546.628019	54304.149423
546.987064	53927.743269
547.346053	53323.645000
547.704986	53875.651346
548.063863	53032.938462
548.422684	53215.260192
548.781449	53076.628462
549.140158	53240.465962
549.498811	53282.475577
549.857408	52495.215385
550.215949	53242.986538
550.574434	52879.183269
550.932864	52445.644038
551.291237	53103.514615
551.649555	52162.499231
552.007817	52647.290192
552.366022	52125.530769
552.724173	52251.559615
553.082267	52499.416346
553.440305	52696.021346
553.798288	52049.073269
554.156215	52057.475192
554.514086	52332.218077
554.871902	51989.419615
555.229661	52018.826346
555.587365	51613.853654
555.945014	51705.434615
556.302606	51337.430385
556.660143	51500.427692
557.017625	51431.531923
557.375050	51731.480577
557.732421	51504.628654
558.089735	51725.599231
558.446994	51334.909808
558.804197	51776.010769
559.161345	51798.695962
559.518437	50772.821154
559.875474	51474.381731
560.232455	51291.219808
560.589381	51410.527115
560.946251	51054.285577
561.303065	51762.567692
561.659825	51475.221923
562.016528	51002.193654
562.373177	50698.884231
562.729770	51139.145000
563.086307	50652.673654
563.442789	51250.050385
563.799216	51543.277500
564.155587	51218.123077
564.511904	50992.951538
564.868164	50926.576346
565.224370	51068.568846
565.580520	50789.625000
565.936615	51133.263654
566.292654	50956.823269
566.648638	51228.205385
567.004567	50804.748462
567.360441	51061.847308
567.716260	50559.412308
568.072023	50884.566731
568.427732	50952.622308
568.783385	50324.998654
569.138982	50433.383462
569.494525	50599.741538
569.850013	50387.172885
570.205445	50272.906731
570.560823	50504.799808
570.916145	50284.669423
571.271412	49999.004038
571.626625	49994.803077
571.981782	50014.967692
572.336884	49600.752885
572.691931	49762.069808
573.046923	49466.322115
573.401860	49420.951731
573.756743	49257.954423
574.111570	49284.000385
574.466342	48979.010577
574.821059	49233.588846
575.175722	48702.587308
575.530330	48725.272500
575.884882	48316.098846
576.239380	48463.132500
576.593823	48240.481538
576.948211	48227.038462
577.302544	47797.700192
577.656823	47386.005962
578.011047	47575.049231
578.365216	47395.248077
578.719330	46824.757500
579.073389	47012.960577
579.427394	46691.166923
579.781344	46657.559231
580.135239	46374.414423
580.489080	46455.913077
580.842866	45570.350385
581.196597	46068.584423
581.550273	45572.870962
581.903895	45377.106154
582.257463	45784.599423
582.610975	45009.101923
582.964434	45315.772115
583.317837	44932.644423
583.671186	44420.127115
584.024481	44459.616154
584.377721	43955.500769
584.730906	44102.534423
585.084037	44275.614038
585.437113	43916.851923
585.790135	43963.062500
586.143103	43375.768077
586.496016	43684.118654
586.848874	43678.237308
587.201679	43363.165192
587.554428	42673.367308
587.907124	42860.730192
588.259765	42600.270577
588.612352	42959.872885
588.964884	42033.980962
589.317362	42476.762308
589.669786	42023.898654
590.022155	42044.063269
590.374470	42646.481154
590.726731	41895.349231
591.078937	41671.017885
591.431090	41545.829231
591.783188	41540.788077
592.135232	41117.331154
592.487222	41511.381346
592.839157	41816.371154
593.191038	41407.197500
593.542866	41198.829808
593.894639	40690.513462
594.246358	40919.045769
594.598022	41453.408077
594.949633	40722.440769
595.301190	40777.893462
595.652692	40593.051154
596.004141	40950.132885
596.355535	40141.027692
596.706876	40212.444038
597.058162	40359.477692
597.409395	40607.334423
597.760573	40923.246731
598.111698	40546.840577
598.462768	40579.608077
598.813785	40711.518269
599.164748	40316.627885
599.515657	40627.499038
599.866511	40433.414615
600.217312	40777.893462
600.568060	39809.151731
600.918753	40436.775385
601.269392	40682.951731
601.619978	40224.206731
601.970510	40443.496923
602.320988	40766.130769
602.671412	41044.234423
603.021783	40793.857115
603.372100	40830.825577
603.722363	40823.263846
604.072572	40714.879038
604.422728	40982.900385
604.772830	40752.687692
605.122878	40853.510769
605.472872	40713.198654
605.822813	41382.831923
606.172701	40982.900385
606.522534	41294.611731
606.872314	41575.235962
607.222041	40989.621923
607.571714	41550.870385
607.921333	41075.321538
608.270899	41269.405962
608.620411	41390.393654
608.969870	41261.844231
609.319276	41082.883269
609.668627	41345.023269
610.017926	41740.753846
610.367171	41502.979423
610.716362	41458.449231
611.065500	41350.904615
611.414585	41480.294231
611.763616	41696.223654
612.112594	41544.148846
612.461518	41627.327885
612.810389	41742.434231
613.159207	41481.974615
613.507971	41429.042500
613.856682	41845.777885
614.205340	41435.764038
614.553945	42263.353462
614.902496	41393.754423
615.250994	41608.003462
615.599439	41686.981538
615.947830	41690.342308
616.296169	41811.330000
616.644454	41586.998654
616.992686	41444.165962
617.340864	41805.448654
617.688990	41267.725577
618.037063	41783.603654
618.385082	41399.635769
618.733048	41502.979423
619.080961	41229.916923
619.428821	41335.781154
619.776628	41202.190577
620.124382	40939.210385
620.472083	41147.578077
620.819731	41165.222115
621.167326	41227.396346
621.514868	40971.137692
621.862357	40814.861923
622.209793	41019.868846
622.557176	40356.957115
622.904506	40455.259615
623.251783	40319.988654
623.599007	40409.889231
623.946179	40294.782885
624.293297	40445.177308
624.640363	40009.957692
624.987376	40256.974231
625.334336	39931.819808
625.681243	39632.711346
626.028097	39638.592692
626.374899	39599.103654
626.721647	39499.120769
627.068343	39560.454808
627.414987	39249.583654
627.761577	38992.484808
628.108115	39278.150192
628.454600	38952.155577
628.801032	38870.656923
629.147412	38844.610962
629.493739	38516.095769
629.840014	38153.132692
630.186236	38077.515385
630.532405	37811.174423
630.878521	37806.973462
631.224585	37539.792308
631.570597	37333.105000
631.916556	37573.400000
632.262462	37157.504808
632.608316	37161.705769
632.954117	37030.635769
633.299866	36860.916923
633.645562	36875.200192
633.991206	36589.534808
634.336797	36103.063462
634.682336	36334.956538
635.027823	36073.656731
635.373257	35825.800000
635.718639	35843.444038
636.063968	35745.981731
636.409245	35155.326538
636.754470	35287.236731
637.099642	35271.273077
637.444762	34855.377885
637.789829	34743.632308
638.134845	34634.407308
638.479808	34628.525962
638.824719	34159.698654
639.169577	33920.243846
639.514383	34085.761731
639.859137	33728.680000
640.203839	34169.780962
640.548489	33665.665577
640.893086	33506.869231
641.237632	33271.615385
641.582125	33212.801923
641.926566	32823.792885
642.270955	32764.139231
642.615292	32595.260577
642.959576	32642.311346
643.303809	32342.362692
643.647990	32388.573269
643.992118	32215.493654
644.336195	32101.227500
644.680219	31737.424231
645.024192	31707.177308
645.368112	31826.484615
645.711981	31294.642885
646.055797	31689.533269
646.399562	31335.812308
646.743274	31503.010577
647.086935	31366.899423
647.430544	30613.246923
647.774101	30643.493846
648.117606	30570.397115
648.461059	30647.694808
648.804460	30643.493846
649.147810	30132.656923
649.491108	30171.305769
649.834354	29928.490192
650.177548	29589.892692
650.520690	29434.457115
650.863781	29794.059423
651.206820	29824.306346
651.549807	29847.831731
651.892742	29475.626538
652.235626	29480.667692
652.578458	29292.464615
652.921238	29336.154615
653.263967	29181.559231
653.606644	28803.472692
653.949269	28784.148269
654.291843	28668.201731
654.634365	28962.269038
654.976836	28725.334808
655.319255	28447.231154
655.661622	28678.284038
656.003938	28264.069231
656.346203	28359.010962
656.688416	28442.190000
657.030577	28111.154231
657.372687	28371.613846
657.714746	28508.565192
658.056753	28208.616538
658.398708	27908.667885
658.740612	27607.038846
659.082465	28296.836731
659.424266	27919.590385
659.766016	28038.897692
660.107715	27951.517692
660.449362	28051.500577
660.790958	27984.285192
661.132503	28006.130192
661.473996	27820.447692
661.815438	28030.495769
662.156829	28107.793462
662.498168	27807.844808
662.839456	27812.045769
663.180693	27905.307115
663.521879	28075.866154
663.863013	27892.704231
664.204097	27822.128077
664.545129	28088.469038
664.886110	28045.619231
665.227040	28306.078846
665.567918	28268.270192
665.908746	28188.451923
666.249522	28314.480769
666.590248	28390.098077
666.930922	28302.718077
667.271545	28350.609038
667.612118	28726.175000
667.952639	28549.734615
668.293109	28756.421923
668.633528	28949.666154
668.973896	28941.264231
669.314213	29253.815769
669.654480	29168.116154
669.994695	29315.990000
670.334859	29390.767115
670.674973	29225.249231
671.015035	29813.383846
671.355047	29962.097885
671.695008	29996.545769
672.034918	30050.318077
672.374777	29923.449038
672.714585	30316.659038
673.054342	30646.014423
673.394049	30212.475192
673.733705	30824.135192
674.073310	30769.522692
674.412864	30857.742885
674.752368	30782.965769
675.091820	31264.395962
675.431223	31328.250577
675.770574	31416.470769
676.109875	31407.228654
676.449125	31573.586731
676.788324	31818.922885
677.127473	31509.732115
677.466571	31946.632115
677.805619	31658.446154
678.144616	32091.145192
678.483562	31941.590962
678.822458	31918.065577
679.161303	32064.259038
679.500098	32074.341346
679.838842	31879.416731
680.177535	32007.966154
680.516179	31930.668462
680.854771	31911.344038
681.193314	31906.302885
681.531805	32118.871538
681.870247	31365.219038
682.208638	31345.894615
682.546978	31324.049615
682.885268	31227.427500
683.223508	30935.040577
683.561697	30755.239423
683.899836	30824.135192
684.237925	30455.290769
684.575963	30511.583654
684.913951	30012.509423
685.251889	30008.308462
685.589776	29945.294038
685.927614	29802.461346
686.265401	29415.132692
686.603137	28898.414423
686.940824	28925.300577
687.278460	28733.736731
687.616046	28331.284615
687.953582	28480.838846
688.291068	28004.449808
688.628504	27964.960769
688.965889	27774.237115
689.303224	27643.167115
689.640510	27481.010000
689.977745	27347.419423
690.314930	27181.061346
690.652065	27148.293846
690.989150	26854.226538
691.326185	26945.807500
691.663170	26869.350000
692.000105	26875.231346
692.336990	26764.325962
692.673825	26718.955577
693.010610	26750.882885
693.347345	26660.142115
693.684030	26508.907500
694.020665	26525.711346
694.357251	26134.181731
694.693786	26497.985000
695.030272	26760.125000
695.366707	26284.576154
695.703093	26317.343654
696.039429	26394.641346
696.375716	25968.663846
696.711952	26144.264038
697.048139	25880.443654
697.384276	25940.937500
697.720363	26159.387500
698.056400	25675.436731
698.392388	25610.741923
698.728326	25436.822115
699.064214	25167.960577
699.400053	25209.130000
699.735842	25070.498269
700.071581	24506.729231
700.407270	24531.094808
700.742910	24332.809423
701.078501	24200.059038
701.414042	24080.751731
701.749533	23853.899808
702.084974	23394.314615
702.420366	23676.619231
702.755709	23182.586154
703.091002	23162.421538
703.426246	23044.794615
703.761440	23047.315192
704.096584	22531.437115
704.431679	22657.465962
704.766725	22540.679231
705.101721	22452.459038
705.436668	22301.224423
705.771565	22048.326538
706.106413	22454.139423
706.441212	22294.502885
706.775961	22044.125577
707.110661	22010.517885
707.445311	22204.602308
707.779913	21929.019231
708.114465	21842.479423
708.448967	21960.946538
708.783421	22269.297115
709.117825	22116.382115
709.452180	22088.655769
709.786485	22090.336154
710.120742	22559.163462
710.454949	22023.960962
710.789107	21955.065192
711.123216	22251.653077
711.457275	22339.033077
711.791286	22574.286923
712.125247	22461.701154
712.459159	22195.360192
712.793023	22983.460577
713.126837	22338.192885
713.460602	22793.577115
713.794318	23006.985962
714.127985	23123.772692
714.461602	23012.027115
714.795171	23392.634231
715.128691	23125.453077
715.462162	23341.382500
715.795584	23509.420962
716.128957	23774.081538
716.462281	23838.776346
716.795556	24344.572115
717.128782	24362.216154
717.461960	24478.162692
717.795088	24831.043462
718.128167	24857.929615
718.461198	24736.101731
718.794180	25351.962692
719.127113	25299.870769
719.459997	25625.025192
719.792833	26014.034231
720.125619	26286.256538
720.458357	26382.038462
720.791046	26708.873269
721.123686	26774.408269
721.456278	27131.490000
721.788821	27352.460577
722.121315	27370.104615
722.453761	27866.658269
722.786158	27893.544423
723.118506	28595.105000
723.450805	28523.688654
723.783056	29170.636731
724.115259	29212.646346
724.447412	29222.728654
724.779518	29984.783077
725.111574	30169.625385
725.443582	30488.058269
725.775542	30364.550000
726.107453	31161.892500
726.439315	30708.188654
726.771129	30735.074808
727.102895	31212.304038
727.434612	31066.110577
727.766281	30967.808077
728.097901	31139.207308
728.429473	31241.710769
728.760996	31205.582500
729.092471	31230.788269
729.423897	31063.590000
729.755276	30698.946538
730.086606	30313.298269
730.417887	30365.390192
730.749120	30326.741346
731.080305	29824.306346
731.411442	29726.003846
731.742530	29162.234808
732.073570	28275.831923
732.404562	28306.078846
732.735506	27631.404423
733.066401	26878.592115
733.397249	26424.048077
733.728048	25777.940192
734.058798	25135.193077
734.389501	24507.569423
734.720156	23905.991731
735.050762	23209.472308
735.381320	22579.328077
735.711831	21971.028846
736.042293	21066.981923
736.372707	20601.515385
736.703073	19831.059038
737.033391	19403.401154
737.363661	18553.966731
737.693883	18232.173077
738.024056	17560.019231
738.354182	17058.424423
738.684260	16296.370000
739.014290	15922.484423
739.344272	15484.744231
739.674207	15033.560962
740.004093	14764.699423
740.333931	14182.446154
740.663722	13716.139423
740.993464	13440.556346
741.323159	13152.370385
741.652806	12609.606154
741.982405	12430.645192
742.311956	12089.527115
742.641460	11865.195769
742.970915	11515.675769
743.300323	11326.632500
743.629683	11150.192115
743.958996	10942.664615
744.288260	10689.766731
744.617477	10433.508077
744.946647	10376.375000
745.275768	10091.549808
745.604842	9899.985962
745.933869	9821.007885
746.262847	9737.828846
746.591778	9591.635385
746.920662	9413.514615
747.249498	9397.550962
747.578286	9234.553654
747.907027	9205.987115
748.235720	9155.575577
748.564365	9163.977500
748.892963	8959.810769
749.221514	8985.856731
749.550017	9003.500769
749.878473	9039.629038
750.206881	8870.750385
750.535242	8972.413654
750.863555	8899.316923
751.191821	8918.641346
751.520039	8908.559038
751.848210	9028.706538
752.176334	9009.382115
752.504411	8964.011731
752.832440	8971.573462
753.160421	9032.067308
753.488356	9111.045385
753.816243	9161.456923
754.144082	9077.437692
754.471875	9159.776538
754.799620	9336.216923
755.127318	9403.432308
755.454969	9454.684038
755.782572	9612.640192
756.110129	9657.170385
756.437638	9725.225962
756.765100	9845.373462
757.092515	9926.031923
757.419882	9971.402308
757.747203	10078.946923
758.074477	10334.365385
758.401703	10307.479231
758.728882	10513.326346
759.056014	10661.200192
759.383099	10758.662500
759.710138	10921.659808
760.037129	11000.637885
760.364073	11107.342308
760.690970	11258.576923
761.017820	11222.448654
761.344623	11603.895962
761.671379	11687.915192
761.998088	11874.437885
762.324751	11958.457115
762.651366	12127.335769
762.977935	12275.209615
763.304456	12319.739808
763.630931	12524.746731
763.957359	12720.511538
764.283740	12882.668654
764.610074	13246.471923
764.936362	13164.973269
765.262602	13438.875962
765.588796	13534.657885
765.914943	13743.865769
766.241044	13873.255385
766.567097	14105.148462
766.893104	14237.058654
767.219064	14475.673269
767.544978	14696.643846
767.870845	14765.539615
768.196665	15030.200192
768.522438	15417.528846
768.848165	15698.153077
769.173846	15951.050962
769.499479	16285.447500
769.825066	16333.338462
770.150607	16630.766538
770.476101	16966.003269
770.801548	17381.898462
771.126949	17486.922500
771.452303	17915.420577
771.777611	17857.447308
772.102872	18516.158077
772.428087	18654.789808
772.753256	18764.855000
773.078378	19267.290000
773.403453	19198.394231
773.728482	19270.650769
774.053465	19754.601538
774.378401	19848.703077
774.703291	19790.729808
775.028135	19524.388846
775.352932	19814.255192
775.677683	19663.020577
776.002388	19531.950577
776.327046	19765.524038
776.651658	19519.347692
776.976224	19145.462115
777.300743	18917.770000
777.625216	18656.470192
777.949643	18464.906346
778.274024	18111.185385
778.598359	17673.445192
778.922647	17466.757885
779.246889	16834.093077
779.571086	16643.369423
779.895236	16181.263654
780.219339	15608.252500
780.543397	15022.638462
780.867409	14944.500577
781.191374	14510.961346
781.515294	14027.010577
781.839167	13853.090769
782.162995	13541.379423
782.486776	13221.266154
782.810511	12802.010192
783.134201	12602.884615
783.457844	12417.202115
783.781441	12097.088846
784.104993	12067.682115
784.428498	11789.578462
784.751958	11705.559231
785.075372	11361.920577
785.398739	11262.777885
785.722061	11178.758654
786.045337	10835.960192
786.368568	10960.308654
786.691752	10696.488269
787.014891	10852.764038
787.337983	10554.495769
787.661030	10425.106154
787.984031	10452.832500
788.306987	10318.401731
788.629897	10275.551923
788.952760	10218.418846
789.275579	10138.600577
789.598351	10073.905769
789.921078	10063.823462
790.243759	9900.826154
790.566395	9988.206154
790.888984	9926.031923
791.211529	9929.392692
791.534027	9931.073077
791.856480	9977.283654
792.178888	10000.809038
792.501249	10196.573846
792.823566	10036.937308
793.145836	9975.603269
793.468062	10140.280962
793.790241	10130.198654
794.112375	10192.372885
794.434464	10369.653462
794.756507	10367.973077
795.078505	10387.297500
795.400457	10374.694615
795.722364	10541.892885
796.044226	10695.648077
796.366042	10787.229038
796.687812	10656.159038
797.009538	10908.216731
797.331218	11025.003462
797.652852	11104.821731
797.974442	11099.780577
798.295986	11366.961731
798.617484	11271.179808
798.938938	11404.770385
799.260346	11633.302692
799.581709	11650.946731
799.903026	11754.290385
800.224299	11874.437885
800.545526	11853.433077
800.866708	11819.825385
801.187845	12165.144423
801.508936	12167.665000
801.829983	12345.785769
802.150984	12027.352885
802.471940	12116.413269
802.792851	12097.088846
803.113717	11924.009231
803.434538	12149.180769
803.755314	11931.570962
804.076045	11809.743077
804.396731	11660.188846
804.717372	11372.002885
805.037967	11321.591346
805.358518	11100.620769
805.679024	11106.502115
805.999485	10633.473846
806.319901	10542.733077
806.640272	10173.888654
806.960598	10140.280962
807.280879	9731.107308
807.601115	9675.654615
807.921306	9194.224423
808.241453	9002.660577
808.561554	8913.600192
808.881611	8584.244808
809.201623	8389.320192
809.521590	8170.030000
809.841513	7994.429808
810.161390	7891.086154
810.481223	7583.575769
810.801011	7450.825385
811.120755	7349.162115
811.440453	7142.474808
811.760107	6969.395192
812.079716	6845.886923
812.399281	6683.729808
812.718801	6611.473269
813.038276	6602.231154
813.357707	6342.611731
813.677093	6317.405962
813.996434	6140.125385
814.315731	6028.379808
814.634983	5972.086923
814.954191	5870.423654
815.273354	5894.789231
815.592473	5746.915385
815.911547	5688.942115
816.230577	5692.302885
816.549562	5578.876923
816.868502	5510.821346
817.187399	5432.683462
817.506250	5457.049038
817.825058	5328.499615
818.143821	5338.581923
818.462539	5252.882308
818.781213	5229.356923
819.099843	5220.955000
819.418429	5147.858269
819.736970	5144.497500
820.055466	5045.354808
820.373919	5043.674423
820.692327	5036.952885
821.010691	4999.984423
821.329011	4902.522115
821.647286	4955.454231
821.965517	4935.289615
822.283704	4953.773846
822.601847	4860.512500
822.919945	4870.594808
823.237999	4905.042692
823.556010	4904.202500
823.873976	4897.480962
824.191897	4792.456923
824.509775	4861.352692
824.827609	4812.621538
825.145398	4890.759423
825.463144	4810.941154
825.780845	4872.275192
826.098502	4823.544038
826.416116	4826.064615
826.733685	4839.507692
827.051210	4763.890385
827.368692	4870.594808
827.686129	4826.904808
828.003522	4847.069423
828.320872	4789.936346
828.638177	4819.343077
828.955439	4819.343077
829.272656	4819.343077
829.589830	4847.909615
829.906960	4831.105769
830.224046	4857.151731
830.541088	4873.955577
830.858086	4890.759423
831.175041	4921.006346
831.491952	4851.270385
831.808819	4866.393846
832.125642	4896.640769
832.442421	4897.480962
832.759157	4972.258077
833.075849	5055.437115
833.392497	5025.190192
833.709101	5027.710769
834.025662	5005.865769
834.342179	5029.391154
834.658653	5066.359615
834.975083	5108.369231
835.291469	5094.085962
835.607811	5143.657308
835.924110	5210.872692
836.240366	5288.170385
836.556578	5289.010577
836.872746	5289.010577
837.188871	5355.385769
837.504952	5335.221154
837.820990	5301.613462
838.136984	5378.070962
838.452935	5405.797308
838.768842	5511.661538
839.084706	5548.630000
839.400526	5543.588846
839.716303	5593.160192
840.032037	5666.256923
840.347727	5742.714423
840.663373	5677.179423
840.978977	5780.523077
841.294537	5888.067692
841.610054	5892.268654
841.925527	5972.927115
842.240957	5992.251538
842.556344	6025.019038
842.871687	6130.883269
843.186987	6188.856538
843.502244	6178.774231
843.817458	6284.638462
844.132629	6298.921731
844.447756	6493.006154
844.762840	6476.202308
845.077881	6521.572692
845.392879	6708.935577
845.707833	6619.875192
846.022745	6613.993846
846.337613	6814.799808
846.652438	6864.371154
846.967221	6966.034423
847.281960	7055.935000
847.596656	7130.712115
847.911309	7281.946731
848.225919	7244.138077
848.540485	7421.418654
848.855009	7477.711538
849.169490	7471.830192
849.483928	7582.735577
849.798323	7629.786346
850.112675	7739.011346
850.426984	7837.313846
850.741251	7882.684231
851.055474	7973.425000
851.369654	8024.676731
851.683792	8058.284423
851.997887	8275.894231
852.311938	8270.853077
852.625947	8265.811923
852.939914	8385.959423
853.253837	8471.659038
853.567718	8442.252308
853.881555	8452.334615
854.195350	8586.765385
854.509103	8573.322308
854.822812	8590.966346
855.136479	8671.624808
855.450103	8666.583654
855.763685	8551.477308
856.077224	8578.363462
856.390720	8604.409423
856.704173	8697.670769
857.017584	8555.678269
857.330953	8553.157692
857.644278	8534.673462
857.957561	8516.189231
858.270802	8403.603462
858.584000	8427.128846
858.897155	8458.215962
859.210268	8218.761154
859.523339	8185.153462
859.836367	8122.979231
860.149352	7976.785769
860.462295	7888.565577
860.775195	8010.393462
861.088054	7761.696538
861.400869	7690.280192
861.713642	7639.028462
862.026373	7528.123077
862.339062	7381.929615
862.651708	7418.898077
862.964312	7276.065385
863.276873	7184.484423
863.589392	7157.598269
863.901869	7007.203846
864.214303	6946.710000
864.526696	6868.572115
864.839045	6790.434231
865.151353	6745.904038
865.463619	6700.533654
865.775842	6608.952692
866.088023	6550.979423
866.400162	6503.928654
866.712258	6392.183077
867.024313	6334.209808
867.336325	6340.091154
867.648296	6240.108269
867.960224	6275.396346
868.272110	6179.614423
868.583954	6117.440192
868.895755	6182.975192
869.207515	5993.931923
869.519233	6093.914808
869.830909	6072.069808
870.142542	6032.580769
870.454134	6015.776923
870.765684	5880.505962
871.077191	5943.520385
871.388657	5967.885962
871.700081	5870.423654
872.011463	5978.808462
872.322803	5890.588269
872.634101	5838.496346
872.945357	5804.888654
873.256571	5826.733654
873.567744	5841.857115
873.878874	5803.208269
874.189963	5846.058077
874.501010	5792.285769
874.812015	5688.942115
875.122979	5790.605385
875.433900	5799.847500
875.744780	5823.372885
876.055618	5851.099231
876.366415	5746.075192
876.677169	5781.363269
876.987882	5776.322115
877.298554	5820.852308
877.609183	5756.157500
877.919771	5823.372885
878.230317	5792.285769
878.540822	5759.518269
878.851285	5725.910577
879.161707	5729.271346
879.472087	5690.622500
879.782425	5760.358462
880.092722	5699.024423
880.402977	5722.549808
880.713191	5606.603269
881.023363	5696.503846
881.333494	5649.453077
881.643583	5616.685577
881.953631	5722.549808
882.263637	5610.804231
882.573602	5596.520962
882.883526	5630.128654
883.193408	5551.150577
883.503248	5561.232885
883.813048	5578.876923
884.122806	5515.022308
884.432522	5546.109423
884.742197	5495.697885
885.051831	5490.656731
885.361424	5492.337115
885.670975	5460.409808
885.980485	5436.044231
886.289954	5304.134038
886.599382	5399.075769
886.908768	5438.564808
887.218113	5356.225962
887.527417	5350.344615
887.836680	5313.376154
888.145901	5320.097692
888.455082	5280.608654
888.764221	5172.223846
889.073319	5179.785577
889.382376	5233.557885
889.691392	5184.826731
890.000366	5195.749231
890.309300	5151.219038
890.618193	5088.204615
890.927044	5057.957692
891.235855	5085.684038
891.544625	5057.957692
891.853353	5019.308846
892.162041	4991.582500
892.470687	5036.952885
892.779293	4923.526923
893.087858	4934.449423
893.396381	4861.352692
893.704864	4962.175769
894.013306	4831.945962
894.321707	4853.790962
894.630068	4889.919231
894.938387	4784.055000
895.246665	4711.798462
895.554903	4806.740192
895.863100	4854.631154
896.171256	4663.907500
896.479371	4637.861538
896.787446	4718.520000
897.095480	4569.805962
897.403473	4671.469231
897.711425	4558.043269
898.019336	4606.774423
898.327207	4541.239423
898.635038	4517.714038
898.942827	4445.457500
899.250576	4495.028846
899.558284	4445.457500
899.865952	4408.489038
900.173579	4454.699615
900.481165	4331.191346
900.788711	4378.242115
901.096216	4374.041154
901.403681	4317.748269
901.711105	4348.835385
902.018489	4278.259231
902.325832	4224.486923
902.633135	4227.007500
902.940397	4249.692692
903.247619	4123.663846
903.554800	4218.605577
903.861941	4159.792115
904.169041	4100.978654
904.476101	4103.499231
904.783121	4099.298269
905.090100	4036.283846
905.397039	4102.659038
905.703938	4048.886731
906.010796	3977.470385
906.317614	4018.639808
906.624391	4058.969038
906.931129	4003.516346
907.237826	3983.351731
907.544483	3939.661731
907.851099	3909.414808
908.157675	3973.269423
908.464211	3886.729615
908.770707	3843.879808
909.077163	3829.596538
909.383578	3802.710385
909.689954	3808.591731
909.996289	3753.139038
910.302584	3774.984038
910.608839	3759.020385
910.915054	3693.485385
911.221229	3703.567692
911.527363	3692.645192
911.833458	3737.175385
912.139513	3695.165769
912.445527	3684.243269
912.751502	3648.955192
913.057436	3622.069038
913.363331	3516.204808
913.669186	3564.095769
913.975000	3558.214423
914.280775	3573.337885
914.586510	3553.173269
914.892205	3475.875577
915.197859	3490.158846
915.503475	3489.318654
915.809050	3459.911923
916.114585	3415.381731
916.420081	3459.071731
916.725536	3379.253462
917.030952	3370.851538
917.336328	3370.851538
917.641665	3317.079231
917.946961	3375.892692
918.252218	3333.883077
918.557435	3334.723269
918.862612	3284.311731
919.167750	3306.156731
919.472848	3315.398846
919.777906	3228.018846
920.082925	3257.425577
920.387904	3224.658077
920.692843	3249.023654
920.997743	3264.147115
921.302603	3207.854231
921.607423	3212.055192
921.912204	3212.895385
922.216946	3143.159423
922.521647	3117.113462
922.826310	3135.597692
923.130932	3134.757500
923.435516	3124.675192
923.740059	3073.423462
924.044564	3078.464615
924.349028	3102.830192
924.653454	3075.944038
924.957840	3052.418654
925.262186	3041.496154
925.566493	3066.701923
925.870761	2979.321923
926.174989	3016.290385
926.479178	3001.166923
926.783328	2966.719038
927.087438	2981.842500
927.391509	2979.321923
927.695541	2958.317115
927.999533	2926.389808
928.303486	2953.275962
928.607400	2962.518077
928.911275	2967.559231
929.215110	2959.157308
929.518906	2909.585962
929.822663	2891.101731
930.126381	2912.106538
930.430060	2857.494038
930.733699	2881.859615
931.037299	2859.174423
931.340861	2865.055769
931.644383	2849.932308
931.947866	2865.055769
932.251309	2851.612692
932.554714	2863.375385
932.858080	2825.566731
933.161407	2825.566731
933.464694	2860.014615
933.767943	2787.758077
934.071153	2820.525577
934.374323	2808.762885
934.677455	2810.443269
934.980548	2786.077692
935.283602	2786.077692
935.586617	2787.758077
935.889593	2833.128462
936.192530	2735.666154
936.495428	2801.201154
936.798287	2785.237500
937.101108	2766.753269
937.403890	2779.356154
937.706632	2796.160000
938.009336	2797.840385
938.312002	2780.196346
938.614628	2749.109231
938.917216	2770.114038
939.219765	2738.186731
939.522275	2767.593462
939.824747	2796.160000
940.127179	2719.702500
940.429573	2806.242308
940.731929	2790.278654
941.034246	2774.315000
941.336524	2765.913077
941.638763	2786.077692
941.940964	2784.397308
942.243126	2764.232692
942.545250	2776.835577
942.847335	2770.114038
943.149381	2716.341731
943.451389	2727.264231
943.753359	2762.552308
944.055290	2738.186731
944.357182	2775.995385
944.659036	2759.191538
944.960851	2765.913077
945.262628	2746.588654
945.564367	2759.191538
945.866067	2686.094808
946.167729	2766.753269
946.469352	2725.583846
946.770937	2743.227885
947.072484	2761.712115
947.373992	2792.799231
947.675462	2781.036538
947.976893	2763.392500
948.278286	2727.264231
948.579641	2733.145577
948.880958	2736.506346
949.182236	2735.666154
949.483476	2744.068077
949.784678	2762.552308
950.085841	2757.511154
950.386967	2770.954231
950.688054	2761.712115
950.989103	2770.114038
951.290114	2781.876731
951.591087	2764.232692
951.892021	2816.324615
952.192917	2761.712115
952.493776	2759.191538
952.794596	2800.360962
953.095378	2808.762885
953.396122	2773.474808
953.696828	2817.164808
953.997496	2785.237500
954.298126	2779.356154
954.598718	2803.721731
954.899272	2793.639423
955.199788	2792.799231
955.500266	2748.269038
955.800706	2874.297885
956.101108	2811.283462
956.401472	2811.283462
956.701798	2837.329423
957.002087	2833.968654
957.302337	2836.489231
957.602550	2826.406923
957.902724	2838.169615
958.202861	2806.242308
958.502960	2794.479615
958.803022	2797.000192
959.103045	2785.237500
959.403031	2821.365769
959.702979	2773.474808
960.002889	2809.603077
960.302762	2828.927500
960.602596	2818.845192
960.902393	2819.685385
961.202153	2791.959038
961.501875	2781.876731
961.801559	2884.380192
962.101205	2807.082500
962.400814	2835.649038
962.700385	2850.772500
962.999918	2816.324615
963.299414	2817.164808
963.598873	2886.900769
963.898293	2825.566731
964.197677	2819.685385
964.497022	2860.014615
964.796331	2875.978269
965.095601	2897.823269
965.394835	2834.808846
965.694030	2812.963846
965.993189	2815.484423
966.292309	2803.721731
966.591393	2861.695000
966.890439	2794.479615
967.189447	2818.845192
967.488419	2869.256731
967.787353	2891.101731
968.086249	2827.247115
968.385108	2829.767692
968.683930	2810.443269
968.982714	2833.968654
969.281462	2837.329423
969.580172	2806.242308
969.878844	2845.731346
970.177480	2818.005000
970.476078	2791.118846
970.774639	2819.685385
971.073162	2818.845192
971.371649	2820.525577
971.670098	2806.242308
971.968510	2797.000192
972.266885	2831.448077
972.565223	2786.917885
972.863524	2797.840385
973.161788	2758.351346
973.460014	2814.644231
973.758204	2785.237500
974.056356	2806.242308
974.354471	2794.479615
974.652550	2825.566731
974.950591	2786.077692
975.248595	2746.588654
975.546563	2813.804038
975.844493	2767.593462
976.142386	2767.593462
976.440243	2795.319808
976.738062	2806.242308
977.035845	2775.155192
977.333590	2801.201154
977.631299	2811.283462
977.928971	2791.118846
978.226606	2793.639423
978.524204	2758.351346
978.821765	2818.005000
979.119290	2757.511154
979.416777	2786.077692
979.714228	2755.830769
980.011642	2792.799231
980.309020	2791.118846
980.606360	2772.634615
980.903664	2744.908269
981.200931	2723.063269
981.498162	2761.712115
981.795356	2774.315000
982.092513	2781.876731
982.389633	2718.022115
982.686717	2728.944615
982.983764	2707.939808
983.280775	2733.145577
983.577749	2723.903462
983.874686	2718.862308
984.171587	2754.990577
984.468451	2725.583846
984.765279	2695.336923
985.062070	2708.780000
985.358824	2699.537885
985.655543	2702.058462
985.952224	2693.656538
986.248869	2711.300577
986.545478	2694.496731
986.842050	2711.300577
987.138586	2701.218269
987.435086	2733.985769
987.731549	2641.564615
988.027975	2712.140769
988.324366	2688.615385
988.620719	2674.332115
988.917037	2682.734038
989.213318	2687.775192
989.509563	2719.702500
989.805772	2701.218269
990.101944	2719.702500
990.398080	2646.605769
990.694180	2684.414423
990.990244	2674.332115
991.286271	2691.135962
991.582262	2649.966538
991.878217	2678.533077
992.174136	2647.445962
992.470019	2645.765577
992.765865	2640.724423
993.061676	2690.295769
993.357450	2675.172308
993.653188	2649.126346
993.948890	2698.697692
994.244556	2643.245000
994.540186	2643.245000
994.835780	2660.889038
995.131337	2651.646923
995.426859	2602.915769
995.722345	2631.482308
996.017795	2634.002885
996.313208	2622.240192
996.608586	2645.765577
996.903928	2623.080385
997.199234	2649.126346
997.494504	2635.683269
997.789738	2633.162692
998.084936	2680.213462
998.380099	2599.555000
998.675225	2655.847885
998.970316	2601.235385
999.265371	2582.751154
999.560390	2639.884231
999.855373	2643.245000
1000.150320	2586.952115
1000.445232	2617.199038
1000.740108	2595.354038
1001.034948	2639.884231
1001.329752	2626.441154
1001.624521	2598.714808
1001.919254	2595.354038
1002.213951	2658.368462
1002.508613	2577.710000
1002.803239	2656.688077
1003.097829	2638.203846
1003.392384	2628.121538
1003.686903	2555.024808
1003.981386	2607.116731
1004.275834	2613.838269
1004.570246	2609.637308
1004.864623	2591.153077
1005.158964	2633.162692
1005.453270	2597.034423
1005.747540	2585.271731
1006.041775	2602.915769
1006.335974	2615.518654
1006.630138	2567.627692
1006.924266	2612.998077
1007.218359	2611.317692
1007.512416	2567.627692
1007.806438	2555.865000
1008.100425	2581.910962
1008.394376	2564.266923
1008.688292	2639.044038
1008.982172	2555.865000
1009.276017	2586.111923
1009.569827	2602.075577
1009.863602	2598.714808
1010.157341	2582.751154
1010.451045	2572.668846
1010.744714	2616.358846
1011.038347	2539.061154
1011.331945	2572.668846
1011.625508	2572.668846
1011.919036	2513.855385
1012.212528	2559.225769
1012.505986	2521.417115
1012.799408	2566.787500
1013.092795	2597.874615
1013.386147	2513.015192
1013.679464	2569.308077
1013.972745	2575.189423
1014.265992	2568.467885
1014.559204	2604.596154
1014.852380	2558.385577
1015.145521	2557.545385
1015.438628	2555.865000
1015.731699	2555.024808
1016.024736	2593.673654
1016.317737	2591.153077
1016.610703	2591.993269
1016.903635	2601.235385
1017.196531	2589.472692
1017.489393	2591.993269
1017.782219	2565.107115
1018.075011	2553.344423
1018.367768	2570.148269
1018.660490	2595.354038
1018.953177	2595.354038
1019.245829	2595.354038
