Dividing Wavelength (nm)	Counts (n)	Slit_number_7_of_a_total_of_40	
326.493990	2065.864846
326.888308	2065.864846
327.282561	2065.864846
327.676750	2040.659077
328.070874	2049.380273
328.464933	2049.329862
328.858929	2070.477502
329.252859	2069.645712
329.646726	2087.037692
330.040528	2108.185333
330.434265	2125.148815
330.827938	2137.802112
331.221547	2161.218271
331.615091	2183.727023
332.008571	2203.387523
332.401986	2222.644731
332.795338	2247.396796
333.188625	2258.865421
333.581847	2284.398865
333.975006	2294.153498
334.368100	2316.284163
334.761129	2333.726556
335.154095	2344.539831
335.546996	2389.053219
335.939833	2438.632967
336.332606	2452.269288
336.725315	2455.218363
337.117960	2471.980200
337.510540	2471.047587
337.903056	2493.354692
338.295508	2487.859835
338.687896	2496.833088
339.080220	2507.822804
339.472480	2516.594412
339.864676	2525.366019
340.256807	2519.971985
340.648875	2525.466842
341.040879	2515.762621
341.432818	2521.131450
341.824694	2527.004394
342.216506	2526.323838
342.608253	2517.274967
342.999937	2522.795031
343.391557	2526.449867
343.783113	2521.761594
344.174605	2523.929290
344.566033	2511.754904
344.957397	2515.737415
345.348697	2511.729698
345.739934	2503.966321
346.131106	2506.890190
346.522215	2506.839779
346.913260	2513.317662
347.304241	2502.907679
347.695159	2507.772392
348.086012	2497.538850
348.476802	2498.950373
348.867528	2501.924654
349.258191	2500.109838
349.648789	2503.966321
350.039324	2482.768269
350.429796	2499.782163
350.820203	2493.984837
351.210548	2495.900475
351.600828	2496.455002
351.991045	2489.951913
352.381198	2499.706546
352.771288	2491.262613
353.161314	2500.084633
353.551276	2494.488952
353.941175	2490.682881
354.331010	2485.767756
354.720782	2492.321256
355.110490	2502.983296
355.500135	2504.873729
355.889717	2497.891731
356.279235	2494.438540
356.668689	2490.632469
357.058080	2496.202944
357.447408	2494.917450
357.836672	2499.252842
358.225873	2490.909733
358.615010	2492.648931
359.004084	2497.009529
359.393095	2495.774446
359.782043	2491.010556
360.170927	2499.857781
360.559748	2500.261073
360.948505	2505.982783
361.337199	2498.446258
361.725830	2504.445231
362.114398	2507.595952
362.502903	2495.900475
362.891344	2505.755931
363.279722	2504.092350
363.668037	2510.444204
364.056289	2490.884527
364.444478	2503.462206
364.832603	2501.042452
365.220665	2501.849037
365.608665	2507.495129
365.996601	2509.158710
366.384474	2514.124246
366.772284	2507.974038
367.160031	2510.696262
367.547715	2508.049656
367.935336	2508.906652
368.322893	2498.168994
368.710388	2495.648417
369.097820	2496.833088
369.485189	2505.050169
369.872495	2509.637619
370.259738	2508.226096
370.646918	2507.621158
371.034035	2516.619617
371.421090	2509.788854
371.808081	2509.612413
372.195010	2511.427229
372.581875	2510.393792
372.968678	2518.182375
373.355418	2507.696775
373.742096	2506.940602
374.128710	2508.881446
374.515262	2514.527538
374.901751	2511.376817
375.288177	2513.897394
375.674540	2510.620644
376.060841	2513.040398
376.447079	2516.014679
376.833254	2508.049656
377.219367	2505.554285
377.605417	2516.972498
377.991404	2514.603156
378.377329	2510.318175
378.763191	2511.553258
379.148991	2519.770338
379.534727	2521.862417
379.920402	2514.275481
380.306013	2513.695748
380.691563	2524.458612
381.077049	2516.090296
381.462474	2510.192146
381.847835	2516.997704
382.233134	2513.292456
382.618371	2510.721467
383.003545	2518.736902
383.388657	2516.896881
383.773706	2517.527025
384.158693	2516.065090
384.543618	2514.577950
384.928480	2518.661285
385.313280	2513.015192
385.698017	2521.408713
386.082692	2513.973012
386.467305	2519.619104
386.851856	2516.922087
387.236344	2523.475587
387.620770	2513.796571
388.005133	2524.055319
388.389435	2510.192146
388.773674	2510.570233
389.157851	2513.897394
389.541965	2519.820750
389.926018	2523.727644
390.310008	2530.407173
390.693936	2518.283198
391.077802	2527.760567
391.461606	2515.560975
391.845348	2516.720440
392.229027	2516.493588
392.612645	2524.509023
392.996200	2533.583100
393.379694	2521.711183
393.763125	2523.626821
394.146494	2530.079498
394.529801	2519.467869
394.913047	2523.450381
395.296230	2524.912315
395.679351	2523.223529
396.062410	2526.096987
396.445408	2519.241017
396.828343	2524.282171
397.211217	2529.600588
397.594028	2523.475587
397.976778	2515.082065
398.359466	2516.191119
398.742092	2526.853160
399.124656	2522.114475
399.507158	2520.879392
399.889598	2525.290402
400.271977	2523.299146
400.654294	2525.038344
401.036549	2529.928263
401.418742	2540.514687
401.800874	2525.592871
402.182944	2524.937521
402.564952	2533.658717
402.946898	2526.903571
403.328783	2525.088756
403.710606	2521.055833
404.092367	2525.189579
404.474067	2534.112421
404.855705	2523.072294
405.237282	2528.642769
405.618797	2521.358302
406.000250	2531.415404
406.381642	2521.761594
406.762972	2520.627335
407.144240	2527.886596
407.525447	2523.122706
407.906593	2528.189065
408.287677	2525.718900
408.668700	2537.288348
409.049661	2532.297606
409.430560	2526.928777
409.811399	2529.928263
410.192176	2524.660258
410.572891	2524.206554
410.953545	2534.591331
411.334138	2527.231246
411.714669	2528.491535
412.095139	2529.499765
412.475547	2528.491535
412.855894	2539.884542
413.236180	2539.531662
413.616405	2536.885056
413.996568	2534.389685
414.376670	2530.684437
414.756711	2525.895340
415.136691	2531.743079
415.516609	2530.507996
415.896466	2528.491535
416.276262	2531.264169
416.655997	2531.919519
417.035670	2539.531662
417.415283	2528.920033
417.794834	2541.648946
418.174324	2527.735362
418.553753	2534.717360
418.933121	2532.221988
419.312428	2531.289375
419.691674	2525.013138
420.070859	2528.289888
420.449983	2537.263142
420.829045	2524.509023
421.208047	2533.885569
421.586988	2536.809438
421.965867	2527.407687
422.344686	2532.070754
422.723444	2533.003367
423.102141	2533.078985
423.480777	2532.398429
423.859352	2526.550690
424.237866	2527.760567
424.616319	2535.120652
424.994712	2533.784746
425.373044	2532.020342
425.751314	2532.297606
426.129524	2526.979188
426.507673	2528.441123
426.885762	2527.987419
427.263789	2527.281658
427.641756	2532.751310
428.019662	2534.919006
428.397508	2526.122192
428.775292	2531.138140
429.153016	2530.507996
429.530679	2541.094419
429.908282	2538.523431
430.285824	2537.893287
430.663305	2536.658204
431.040726	2541.774975
431.418086	2539.657690
431.795385	2538.296579
432.172624	2532.524458
432.549802	2536.632998
432.926920	2538.473019
433.303977	2536.280117
433.680974	2531.037317
434.057910	2541.296065
434.434786	2525.970958
434.811601	2533.381454
435.188355	2535.221475
435.565050	2536.557381
435.941683	2533.406660
436.318257	2536.582587
436.694770	2531.364992
437.071222	2528.138654
437.447614	2534.465302
437.823946	2539.531662
438.200218	2535.927237
438.576429	2536.733821
438.952580	2536.960673
439.328670	2525.945752
439.704700	2532.877338
440.080670	2536.834644
440.456580	2533.709129
440.832429	2531.768285
441.208218	2533.860363
441.583947	2529.877852
441.959616	2529.852646
442.335224	2538.523431
442.710773	2532.297606
443.086261	2534.818183
443.461689	2526.550690
443.837057	2543.161292
444.212365	2540.867567
444.587612	2536.103677
444.962800	2533.734335
445.337927	2532.297606
445.712995	2527.836185
446.088002	2532.625281
446.462949	2533.154602
446.837837	2529.953469
447.212664	2530.457585
447.587431	2539.481250
447.962139	2530.785260
448.336786	2530.482790
448.711374	2537.313554
449.085901	2536.254912
449.460369	2533.280631
449.834776	2538.220962
450.209124	2534.591331
450.583412	2527.609333
450.957640	2532.776515
451.331808	2542.077444
451.705917	2530.986906
452.079965	2535.523944
452.453954	2536.103677
452.827883	2529.524971
453.201752	2544.270346
453.575562	2530.558408
453.949311	2533.331042
454.323001	2532.826927
454.696632	2527.684950
455.070202	2533.885569
455.443713	2539.178781
455.817164	2530.734848
456.190556	2533.457071
456.563888	2531.591844
456.937160	2524.256965
457.310373	2532.751310
457.683526	2529.625794
458.056619	2528.592358
458.429653	2536.456558
458.802628	2529.524971
459.175542	2532.474046
459.548398	2536.885056
459.921194	2531.566638
460.293930	2525.441637
460.666607	2529.474560
461.039224	2526.676719
461.411782	2536.330529
461.784280	2528.945238
462.156719	2546.664894
462.529099	2524.710669
462.901419	2543.564585
463.273680	2534.188038
463.645882	2526.676719
464.018024	2529.172090
464.390106	2535.675179
464.762130	2534.818183
465.134094	2531.591844
465.505999	2526.374250
465.877845	2531.869108
466.249631	2529.600588
466.621358	2532.348017
466.993026	2538.573842
467.364634	2544.724050
467.736184	2530.482790
468.107674	2539.002340
468.479105	2539.355221
468.850477	2536.557381
469.221790	2529.701412
469.593043	2533.280631
469.964238	2539.607279
470.335373	2530.482790
470.706449	2538.397402
471.077467	2524.509023
471.448425	2536.128883
471.819324	2530.507996
472.190164	2533.003367
472.560945	2536.028060
472.931667	2537.389171
473.302330	2530.356762
473.672934	2543.539379
474.043479	2541.119625
474.413965	2528.012625
474.784393	2530.129910
475.154761	2534.742565
475.525070	2530.659231
475.895321	2524.357788
476.265513	2532.952956
476.635645	2530.886083
477.005719	2532.700898
477.375734	2532.700898
477.745691	2530.886083
478.115588	2535.977648
478.485427	2532.146371
478.855207	2535.473533
479.224928	2536.028060
479.594591	2529.348531
479.964194	2529.323325
480.333739	2530.986906
480.703226	2526.374250
481.072653	2528.667975
481.442022	2535.423121
481.811333	2533.835158
482.180584	2532.121165
482.549777	2517.375790
482.918912	2528.239477
483.287988	2527.306863
483.657005	2531.894313
484.025964	2531.138140
484.394864	2532.499252
484.763706	2540.212217
485.132489	2529.524971
485.501213	2535.246681
485.869879	2532.574869
486.238487	2532.423635
486.607036	2533.885569
486.975527	2531.062523
487.343959	2531.112935
487.712333	2529.625794
488.080648	2535.196269
488.448905	2533.179808
488.817104	2536.406146
489.185244	2528.441123
489.553326	2528.642769
489.921350	2534.137627
490.289315	2530.583613
490.657222	2526.676719
491.025070	2528.289888
491.392861	2527.054806
491.760593	2531.415404
492.128267	2532.852133
492.495883	2531.012112
492.863440	2535.498738
493.230939	2534.994623
493.598380	2529.777029
493.965763	2523.677233
494.333088	2537.086702
494.700354	2521.030627
495.067563	2533.482277
495.434713	2539.934954
495.801805	2530.281144
496.168839	2531.768285
496.535815	2535.801208
496.902733	2537.036290
497.269593	2535.599562
497.636395	2531.314581
498.003139	2528.390712
498.369825	2530.583613
498.736453	2526.122192
499.103023	2532.070754
499.469535	2525.718900
499.835989	2525.366019
500.202385	2533.658717
500.568723	2530.281144
500.935003	2531.314581
501.301226	2527.206040
501.667390	2535.876825
502.033497	2534.011598
502.399546	2539.254398
502.765537	2525.996163
503.131470	2526.248221
503.497345	2538.901517
503.863163	2535.221475
504.228923	2538.120138
504.594625	2528.693181
504.960269	2539.783719
505.325856	2535.851619
505.691385	2537.565612
506.056856	2531.541433
506.422270	2536.632998
506.787625	2534.540919
507.152924	2530.407173
507.518164	2535.271887
507.883347	2528.844415
508.248472	2539.808925
508.613540	2540.867567
508.978550	2526.122192
509.343503	2537.061496
509.708398	2541.346477
510.073236	2530.180321
510.438016	2526.122192
510.802738	2534.692154
511.167403	2530.104704
511.532010	2535.801208
511.896561	2534.641742
512.261053	2532.196783
512.625488	2537.842875
512.989866	2522.316121
513.354186	2526.223015
513.718449	2535.246681
514.082655	2532.196783
514.446803	2528.113448
514.810894	2535.902031
515.174927	2534.414890
515.538904	2527.432892
515.902822	2530.659231
516.266684	2528.214271
516.630488	2536.002854
516.994235	2531.869108
517.357925	2528.567152
517.721558	2523.778056
518.085133	2529.474560
518.448651	2523.853673
518.812112	2525.718900
519.175516	2524.231760
519.538863	2524.458612
519.902152	2535.397915
520.265385	2523.374763
520.628560	2524.937521
520.991678	2527.760567
521.354739	2531.188552
521.717743	2533.910775
522.080690	2526.575896
522.443580	2524.483817
522.806413	2525.416431
523.169189	2532.978162
523.531908	2534.515713
523.894569	2523.904085
524.257174	2527.382481
524.619722	2525.315608
524.982213	2529.197296
525.344647	2531.415404
525.707025	2532.095960
526.069345	2531.087729
526.431608	2526.953983
526.793815	2532.348017
527.155964	2528.390712
527.518057	2527.735362
527.880093	2531.264169
528.242072	2527.836185
528.603995	2533.104190
528.965860	2523.929290
529.327669	2530.911288
529.689421	2527.281658
530.051117	2528.012625
530.412755	2521.988446
530.774337	2530.079498
531.135862	2528.541946
531.497331	2527.886596
531.858743	2536.506969
532.220098	2525.517254
532.581396	2525.744106
532.942638	2525.819723
533.303824	2520.526512
533.664953	2526.248221
534.026025	2518.434433
534.387040	2526.197810
534.747999	2523.147912
535.108902	2529.676206
535.469748	2519.644310
535.830537	2526.349044
536.191270	2516.796058
536.551947	2528.365506
536.912567	2519.845956
537.273131	2524.609846
537.633638	2518.636079
537.994089	2512.662312
538.354483	2526.827954
538.714821	2523.324352
539.075103	2521.106244
539.435328	2525.517254
539.795497	2527.710156
540.155609	2531.163346
540.515665	2533.053779
540.875665	2528.592358
541.235609	2526.928777
541.595496	2522.240504
541.955328	2526.903571
542.315102	2524.685463
542.674821	2531.692667
543.034483	2526.223015
543.394090	2521.635565
543.753640	2529.978675
544.113134	2524.786287
544.472571	2534.188038
544.831953	2527.987419
545.191278	2523.601615
545.550548	2531.314581
545.909761	2526.449867
546.268918	2531.213758
546.628019	2527.937008
546.987064	2526.903571
547.346053	2527.785773
547.704986	2520.425688
548.063863	2528.113448
548.422684	2530.129910
548.781449	2522.366533
549.140158	2523.652027
549.498811	2529.676206
549.857408	2521.761594
550.215949	2531.037317
550.574434	2525.996163
550.932864	2527.508510
551.291237	2523.727644
551.649555	2526.172604
552.007817	2523.979702
552.366022	2521.282685
552.724173	2523.223529
553.082267	2524.282171
553.440305	2519.568692
553.798288	2525.189579
554.156215	2523.954496
554.514086	2528.995650
554.871902	2518.862931
555.229661	2526.323838
555.587365	2525.517254
555.945014	2521.081038
556.302606	2525.340813
556.660143	2525.693694
557.017625	2525.189579
557.375050	2525.970958
557.732421	2527.836185
558.089735	2519.644310
558.446994	2535.549150
558.804197	2533.078985
559.161345	2532.373223
559.518437	2525.391225
559.875474	2518.459638
560.232455	2520.047602
560.589381	2523.828467
560.946251	2530.558408
561.303065	2530.659231
561.659825	2525.567665
562.016528	2518.283198
562.373177	2519.770338
562.729770	2524.231760
563.086307	2526.323838
563.442789	2525.769312
563.799216	2525.970958
564.155587	2523.929290
564.511904	2524.433406
564.868164	2521.812006
565.224370	2535.322298
565.580520	2527.256452
565.936615	2524.509023
566.292654	2527.584127
566.648638	2513.973012
567.004567	2520.753363
567.360441	2524.332583
567.716260	2524.105731
568.072023	2526.197810
568.427732	2534.540919
568.783385	2524.357788
569.138982	2521.307890
569.494525	2519.089783
569.850013	2529.676206
570.205445	2527.483304
570.560823	2508.200890
570.916145	2520.299660
571.271412	2520.677746
571.626625	2525.592871
571.981782	2525.945752
572.336884	2523.727644
572.691931	2519.745133
573.046923	2519.820750
573.401860	2509.133504
573.756743	2522.416944
574.111570	2517.426202
574.466342	2519.694721
574.821059	2520.249248
575.175722	2522.114475
575.530330	2527.634538
575.884882	2513.670542
576.239380	2524.685463
576.593823	2517.955523
576.948211	2522.946265
577.302544	2518.888137
577.656823	2517.930317
578.011047	2517.930317
578.365216	2524.660258
578.719330	2529.449354
579.073389	2528.390712
579.427394	2522.946265
579.781344	2522.240504
580.135239	2524.735875
580.489080	2521.837212
580.842866	2527.155629
581.196597	2526.349044
581.550273	2523.904085
581.903895	2521.761594
582.257463	2529.676206
582.610975	2518.308404
582.964434	2522.139681
583.317837	2522.467356
583.671186	2524.231760
584.024481	2524.811492
584.377721	2523.248735
584.730906	2518.610873
585.084037	2517.451408
585.437113	2519.845956
585.790135	2515.964267
586.143103	2525.391225
586.496016	2517.779083
586.848874	2520.350071
587.201679	2521.585154
587.554428	2514.577950
587.907124	2519.745133
588.259765	2520.576923
588.612352	2520.753363
588.964884	2519.417458
589.317362	2519.619104
589.669786	2519.971985
590.022155	2516.291942
590.374470	2522.038858
590.726731	2522.820237
591.078937	2521.282685
591.431090	2517.577437
591.783188	2522.542973
592.135232	2519.190606
592.487222	2526.248221
592.839157	2520.224042
593.191038	2525.592871
593.542866	2525.996163
593.894639	2521.610360
594.246358	2515.031654
594.598022	2520.627335
594.949633	2512.889163
595.301190	2523.979702
595.652692	2524.559435
596.004141	2516.846469
596.355535	2515.913856
596.706876	2518.988960
597.058162	2521.081038
597.409395	2522.870648
597.760573	2523.853673
598.111698	2515.182888
598.462768	2516.720440
598.813785	2518.308404
599.164748	2516.014679
599.515657	2514.250275
599.866511	2518.131963
600.217312	2517.249762
600.568060	2510.292969
600.918753	2525.668488
601.269392	2514.477127
601.619978	2519.241017
601.970510	2518.434433
602.320988	2524.181348
602.671412	2516.342354
603.021783	2521.307890
603.372100	2527.080012
603.722363	2520.854187
604.072572	2524.458612
604.422728	2517.728671
604.772830	2519.518281
605.122878	2511.250788
605.472872	2519.493075
605.822813	2515.636592
606.172701	2523.248735
606.522534	2509.032681
606.872314	2513.443690
607.222041	2513.569719
607.571714	2520.299660
607.921333	2512.737929
608.270899	2513.594925
608.620411	2521.106244
608.969870	2515.838238
609.319276	2522.971471
609.668627	2516.670029
610.017926	2518.585667
610.367171	2515.913856
610.716362	2519.417458
611.065500	2525.038344
611.414585	2517.779083
611.763616	2509.965294
612.112594	2516.367560
612.461518	2523.828467
612.810389	2518.308404
613.159207	2506.260046
613.507971	2517.098527
613.856682	2519.114988
614.205340	2529.928263
614.553945	2517.224556
614.902496	2510.494615
615.250994	2516.065090
615.599439	2520.022396
615.947830	2515.712210
616.296169	2521.585154
616.644454	2516.720440
616.992686	2528.642769
617.340864	2519.014165
617.688990	2515.359329
618.037063	2519.921573
618.385082	2518.232787
618.733048	2516.997704
619.080961	2516.695235
619.428821	2519.946779
619.776628	2527.382481
620.124382	2515.535769
620.472083	2518.232787
620.819731	2519.089783
621.167326	2524.080525
621.514868	2527.029600
621.862357	2520.299660
622.209793	2525.038344
622.557176	2523.551204
622.904506	2522.442150
623.251783	2523.828467
623.599007	2519.644310
623.946179	2522.366533
624.293297	2515.863444
624.640363	2509.108298
624.987376	2510.444204
625.334336	2517.199350
625.681243	2517.552231
626.028097	2510.771879
626.374899	2523.677233
626.721647	2515.434946
627.068343	2516.291942
627.414987	2509.637619
627.761577	2518.510050
628.108115	2518.812519
628.454600	2509.965294
628.801032	2518.636079
629.147412	2518.938548
629.493739	2504.646877
629.840014	2510.998731
630.186236	2511.502846
630.532405	2523.576410
630.878521	2508.377331
631.224585	2518.535256
631.570597	2508.755417
631.916556	2524.256965
632.262462	2512.107785
632.608316	2517.779083
632.954117	2518.384021
633.299866	2515.409740
633.645562	2511.880933
633.991206	2514.754390
634.336797	2515.989473
634.682336	2518.232787
635.027823	2520.652540
635.373257	2519.719927
635.718639	2514.426715
636.063968	2518.283198
636.409245	2522.618590
636.754470	2517.426202
637.099642	2511.124760
637.444762	2512.687517
637.789829	2518.182375
638.134845	2514.804802
638.479808	2520.022396
638.824719	2510.721467
639.169577	2521.585154
639.514383	2508.931858
639.859137	2517.476613
640.203839	2514.930831
640.548489	2514.300687
640.893086	2519.442663
641.237632	2517.249762
641.582125	2519.467869
641.926566	2514.250275
642.270955	2511.553258
642.615292	2520.879392
642.959576	2513.216838
643.303809	2513.846983
643.647990	2517.552231
643.992118	2512.737929
644.336195	2515.107271
644.680219	2516.846469
645.024192	2517.753877
645.368112	2507.469923
645.711981	2518.409227
646.055797	2511.780110
646.399562	2504.495642
646.743274	2507.495129
647.086935	2513.620131
647.430544	2519.316635
647.774101	2516.342354
648.117606	2516.770852
648.461059	2518.560462
648.804460	2517.552231
649.147810	2513.947806
649.491108	2518.257992
649.834354	2513.620131
650.177548	2513.418485
650.520690	2514.401510
650.863781	2516.720440
651.206820	2516.644823
651.549807	2517.325379
651.892742	2518.409227
652.235626	2514.930831
652.578458	2513.544513
652.921238	2509.209121
653.263967	2506.461692
653.606644	2514.048629
653.949269	2513.317662
654.291843	2508.705006
654.634365	2517.325379
654.976836	2516.544000
655.319255	2516.216325
655.661622	2511.124760
656.003938	2512.964781
656.346203	2511.603669
656.688416	2515.838238
657.030577	2514.073835
657.372687	2516.947292
657.714746	2510.368587
658.056753	2521.055833
658.398708	2508.452948
658.740612	2513.317662
659.082465	2508.679800
659.424266	2514.451921
659.766016	2511.754904
660.107715	2515.636592
660.449362	2515.661798
660.790958	2513.670542
661.132503	2507.873215
661.473996	2519.896367
661.815438	2510.469410
662.156829	2508.276508
662.498168	2512.964781
662.839456	2517.501819
663.180693	2516.493588
663.521879	2510.494615
663.863013	2512.889163
664.204097	2507.797598
664.545129	2521.786800
664.886110	2511.351612
665.227040	2512.989987
665.567918	2514.502333
665.908746	2516.871675
666.249522	2511.225583
666.590248	2518.283198
666.930922	2509.940088
667.271545	2512.158196
667.612118	2509.587208
667.952639	2515.939062
668.293109	2520.274454
668.633528	2508.377331
668.973896	2511.099554
669.314213	2513.897394
669.654480	2516.544000
669.994695	2511.376817
670.334859	2515.762621
670.674973	2512.964781
671.015035	2515.434946
671.355047	2514.099040
671.695008	2512.737929
672.034918	2512.309431
672.374777	2512.233813
672.714585	2513.418485
673.054342	2509.864471
673.394049	2511.175171
673.733705	2512.410254
674.073310	2510.545027
674.412864	2508.402537
674.752368	2514.603156
675.091820	2511.679287
675.431223	2508.175685
675.770574	2509.284738
676.109875	2518.560462
676.449125	2504.596465
676.788324	2508.301713
677.127473	2513.670542
677.466571	2506.386075
677.805619	2515.687004
678.144616	2513.720954
678.483562	2517.375790
678.822458	2508.024450
679.161303	2514.401510
679.500098	2507.167454
679.838842	2509.284738
680.177535	2510.771879
680.516179	2511.175171
680.854771	2517.400996
681.193314	2513.116015
681.531805	2515.107271
681.870247	2515.636592
682.208638	2516.266737
682.546978	2516.115502
682.885268	2508.301713
683.223508	2511.931344
683.561697	2516.417971
683.899836	2520.728158
684.237925	2507.041425
684.575963	2510.393792
684.913951	2513.090810
685.251889	2511.780110
685.589776	2511.603669
685.927614	2508.528565
686.265401	2514.729185
686.603137	2512.334637
686.940824	2508.402537
687.278460	2508.982269
687.616046	2515.787827
687.953582	2515.208094
688.291068	2516.392765
688.628504	2510.368587
688.965889	2512.107785
689.303224	2518.913342
689.640510	2504.672083
689.977745	2515.334123
690.314930	2511.628875
690.652065	2517.854700
690.989150	2514.426715
691.326185	2508.301713
691.663170	2505.201404
692.000105	2506.486898
692.336990	2518.686490
692.673825	2511.049142
693.010610	2510.948319
693.347345	2510.822290
693.684030	2507.999244
694.020665	2511.477640
694.357251	2508.906652
694.693786	2511.452435
695.030272	2520.904598
695.366707	2511.402023
695.703093	2509.536796
696.039429	2510.519821
696.375716	2512.838752
696.711952	2513.468896
697.048139	2506.713750
697.384276	2515.182888
697.720363	2510.368587
698.056400	2514.754390
698.392388	2515.535769
698.728326	2511.049142
699.064214	2511.301200
699.400053	2511.074348
699.735842	2499.454488
700.071581	2510.091323
700.407270	2507.747187
700.742910	2513.267250
701.078501	2505.680313
701.414042	2500.840806
701.749533	2513.569719
702.084974	2504.470437
702.420366	2505.352638
702.755709	2519.140194
703.091002	2517.300173
703.426246	2514.880419
703.761440	2507.293483
704.096584	2510.242558
704.431679	2510.418998
704.766725	2506.033194
705.101721	2509.108298
705.436668	2511.880933
705.771565	2506.562515
706.106413	2508.755417
706.441212	2512.082579
706.775961	2511.124760
707.110661	2509.990500
707.445311	2510.645850
707.779913	2514.275481
708.114465	2504.949346
708.448967	2496.807883
708.783421	2508.982269
709.117825	2506.310458
709.452180	2508.831035
709.786485	2507.142248
710.120742	2506.940602
710.454949	2503.512617
710.789107	2509.486385
711.123216	2501.218892
711.457275	2512.107785
711.791286	2505.831548
712.125247	2515.586181
712.459159	2506.890190
712.793023	2509.738442
713.126837	2510.570233
713.460602	2511.603669
713.794318	2509.688031
714.127985	2511.275994
714.461602	2508.200890
714.795171	2503.058913
715.128691	2515.913856
715.462162	2501.773419
715.795584	2512.032167
716.128957	2511.351612
716.462281	2507.721981
716.795556	2505.831548
717.128782	2517.476613
717.461960	2514.855213
717.795088	2515.863444
718.128167	2511.880933
718.461198	2511.275994
718.794180	2511.225583
719.127113	2512.788340
719.459997	2511.149965
719.792833	2506.134017
720.125619	2509.965294
720.458357	2510.116529
720.791046	2510.318175
721.123686	2500.765188
721.456278	2511.603669
721.788821	2519.089783
722.121315	2512.989987
722.453761	2513.922600
722.786158	2506.436487
723.118506	2506.209635
723.450805	2516.720440
723.783056	2504.546054
724.115259	2509.990500
724.447412	2514.603156
724.779518	2513.191633
725.111574	2509.385562
725.443582	2511.654081
725.775542	2510.141735
726.107453	2511.452435
726.439315	2508.831035
726.771129	2510.570233
727.102895	2505.856754
727.434612	2504.193173
727.766281	2510.368587
728.097901	2520.526512
728.429473	2508.856240
728.760996	2510.318175
729.092471	2512.863958
729.423897	2518.686490
729.755276	2508.326919
730.086606	2511.351612
730.417887	2510.973525
730.749120	2515.510563
731.080305	2508.705006
731.411442	2507.873215
731.742530	2503.487412
732.073570	2508.503360
732.404562	2511.704492
732.735506	2516.065090
733.066401	2512.082579
733.397249	2512.006962
733.728048	2510.998731
734.058798	2513.846983
734.389501	2514.477127
734.720156	2500.815600
735.050762	2508.679800
735.381320	2514.577950
735.711831	2510.671056
736.042293	2515.485358
736.372707	2517.501819
736.703073	2510.797085
737.033391	2504.016733
737.363661	2517.653054
737.693883	2512.460665
738.024056	2510.620644
738.354182	2502.655621
738.684260	2516.619617
739.014290	2513.645337
739.344272	2515.888650
739.674207	2507.520335
740.004093	2509.108298
740.333931	2505.856754
740.663722	2512.662312
740.993464	2514.451921
741.323159	2516.493588
741.652806	2511.301200
741.982405	2505.352638
742.311956	2523.576410
742.641460	2515.838238
742.970915	2518.787313
743.300323	2516.241531
743.629683	2507.016219
743.958996	2513.695748
744.288260	2509.410767
744.617477	2509.083092
744.946647	2514.174658
745.275768	2514.376304
745.604842	2520.904598
745.933869	2516.619617
746.262847	2516.544000
746.591778	2518.636079
746.920662	2521.509537
747.249498	2510.141735
747.578286	2519.568692
747.907027	2514.880419
748.235720	2504.293996
748.564365	2527.432892
748.892963	2514.930831
749.221514	2516.065090
749.550017	2514.956037
749.878473	2527.533715
750.206881	2524.332583
750.535242	2516.871675
750.863555	2526.575896
751.191821	2523.752850
751.520039	2525.592871
751.848210	2523.500792
752.176334	2522.669002
752.504411	2519.845956
752.832440	2528.012625
753.160421	2524.987933
753.488356	2529.247708
753.816243	2529.197296
754.144082	2527.281658
754.471875	2531.667462
754.799620	2528.012625
755.127318	2528.315094
755.454969	2532.675692
755.782572	2526.223015
756.110129	2530.810465
756.437638	2526.903571
756.765100	2536.935467
757.092515	2530.306350
757.419882	2527.080012
757.747203	2542.253885
758.074477	2533.734335
758.401703	2529.474560
758.728882	2535.649973
759.056014	2533.583100
759.383099	2534.263656
759.710138	2532.171577
760.037129	2531.087729
760.364073	2546.538865
760.690970	2529.978675
761.017820	2539.909748
761.344623	2546.916952
761.671379	2542.606765
761.998088	2543.136087
762.324751	2543.337733
762.651366	2550.017262
762.977935	2554.579506
763.304456	2550.647406
763.630931	2548.580533
763.957359	2549.941644
764.283740	2547.698331
764.610074	2551.403579
764.936362	2556.091852
765.262602	2553.243600
765.588796	2557.553787
765.914943	2560.502862
766.241044	2556.016235
766.567097	2557.881462
766.893104	2563.678788
767.219064	2573.181363
767.544978	2577.718402
767.870845	2573.635067
768.196665	2571.391754
768.522438	2570.307906
768.848165	2576.054821
769.173846	2580.768300
769.499479	2582.230235
769.825066	2580.365008
770.150607	2583.994638
770.476101	2593.925712
770.801548	2586.086717
771.126949	2588.682912
771.452303	2592.035279
771.777611	2591.405135
772.102872	2599.622215
772.428087	2606.276538
772.753256	2601.437031
773.078378	2610.233844
773.403453	2613.737446
773.728482	2608.771910
774.053465	2623.769342
774.378401	2613.208125
774.703291	2625.861421
775.028135	2622.030144
775.352932	2625.155660
775.677683	2626.844446
776.002388	2628.709673
776.327046	2637.229223
776.651658	2647.588794
776.976224	2642.194760
777.300743	2650.084165
777.625216	2650.386635
777.949643	2655.452994
778.274024	2653.108858
778.598359	2662.813079
778.922647	2662.157729
779.246889	2667.929850
779.571086	2681.213290
779.895236	2690.413396
780.219339	2696.286340
780.543397	2699.285827
780.867409	2703.041487
781.191374	2716.098075
781.515294	2708.737990
781.839167	2720.357850
782.162995	2729.003429
782.486776	2736.338308
782.810511	2752.293560
783.134201	2749.067221
783.457844	2764.493152
783.781441	2771.147475
784.104993	2769.685540
784.428498	2785.035854
784.751958	2790.757563
785.075372	2797.789973
785.398739	2809.939154
785.722061	2815.408806
786.045337	2831.767350
786.368568	2843.866119
786.691752	2842.807477
787.014891	2844.949967
787.337983	2867.030221
787.661030	2877.566233
787.984031	2890.471587
788.306987	2900.528688
788.629897	2901.310067
788.952760	2917.945875
789.275579	2927.902154
789.598351	2935.993206
789.921078	2945.823456
790.243759	2952.603808
790.566395	2981.061121
790.888984	2984.111019
791.211529	2998.175838
791.534027	3007.880060
791.856480	3023.684077
792.178888	3047.503529
792.501249	3053.074004
792.823566	3063.811662
793.145836	3070.062692
793.468062	3091.134715
793.790241	3101.897579
794.112375	3114.702110
794.434464	3133.556025
794.756507	3150.494302
795.078505	3163.928977
795.400457	3167.886283
795.722364	3189.890919
796.044226	3198.108000
796.366042	3226.993812
796.687812	3231.833319
797.009538	3256.081269
797.331218	3271.204731
797.652852	3281.438273
797.974442	3291.999490
798.295986	3322.977381
798.617484	3316.877585
798.938938	3347.124508
799.260346	3367.616798
799.581709	3371.044783
799.903026	3385.638923
800.224299	3411.071544
800.545526	3420.674942
800.866708	3438.041717
801.187845	3461.331848
801.508936	3473.581852
801.829983	3499.871469
802.150984	3506.903879
802.471940	3533.395142
802.792851	3549.451217
803.113717	3564.347827
803.434538	3593.309256
803.755314	3616.120477
804.076045	3637.242912
804.396731	3646.417812
804.717372	3675.253212
805.037967	3688.335006
805.358518	3708.625650
805.679024	3737.965165
805.999485	3763.397787
806.319901	3776.605610
806.640272	3792.989360
806.960598	3824.572188
807.280879	3835.612315
807.601115	3877.983213
807.921306	3878.084037
808.241453	3901.298550
808.561554	3926.126233
808.881611	3948.559367
809.201623	3976.512565
809.521590	3999.273375
809.841513	4025.588198
810.161390	4086.939040
810.481223	4088.602621
810.801011	4122.378352
811.120755	4154.314062
811.440453	4160.741533
811.760107	4197.718396
812.079716	4230.561513
812.399281	4250.196808
812.718801	4285.434473
813.038276	4320.016788
813.357707	4345.398998
813.677093	4412.446344
813.996434	4395.558479
814.315731	4442.642856
814.634983	4484.711285
814.954191	4522.041029
815.273354	4555.640319
815.592473	4605.850212
815.911547	4627.829642
816.230577	4670.981919
816.549562	4718.520000
816.868502	4738.987085
817.187399	4782.567860
817.506250	4829.576619
817.825058	4831.341023
818.143821	4910.109052
818.462539	4958.176454
818.781213	4965.612156
819.099843	4985.675948
819.418429	5086.398202
819.736970	5108.251604
820.055466	5127.937310
820.373919	5184.297410
820.692327	5258.402371
821.010691	5245.396194
821.329011	5295.984173
821.647286	5371.777921
821.965517	5428.314462
822.283704	5427.583494
822.601847	5537.959558
822.919945	5558.300613
823.237999	5598.302169
823.556010	5669.483262
823.873976	5722.717846
824.191897	5740.336679
824.509775	5813.861908
824.827609	5831.052242
825.145398	5846.276527
825.463144	5925.523465
825.780845	6001.418037
826.098502	6013.642835
826.416116	6081.874852
826.733685	6139.394417
827.051210	6183.378485
827.368692	6218.515327
827.686129	6264.667090
828.003522	6319.590462
828.320872	6333.730898
828.638177	6351.803435
828.955439	6439.040602
829.272656	6476.496375
829.589830	6560.582821
829.906960	6563.708337
830.224046	6627.781402
830.541088	6658.608058
830.858086	6727.747483
831.175041	6749.323621
831.491952	6816.849877
831.808819	6842.710996
832.125642	6919.815444
832.442421	6962.539223
832.759157	7009.800040
833.075849	7069.109215
833.392497	7105.380317
833.709101	7180.821185
834.025662	7214.395269
834.342179	7272.948271
834.658653	7316.982750
834.975083	7388.365488
835.291469	7437.945237
835.607811	7455.740510
835.924110	7580.509067
836.240366	7669.258581
836.556578	7677.248810
836.872746	7728.290492
837.188871	7823.719535
837.504952	7892.707725
837.820990	7952.773073
838.136984	7992.295719
838.452935	8094.076615
838.768842	8164.476329
839.084706	8247.075635
839.400526	8334.388419
839.716303	8365.618367
840.032037	8454.594733
840.347727	8521.087552
840.663373	8611.324206
840.978977	8744.284638
841.294537	8812.642685
841.610054	8870.313485
841.925527	8973.455492
842.240957	9078.109846
842.556344	9157.180344
842.871687	9304.684506
843.186987	9374.756544
843.502244	9448.836300
843.817458	9543.937667
844.132629	9618.571950
844.447756	9770.663562
844.762840	9888.475327
845.077881	9970.192431
845.392879	10038.575683
845.707833	10171.762967
846.022745	10291.162696
846.337613	10447.640112
846.652438	10502.538277
846.967221	10720.341329
847.281960	10774.483321
847.596656	10921.105281
847.911309	11071.306460
848.225919	11167.491675
848.540485	11314.794190
848.855009	11471.548869
849.169490	11538.797862
849.483928	11701.551513
849.798323	11841.393121
850.112675	11892.207952
850.426984	12105.952875
850.741251	12191.173581
851.055474	12315.513640
851.369654	12496.163388
851.683792	12586.878952
851.997887	12781.643931
852.311938	12900.741190
852.625947	13080.256679
852.939914	13088.146085
853.253837	13359.788660
853.567718	13447.101444
853.881555	13495.899813
854.195350	13736.211617
854.509103	13779.943627
854.822812	13900.074323
855.136479	13959.307881
855.450103	14144.645902
855.763685	14079.010079
856.077224	14220.968971
856.390720	14297.014777
856.704173	14399.375406
857.017584	14392.116144
857.330953	14412.658846
857.644278	14467.430983
857.957561	14470.329646
858.270802	14519.052398
858.584000	14544.661460
858.897155	14581.713940
859.210268	14458.709787
859.523339	14334.168081
859.836367	14340.419112
860.149352	14298.678358
860.462295	14242.267846
860.775195	14157.147963
861.088054	14078.127877
861.400869	13993.007994
861.713642	13846.562475
862.026373	13788.740440
862.339062	13685.648844
862.651708	13499.327798
862.964312	13423.811313
863.276873	13176.139425
863.589392	13157.764419
863.901869	12977.744815
864.214303	12700.783823
864.526696	12544.608877
864.839045	12343.945748
865.151353	12248.617529
865.463619	12033.839169
865.775842	11867.355063
866.088023	11760.003692
866.400162	11513.818944
866.712258	11359.962929
867.024313	11178.834271
867.336325	11068.458208
867.648296	10917.803325
867.960224	10718.854188
868.272110	10613.418456
868.583954	10420.569115
868.895755	10343.263021
869.207515	10095.061812
869.519233	10056.648219
869.830909	9900.574096
870.142542	9780.342577
870.454134	9616.983987
870.765684	9491.055963
871.077191	9441.501421
871.388657	9278.243654
871.700081	9195.341879
872.011463	9154.206063
872.322803	9033.848515
872.634101	8917.145804
872.945357	8813.373652
873.256571	8777.430225
873.567744	8691.755815
873.878874	8589.949713
874.189963	8601.846837
874.501010	8524.540742
874.812015	8422.230525
875.122979	8430.145137
875.433900	8332.346752
875.744780	8286.724310
876.055618	8287.833363
876.366415	8215.114719
876.677169	8177.986621
876.987882	8164.299888
877.298554	8115.123433
877.609183	8115.778783
877.919771	8080.944410
878.230317	8059.065802
878.540822	8001.218562
878.851285	8001.773088
879.161707	7925.702077
879.472087	7926.785925
879.782425	7899.941781
880.092722	7925.475225
880.402977	7861.276131
880.713191	7835.415012
881.023363	7818.527146
881.333494	7740.842965
881.643583	7775.324458
881.953631	7743.061073
882.263637	7719.644913
882.573602	7671.930392
882.883526	7667.544588
883.193408	7648.816702
883.503248	7598.178312
883.813048	7606.975125
884.122806	7586.054337
884.432522	7570.502377
884.742197	7540.734363
885.051831	7554.219450
885.361424	7514.621187
885.670975	7514.570775
885.980485	7473.535783
886.289954	7453.925694
886.599382	7429.098012
886.908768	7441.474044
887.218113	7411.731237
887.527417	7384.030096
887.836680	7366.209617
888.145901	7349.599015
888.455082	7329.232754
888.764221	7323.889131
889.073319	7273.502798
889.382376	7255.127792
889.691392	7248.473469
890.000366	7251.397338
890.309300	7213.336627
890.618193	7215.277471
890.927044	7170.285173
891.235855	7156.169942
891.544625	7151.280023
891.853353	7113.446163
892.162041	7097.919410
892.470687	7085.039262
892.779293	7052.448202
893.087858	7038.408588
893.396381	7016.504775
893.704864	6999.944585
894.013306	6959.615354
894.321707	6945.096831
894.630068	6920.596823
894.938387	6881.553087
895.246665	6871.092692
895.554903	6846.416244
895.863100	6782.242356
896.171256	6779.898219
896.479371	6782.015504
896.787446	6741.106540
897.095480	6709.826181
897.403473	6688.023190
897.711425	6633.452700
898.019336	6610.616273
898.327207	6585.586944
898.635038	6576.159987
898.942827	6516.926429
899.250576	6489.326112
899.558284	6444.006138
899.865952	6451.038548
900.173579	6402.038533
900.481165	6387.066306
900.788711	6367.935127
901.096216	6333.075548
901.403681	6303.206712
901.711105	6272.884171
902.018489	6203.391865
902.325832	6218.036417
902.633135	6152.476212
902.940397	6146.426827
903.247619	6112.323421
903.554800	6070.456638
903.861941	6066.827008
904.169041	6015.785325
904.476101	5993.049721
904.783121	5944.931908
905.090100	5945.234377
905.397039	5923.229740
905.703938	5880.934460
906.010796	5832.993087
906.317614	5822.305840
906.624391	5778.876300
906.931129	5756.468371
907.237826	5703.939548
907.544483	5709.988933
907.851099	5667.113919
908.157675	5631.044463
908.464211	5579.876752
908.770707	5570.651440
909.077163	5552.352052
909.383578	5495.487837
909.689954	5446.462615
909.996289	5446.563438
910.302584	5391.312392
910.608839	5393.177619
910.915054	5339.489331
911.221229	5310.175021
911.527363	5282.272235
911.833458	5264.250110
912.139513	5230.902877
912.445527	5152.991844
912.751502	5136.053567
913.057436	5133.356550
913.363331	5093.153348
913.669186	5050.026277
913.975000	5021.896638
914.280775	4975.240760
914.586510	4946.153302
914.892205	4909.882200
915.197859	4869.905850
915.503475	4867.360067
915.809050	4833.962423
916.114585	4787.785454
916.420081	4750.657356
916.725536	4741.381633
917.030952	4656.034898
917.336328	4649.758662
917.641665	4624.956185
917.946961	4589.189198
918.252218	4564.411927
918.557435	4512.462837
918.862612	4484.282787
919.167750	4468.604798
919.472848	4429.359415
919.777906	4416.857354
920.082925	4386.862488
920.387904	4338.038913
920.692843	4314.975635
920.997743	4277.519862
921.302603	4234.493613
921.607423	4214.102146
921.912204	4171.227133
922.216946	4152.902538
922.521647	4119.076396
922.826310	4102.743058
923.130932	4075.873708
923.435516	4028.814537
923.740059	4010.565560
924.044564	3976.789829
924.349028	3953.751756
924.653454	3930.537242
924.957840	3896.055750
925.262186	3882.066548
925.566493	3844.888038
925.870761	3809.625167
926.174989	3795.106644
926.479178	3764.204371
926.783328	3737.536667
927.087438	3721.909090
927.391509	3689.519677
927.695541	3664.515554
927.999533	3645.258346
928.303486	3619.245992
928.607400	3604.752675
928.911275	3591.494440
929.215110	3552.249058
929.518906	3530.395656
929.822663	3517.515508
930.126381	3492.183710
930.430060	3480.740290
930.733699	3458.962506
931.037299	3445.578242
931.340861	3418.330806
931.644383	3403.610637
931.947866	3378.833365
932.251309	3369.809700
932.554714	3353.249510
932.858080	3339.512365
933.161407	3326.430571
933.464694	3305.736635
933.767943	3284.261319
934.071153	3277.430556
934.374323	3262.256683
934.677455	3242.142479
934.980548	3227.548338
935.283602	3219.910990
935.586617	3196.973740
935.889593	3199.267465
936.192530	3193.369315
936.495428	3174.994310
936.798287	3162.895540
937.101108	3152.989673
937.403890	3142.680513
937.706632	3122.616721
938.009336	3130.455715
938.312002	3106.812704
938.614628	3098.393977
938.917216	3087.429467
939.219765	3080.951585
939.522275	3077.826069
939.824747	3068.424317
940.127179	3057.232956
940.429573	3045.260215
940.731929	3051.208777
941.034246	3041.151675
941.336524	3028.901671
941.638763	3021.138294
941.940964	3034.572969
942.243126	3010.627488
942.545250	3013.853827
942.847335	2995.478821
943.149381	2996.562669
943.451389	3001.024090
943.753359	2981.187150
944.055290	2993.285919
944.357182	2983.657315
944.659036	2977.809577
944.960851	2980.708240
945.262628	2968.508648
945.564367	2974.810090
945.866067	2962.030765
946.167729	2963.845581
946.469352	2973.272538
946.770937	2965.937660
947.072484	2959.207719
947.373992	2959.535394
947.675462	2950.688169
947.976893	2950.360494
948.278286	2955.099179
948.579641	2954.040537
948.880958	2956.510702
949.182236	2963.568317
949.483476	2962.055971
949.784678	2954.267388
950.085841	2948.646502
950.386967	2953.435598
950.688054	2950.032819
950.989103	2959.081690
951.290114	2961.173769
951.591087	2951.318313
951.892021	2964.173256
952.192917	2968.155767
952.493776	2966.441775
952.794596	2966.945890
953.095378	2963.669140
953.396122	2958.678398
953.696828	2969.542085
953.997496	2970.424287
954.298126	2969.567290
954.598718	2970.827579
954.899272	2968.029738
955.199788	2973.650625
955.500266	2980.128508
955.800706	2971.709781
956.101108	2976.952581
956.401472	2985.396513
956.701798	2982.901142
957.002087	2974.633650
957.302337	2988.950527
957.602550	2989.152173
957.902724	2986.051863
958.202861	2988.622852
958.502960	2980.582212
958.803022	2993.462360
959.103045	2993.487565
959.403031	2988.043119
959.702979	2993.386742
960.002889	2998.932012
960.302762	2997.293637
960.602596	2991.773573
960.902393	3001.603823
961.202153	3005.309071
961.501875	3003.847137
961.801559	3002.914523
962.101205	3003.090963
962.400814	3011.434073
962.700385	3000.671210
962.999918	3001.326560
963.299414	3008.308558
963.598873	3012.845596
963.898293	2992.252483
964.197677	3010.325019
964.497022	3014.282325
964.796331	3011.963394
965.095601	3020.457738
965.394835	3014.156296
965.694030	3015.391379
965.993189	3014.811646
966.292309	3020.735002
966.591393	3019.247862
966.890439	3013.576563
967.189447	3021.314735
967.488419	3018.794158
967.787353	3016.172758
968.086249	3013.122860
968.385108	3017.584281
968.683930	3015.466996
968.982714	3019.222656
969.281462	3024.263810
969.580172	3027.313708
969.878844	3019.197450
970.177480	3017.911956
970.476078	3020.911442
970.774639	2998.226250
971.073162	3013.526152
971.371649	2999.133658
971.670098	3001.452588
971.968510	2996.940756
972.266885	3010.022550
972.565223	2997.520488
972.863524	2987.412975
973.161788	3004.754544
973.460014	3002.637260
973.758204	2997.797752
974.056356	2998.125427
974.354471	2994.521002
974.652550	2990.941783
974.950591	2988.698469
975.248595	2979.120277
975.546563	2983.657315
975.844493	2994.571413
976.142386	2981.489619
976.440243	2982.371821
976.738062	2979.573981
977.035845	2977.607931
977.333590	2964.450519
977.631299	2974.734473
977.928971	2968.180973
978.226606	2970.701550
978.524204	2966.567804
978.821765	2954.973150
979.119290	2960.014304
979.416777	2958.098665
979.714228	2945.873867
980.011642	2948.243210
980.309020	2944.588373
980.606360	2932.010694
980.903664	2949.024588
981.200931	2935.010181
981.498162	2942.219031
981.795356	2936.850202
982.092513	2931.909871
982.389633	2924.650610
982.686717	2914.845565
982.983764	2916.887233
983.280775	2912.249371
983.577749	2908.695358
983.874686	2905.695871
984.171587	2906.578073
984.468451	2898.663462
984.765279	2897.201527
985.062070	2901.436096
985.358824	2890.648027
985.655543	2887.371277
985.952224	2881.573950
986.248869	2877.515821
986.545478	2867.584748
986.842050	2873.961808
987.138586	2874.566746
987.435086	2869.197917
987.731549	2860.653162
988.027975	2876.608413
988.324366	2854.578571
988.620719	2859.367667
988.917037	2850.142356
989.213318	2850.948940
989.509563	2848.453569
989.805772	2848.503981
990.101944	2842.404185
990.398080	2836.102742
990.694180	2825.138233
990.990244	2830.002946
991.286271	2826.096052
991.582262	2826.524550
991.878217	2825.566731
992.174136	2820.676812
992.470019	2813.770431
992.765865	2815.761687
993.061676	2810.468475
993.357450	2810.443269
993.653188	2798.067237
993.948890	2804.444296
994.244556	2802.780715
994.540186	2790.051802
994.835780	2794.109931
995.131337	2790.908798
995.426859	2789.220012
995.722345	2790.984415
996.017795	2782.288425
996.313208	2775.835748
996.608586	2777.801798
996.903928	2768.248812
997.199234	2777.751387
997.494504	2771.777619
997.789738	2768.979779
998.084936	2774.978752
998.380099	2762.350662
998.675225	2761.165990
998.970316	2757.107862
999.265371	2751.890267
999.560390	2752.797675
999.855373	2756.553335
1000.150320	2746.622262
1000.445232	2740.144379
1000.740108	2737.850654
1001.034948	2732.658265
1001.329752	2738.253946
1001.624521	2732.381002
1001.919254	2731.977710
1002.213951	2733.968965
1002.508613	2726.407235
1002.803239	2723.458160
1003.097829	2728.348079
1003.392384	2717.761656
1003.686903	2719.450442
1003.981386	2716.803837
1004.275834	2714.434494
1004.570246	2709.821838
1004.864623	2705.536858
1005.158964	2708.611962
1005.453270	2707.225644
1005.747540	2709.594987
1006.041775	2702.058462
1006.335974	2697.471012
1006.630138	2699.563090
1006.924266	2705.133565
1007.218359	2697.924715
1007.512416	2692.581092
1007.806438	2690.035310
1008.100425	2688.775021
1008.394376	2682.927283
1008.688292	2678.264215
1008.982172	2686.254444
1009.276017	2681.793023
1009.569827	2676.827487
1009.863602	2681.868640
1010.157341	2669.316167
1010.451045	2672.769358
1010.744714	2669.089315
1011.038347	2681.994669
1011.331945	2670.727690
1011.625508	2669.921106
1011.919036	2663.518840
1012.212528	2669.517813
1012.505986	2662.888696
1012.799408	2659.485917
1013.092795	2658.704538
1013.386147	2661.930877
1013.679464	2660.368119
1013.972745	2660.695794
1014.265992	2655.654640
1014.559204	2650.159783
1014.852380	2650.764721
1015.145521	2644.866571
1015.438628	2646.908238
1015.731699	2638.716363
1016.024736	2645.471510
1016.317737	2637.330046
1016.610703	2639.371713
1016.903635	2636.901548
1017.196531	2638.111425
1017.489393	2629.692698
1017.782219	2631.709160
1018.075011	2634.431383
1018.367768	2621.273971
1018.660490	2628.457615
1018.953177	2628.457615
1019.245829	2628.457615
