Dividing Wavelength (nm)	Counts (n)	Slit_number_6_of_a_total_of_40	
326.493990	2084.441498
326.888308	2084.441498
327.282561	2084.441498
327.676750	2062.865360
328.070874	2059.739844
328.464933	2066.948694
328.858929	2071.032029
329.252859	2081.391600
329.646726	2098.733169
330.040528	2109.294387
330.434265	2125.904988
330.827938	2158.243990
331.221547	2175.988852
331.615091	2196.455937
332.008571	2215.965202
332.401986	2233.382388
332.795338	2255.639083
333.188625	2273.812442
333.581847	2290.700308
333.975006	2304.008954
334.368100	2329.063488
334.761129	2346.279029
335.154095	2364.124713
335.546996	2420.535225
335.939833	2518.963754
336.332606	2545.681869
336.725315	2548.958619
337.117960	2571.215313
337.510540	2574.920562
337.903056	2576.810994
338.295508	2593.194744
338.687896	2597.252873
339.080220	2608.696292
339.472480	2600.454006
339.864676	2612.325923
340.256807	2618.098044
340.648875	2616.913373
341.040879	2618.551748
341.432818	2615.955554
341.824694	2623.744137
342.216506	2616.963785
342.608253	2615.325410
342.999937	2617.568723
343.391557	2618.803806
343.783113	2619.156687
344.174605	2615.274998
344.566033	2606.654625
344.957397	2601.058944
345.348697	2610.788371
345.739934	2600.000302
346.131106	2612.225100
346.522215	2601.462237
346.913260	2608.797115
347.304241	2604.965838
347.695159	2594.303798
348.086012	2599.571804
348.476802	2602.445262
348.867528	2595.261617
349.258191	2587.548652
349.648789	2581.348033
350.039324	2583.314083
350.429796	2586.237952
350.820203	2589.817171
351.210548	2585.784248
351.600828	2585.128898
351.991045	2585.683425
352.381198	2589.035792
352.771288	2593.194744
353.161314	2577.794019
353.551276	2583.843404
353.941175	2580.163362
354.331010	2583.036819
354.720782	2593.043510
355.110490	2593.018304
355.500135	2597.479725
355.889717	2590.447315
356.279235	2581.272415
356.668689	2591.052254
357.058080	2586.616038
357.447408	2586.414392
357.836672	2587.951944
358.225873	2586.792479
358.615010	2591.001842
359.004084	2587.019331
359.393095	2584.902046
359.782043	2589.237438
360.170927	2593.724065
360.559748	2599.319746
360.948505	2590.069229
361.337199	2598.261104
361.725830	2591.279106
362.114398	2588.027562
362.502903	2598.235898
362.891344	2592.564600
363.279722	2584.624783
363.668037	2595.589292
364.056289	2591.581575
364.444478	2602.722525
364.832603	2594.076946
365.220665	2593.950917
365.608665	2605.570777
365.996601	2600.227154
366.384474	2600.806887
366.772284	2602.369644
367.160031	2594.732296
367.547715	2591.884044
367.935336	2601.815117
368.322893	2603.302258
368.710388	2598.412338
369.097820	2594.177769
369.485189	2593.598037
369.872495	2607.133535
370.259738	2601.663883
370.646918	2607.007506
371.034035	2607.914913
371.421090	2610.334667
371.808081	2604.940633
372.195010	2607.965325
372.581875	2606.503390
372.968678	2607.738473
373.355418	2607.183946
373.742096	2611.872219
374.128710	2602.772937
374.515262	2597.656165
374.901751	2616.056377
375.288177	2609.880963
375.674540	2597.857812
376.060841	2609.099585
376.447079	2604.008019
376.833254	2607.637650
377.219367	2608.872733
377.605417	2609.175202
377.991404	2613.813063
378.377329	2604.260077
378.763191	2607.209152
379.148991	2610.107815
379.534727	2620.013683
379.920402	2612.426746
380.306013	2608.998762
380.691563	2610.611931
381.077049	2603.604727
381.462474	2608.217383
381.847835	2610.233844
382.233134	2610.939606
382.618371	2613.762652
383.003545	2620.694238
383.388657	2614.191150
383.773706	2618.778600
384.158693	2618.123250
384.543618	2620.391769
384.928480	2608.973556
385.313280	2607.032712
385.698017	2614.216356
386.082692	2622.483848
386.467305	2615.426233
386.851856	2614.670060
387.236344	2617.367077
387.620770	2612.754421
388.005133	2611.040429
388.389435	2617.593929
388.773674	2619.433950
389.157851	2614.266767
389.541965	2619.181892
389.926018	2620.114506
390.310008	2622.332613
390.693936	2618.400513
391.077802	2613.031685
391.461606	2626.920063
391.845348	2615.476644
392.229027	2627.071298
392.612645	2619.282715
392.996200	2628.760085
393.379694	2622.937552
393.763125	2631.734365
394.146494	2633.977679
394.529801	2621.601646
394.913047	2630.448871
395.296230	2626.541977
395.679351	2628.079529
396.062410	2628.558438
396.445408	2628.911319
396.828343	2634.179325
397.211217	2635.389202
397.594028	2634.658235
397.976778	2632.616567
398.359466	2632.465333
398.742092	2637.582104
399.124656	2638.413894
399.507158	2639.976652
399.889598	2645.043012
400.271977	2643.379431
400.654294	2644.967394
401.036549	2652.277067
401.418742	2658.477687
401.800874	2654.671615
402.182944	2663.392812
402.564952	2663.670075
402.946898	2665.938594
403.328783	2668.559994
403.710606	2669.618637
404.092367	2681.213290
404.474067	2683.532221
404.855705	2683.254958
405.237282	2692.177800
405.618797	2702.537371
406.000250	2703.621219
406.381642	2702.814635
406.762972	2716.627396
407.144240	2715.115050
407.525447	2727.566700
407.906593	2732.910323
408.287677	2737.296127
408.668700	2741.102198
409.049661	2755.293046
409.430560	2761.115579
409.811399	2761.468460
410.192176	2781.834721
410.572891	2794.840898
410.953545	2805.603762
411.334138	2810.670121
411.714669	2829.070333
412.095139	2827.179900
412.475547	2855.864065
412.855894	2860.905219
413.236180	2875.650594
413.616405	2893.849160
413.996568	2907.989596
414.376670	2922.911412
414.756711	2935.111004
415.136691	2959.333748
415.516609	2979.170688
415.896466	2988.446412
416.276262	3024.793131
416.655997	3049.041081
417.035670	3056.476783
417.415283	3094.865169
417.794834	3124.683594
418.174324	3149.964981
418.553753	3174.490194
418.933121	3212.727346
419.312428	3241.688775
419.691674	3264.096704
420.070859	3332.757219
420.449983	3348.183150
420.829045	3424.833894
421.208047	3439.906944
421.586988	3497.275275
421.965867	3571.128179
422.344686	3620.506281
422.723444	3709.306206
423.102141	3663.885410
423.480777	3780.789767
423.859352	3835.360258
424.237866	3985.485819
424.616319	4019.639637
424.994712	4137.728665
425.373044	4208.531671
425.751314	4341.895396
426.129524	4352.053321
426.507673	4560.908325
426.885762	4588.029733
427.263789	4746.624433
427.641756	4835.651210
428.019662	4965.864213
428.397508	5069.333896
428.775292	5241.010390
429.153016	5385.691506
429.530679	5516.660683
429.908282	5644.302698
430.285824	5721.860850
430.663305	6016.339852
431.040726	6088.352735
431.418086	6220.985492
431.795385	6445.291633
432.172624	6745.441933
432.549802	6859.170363
432.926920	6983.460012
433.303977	7193.323246
433.680974	7442.784744
434.057910	7648.665467
434.434786	7845.572937
434.811601	7973.139335
435.188355	8474.860171
435.565050	8547.629227
435.941683	8607.417312
436.318257	9011.617027
436.694770	9189.191671
437.071222	9535.090442
437.447614	9551.423781
437.823946	9787.677456
438.200218	10022.015492
438.576429	10223.283560
438.952580	10360.982677
439.328670	10562.049098
439.704700	10795.126846
440.080670	10717.745135
440.456580	11032.943279
440.832429	11215.332225
441.208218	10796.311517
441.583947	11061.476210
441.959616	11117.306988
442.335224	11119.953594
442.710773	11178.935094
443.086261	11277.136771
443.461689	11021.625888
443.837057	10850.352687
444.212365	10954.477719
444.587612	10872.886644
444.962800	10446.707498
445.337927	10497.547535
445.712995	9853.540131
446.088002	10268.175035
446.462949	10162.008335
446.837837	9915.672352
447.212664	9475.982913
447.587431	9573.882121
447.962139	9384.990087
448.336786	9417.833204
448.711374	9202.475112
449.085901	8660.878748
449.460369	8799.157598
449.834776	8665.894696
450.209124	8785.949775
450.583412	8421.751615
450.957640	8612.508877
451.331808	8471.028894
451.705917	8264.744879
452.079965	8250.352385
452.453954	8231.926967
452.827883	8148.647106
453.201752	8011.149635
453.575562	8040.337915
453.949311	8160.544229
454.323001	8097.076102
454.696632	7888.800831
455.070202	8081.750994
455.443713	7863.872325
455.817164	7882.877475
456.190556	7790.548742
456.563888	7652.547156
456.937160	7673.467944
457.310373	7473.460165
457.683526	7587.415448
458.056619	7568.586738
458.429653	7456.673123
458.802628	7431.240502
459.175542	7310.882954
459.548398	7322.175138
459.921194	7371.704475
460.293930	7146.843808
460.666607	7130.056765
461.039224	7117.302646
461.411782	7056.153450
461.784280	6915.278406
462.156719	6950.742923
462.529099	6966.194060
462.901419	6933.955881
463.273680	6849.415731
463.645882	6869.580346
464.018024	6855.792790
464.390106	6817.278375
464.762130	6891.811835
465.134094	6851.432192
465.505999	6898.264512
465.877845	6960.270704
466.249631	6955.405990
466.621358	6972.772765
466.993026	7019.151381
467.364634	7094.466219
467.736184	7093.609223
468.107674	7192.869542
468.479105	7255.480673
468.850477	7387.810962
469.221790	7432.803260
469.593043	7411.958088
469.964238	7493.700398
470.335373	7633.063096
470.706449	7856.361006
471.077467	7839.321906
471.448425	7924.189731
471.819324	8153.839494
472.190164	8298.621433
472.560945	8383.816933
472.931667	8414.089062
473.302330	8575.632837
473.672934	8737.353052
474.043479	8971.943146
474.413965	8985.529056
474.784393	9065.759019
475.154761	9372.866112
475.525070	9467.665010
475.895321	9554.398062
476.265513	9756.195450
476.635645	9977.854985
477.005719	10077.216127
477.375734	10228.375125
477.745691	10305.429162
478.115588	10553.630371
478.485427	10774.432910
478.855207	11068.584237
479.224928	11174.372850
479.594591	11354.745335
479.964194	11442.058119
480.333739	11721.338042
480.703226	11950.433279
481.072653	12180.763598
481.442022	12351.986388
481.811333	12675.628465
482.180584	12733.450500
482.549777	12971.040081
482.918912	13171.955267
483.287988	13428.625615
483.657005	13555.360223
484.025964	13737.849992
484.394864	14138.117608
484.763706	14387.478283
485.132489	14510.053938
485.501213	14729.016456
485.869879	15049.457400
486.238487	15124.242917
486.607036	15347.540827
486.975527	15444.507421
487.343959	15588.835656
487.712333	15822.140256
488.080648	15994.295660
488.448905	16324.314796
488.817104	16428.843121
489.185244	16649.040721
489.553326	16781.396215
489.921350	16921.615910
490.289315	17173.824837
490.657222	17196.938527
491.025070	17502.860948
491.392861	17558.187612
491.760593	17761.396523
492.128267	17857.959825
492.495883	18001.657915
492.863440	18172.174944
493.230939	18236.726919
493.598380	18302.942475
493.965763	18616.401421
494.333088	18686.927163
494.700354	18779.684394
495.067563	18888.875787
495.434713	19158.048196
495.801805	19376.002483
496.168839	19447.511250
496.535815	19522.095121
496.902733	19741.057638
497.269593	19812.289142
497.636395	19855.945535
498.003139	20297.752258
498.369825	20277.184350
498.736453	20546.029085
499.103023	20519.109323
499.469535	20584.165413
499.835989	20899.817262
500.202385	20869.318281
500.568723	21081.802915
500.935003	21154.319913
501.301226	21098.111048
501.667390	21525.197602
502.033497	21846.949246
502.399546	21676.129748
502.765537	21640.967700
503.131470	22100.267227
503.497345	22370.347044
503.863163	22063.567627
504.228923	22542.603271
504.594625	22927.192898
504.960269	22828.890398
505.325856	23375.023800
505.691385	23150.163133
506.056856	23358.690462
506.422270	23743.582558
506.787625	23857.714281
507.152924	23967.006496
507.518164	24257.301340
507.883347	23873.795562
508.248472	24310.561131
508.613540	24635.891994
508.978550	25026.278948
509.343503	25035.705906
509.708398	25287.965244
510.073236	25657.683467
510.438016	25762.917554
510.802738	25626.579548
511.167403	26042.953650
511.532010	26288.911546
511.896561	26574.492912
512.261053	27152.839287
512.625488	27130.179300
512.989866	27224.675729
513.354186	27195.386625
513.718449	27436.631042
514.082655	27920.254137
514.446803	27987.629158
514.810894	28301.365367
515.174927	28504.145781
515.538904	28574.243025
515.902822	29168.721092
516.266684	28822.242588
516.630488	29298.379569
516.994235	29377.752537
517.357925	29816.887448
517.721558	30060.854088
518.085133	30354.803769
518.448651	30556.828010
518.812112	30651.979788
519.175516	30723.186087
519.538863	31067.723746
519.902152	31178.855983
520.265385	31594.851998
520.628560	31902.085119
520.991678	31815.352067
521.354739	32072.929823
521.717743	32449.604838
522.080690	32455.200519
522.443580	32949.157979
522.806413	33159.071625
523.169189	33123.581902
523.531908	33414.960594
523.894569	33530.856721
524.257174	33775.882004
524.619722	34090.878502
524.982213	34129.745798
525.344647	34146.633663
525.707025	34294.112619
526.069345	34583.651290
526.431608	34746.203296
526.793815	35027.953385
527.155964	34829.256306
527.518057	34953.117456
527.880093	34989.312940
528.242072	35379.069750
528.603995	35218.307354
528.965860	35399.183954
529.327669	35518.432448
529.689421	35532.320827
530.051117	35586.941729
530.412755	35607.459225
530.774337	35770.490140
531.135862	35608.618690
531.497331	35894.628554
531.858743	35756.198469
532.220098	35963.062217
532.581396	35885.806535
532.942638	35775.052385
533.303824	36001.627044
533.664953	35977.731975
534.026025	35790.478315
534.387040	36064.338998
534.747999	35971.052446
535.108902	36116.640969
535.469748	35910.936687
535.830537	35975.463456
536.191270	36122.967617
536.551947	35848.426379
536.912567	36142.426471
537.273131	36264.825687
537.633638	35781.757119
537.994089	36124.127083
538.354483	35699.384665
538.714821	35937.352333
539.075103	36231.125573
539.435328	36013.120875
539.795497	35950.156863
540.155609	35790.579138
540.515665	36051.559673
540.875665	35761.138800
541.235609	35920.187204
541.595496	35888.604375
541.955328	36369.051542
542.315102	35965.456765
542.674821	35563.752421
543.034483	35751.560608
543.394090	35636.269419
543.753640	35605.795644
544.113134	36292.904913
544.472571	35528.590373
544.831953	36507.532038
545.191278	35928.202638
545.550548	35702.182506
545.909761	35884.647069
546.268918	36165.565367
546.628019	36281.965610
546.987064	36069.329740
547.346053	35417.558960
547.704986	36196.240788
548.063863	35678.564700
548.422684	35908.012817
548.781449	35945.569413
549.140158	36077.269558
549.498811	36009.289598
549.857408	35651.644938
550.215949	36204.407458
550.574434	36151.576165
550.932864	35951.291123
551.291237	36481.822154
551.649555	36074.093631
552.007817	36368.623044
552.366022	36028.219131
552.724173	36244.963540
553.082267	36470.908056
553.440305	36868.251802
553.798288	36377.923973
554.156215	36601.171471
554.514086	36843.676177
554.871902	36673.360794
555.229661	36794.373692
555.587365	36623.050079
555.945014	36901.473006
556.302606	36752.028000
556.660143	37193.759106
557.017625	37142.314131
557.375050	37129.912892
557.732421	37492.800352
558.089735	37538.296765
558.446994	37516.292129
558.804197	38112.837069
559.161345	38094.739327
559.518437	37586.086904
559.875474	38048.184271
560.232455	38112.383365
560.589381	38535.058910
560.946251	38277.229096
561.303065	39101.886248
561.659825	39100.676371
562.016528	38791.729258
562.373177	38863.288437
562.729770	39338.064306
563.086307	39057.322448
563.442789	39558.967667
563.799216	39916.914796
564.155587	39757.815981
564.511904	40062.452908
564.868164	40234.129402
565.224370	40535.918077
565.580520	40485.456127
565.936615	40806.880096
566.292654	40913.727352
566.648638	41110.231529
567.004567	41237.293812
567.360441	41438.259410
567.716260	41569.077352
568.072023	41855.742565
568.427732	41950.390229
568.783385	41772.941613
569.138982	42260.622837
569.494525	42400.993765
569.850013	42469.099754
570.205445	42534.433108
570.560823	42886.658527
570.916145	42940.119963
571.271412	43043.488823
571.626625	43076.079883
571.981782	43399.923606
572.336884	43427.397894
572.691931	43967.859998
573.046923	43725.758585
573.401860	43766.944812
573.756743	44044.082244
574.111570	44267.002067
574.466342	44340.149210
574.821059	44679.696127
575.175722	44523.773238
575.530330	44662.959496
575.884882	44771.092246
576.239380	45051.279577
576.593823	45109.807373
576.948211	45329.626887
577.302544	45102.623729
577.656823	45294.842925
578.011047	45751.319406
578.365216	45597.589419
578.719330	45792.253575
579.073389	45708.494804
579.427394	46089.328771
579.781344	46277.036135
580.135239	46100.016017
580.489080	46383.908596
580.842866	46111.207379
581.196597	46689.024433
581.550273	46785.134031
581.903895	46734.445229
582.257463	47265.278729
582.610975	46853.920575
582.964434	47155.684044
583.317837	47183.208744
583.671186	47110.540512
584.024481	47478.040627
584.377721	47174.260696
584.730906	47823.485694
585.084037	48053.967248
585.437113	48001.438425
585.790135	48230.584073
586.143103	48116.780025
586.496016	48411.259027
586.848874	48644.689656
587.201679	48918.222663
587.554428	48539.480775
587.907124	48950.385225
588.259765	48937.782340
588.612352	49526.538698
588.964884	49193.293223
589.317362	49636.108177
589.669786	49817.186423
590.022155	49760.423031
590.374470	50607.866198
590.726731	50325.284319
591.078937	50436.240115
591.431090	50535.979344
591.783188	50845.203721
592.135232	50743.473237
592.487222	51254.394179
592.839157	51642.260556
593.191038	51728.010583
593.542866	51789.159779
593.894639	51496.898885
594.246358	52121.422229
594.598022	52494.820494
594.949633	52374.563769
595.301190	52686.686810
595.652692	52774.176035
596.004141	53328.602135
596.355535	52766.815950
596.706876	53103.388587
597.058162	53380.047110
597.409395	54109.149190
597.760573	54478.086035
598.111698	54269.609117
598.462768	54714.768208
598.813785	55129.251877
599.164748	54755.450319
599.515657	55476.108467
599.866511	55253.188644
600.217312	55914.361177
600.568060	55163.935015
600.918753	56073.863285
601.269392	56371.089715
601.619978	56250.480110
601.970510	56662.165938
602.320988	57127.716496
602.671412	57627.042785
603.021783	57507.264969
603.372100	57491.259306
603.722363	57757.759904
604.072572	58076.990971
604.422728	58329.199898
604.772830	58365.748263
605.122878	58541.684533
605.472872	58671.847125
605.822813	59097.093658
606.172701	59138.002621
606.522534	59318.400312
606.872314	59841.697287
607.222041	59671.356698
607.571714	60147.896971
607.921333	59751.334604
608.270899	60110.945313
608.620411	60404.794171
608.969870	60418.833785
609.319276	60435.343563
609.668627	60628.999488
610.017926	61003.557219
610.367171	61225.796487
610.716362	61271.393723
611.065500	61263.605140
611.414585	61367.578938
611.763616	61668.107325
612.112594	61616.057412
612.461518	61853.823433
612.810389	61949.227269
613.159207	61905.873346
613.507971	61986.304956
613.856682	62234.657400
614.205340	62138.900683
614.553945	62645.183763
614.902496	62302.561742
615.250994	62601.779429
615.599439	62657.282533
615.947830	62777.640081
616.296169	62821.750177
616.644454	62760.197688
616.992686	62880.630854
617.340864	63104.332056
617.688990	62901.148350
618.037063	63179.420042
618.385082	63103.651500
618.733048	63210.448344
619.080961	63180.907183
619.428821	63141.787829
619.776628	63218.917483
620.124382	63091.376290
620.472083	63250.424694
620.819731	63348.954046
621.167326	63283.015754
621.514868	63381.570312
621.862357	63242.963787
622.209793	63379.402615
622.557176	63313.464323
622.904506	63284.729746
623.251783	63246.114508
623.599007	63278.377892
623.946179	63164.573844
624.293297	63414.514252
624.640363	63019.514642
624.987376	63239.485390
625.334336	63155.726619
625.681243	62995.065046
626.028097	63036.780594
626.374899	62968.120079
626.721647	63004.113917
627.068343	63002.500748
627.414987	62885.117481
627.761577	62683.219269
628.108115	62897.468308
628.454600	62567.247525
628.801032	62567.197113
629.147412	62519.406975
629.493739	62495.360671
629.840014	62265.005146
630.186236	62333.161546
630.532405	61994.017921
630.878521	62046.219069
631.224585	61949.277681
631.570597	61670.375844
631.916556	61688.120706
632.262462	61608.646915
632.608316	61625.333135
632.954117	61540.213252
633.299866	61511.151000
633.645562	61463.108804
633.991206	61189.248121
634.336797	60840.249040
634.682336	60967.916262
635.027823	60821.596771
635.373257	60675.857013
635.718639	60626.907410
636.063968	60508.490706
636.409245	60183.185048
636.754470	60350.097652
637.099642	60122.514762
637.444762	59762.954463
637.789829	59886.361910
638.134845	59634.682304
638.479808	59640.378808
638.824719	59420.886969
639.169577	59121.996958
639.514383	59091.724829
639.859137	58878.005112
640.203839	59072.770090
640.548489	58531.072904
640.893086	58684.676862
641.237632	58330.586215
641.582125	58323.730246
641.926566	58251.767775
642.270955	57999.836112
642.615292	57985.872115
642.959576	57790.376169
643.303809	57581.596783
643.647990	57576.883304
643.992118	57366.364719
644.336195	57129.279254
644.680219	56950.898025
645.024192	56940.185573
645.368112	56953.191750
645.711981	56345.228596
646.055797	56805.611971
646.399562	56143.204356
646.743274	56556.705000
647.086935	56435.692102
647.430544	55769.982531
647.774101	55667.873960
648.117606	55526.167125
648.461059	55873.931123
648.804460	55507.666090
649.147810	54838.679769
649.491108	54849.039340
649.834354	54518.213619
650.177548	53971.550896
650.520690	53951.058606
650.863781	54311.501106
651.206820	54435.740342
651.549807	54307.594212
651.892742	53980.498944
652.235626	53828.356921
652.578458	53697.261715
652.921238	53240.331531
653.263967	53624.038956
653.606644	53200.279563
653.949269	53147.347448
654.291843	52678.746992
654.634365	53159.370600
654.976836	52716.681675
655.319255	52476.269048
655.661622	52631.108088
656.003938	52199.938200
656.346203	51987.201508
656.688416	52141.939725
657.030577	51927.388217
657.372687	51685.967360
657.714746	52024.052342
658.056753	51977.320846
658.398708	51383.296483
658.740612	51327.616938
659.082465	51623.658698
659.424266	51225.331927
659.766016	51370.996067
660.107715	51190.094262
660.449362	51217.492933
660.790958	51079.239288
661.132503	51115.863271
661.473996	50878.525748
661.815438	50952.479475
662.156829	51258.779983
662.498168	50759.075608
662.839456	50747.657394
663.180693	50784.281377
663.521879	50856.697552
663.863013	50725.980433
664.204097	50634.987606
664.545129	51137.237763
664.886110	50949.051490
665.227040	50866.074098
665.567918	50942.951694
665.908746	50953.916204
666.249522	51058.822615
666.590248	51056.075187
666.930922	51159.822133
667.271545	51120.450721
667.612118	51307.074237
667.952639	51226.919890
668.293109	51396.050602
668.633528	51509.577387
668.973896	51529.968854
669.314213	51819.356290
669.654480	51647.528562
669.994695	51935.101183
670.334859	51912.491608
670.674973	52053.467475
671.015035	52306.079694
671.355047	52452.600831
671.695008	52564.338006
672.034918	52521.462992
672.374777	52795.550527
672.714585	52625.159527
673.054342	53187.096946
673.394049	52990.819621
673.733705	53588.246763
674.073310	53420.754427
674.412864	53801.537983
674.752368	53558.151075
675.091820	54420.415235
675.431223	54359.870977
675.770574	54358.913158
676.109875	54727.522327
676.449125	54770.548575
676.788324	55196.803338
677.127473	54997.803790
677.466571	55395.601240
677.805619	55282.376925
678.144616	55762.093125
678.483562	56012.260385
678.822458	55942.642050
679.161303	56103.152388
679.500098	56237.272287
679.838842	56217.334523
680.177535	56487.111871
680.516179	56704.309985
680.854771	56705.494656
681.193314	56894.235456
681.531805	57028.304942
681.870247	56759.056915
682.208638	56861.593985
682.546978	56939.076519
682.885268	57154.459817
683.223508	56919.693283
683.561697	56941.697919
683.899836	57171.599740
684.237925	56891.387204
684.575963	56989.866144
684.913951	56624.558931
685.251889	56784.943240
685.589776	56739.245181
685.927614	56544.228144
686.265401	56380.239410
686.603137	56102.824713
686.940824	56137.104560
687.278460	56093.422962
687.616046	55621.898637
687.953582	55745.810198
688.291068	55160.935529
688.628504	55298.080119
688.965889	55154.961762
689.303224	54797.770806
689.640510	54813.700852
689.977745	54436.395692
690.314930	54107.082317
690.652065	54091.958856
690.989150	53884.590992
691.326185	53566.393362
691.663170	53361.747721
692.000105	53164.386548
692.336990	52926.847379
692.673825	52980.787725
693.010610	52864.639540
693.347345	52681.040717
693.684030	52258.062704
694.020665	52344.493287
694.357251	51899.384608
694.693786	52260.457252
695.030272	52413.229419
695.366707	51846.502904
695.703093	51793.444760
696.039429	51942.158798
696.375716	51641.201913
696.711952	51814.037873
697.048139	51640.849033
697.384276	51468.567600
697.720363	51878.917523
698.056400	51537.379350
698.392388	51355.696165
698.728326	51556.863410
699.064214	51444.924588
699.400053	51635.102117
699.735842	51515.929240
700.071581	51135.952269
700.407270	50965.006742
700.742910	51049.395658
701.078501	50905.899213
701.414042	50602.648604
701.749533	50357.270440
702.084974	49935.225040
702.420366	50649.203660
702.755709	49978.906638
703.091002	49649.114354
703.426246	49814.086113
703.761440	49802.894752
704.096584	49313.348302
704.431679	49403.257281
704.766725	49145.629113
705.101721	49100.788050
705.436668	49261.424417
705.771565	48367.854692
706.106413	49157.475825
706.441212	48806.939192
706.775961	48996.007667
707.110661	48879.128515
707.445311	49334.092650
707.779913	48499.756483
708.114465	48603.150548
708.448967	48610.611456
708.783421	49671.950781
709.117825	49438.268094
709.452180	49212.953723
709.786485	49185.504640
710.120742	50072.949363
710.454949	49232.135313
710.789107	49322.548408
711.123216	49992.391725
711.457275	49571.354556
711.791286	50294.155194
712.125247	50282.636158
712.459159	49966.328960
712.793023	51402.704925
713.126837	49810.355660
713.460602	51125.088583
713.794318	51441.773867
714.127985	51571.684402
714.461602	51071.198648
714.795171	52196.762273
715.128691	51286.178654
715.462162	51519.558871
715.795584	51706.434444
716.128957	52406.600302
716.462281	52651.323115
716.795556	53225.686979
717.128782	53091.491463
717.461960	52875.099935
717.795088	53637.851717
718.128167	53427.232310
718.461198	53245.675154
718.794180	53814.972658
719.127113	53818.526671
719.459997	54194.747983
719.792833	54294.739269
720.125619	54884.957562
720.458357	54925.564056
720.791046	55058.272431
721.123686	55231.788946
721.456278	55219.135650
721.788821	55565.815800
722.121315	55422.016887
722.453761	56005.328798
722.786158	56235.028973
723.118506	56512.972990
723.450805	56422.585102
723.783056	56989.916556
724.115259	56987.017892
724.447412	56834.220519
724.779518	57714.658038
725.111574	57739.561338
725.443582	58053.070696
725.775542	57946.349469
726.107453	58796.968563
726.439315	58104.036762
726.771129	58562.907790
727.102895	58782.324012
727.434612	58680.366675
727.766281	58653.976235
728.097901	59127.390992
728.429473	59148.815896
728.760996	59273.458425
729.092471	59549.940508
729.423897	59349.025321
729.755276	59048.975844
730.086606	58942.783938
730.417887	59304.839608
730.749120	59584.724469
731.080305	59254.352452
731.411442	59390.060313
731.742530	59197.034533
732.073570	58935.197002
732.404562	59172.005204
732.735506	58788.827100
733.066401	58584.811604
733.397249	58413.084698
733.728048	58203.196258
734.058798	57621.220252
734.389501	57246.813756
734.720156	57120.129560
735.050762	56574.827948
735.381320	56097.707942
735.711831	55645.541648
736.042293	54507.652402
736.372707	54194.924423
736.703073	52970.856652
737.033391	52907.413731
737.363661	51723.549162
737.693883	50830.231494
738.024056	49842.820690
738.354182	48810.039502
738.684260	47916.494983
739.014290	46762.826925
739.344272	45616.846627
739.674207	44789.316017
740.004093	43620.020383
740.333931	42272.923252
740.663722	41266.708944
740.993464	40335.633035
741.323159	39061.456194
741.652806	37828.919285
741.982405	36654.153998
742.311956	35402.964819
742.641460	34766.544352
742.970915	33646.929288
743.300323	32458.779738
743.629683	31700.943081
743.958996	30729.008619
744.288260	29806.603494
744.617477	28744.961700
744.946647	28129.033523
745.275768	27150.520356
745.604842	26383.710444
745.933869	25582.444246
746.262847	25001.703323
746.591778	24328.482433
746.920662	23577.678185
747.249498	22966.740750
747.578286	22382.092933
747.907027	21867.315508
748.235720	21495.152325
748.564365	20922.653688
748.892963	20318.950310
749.221514	20017.842190
749.550017	19472.490167
749.878473	19250.024048
750.206881	18744.547552
750.535242	18479.609712
750.863555	18197.733594
751.191821	17901.994304
751.520039	17790.761244
751.848210	17479.243142
752.176334	17335.570258
752.504411	17058.810912
752.832440	16778.346317
753.160421	16806.148281
753.488356	16640.521171
753.816243	16509.678023
754.144082	16336.816858
754.471875	16315.291131
754.799620	16230.045219
755.127318	16266.795231
755.454969	16260.821463
755.782572	16225.835856
756.110129	16342.034452
756.437638	16264.879592
756.765100	16336.388360
757.092515	16360.661515
757.419882	16449.133765
757.747203	16464.080787
758.074477	16616.752131
758.401703	16516.912079
758.728882	16729.094244
759.056014	16804.056202
759.383099	16890.285138
759.710138	17053.139613
760.037129	17246.064571
760.364073	17372.673150
760.690970	17423.361952
761.017820	17513.447371
761.344623	17784.081715
761.671379	18010.253083
761.998088	18106.110623
762.324751	18254.623015
762.651366	18385.314929
762.977935	18737.893229
763.304456	18796.219379
763.630931	19041.723571
763.957359	19255.796169
764.283740	19408.568337
764.610074	19759.760319
764.936362	19773.724315
765.262602	20155.289250
765.588796	20246.055225
765.914943	20586.660785
766.241044	20813.487502
766.567097	21054.000952
766.893104	21246.245354
767.219064	21591.463569
767.544978	21793.714662
767.870845	21972.524388
768.196665	22434.394904
768.522438	22772.000977
768.848165	23186.283000
769.173846	23526.283621
769.499479	23937.062042
769.825066	24217.148550
770.150607	24382.221133
770.476101	25087.075263
770.801548	25475.218904
771.126949	25731.082667
771.452303	26168.478381
771.777611	26342.524217
772.102872	27033.086677
772.428087	27276.851671
772.753256	27579.522548
773.078378	28050.492346
773.403453	28171.454833
773.728482	28423.789788
774.053465	28798.448342
774.378401	28987.869698
774.703291	29024.166006
775.028135	29024.493681
775.352932	29248.169677
775.677683	29117.502969
776.002388	28942.675754
776.327046	29202.269971
776.651658	28773.141750
776.976224	28457.061404
777.300743	28324.227000
777.625216	27899.131702
777.949643	27444.394419
778.274024	27233.825423
778.598359	26570.434783
778.922647	26153.531360
779.246889	25406.029067
779.571086	24881.194540
779.895236	24308.141377
780.219339	23472.217246
780.543397	22829.268485
780.867409	22420.909817
781.191374	21751.671438
781.515294	21009.361535
781.839167	20703.035821
782.162995	20089.855073
782.486776	19409.072452
782.810511	18898.706037
783.134201	18249.581862
783.457844	17975.620356
783.781441	17477.882031
784.104993	17075.194662
784.428498	16667.743402
784.751958	16351.814290
785.075372	15980.659338
785.398739	15607.714777
785.722061	15418.167392
786.045337	15084.972329
786.368568	15063.799483
786.691752	14561.574531
787.014891	14505.592517
787.337983	14195.158263
787.661030	14053.854721
787.984031	13879.027506
788.306987	13738.959046
788.629897	13614.442546
788.952760	13505.856092
789.275579	13440.169858
789.598351	13229.172363
789.921078	13111.083335
790.243759	12959.798308
790.566395	12989.994819
790.888984	12894.742217
791.211529	12948.808592
791.534027	12849.901154
791.856480	12758.126948
792.178888	12875.207746
792.501249	12890.658883
792.823566	12739.625913
793.145836	12874.577602
793.468062	12910.722675
793.790241	12806.950523
794.112375	12918.914550
794.434464	13099.791150
794.756507	12950.799848
795.078505	12977.694404
795.400457	13085.953183
795.722364	13213.645610
796.044226	13345.018079
796.366042	13465.224392
796.687812	13334.885360
797.009538	13532.372562
797.331218	13530.003219
797.652852	13706.670456
797.974442	13728.901944
798.295986	13902.090785
798.617484	13959.660762
798.938938	13965.911792
799.260346	14214.692735
799.581709	14145.502898
799.903026	14321.363550
800.224299	14447.417602
800.545526	14397.333738
800.866708	14465.162463
801.187845	14598.702629
801.508936	14537.704667
801.829983	14700.332290
802.150984	14435.797742
802.471940	14514.616183
802.792851	14571.757662
803.113717	14556.306525
803.434538	14540.074010
803.755314	14401.820365
804.076045	14273.044090
804.396731	14047.326427
804.717372	13940.857258
805.037967	13737.673552
805.358518	13608.443573
805.679024	13518.232125
805.999485	13217.880179
806.319901	12927.484512
806.640272	12730.854306
806.960598	12565.025550
807.280879	12257.742017
807.601115	12094.559867
807.921306	11762.499063
808.241453	11510.063285
808.561554	11357.291117
808.881611	11110.652665
809.201623	10945.882552
809.521590	10701.915912
809.841513	10559.377287
810.161390	10491.069652
810.481223	10186.054638
810.801011	10095.565927
811.120755	9928.602912
811.440453	9712.917144
811.760107	9588.375438
812.079716	9490.173762
812.399281	9279.957646
812.718801	9238.292510
813.038276	9110.927758
813.357707	8974.413312
813.677093	8962.364954
813.996434	8771.884956
814.315731	8707.660656
814.634983	8634.085015
814.954191	8514.433229
815.273354	8478.036098
815.592473	8401.082885
815.911547	8347.923917
816.230577	8241.353925
816.549562	8215.744863
816.868502	8114.619317
817.187399	8068.971669
817.506250	8038.623923
817.825058	7930.818848
818.143821	7928.903210
818.462539	7872.643933
818.781213	7775.828573
819.099843	7726.878969
819.418429	7790.523537
819.736970	7710.671660
820.055466	7659.781212
820.373919	7653.883062
820.692327	7672.106833
821.010691	7553.891775
821.329011	7572.090340
821.647286	7561.579535
821.965517	7547.766773
822.283704	7478.702965
822.601847	7592.582631
822.919945	7534.710185
823.237999	7556.336735
823.556010	7541.692183
823.873976	7544.288377
824.191897	7500.556367
824.509775	7537.457613
824.827609	7505.370669
825.145398	7513.663367
825.463144	7522.384563
825.780845	7591.246725
826.098502	7560.798156
826.416116	7584.466373
826.733685	7603.698375
827.051210	7604.933458
827.368692	7610.302287
827.686129	7632.962273
828.003522	7671.098602
828.320872	7644.279663
828.638177	7678.660333
828.955439	7717.930921
829.272656	7727.912406
829.589830	7796.144423
829.906960	7779.407792
830.224046	7811.116650
830.541088	7831.961821
830.858086	7871.308027
831.175041	7872.845579
831.491952	7937.649612
831.808819	7956.301881
832.125642	8009.233996
832.442421	8022.492231
832.759157	8051.806540
833.075849	8107.183615
833.392497	8143.908421
833.709101	8223.230977
834.025662	8198.100825
834.342179	8274.978421
834.658653	8287.782952
834.975083	8348.629679
835.291469	8391.958396
835.607811	8400.603975
835.924110	8515.769135
836.240366	8586.647758
836.556578	8580.623579
836.872746	8630.883883
837.188871	8703.426087
837.504952	8764.272813
837.820990	8789.604612
838.136984	8867.969348
838.452935	8967.683371
838.768842	8995.082042
839.084706	9073.396367
839.400526	9146.316658
839.716303	9189.746198
840.032037	9265.338300
840.347727	9313.002410
840.663373	9404.700998
840.978977	9518.983956
841.294537	9599.970092
841.610054	9626.612590
841.925527	9760.631665
842.240957	9835.669240
842.556344	9925.830277
842.871687	10044.423421
843.186987	10091.129712
843.502244	10189.482623
843.817458	10291.288725
844.132629	10356.067552
844.447756	10497.648358
844.762840	10626.172575
845.077881	10697.076404
845.392879	10783.078488
845.707833	10893.731815
846.022745	10988.203038
846.337613	11181.959787
846.652438	11200.208763
846.967221	11420.255129
847.281960	11472.834363
847.596656	11619.305088
847.911309	11775.152360
848.225919	11862.666790
848.540485	11996.635454
848.855009	12171.689521
849.169490	12234.703944
849.483928	12381.905637
849.798323	12517.815144
850.112675	12554.766802
850.426984	12831.551354
850.741251	12929.803442
851.055474	13019.359540
851.369654	13221.182135
851.683792	13277.844704
851.997887	13524.785625
852.311938	13621.752219
852.625947	13803.006906
852.939914	13816.844873
853.253837	14077.901025
853.567718	14170.406198
853.881555	14214.969998
854.195350	14515.800854
854.509103	14570.673813
854.822812	14708.977869
855.136479	14763.170273
855.450103	14945.458396
855.763685	14907.044804
856.077224	15045.676535
856.390720	15155.498071
856.704173	15303.531554
857.017584	15335.492469
857.330953	15337.987840
857.644278	15422.981694
857.957561	15462.479135
858.270802	15538.046031
858.584000	15598.136585
858.897155	15582.206538
859.210268	15494.288815
859.523339	15403.976544
859.836367	15473.695702
860.149352	15401.355144
860.462295	15397.044958
860.775195	15327.048537
861.088054	15267.260452
861.400869	15170.142623
861.713642	15079.578294
862.026373	15011.094219
862.339062	14917.505198
862.651708	14775.571512
862.964312	14690.728892
863.276873	14425.236525
863.589392	14407.063165
863.901869	14211.970512
864.214303	13952.855204
864.526696	13762.425617
864.839045	13579.759408
865.151353	13470.240340
865.463619	13210.620917
865.775842	13009.151204
866.088023	12856.656300
866.400162	12566.008575
866.712258	12411.245152
867.024313	12205.717310
867.336325	12032.604087
867.648296	11877.109696
867.960224	11614.717638
868.272110	11481.076650
868.583954	11238.042623
868.895755	11075.843498
869.207515	10811.787860
869.519233	10741.161294
869.830909	10489.179219
870.142542	10352.866419
870.454134	10115.125604
870.765684	9962.277819
871.077191	9864.756698
871.388657	9680.502525
871.700081	9541.946412
872.011463	9426.982898
872.322803	9280.965877
872.634101	9092.577958
872.945357	8955.433367
873.256571	8862.298050
873.567744	8758.072194
873.878874	8603.409594
874.189963	8572.482115
874.501010	8441.891025
874.812015	8317.929052
875.122979	8286.472252
875.433900	8161.628077
875.744780	8067.333294
876.055618	8021.408383
876.366415	7941.556506
876.677169	7854.899071
876.987882	7815.376425
877.298554	7745.606856
877.609183	7711.856331
877.919771	7648.262175
878.230317	7566.545071
878.540822	7512.327462
878.851285	7482.836712
879.161707	7406.185967
879.472087	7385.643265
879.782425	7328.678227
880.092722	7327.569173
880.402977	7263.470902
880.713191	7188.382915
881.023363	7161.412742
881.333494	7098.448731
881.643583	7105.203877
881.953631	7068.378248
882.263637	7026.183790
882.573602	6973.024823
882.883526	6960.321115
883.193408	6905.246510
883.503248	6865.799481
883.813048	6833.082392
884.122806	6816.849877
884.432522	6776.495440
884.742197	6758.725373
885.051831	6749.953765
885.361424	6701.155396
885.670975	6681.217633
885.980485	6638.292208
886.289954	6618.732531
886.599382	6586.822027
886.908768	6570.715540
887.218113	6538.603390
887.527417	6509.440315
887.836680	6467.800385
888.145901	6446.451098
888.455082	6433.419715
888.764221	6403.853348
889.073319	6369.119798
889.382376	6341.821950
889.691392	6313.616694
890.000366	6295.292100
890.309300	6251.282827
890.618193	6242.612042
890.927044	6194.191760
891.235855	6185.672210
891.544625	6153.383619
891.853353	6113.911385
892.162041	6082.429379
892.470687	6051.980810
892.779293	5998.418550
893.087858	5976.993646
893.396381	5960.887160
893.704864	5912.340848
894.013306	5870.801740
894.321707	5843.453481
894.630068	5808.140198
894.938387	5758.409215
895.246665	5725.994596
895.554903	5684.984810
895.863100	5625.776458
896.171256	5590.639615
896.479371	5572.340227
896.787446	5513.736813
897.095480	5468.240400
897.403473	5438.976502
897.711425	5380.902410
898.019336	5343.597871
898.327207	5288.724912
898.635038	5258.251137
898.942827	5207.511923
899.250576	5155.058717
899.558284	5086.120938
899.865952	5086.751083
900.173579	5018.065362
900.481165	4979.828210
900.788711	4929.567906
901.096216	4894.279829
901.403681	4837.894523
901.711105	4806.311694
902.018489	4744.481942
902.325832	4714.940781
902.633135	4642.096108
902.940397	4603.329635
903.247619	4566.504006
903.554800	4520.730329
903.861941	4479.166015
904.169041	4434.072894
904.476101	4391.500350
904.783121	4355.682952
905.090100	4319.235410
905.397039	4269.857308
905.703938	4236.711721
906.010796	4183.174667
906.317614	4147.937002
906.624391	4112.850571
906.931129	4072.067637
907.237826	4033.603633
907.544483	3988.107219
907.851099	3958.087148
908.157675	3918.262033
908.464211	3876.496073
908.770707	3845.971887
909.077163	3800.828354
909.383578	3777.664252
909.689954	3730.756315
909.996289	3707.491390
910.302584	3660.860717
910.608839	3640.973365
910.915054	3601.249073
911.221229	3572.237233
911.527363	3557.164183
911.833458	3511.113242
912.139513	3497.149246
912.445527	3460.248000
912.751502	3432.975358
913.057436	3414.701175
913.363331	3381.908469
913.669186	3359.273688
913.975000	3328.774708
914.280775	3299.460398
914.586510	3287.487658
914.892205	3264.298350
915.197859	3237.580235
915.503475	3224.624469
915.809050	3203.678475
916.114585	3178.523117
916.420081	3158.358502
916.725536	3141.117756
917.030952	3110.543158
917.336328	3105.199535
917.641665	3076.086871
917.946961	3066.886765
918.252218	3052.947975
918.557435	3025.599715
918.862612	3016.601256
919.167750	3007.426356
919.472848	2987.891885
919.777906	2975.616675
920.082925	2970.096612
920.387904	2947.260185
920.692843	2936.446910
920.997743	2927.524067
921.302603	2905.519431
921.607423	2894.832185
921.912204	2889.513767
922.216946	2877.591438
922.521647	2858.309025
922.826310	2858.460260
923.130932	2839.858402
923.435516	2831.868173
923.740059	2826.499344
924.044564	2811.930410
924.349028	2801.822896
924.653454	2787.858900
924.957840	2782.137190
925.262186	2774.928340
925.566493	2772.306940
925.870761	2749.798188
926.174989	2752.772469
926.479178	2748.134608
926.783328	2742.614544
927.087438	2736.741600
927.391509	2725.146946
927.695541	2724.163921
927.999533	2719.803323
928.303486	2704.604244
928.607400	2707.452496
928.911275	2700.042000
929.215110	2692.757533
929.518906	2693.942204
929.822663	2687.867613
930.126381	2675.365552
930.430060	2678.465862
930.733699	2675.995696
931.037299	2673.626354
931.340861	2660.544560
931.644383	2661.628408
931.947866	2651.016779
932.251309	2652.125833
932.554714	2650.966367
932.858080	2646.479740
933.161407	2648.849083
933.464694	2633.372740
933.767943	2636.271404
934.071153	2629.919550
934.374323	2631.835188
934.677455	2626.995681
934.980548	2632.666979
935.283602	2626.718417
935.586617	2610.410285
935.889593	2611.216869
936.192530	2616.610904
936.495428	2610.082610
936.798287	2601.537854
937.101108	2608.040942
937.403890	2605.797629
937.706632	2606.957094
938.009336	2598.840837
938.312002	2604.008019
938.614628	2595.059971
938.917216	2595.337235
939.219765	2596.471494
939.522275	2594.833119
939.824747	2590.548138
940.127179	2593.673654
940.429573	2589.565113
940.731929	2591.027048
941.034246	2587.397417
941.336524	2584.397931
941.638763	2581.549679
941.940964	2584.070256
942.243126	2582.331058
942.545250	2588.556883
942.847335	2578.272929
943.149381	2576.760583
943.451389	2580.012127
943.753359	2576.080027
944.055290	2585.960688
944.357182	2578.222517
944.659036	2577.718402
944.960851	2575.197825
945.262628	2576.180850
945.564367	2570.559963
945.866067	2569.350087
946.167729	2569.803790
946.469352	2568.316650
946.770937	2574.693710
947.072484	2564.258521
947.373992	2563.048644
947.675462	2573.685479
947.976893	2565.417987
948.278286	2561.511092
948.579641	2562.468912
948.880958	2558.940104
949.182236	2560.049158
949.483476	2560.250804
949.784678	2556.142263
950.085841	2566.728687
950.386967	2562.796587
950.688054	2566.022925
950.989103	2560.326421
951.290114	2560.830537
951.591087	2564.208110
951.892021	2574.643298
952.192917	2559.948335
952.493776	2565.291958
952.794596	2566.476629
953.095378	2559.620660
953.396122	2562.468912
953.696828	2557.679815
953.997496	2552.260575
954.298126	2557.326935
954.598718	2547.042981
954.899272	2555.033210
955.199788	2553.672098
955.500266	2549.689587
955.800706	2544.824873
956.101108	2563.073850
956.401472	2555.285267
956.701798	2562.998233
957.002087	2555.789383
957.302337	2555.915412
957.602550	2554.050185
957.902724	2566.451423
958.202861	2551.580019
958.502960	2563.225085
958.803022	2558.713252
959.103045	2552.210163
959.403031	2556.469938
959.702979	2549.487940
960.002889	2545.076931
960.302762	2549.286294
960.602596	2551.075904
960.902393	2554.806358
961.202153	2552.789896
961.501875	2554.806358
961.801559	2549.538352
962.101205	2550.193702
962.400814	2552.260575
962.700385	2550.294525
962.999918	2549.664381
963.299414	2545.202960
963.598873	2541.825387
963.898293	2550.143290
964.197677	2551.050698
964.497022	2546.009544
964.796331	2542.758000
965.095601	2539.481250
965.394835	2549.185471
965.694030	2551.302756
965.993189	2554.856769
966.292309	2551.882488
966.591393	2549.739998
966.890439	2547.219421
967.189447	2554.075390
967.488419	2551.327962
967.787353	2547.269833
968.086249	2555.612942
968.385108	2539.708102
968.683930	2550.193702
968.982714	2553.571275
969.281462	2547.950388
969.580172	2543.337733
969.878844	2544.169523
970.177480	2544.371169
970.476078	2546.312013
970.774639	2536.859850
971.073162	2545.127342
971.371649	2536.784233
971.670098	2542.934440
971.968510	2532.524458
972.266885	2546.866540
972.565223	2547.799154
972.863524	2545.505429
973.161788	2549.462735
973.460014	2544.900490
973.758204	2541.825387
974.056356	2542.027033
974.354471	2550.874258
974.652550	2543.136087
974.950591	2539.002340
975.248595	2539.582073
975.546563	2549.235883
975.844493	2541.069213
976.142386	2542.808412
976.440243	2536.481763
976.738062	2534.944212
977.035845	2539.582073
977.333590	2539.330015
977.631299	2542.758000
977.928971	2536.708615
978.226606	2539.758513
978.524204	2536.708615
978.821765	2531.213758
979.119290	2534.062010
979.416777	2536.380940
979.714228	2535.675179
980.011642	2550.949875
980.309020	2542.253885
980.606360	2542.228679
980.903664	2550.143290
981.200931	2542.153062
981.498162	2541.598535
981.795356	2533.431865
982.092513	2546.639688
982.389633	2542.304296
982.686717	2553.697304
982.983764	2548.051212
983.280775	2540.565098
983.577749	2549.261088
983.874686	2546.211190
984.171587	2538.926723
984.468451	2535.549150
984.765279	2538.447813
985.062070	2542.153062
985.358824	2544.219935
985.655543	2545.127342
985.952224	2539.304810
986.248869	2536.028060
986.545478	2537.363965
986.842050	2540.817156
987.138586	2538.977135
987.435086	2537.414377
987.731549	2536.154088
988.027975	2536.078471
988.324366	2539.103163
988.620719	2538.775488
988.917037	2547.345450
989.213318	2533.835158
989.509563	2532.070754
989.805772	2546.312013
990.101944	2544.219935
990.398080	2533.658717
990.694180	2538.296579
990.990244	2536.960673
991.286271	2530.255938
991.582262	2532.826927
991.878217	2538.725077
992.174136	2534.566125
992.470019	2534.566125
992.765865	2551.655637
993.061676	2532.826927
993.357450	2534.692154
993.653188	2528.768798
993.948890	2540.338246
994.244556	2530.331556
994.540186	2543.085675
994.835780	2538.800694
995.131337	2531.818696
995.426859	2536.431352
995.722345	2542.884029
996.017795	2532.121165
996.313208	2538.951929
996.608586	2532.070754
996.903928	2527.508510
997.199234	2537.565612
997.494504	2534.591331
997.789738	2529.625794
998.084936	2534.666948
998.380099	2526.676719
998.675225	2530.432379
998.970316	2533.507483
999.265371	2533.809952
999.560390	2528.516740
999.855373	2534.414890
1000.150320	2535.196269
1000.445232	2532.121165
1000.740108	2529.877852
1001.034948	2534.389685
1001.329752	2539.456044
1001.624521	2536.028060
1001.919254	2529.348531
1002.213951	2535.196269
1002.508613	2526.071781
1002.803239	2544.320758
1003.097829	2525.189579
1003.392384	2528.567152
1003.686903	2527.004394
1003.981386	2535.549150
1004.275834	2532.020342
1004.570246	2532.751310
1004.864623	2534.137627
1005.158964	2533.078985
1005.453270	2529.146885
1005.747540	2531.188552
1006.041775	2535.801208
1006.335974	2523.500792
1006.630138	2537.540406
1006.924266	2531.692667
1007.218359	2527.836185
1007.512416	2530.356762
1007.806438	2531.743079
1008.100425	2527.987419
1008.394376	2531.213758
1008.688292	2527.810979
1008.982172	2530.029087
1009.276017	2526.727131
1009.569827	2526.701925
1009.863602	2521.812006
1010.157341	2520.350071
1010.451045	2536.885056
1010.744714	2529.877852
1011.038347	2537.716846
1011.331945	2527.483304
1011.625508	2535.801208
1011.919036	2524.534229
1012.212528	2531.339787
1012.505986	2525.668488
1012.799408	2525.265196
1013.092795	2530.961700
1013.386147	2524.584640
1013.679464	2530.054292
1013.972745	2526.046575
1014.265992	2527.180835
1014.559204	2532.474046
1014.852380	2526.878365
1015.145521	2521.030627
1015.438628	2518.384021
1015.731699	2528.088242
1016.024736	2528.340300
1016.317737	2525.366019
1016.610703	2530.835671
1016.903635	2525.870135
1017.196531	2537.363965
1017.489393	2529.877852
1017.782219	2524.483817
1018.075011	2526.853160
1018.367768	2529.323325
1018.660490	2533.255425
1018.953177	2533.255425
1019.245829	2533.255425
