Dividing Wavelength (nm)	Counts (n)	Slit_number_5_of_a_total_of_40	
326.493990	2106.320106
326.888308	2106.320106
327.282561	2106.320106
327.676750	2075.241392
328.070874	2077.409088
328.464933	2078.089644
328.858929	2080.383369
329.252859	2101.581421
329.646726	2114.133894
330.040528	2125.804165
330.434265	2145.237813
330.827938	2174.400888
331.221547	2195.699763
331.615091	2213.066538
332.008571	2233.079919
332.401986	2255.689494
332.795338	2268.645260
333.188625	2291.582510
333.581847	2308.067083
333.975006	2335.188490
334.368100	2349.026458
334.761129	2367.174612
335.154095	2383.457538
335.546996	2401.303223
335.939833	2446.345933
336.332606	2465.855198
336.725315	2471.803760
337.117960	2486.397900
337.510540	2491.943169
337.903056	2501.294510
338.295508	2504.293996
338.687896	2513.670542
339.080220	2521.837212
339.472480	2530.381967
339.864676	2532.801721
340.256807	2530.029087
340.648875	2536.305323
341.040879	2546.387631
341.432818	2544.749256
341.824694	2543.690613
342.216506	2538.321785
342.608253	2545.631458
342.999937	2542.884029
343.391557	2534.717360
343.783113	2544.900490
344.174605	2530.860877
344.566033	2541.774975
344.957397	2542.631971
345.348697	2536.330529
345.739934	2536.733821
346.131106	2531.541433
346.522215	2537.263142
346.913260	2525.517254
347.304241	2532.121165
347.695159	2530.180321
348.086012	2531.390198
348.476802	2526.046575
348.867528	2528.163860
349.258191	2520.753363
349.648789	2527.004394
350.039324	2512.359842
350.429796	2530.381967
350.820203	2520.929804
351.210548	2517.375790
351.600828	2523.299146
351.991045	2510.872702
352.381198	2522.618590
352.771288	2520.098013
353.161314	2519.921573
353.551276	2519.367046
353.941175	2529.222502
354.331010	2525.517254
354.720782	2530.911288
355.110490	2526.752337
355.500135	2530.029087
355.889717	2528.920033
356.279235	2537.489994
356.668689	2538.699871
357.058080	2551.453990
357.447408	2560.149981
357.836672	2563.830023
358.225873	2578.600604
358.615010	2592.690629
359.004084	2616.157200
359.393095	2626.365537
359.782043	2669.416990
360.170927	2695.832637
360.559748	2747.101171
360.948505	2800.008081
361.337199	2858.006556
361.725830	2955.855352
362.114398	3055.065260
362.502903	3195.990715
362.891344	3330.287054
363.279722	3456.920838
363.668037	3609.314919
364.056289	3766.523302
364.444478	3974.722956
364.832603	4166.513654
365.220665	4356.615565
365.608665	4553.018919
365.996601	4705.740675
366.384474	4925.938275
366.772284	5054.538110
367.160031	5185.759344
367.547715	5330.163196
367.935336	5483.893183
368.322893	5572.541873
368.710388	5608.510506
369.097820	5801.712727
369.485189	5780.111383
369.872495	5937.319765
370.259738	6008.803327
370.646918	6085.857363
371.034035	6075.119706
371.421090	6148.922198
371.808081	6262.096102
372.195010	6283.495800
372.581875	6357.575556
372.968678	6410.154790
373.355418	6467.094623
373.742096	6598.290652
374.128710	6698.206321
374.515262	6704.205294
374.901751	6799.231044
375.288177	6892.492390
375.674540	7010.783065
376.060841	7047.457460
376.447079	7191.407608
376.833254	7311.714744
377.219367	7418.940087
377.605417	7583.382525
377.991404	7657.941190
378.377329	7899.059579
378.763191	8077.188750
379.148991	8332.220723
379.534727	8667.482660
379.920402	8913.944671
380.306013	9292.358885
380.691563	9726.024144
381.077049	10137.609150
381.462474	10504.806796
381.847835	11164.139308
382.233134	11744.124058
382.618371	12157.901965
383.003545	12943.943879
383.388657	13598.562912
383.773706	14298.880004
384.158693	14886.149221
384.543618	15617.091323
384.928480	16215.904783
385.313280	16910.474960
385.698017	17612.833719
386.082692	18349.220267
386.467305	18335.836004
386.851856	19100.074927
387.236344	19830.109621
387.620770	19536.008706
388.005133	19983.083435
388.389435	20440.794998
388.773674	20290.694642
389.157851	20355.876762
389.541965	20427.940056
389.926018	19572.178985
390.310008	19757.063302
390.693936	19346.738585
391.077802	19139.849631
391.461606	18750.042410
391.845348	18278.568496
392.229027	17767.496319
392.612645	17620.597096
392.996200	16940.696677
393.379694	16511.064340
393.763125	16268.257165
394.146494	15884.726181
394.529801	15519.897877
394.913047	15415.268729
395.296230	14874.327715
395.679351	14482.831708
396.062410	14638.124452
396.445408	14107.971508
396.828343	14120.523981
397.211217	14176.153113
397.594028	13793.504331
397.976778	13997.166946
398.359466	14228.606319
398.742092	14052.443198
399.124656	14375.228279
399.507158	14598.677423
399.889598	14854.868862
400.271977	15239.609723
400.654294	15708.235385
401.036549	16238.287506
401.418742	16518.752100
401.800874	17584.729287
402.182944	18136.155900
402.564952	19365.088385
402.946898	19466.894487
403.328783	20425.369067
403.710606	21380.289635
404.092367	23040.240773
404.474067	24748.082873
404.855705	25069.506842
405.237282	26157.841546
405.618797	28974.636669
406.000250	30488.192700
406.381642	32826.229442
406.762972	34442.851863
407.144240	35100.016679
407.525447	37591.808613
407.906593	38400.535719
408.287677	41071.717113
408.668700	43470.852640
409.049661	45014.378331
409.430560	46666.843356
409.811399	47556.581804
410.192176	49715.329910
410.572891	50448.364090
410.953545	53697.917065
411.334138	52946.482673
411.714669	55750.750529
412.095139	52774.881796
412.475547	55784.274202
412.855894	54501.804663
413.236180	55260.422700
413.616405	53364.444738
413.996568	53578.996246
414.376670	52077.942277
414.756711	49852.676146
415.136691	49275.892529
415.516609	47934.542313
415.896466	45599.177383
416.276262	44352.802506
416.655997	42149.238542
417.035670	39116.177919
417.415283	38738.998788
417.794834	36989.768815
418.174324	34807.024817
418.553753	33042.016033
418.933121	32943.738738
419.312428	31071.202142
419.691674	29737.690921
420.070859	29367.846669
420.449983	28058.003665
420.829045	28364.430202
421.208047	27077.247185
421.586988	27306.367627
421.965867	27722.640906
422.344686	27448.502960
422.723444	27756.542665
423.102141	25655.843446
423.480777	27372.280713
423.859352	26667.628229
424.237866	28733.493075
424.616319	28215.791781
424.994712	29433.154817
425.373044	29551.269052
425.751314	30795.022529
426.129524	29597.017523
426.507673	32072.400502
426.885762	31235.014437
427.263789	32687.043185
427.641756	32999.569517
428.019662	33920.311062
428.397508	34219.503542
428.775292	35947.711904
429.153016	36939.155631
429.530679	37705.360604
429.908282	38748.627392
430.285824	39012.935088
430.663305	42150.725683
431.040726	42172.579085
431.418086	43108.544913
431.795385	45497.320869
432.172624	48219.972444
432.549802	48989.958283
432.926920	49963.505913
433.303977	51533.245604
433.680974	53630.768896
434.057910	54971.841848
434.434786	56333.205444
434.811601	56789.253427
435.188355	59907.257492
435.565050	59874.288346
435.941683	60006.921104
436.318257	61770.089867
436.694770	62287.337458
437.071222	63541.803387
437.447614	63146.350073
437.823946	63870.411000
438.200218	64314.839123
438.576429	64674.021335
438.952580	64783.691637
439.328670	65110.938138
439.704700	65396.796767
440.080670	64581.995071
440.456580	65070.482879
440.832429	65188.168615
441.208218	63046.610844
441.583947	63441.232367
441.959616	62848.896790
442.335224	62168.870342
442.710773	61546.212225
443.086261	61161.143688
443.461689	59225.869933
443.837057	57672.337552
444.212365	57081.186646
444.587612	55596.390398
444.962800	52228.924835
445.337927	51521.071217
445.712995	46757.231244
446.088002	48335.137604
446.462949	46677.933894
446.837837	44519.034554
447.212664	41296.905456
447.587431	41370.481096
447.962139	39794.540787
448.336786	39617.722315
448.711374	38060.887979
449.085901	34965.216225
449.460369	35623.767358
449.834776	34831.297973
450.209124	35508.098083
450.583412	33455.592294
450.957640	34594.767035
451.331808	33839.728217
451.705917	32902.728952
452.079965	32939.100877
452.453954	32990.923938
452.827883	32688.404296
453.201752	32111.066152
453.575562	32348.050794
453.949311	33367.851012
454.323001	33193.628735
454.696632	32096.270365
455.070202	33690.308417
455.443713	32681.876002
455.817164	33173.338090
456.190556	33041.713563
456.563888	32598.999433
456.937160	33342.216744
457.310373	32540.799312
457.683526	33904.784308
458.056619	34603.563848
458.429653	34577.929581
458.802628	35341.235890
459.175542	35266.904077
459.548398	36381.956896
459.921194	37893.546877
460.293930	36996.725608
460.666607	38175.271760
461.039224	39296.726844
461.411782	40054.008975
461.784280	40093.229152
462.156719	41790.257977
462.529099	43329.700333
462.901419	44281.268533
463.273680	44866.546494
463.645882	46325.506829
464.018024	47446.709856
464.390106	48393.766223
464.762130	50257.077508
465.134094	51128.138481
465.505999	52301.341010
465.877845	53944.454694
466.249631	54785.697242
466.621358	55319.757081
466.993026	56461.704456
467.364634	57489.242844
467.736184	57758.364842
468.107674	58795.052925
468.479105	59521.861281
468.850477	60445.476283
469.221790	60659.775733
469.593043	60452.735544
469.964238	60917.655958
470.335373	61449.422071
470.706449	62536.118400
471.077467	61951.546200
471.448425	62025.424310
471.819324	62941.830462
472.190164	63105.617550
472.560945	62935.150933
472.931667	62507.156971
473.302330	62671.448175
473.672934	62572.792794
474.043479	62981.227079
474.413965	62099.604888
474.784393	61617.998256
475.154761	62036.439231
475.525070	61398.556829
475.895321	60685.813292
476.265513	60495.862615
476.635645	60314.859987
477.005719	59435.833990
477.375734	58855.168685
477.745691	57886.989883
478.115588	57689.225417
478.485427	57035.463381
478.855207	56790.135629
479.224928	55782.988708
479.594591	54936.427742
479.964194	53512.503427
480.333739	53048.263569
480.703226	52350.719112
481.072653	51512.551667
481.442022	50550.800337
481.811333	50077.108315
482.180584	48393.867046
482.549777	47750.288140
482.918912	46724.993065
483.287988	46036.598302
483.657005	44878.746087
484.025964	43865.675810
484.394864	43660.526054
484.763706	42957.637973
485.132489	41771.076387
485.501213	41019.062262
485.869879	40479.406742
486.238487	39340.559677
486.607036	38524.749750
486.975527	37336.448965
487.343959	36434.359690
487.712333	35746.267396
488.080648	34839.691494
488.448905	34342.910988
488.817104	33360.238869
489.185244	32626.372898
489.553326	31673.695644
489.921350	30829.831696
490.289315	30179.245587
490.657222	29103.740619
491.025070	28518.714715
491.392861	27528.052367
491.760593	26878.121608
492.128267	26006.027198
492.495883	25218.750202
492.863440	24492.874460
493.230939	23650.976562
493.598380	22792.468062
493.965763	22281.799177
494.333088	21531.146163
494.700354	20822.586785
495.067563	20170.261477
495.434713	19654.072529
495.801805	19123.969996
496.168839	18507.562910
496.535815	17837.795210
496.902733	17369.950927
497.269593	16802.468238
497.636395	16240.656848
498.003139	15967.804396
498.369825	15381.417381
498.736453	15010.867367
499.103023	14466.649604
499.469535	14031.144323
499.835989	13721.365419
500.202385	13281.953244
500.568723	12918.208788
500.935003	12542.819267
501.301226	12124.554733
501.667390	11940.149325
502.033497	11716.674975
502.399546	11298.511263
502.765537	10925.239027
503.131470	10813.728704
503.497345	10601.193658
503.863163	10158.378704
504.228923	10051.128156
504.594625	9891.903312
504.960269	9595.937169
505.325856	9509.456175
505.691385	9183.772431
506.056856	9012.675669
506.422270	8885.033654
506.787625	8665.138523
507.152924	8492.932708
507.518164	8342.958381
507.883347	8039.909417
508.248472	7913.426867
508.613540	7798.816235
508.978550	7681.886671
509.343503	7503.959146
509.708398	7359.908175
510.073236	7238.441573
510.438016	7103.086592
510.802738	6903.885398
511.167403	6798.575694
511.532010	6690.342121
511.896561	6591.409477
512.261053	6544.703187
512.625488	6373.177927
512.989866	6227.639815
513.354186	6106.097596
513.718449	6012.281723
514.082655	5917.407208
514.446803	5814.693698
514.810894	5718.483277
515.174927	5633.086131
515.538904	5514.215723
515.902822	5476.885979
516.266684	5315.770702
516.630488	5257.217700
516.994235	5162.948123
517.357925	5105.100883
517.721558	5032.558679
518.085133	4966.166683
518.448651	4902.320469
518.812112	4804.320438
519.175516	4732.962906
519.538863	4688.147048
519.902152	4624.426863
520.265385	4568.293615
520.628560	4534.643913
520.991678	4452.246254
521.354739	4402.313625
521.717743	4352.885112
522.080690	4300.910815
522.443580	4263.933952
522.806413	4214.959142
523.169189	4153.154596
523.531908	4119.807363
523.894569	4061.279567
524.257174	4035.821740
524.619722	3988.510512
524.982213	3952.289821
525.344647	3909.868512
525.707025	3874.151937
526.069345	3838.057275
526.431608	3795.106644
526.793815	3777.815487
527.155964	3721.631827
527.518057	3693.829863
527.880093	3657.634379
528.242072	3635.755771
528.603995	3595.602981
528.965860	3571.531471
529.327669	3538.411090
529.689421	3504.131244
530.051117	3477.740804
530.412755	3459.542238
530.774337	3422.489758
531.135862	3394.813823
531.497331	3380.244888
531.858743	3354.207329
532.220098	3335.857529
532.581396	3299.813279
532.942638	3274.330246
533.303824	3265.583844
533.664953	3245.015937
534.026025	3212.223231
534.387040	3198.637321
534.747999	3176.683096
535.108902	3152.611587
535.469748	3139.076088
535.830537	3119.970115
536.191270	3106.686675
536.551947	3099.074533
536.912567	3078.531831
537.273131	3066.029769
537.633638	3046.797767
537.994089	3033.993237
538.354483	3016.399610
538.714821	3010.602283
539.075103	2998.327073
539.435328	2990.059581
539.795497	2967.248360
540.155609	2963.417083
540.515665	2962.761733
540.875665	2939.622837
541.235609	2923.415527
541.595496	2920.491658
541.955328	2907.787950
542.315102	2899.016342
542.674821	2876.356356
543.034483	2873.331663
543.394090	2866.979810
543.753640	2860.199458
544.113134	2861.056454
544.472571	2848.428363
544.831953	2845.630523
545.191278	2831.641321
545.550548	2827.028665
545.909761	2828.515806
546.268918	2815.862510
546.628019	2809.787919
546.987064	2801.999337
547.346053	2793.076494
547.704986	2794.916515
548.063863	2788.337810
548.422684	2781.330606
548.781449	2767.391815
549.140158	2774.373813
549.498811	2770.139244
549.857408	2760.712287
550.215949	2767.593462
550.574434	2754.209198
550.932864	2746.899525
551.291237	2752.142325
551.649555	2744.076479
552.007817	2747.353229
552.366022	2738.001888
552.724173	2735.027608
553.082267	2731.977710
553.440305	2725.020917
553.798288	2727.642317
554.156215	2715.669577
554.514086	2714.409288
554.871902	2712.392827
555.229661	2702.713812
555.587365	2701.251877
555.945014	2706.393854
556.302606	2698.731300
556.660143	2700.848585
557.017625	2697.017308
557.375050	2702.461754
557.732421	2704.553833
558.089735	2701.125848
558.446994	2689.354754
558.804197	2689.052285
559.161345	2691.598067
559.518437	2685.069773
559.875474	2683.355781
560.232455	2684.742098
560.589381	2684.439629
560.946251	2670.047135
561.303065	2679.549710
561.659825	2680.154648
562.016528	2664.426248
562.373177	2667.098060
562.729770	2666.694767
563.086307	2671.609892
563.442789	2669.190138
563.799216	2663.291988
564.155587	2672.718946
564.511904	2666.921619
564.868164	2661.124292
565.224370	2654.974085
565.580520	2657.872748
565.936615	2663.468429
566.292654	2665.005981
566.648638	2651.268837
567.004567	2652.604742
567.360441	2652.050215
567.716260	2643.681900
568.072023	2653.764208
568.427732	2652.377890
568.783385	2651.848569
569.138982	2643.480254
569.494525	2650.084165
569.850013	2647.740029
570.205445	2645.748773
570.560823	2651.848569
570.916145	2639.018833
571.271412	2647.538383
571.626625	2642.598052
571.981782	2631.230250
572.336884	2643.228196
572.691931	2643.177785
573.046923	2629.465846
573.401860	2635.237967
573.756743	2642.547640
574.111570	2638.539923
574.466342	2635.363996
574.821059	2636.044552
575.175722	2633.599592
575.530330	2630.196813
575.884882	2632.641773
576.239380	2628.180352
576.593823	2637.834162
576.948211	2627.348562
577.302544	2635.187556
577.656823	2626.819240
578.011047	2629.012142
578.365216	2625.533746
578.719330	2625.735392
579.073389	2617.392283
579.427394	2622.685494
579.781344	2620.870679
580.135239	2626.819240
580.489080	2622.231790
580.842866	2623.970988
581.196597	2617.694752
581.550273	2629.642287
581.903895	2619.484362
582.257463	2621.122737
582.610975	2614.241562
582.964434	2616.459669
583.317837	2614.418002
583.671186	2614.871706
584.024481	2623.038375
584.377721	2609.124790
584.730906	2624.172635
585.084037	2613.939092
585.437113	2604.688575
585.790135	2611.720985
586.143103	2610.536313
586.496016	2614.065121
586.848874	2616.535287
587.201679	2614.922117
587.554428	2608.318206
587.907124	2610.057404
588.259765	2604.965838
588.612352	2619.358333
588.964884	2605.873246
589.317362	2604.612958
589.669786	2604.612958
590.022155	2605.772423
590.374470	2601.613471
590.726731	2611.015223
591.078937	2597.656165
591.431090	2605.595983
591.783188	2599.244129
592.135232	2606.276538
592.487222	2606.049687
592.839157	2606.805860
593.191038	2598.966865
593.542866	2605.722012
593.894639	2601.815117
594.246358	2599.370158
594.598022	2606.049687
594.949633	2596.194231
595.301190	2597.908223
595.652692	2599.597010
596.004141	2600.504417
596.355535	2597.454519
596.706876	2600.327977
597.058162	2593.320773
597.409395	2588.002356
597.760573	2597.353696
598.111698	2594.505444
598.462768	2597.958635
598.813785	2595.790938
599.164748	2593.875300
599.515657	2602.823348
599.866511	2589.439085
600.217312	2589.993612
600.568060	2595.387646
600.918753	2590.447315
601.269392	2599.849067
601.619978	2594.984354
601.970510	2583.893815
602.320988	2597.580548
602.671412	2590.422110
603.021783	2585.456573
603.372100	2596.698346
603.722363	2588.103179
604.072572	2595.992585
604.422728	2591.934456
604.772830	2590.422110
605.122878	2583.717375
605.472872	2587.321800
605.822813	2595.664910
606.172701	2593.345979
606.522534	2593.018304
606.872314	2590.926225
607.222041	2588.002356
607.571714	2590.245669
607.921333	2581.625296
608.270899	2583.213260
608.620411	2580.213773
608.969870	2586.086717
609.319276	2583.692169
609.668627	2586.011100
610.017926	2585.355750
610.367171	2588.204002
610.716362	2577.289904
611.065500	2587.699887
611.414585	2589.993612
611.763616	2586.061512
612.112594	2575.147413
612.461518	2590.447315
612.810389	2584.372725
613.159207	2586.086717
613.507971	2580.717888
613.856682	2591.153077
614.205340	2585.658219
614.553945	2571.492577
614.902496	2582.532704
615.250994	2584.246696
615.599439	2582.154617
615.947830	2579.709658
616.296169	2582.583115
616.644454	2586.742067
616.992686	2589.565113
617.340864	2577.189081
617.688990	2577.315110
618.037063	2583.112437
618.385082	2586.263158
618.733048	2577.516756
619.080961	2570.963256
619.428821	2587.220977
619.776628	2573.004923
620.124382	2583.188054
620.472083	2577.012640
620.819731	2574.315623
621.167326	2584.700400
621.514868	2584.927252
621.862357	2577.667990
622.209793	2580.768300
622.557176	2575.172619
622.904506	2580.264185
623.251783	2579.029102
623.599007	2575.071796
623.946179	2578.247723
624.293297	2577.239492
624.640363	2578.877867
624.987376	2568.669531
625.334336	2576.029615
625.681243	2575.071796
626.028097	2558.637635
626.374899	2577.995665
626.721647	2577.693196
627.068343	2573.256981
627.414987	2577.617579
627.761577	2580.037333
628.108115	2584.120667
628.454600	2574.214800
628.801032	2565.493604
629.147412	2574.315623
629.493739	2576.710171
629.840014	2571.341342
630.186236	2561.385063
630.532405	2577.617579
630.878521	2570.912844
631.224585	2575.827969
631.570597	2572.853688
631.916556	2579.482806
632.262462	2566.476629
632.608316	2565.997719
632.954117	2562.720969
633.299866	2573.181363
633.645562	2577.088258
633.991206	2576.432908
634.336797	2571.542988
634.682336	2568.568708
635.027823	2571.517783
635.373257	2566.829510
635.718639	2574.038360
636.063968	2573.786302
636.409245	2569.299675
636.754470	2564.813048
637.099642	2568.694737
637.444762	2564.838254
637.789829	2562.746175
638.134845	2569.022412
638.479808	2561.385063
638.824719	2558.864487
639.169577	2570.610375
639.514383	2559.948335
639.859137	2552.512633
640.203839	2568.921588
640.548489	2568.845971
640.893086	2559.091338
641.237632	2562.065619
641.582125	2568.972000
641.926566	2555.839794
642.270955	2561.460681
642.615292	2558.814075
642.959576	2561.687533
643.303809	2559.671071
643.647990	2563.577965
643.992118	2562.468912
644.336195	2566.098542
644.680219	2558.385577
645.024192	2562.846998
645.368112	2556.217881
645.711981	2567.888152
646.055797	2567.131979
646.399562	2569.173646
646.743274	2573.282187
647.086935	2562.947821
647.430544	2563.325908
647.774101	2563.401525
648.117606	2565.468398
648.461059	2555.184444
648.804460	2560.200392
649.147810	2554.226625
649.491108	2548.630944
649.834354	2553.596481
650.177548	2563.754406
650.520690	2563.981258
650.863781	2558.007490
651.206820	2562.141237
651.549807	2557.301729
651.892742	2561.485887
652.235626	2550.319731
652.578458	2555.033210
652.921238	2550.269319
653.263967	2558.965310
653.606644	2564.787842
653.949269	2555.461708
654.291843	2564.434962
654.634365	2557.780638
654.976836	2564.939077
655.319255	2551.428785
655.661622	2556.217881
656.003938	2560.023952
656.346203	2554.075390
656.688416	2554.957592
657.030577	2563.376319
657.372687	2555.865000
657.714746	2554.806358
658.056753	2552.109340
658.398708	2555.134033
658.740612	2559.192162
659.082465	2563.351113
659.424266	2553.294012
659.766016	2557.553787
660.107715	2553.445246
660.449362	2542.682383
660.790958	2556.142263
661.132503	2555.537325
661.473996	2562.216854
661.815438	2546.614483
662.156829	2552.991542
662.498168	2557.881462
662.839456	2560.200392
663.180693	2555.965823
663.521879	2554.529094
663.863013	2552.159752
664.204097	2555.159238
664.545129	2558.763663
664.886110	2550.546583
665.227040	2559.141750
665.567918	2556.545556
665.908746	2558.662840
666.249522	2558.486400
666.590248	2549.160265
666.930922	2559.923129
667.271545	2556.142263
667.612118	2557.553787
667.952639	2553.369629
668.293109	2551.126315
668.633528	2553.823333
668.973896	2559.116544
669.314213	2552.789896
669.654480	2548.530121
669.994695	2553.495658
670.334859	2549.588763
670.674973	2547.799154
671.015035	2556.797613
671.355047	2555.940617
671.695008	2548.303269
672.034918	2557.780638
672.374777	2560.351627
672.714585	2556.318704
673.054342	2549.109854
673.394049	2543.614996
673.733705	2551.882488
674.073310	2553.067160
674.412864	2546.942158
674.752368	2549.286294
675.091820	2555.991029
675.431223	2548.152035
675.770574	2548.933413
676.109875	2551.428785
676.449125	2550.571788
676.788324	2545.883515
677.127473	2550.874258
677.466571	2548.983825
677.805619	2552.109340
678.144616	2546.614483
678.483562	2553.067160
678.822458	2551.983312
679.161303	2557.074877
679.500098	2554.176213
679.838842	2554.176213
680.177535	2551.176727
680.516179	2543.614996
680.854771	2559.847512
681.193314	2545.026519
681.531805	2541.926210
681.870247	2549.412323
682.208638	2545.354194
682.546978	2548.202446
682.885268	2548.958619
683.223508	2551.680842
683.561697	2551.958106
683.899836	2542.657177
684.237925	2553.772921
684.575963	2549.513146
684.913951	2547.421067
685.251889	2545.505429
685.589776	2545.807898
685.927614	2550.823846
686.265401	2540.968390
686.603137	2553.268806
686.940824	2546.286808
687.278460	2545.505429
687.616046	2553.697304
687.953582	2552.512633
688.291068	2547.824360
688.628504	2548.908208
688.965889	2539.304810
689.303224	2540.489481
689.640510	2546.866540
689.977745	2542.430325
690.314930	2547.295038
690.652065	2546.261602
690.989150	2553.067160
691.326185	2548.756973
691.663170	2547.068187
692.000105	2544.194729
692.336990	2550.445760
692.673825	2547.345450
693.010610	2548.782179
693.347345	2548.227652
693.684030	2540.590304
694.020665	2549.916438
694.357251	2533.028573
694.693786	2548.706562
695.030272	2546.564071
695.366707	2539.254398
695.703093	2545.883515
696.039429	2555.260062
696.375716	2549.563558
696.711952	2551.000287
697.048139	2552.613456
697.384276	2537.414377
697.720363	2548.454504
698.056400	2538.674665
698.392388	2543.715819
698.728326	2537.968904
699.064214	2543.967877
699.400053	2544.623227
699.735842	2550.395348
700.071581	2546.463248
700.407270	2548.051212
700.742910	2542.959646
701.078501	2542.102650
701.414042	2545.404606
701.749533	2545.656663
702.084974	2546.790923
702.420366	2540.665921
702.755709	2545.253371
703.091002	2550.470965
703.426246	2547.118598
703.761440	2541.170037
704.096584	2553.268806
704.431679	2544.446787
704.766725	2538.170550
705.101721	2530.381967
705.436668	2538.750283
705.771565	2536.305323
706.106413	2540.035777
706.441212	2540.035777
706.775961	2544.623227
707.110661	2543.136087
707.445311	2538.296579
707.779913	2537.767258
708.114465	2541.321271
708.448967	2542.279090
708.783421	2538.699871
709.117825	2541.724563
709.452180	2546.337219
709.786485	2548.101623
710.120742	2536.809438
710.454949	2535.851619
710.789107	2548.656150
711.123216	2540.338246
711.457275	2540.161806
711.791286	2542.405119
712.125247	2538.699871
712.459159	2542.606765
712.793023	2538.573842
713.126837	2537.464788
713.460602	2538.296579
713.794318	2543.488967
714.127985	2541.094419
714.461602	2541.573329
714.795171	2540.817156
715.128691	2551.781665
715.462162	2535.750796
715.795584	2538.170550
716.128957	2537.691640
716.462281	2547.698331
716.795556	2537.792463
717.128782	2540.817156
717.461960	2543.892260
717.795088	2544.572815
718.128167	2536.254912
718.461198	2542.909235
718.794180	2535.120652
719.127113	2539.027546
719.459997	2538.296579
719.792833	2535.826413
720.125619	2544.724050
720.458357	2540.968390
720.791046	2539.304810
721.123686	2537.137113
721.456278	2546.034750
721.788821	2534.641742
722.121315	2544.119112
722.453761	2535.095446
722.786158	2539.103163
723.118506	2532.549663
723.450805	2543.993083
723.783056	2535.851619
724.115259	2542.682383
724.447412	2534.540919
724.779518	2540.817156
725.111574	2541.976621
725.443582	2537.439583
725.775542	2537.691640
726.107453	2540.464275
726.439315	2531.264169
726.771129	2546.110367
727.102895	2532.524458
727.434612	2532.826927
727.766281	2525.517254
728.097901	2540.993596
728.429473	2538.548637
728.760996	2531.995137
729.092471	2527.105217
729.423897	2539.607279
729.755276	2540.842362
730.086606	2534.818183
730.417887	2543.337733
730.749120	2538.951929
731.080305	2542.480737
731.411442	2534.792977
731.742530	2535.725590
732.073570	2537.338760
732.404562	2527.180835
732.735506	2536.834644
733.066401	2534.994623
733.397249	2529.046062
733.728048	2540.262629
734.058798	2535.095446
734.389501	2542.531148
734.720156	2538.674665
735.050762	2531.843902
735.381320	2532.373223
735.711831	2533.557894
736.042293	2534.717360
736.372707	2537.893287
736.703073	2538.019315
737.033391	2529.978675
737.363661	2541.749769
737.693883	2536.557381
738.024056	2532.499252
738.354182	2539.430838
738.684260	2533.658717
739.014290	2532.373223
739.344272	2529.903058
739.674207	2532.070754
740.004093	2529.550177
740.333931	2535.322298
740.663722	2528.693181
740.993464	2537.313554
741.323159	2534.591331
741.652806	2542.833617
741.982405	2536.683410
742.311956	2535.675179
742.641460	2540.817156
742.970915	2532.348017
743.300323	2530.659231
743.629683	2525.592871
743.958996	2540.817156
744.288260	2523.752850
744.617477	2536.632998
744.946647	2535.700385
745.275768	2532.726104
745.604842	2531.364992
745.933869	2536.784233
746.262847	2537.389171
746.591778	2530.558408
746.920662	2531.087729
747.249498	2534.944212
747.578286	2533.658717
747.907027	2539.632485
748.235720	2537.212731
748.564365	2533.255425
748.892963	2532.902544
749.221514	2524.584640
749.550017	2533.860363
749.878473	2534.692154
750.206881	2531.768285
750.535242	2532.600075
750.863555	2527.886596
751.191821	2530.608819
751.520039	2535.347504
751.848210	2521.938035
752.176334	2539.103163
752.504411	2534.389685
752.832440	2534.818183
753.160421	2533.658717
753.488356	2525.038344
753.816243	2528.642769
754.144082	2532.826927
754.471875	2529.020856
754.799620	2532.549663
755.127318	2536.985879
755.454969	2536.506969
755.782572	2531.717873
756.110129	2537.994110
756.437638	2536.380940
756.765100	2535.952442
757.092515	2540.665921
757.419882	2531.995137
757.747203	2526.878365
758.074477	2530.003881
758.401703	2539.783719
758.728882	2531.440610
759.056014	2527.684950
759.383099	2541.069213
759.710138	2526.727131
760.037129	2525.139167
760.364073	2523.853673
760.690970	2531.995137
761.017820	2528.163860
761.344623	2529.020856
761.671379	2542.203473
761.998088	2523.778056
762.324751	2533.759540
762.651366	2534.969417
762.977935	2525.592871
763.304456	2533.129396
763.630931	2535.372710
763.957359	2530.104704
764.283740	2529.802235
764.610074	2531.314581
764.936362	2529.146885
765.262602	2522.416944
765.588796	2526.752337
765.914943	2531.087729
766.241044	2534.137627
766.567097	2535.473533
766.893104	2526.752337
767.219064	2526.903571
767.544978	2532.095960
767.870845	2537.842875
768.196665	2531.364992
768.522438	2530.835671
768.848165	2538.296579
769.173846	2531.062523
769.499479	2520.476100
769.825066	2530.583613
770.150607	2520.980215
770.476101	2533.457071
770.801548	2536.708615
771.126949	2531.087729
771.452303	2524.458612
771.777611	2518.384021
772.102872	2529.751823
772.428087	2531.138140
772.753256	2534.314067
773.078378	2525.895340
773.403453	2537.742052
773.728482	2523.399969
774.053465	2535.549150
774.378401	2528.516740
774.703291	2530.205527
775.028135	2527.584127
775.352932	2526.500279
775.677683	2520.324865
776.002388	2526.827954
776.327046	2528.491535
776.651658	2520.198837
776.976224	2531.112935
777.300743	2526.777542
777.625216	2527.810979
777.949643	2528.466329
778.274024	2532.751310
778.598359	2522.114475
778.922647	2531.541433
779.246889	2534.213244
779.571086	2528.667975
779.895236	2527.432892
780.219339	2524.130937
780.543397	2540.691127
780.867409	2527.306863
781.191374	2537.187525
781.515294	2530.659231
781.839167	2533.431865
782.162995	2535.599562
782.486776	2529.953469
782.810511	2527.130423
783.134201	2528.037831
783.457844	2535.776002
783.781441	2532.650487
784.104993	2526.777542
784.428498	2532.020342
784.751958	2529.046062
785.075372	2533.154602
785.398739	2539.758513
785.722061	2530.155115
786.045337	2525.668488
786.368568	2534.137627
786.691752	2524.559435
787.014891	2529.272913
787.337983	2538.523431
787.661030	2532.146371
787.984031	2527.357275
788.306987	2517.753877
788.629897	2527.130423
788.952760	2528.768798
789.275579	2531.642256
789.598351	2530.003881
789.921078	2533.532688
790.243759	2528.441123
790.566395	2524.282171
790.888984	2523.727644
791.211529	2531.112935
791.534027	2528.113448
791.856480	2532.902544
792.178888	2530.785260
792.501249	2521.055833
792.823566	2526.223015
793.145836	2525.945752
793.468062	2528.365506
793.790241	2528.340300
794.112375	2534.062010
794.434464	2530.306350
794.756507	2526.903571
795.078505	2533.835158
795.400457	2522.996677
795.722364	2528.970444
796.044226	2529.247708
796.366042	2528.365506
796.687812	2521.887623
797.009538	2525.592871
797.331218	2533.658717
797.652852	2526.550690
797.974442	2527.105217
798.295986	2531.465815
798.617484	2523.198323
798.938938	2532.978162
799.260346	2528.869621
799.581709	2524.912315
799.903026	2527.911802
800.224299	2534.188038
800.545526	2525.517254
800.866708	2521.837212
801.187845	2526.928777
801.508936	2535.120652
801.829983	2518.484844
802.150984	2528.415917
802.471940	2528.844415
802.792851	2524.458612
803.113717	2530.255938
803.434538	2527.609333
803.755314	2522.870648
804.076045	2528.264683
804.396731	2521.232273
804.717372	2522.769825
805.037967	2520.778569
805.358518	2526.953983
805.679024	2530.432379
805.999485	2528.970444
806.319901	2524.836698
806.640272	2523.248735
806.960598	2527.962213
807.280879	2523.374763
807.601115	2519.014165
807.921306	2527.105217
808.241453	2523.450381
808.561554	2519.543487
808.881611	2526.449867
809.201623	2521.509537
809.521590	2524.433406
809.841513	2532.549663
810.161390	2527.760567
810.481223	2524.382994
810.801011	2524.887110
811.120755	2523.223529
811.440453	2522.921060
811.760107	2529.096473
812.079716	2534.414890
812.399281	2524.836698
812.718801	2525.819723
813.038276	2523.525998
813.357707	2530.457585
813.677093	2527.810979
813.996434	2530.860877
814.315731	2525.970958
814.634983	2524.710669
814.954191	2522.542973
815.273354	2525.542460
815.592473	2535.826413
815.911547	2528.642769
816.230577	2531.591844
816.549562	2524.004908
816.868502	2515.838238
817.187399	2529.046062
817.506250	2521.938035
817.825058	2532.020342
818.143821	2525.920546
818.462539	2518.459638
818.781213	2527.357275
819.099843	2531.264169
819.418429	2519.467869
819.736970	2531.717873
820.055466	2518.106758
820.373919	2529.323325
820.692327	2523.979702
821.010691	2528.315094
821.329011	2527.130423
821.647286	2533.809952
821.965517	2519.064577
822.283704	2527.558921
822.601847	2528.516740
822.919945	2529.247708
823.237999	2528.390712
823.556010	2526.651513
823.873976	2524.156142
824.191897	2515.006448
824.509775	2529.046062
824.827609	2532.221988
825.145398	2522.593385
825.463144	2527.483304
825.780845	2524.887110
826.098502	2525.315608
826.416116	2522.946265
826.733685	2531.037317
827.051210	2528.138654
827.368692	2525.996163
827.686129	2527.810979
828.003522	2527.710156
828.320872	2523.727644
828.638177	2523.853673
828.955439	2525.844929
829.272656	2515.258506
829.589830	2525.366019
829.906960	2527.886596
830.224046	2524.887110
830.541088	2517.249762
830.858086	2524.660258
831.175041	2525.945752
831.491952	2525.088756
831.808819	2526.172604
832.125642	2529.877852
832.442421	2524.408200
832.759157	2520.904598
833.075849	2522.139681
833.392497	2529.096473
833.709101	2528.239477
834.025662	2525.920546
834.342179	2514.855213
834.658653	2529.298119
834.975083	2522.215298
835.291469	2528.441123
835.607811	2519.543487
835.924110	2519.921573
836.240366	2524.105731
836.556578	2525.870135
836.872746	2515.056860
837.188871	2524.710669
837.504952	2526.374250
837.820990	2525.870135
838.136984	2524.559435
838.452935	2519.896367
838.768842	2519.619104
839.084706	2520.425688
839.400526	2529.928263
839.716303	2525.189579
840.032037	2516.115502
840.347727	2519.014165
840.663373	2525.038344
840.978977	2521.685977
841.294537	2525.895340
841.610054	2524.962727
841.925527	2521.559948
842.240957	2525.592871
842.556344	2525.945752
842.871687	2525.088756
843.186987	2519.619104
843.502244	2524.130937
843.817458	2524.987933
844.132629	2524.055319
844.447756	2519.770338
844.762840	2525.945752
845.077881	2527.080012
845.392879	2517.728671
845.707833	2527.836185
846.022745	2523.450381
846.337613	2523.097500
846.652438	2524.635052
846.967221	2522.164887
847.281960	2523.778056
847.596656	2524.307377
847.911309	2520.450894
848.225919	2521.207067
848.540485	2529.121679
848.855009	2523.525998
849.169490	2520.526512
849.483928	2520.955010
849.798323	2527.382481
850.112675	2516.266737
850.426984	2524.559435
850.741251	2525.214785
851.055474	2522.795031
851.369654	2524.080525
851.683792	2519.316635
851.997887	2523.752850
852.311938	2522.618590
852.625947	2527.558921
852.939914	2516.241531
853.253837	2522.265710
853.567718	2516.518794
853.881555	2518.938548
854.195350	2524.987933
854.509103	2520.148425
854.822812	2518.610873
855.136479	2528.794004
855.450103	2522.820237
855.763685	2524.861904
856.077224	2516.266737
856.390720	2518.056346
856.704173	2514.804802
857.017584	2520.047602
857.330953	2523.425175
857.644278	2521.433919
857.957561	2524.080525
858.270802	2523.425175
858.584000	2518.257992
858.897155	2518.207581
859.210268	2517.199350
859.523339	2525.744106
859.836367	2517.854700
860.149352	2527.634538
860.462295	2523.803262
860.775195	2520.450894
861.088054	2518.762108
861.400869	2520.274454
861.713642	2514.502333
862.026373	2524.887110
862.339062	2525.315608
862.651708	2520.728158
862.964312	2525.945752
863.276873	2515.863444
863.589392	2520.047602
863.901869	2516.342354
864.214303	2524.433406
864.526696	2523.979702
864.839045	2518.207581
865.151353	2520.980215
865.463619	2522.492562
865.775842	2527.609333
866.088023	2528.063037
866.400162	2520.098013
866.712258	2521.837212
867.024313	2530.255938
867.336325	2514.199863
867.648296	2525.643283
867.960224	2525.315608
868.272110	2520.173631
868.583954	2527.836185
868.895755	2519.392252
869.207515	2519.165400
869.519233	2520.854187
869.830909	2515.334123
870.142542	2519.593898
870.454134	2517.930317
870.765684	2521.812006
871.077191	2519.619104
871.388657	2526.273427
871.700081	2522.038858
872.011463	2520.501306
872.322803	2519.341840
872.634101	2524.030113
872.945357	2523.273940
873.256571	2518.787313
873.567744	2516.417971
873.878874	2527.760567
874.189963	2523.248735
874.501010	2527.508510
874.812015	2510.494615
875.122979	2514.754390
875.433900	2526.752337
875.744780	2516.670029
876.055618	2526.172604
876.366415	2524.332583
876.677169	2525.592871
876.987882	2521.660771
877.298554	2515.787827
877.609183	2518.484844
877.919771	2513.897394
878.230317	2509.763648
878.540822	2522.316121
878.851285	2513.947806
879.161707	2522.366533
879.472087	2521.660771
879.782425	2518.409227
880.092722	2527.080012
880.402977	2514.678773
880.713191	2525.466842
881.023363	2518.938548
881.333494	2530.457585
881.643583	2517.022910
881.953631	2523.122706
882.263637	2512.813546
882.573602	2520.854187
882.883526	2518.938548
883.193408	2521.736388
883.503248	2518.913342
883.813048	2528.163860
884.122806	2523.727644
884.432522	2525.214785
884.742197	2519.064577
885.051831	2520.602129
885.361424	2525.013138
885.670975	2520.072808
885.980485	2529.701412
886.289954	2521.685977
886.599382	2518.434433
886.908768	2521.660771
887.218113	2518.787313
887.527417	2518.661285
887.836680	2519.896367
888.145901	2525.618077
888.455082	2511.023937
888.764221	2523.047088
889.073319	2521.433919
889.382376	2522.593385
889.691392	2518.711696
890.000366	2523.097500
890.309300	2513.897394
890.618193	2531.364992
890.927044	2519.291429
891.235855	2513.317662
891.544625	2523.576410
891.853353	2522.290915
892.162041	2515.687004
892.470687	2523.601615
892.779293	2526.500279
893.087858	2514.376304
893.396381	2518.484844
893.704864	2525.239990
894.013306	2519.845956
894.321707	2515.560975
894.630068	2530.608819
894.938387	2525.643283
895.246665	2522.013652
895.554903	2514.653567
895.863100	2527.735362
896.171256	2518.484844
896.479371	2518.308404
896.787446	2521.837212
897.095480	2525.996163
897.403473	2518.812519
897.711425	2519.392252
898.019336	2516.770852
898.327207	2523.223529
898.635038	2518.888137
898.942827	2511.855727
899.250576	2525.996163
899.558284	2520.299660
899.865952	2514.325892
900.173579	2520.198837
900.481165	2514.225069
900.788711	2521.862417
901.096216	2512.511077
901.403681	2517.930317
901.711105	2514.880419
902.018489	2515.132477
902.325832	2519.089783
902.633135	2518.283198
902.940397	2524.004908
903.247619	2512.939575
903.554800	2525.164373
903.861941	2519.215812
904.169041	2523.853673
904.476101	2510.217352
904.783121	2514.426715
905.090100	2518.837725
905.397039	2525.517254
905.703938	2526.701925
906.010796	2514.376304
906.317614	2516.644823
906.624391	2518.913342
906.931129	2525.819723
907.237826	2525.189579
907.544483	2521.055833
907.851099	2523.324352
908.157675	2526.500279
908.464211	2521.408713
908.770707	2526.172604
909.077163	2516.140708
909.383578	2515.208094
909.689954	2520.324865
909.996289	2512.914369
910.302584	2523.122706
910.608839	2519.215812
910.915054	2528.920033
911.221229	2519.341840
911.527363	2519.619104
911.833458	2519.039371
912.139513	2523.475587
912.445527	2513.746160
912.751502	2522.921060
913.057436	2517.955523
913.363331	2525.744106
913.669186	2515.031654
913.975000	2517.476613
914.280775	2523.021883
914.586510	2517.426202
914.892205	2511.553258
915.197859	2519.215812
915.503475	2514.048629
915.809050	2509.108298
916.114585	2521.181862
916.420081	2506.663338
916.725536	2520.375277
917.030952	2524.861904
917.336328	2514.225069
917.641665	2519.946779
917.946961	2509.990500
918.252218	2523.601615
918.557435	2516.846469
918.862612	2524.004908
919.167750	2515.964267
919.472848	2522.139681
919.777906	2519.896367
920.082925	2522.190092
920.387904	2518.182375
920.692843	2523.374763
920.997743	2513.821777
921.302603	2525.391225
921.607423	2522.164887
921.912204	2512.788340
922.216946	2518.257992
922.521647	2513.897394
922.826310	2516.695235
923.130932	2518.232787
923.435516	2522.971471
923.740059	2521.988446
924.044564	2516.392765
924.349028	2521.005421
924.653454	2520.072808
924.957840	2520.022396
925.262186	2519.190606
925.566493	2525.214785
925.870761	2516.165913
926.174989	2520.929804
926.479178	2515.813033
926.783328	2511.528052
927.087438	2515.560975
927.391509	2526.928777
927.695541	2522.038858
927.999533	2508.226096
928.303486	2516.342354
928.607400	2518.837725
928.911275	2517.930317
929.215110	2519.215812
929.518906	2522.870648
929.822663	2520.955010
930.126381	2520.375277
930.430060	2516.896881
930.733699	2514.451921
931.037299	2523.601615
931.340861	2520.728158
931.644383	2521.786800
931.947866	2518.560462
932.251309	2523.652027
932.554714	2510.066117
932.858080	2507.192660
933.161407	2510.116529
933.464694	2508.427742
933.767943	2514.703979
934.071153	2518.384021
934.374323	2516.569206
934.677455	2516.972498
934.980548	2514.023423
935.283602	2519.997190
935.586617	2513.796571
935.889593	2521.988446
936.192530	2523.904085
936.495428	2509.940088
936.798287	2521.988446
937.101108	2521.459125
937.403890	2515.283712
937.706632	2517.249762
938.009336	2521.837212
938.312002	2519.140194
938.614628	2513.519308
938.917216	2523.551204
939.219765	2519.442663
939.522275	2516.871675
939.824747	2522.316121
940.127179	2517.879906
940.429573	2513.922600
940.731929	2508.125273
941.034246	2527.609333
941.336524	2514.981242
941.638763	2517.325379
941.940964	2523.349558
942.243126	2521.685977
942.545250	2520.728158
942.847335	2515.762621
943.149381	2518.484844
943.451389	2511.654081
943.753359	2522.215298
944.055290	2516.291942
944.357182	2517.199350
944.659036	2515.560975
944.960851	2527.105217
945.262628	2522.744619
945.564367	2513.973012
945.866067	2519.165400
946.167729	2516.871675
946.469352	2514.703979
946.770937	2521.988446
947.072484	2519.745133
947.373992	2511.780110
947.675462	2517.048115
947.976893	2518.056346
948.278286	2513.594925
948.579641	2517.678260
948.880958	2509.990500
949.182236	2521.106244
949.483476	2515.208094
949.784678	2517.476613
950.085841	2521.534742
950.386967	2510.040912
950.688054	2516.014679
950.989103	2514.376304
951.290114	2516.846469
951.591087	2512.284225
951.892021	2517.854700
952.192917	2519.392252
952.493776	2520.551717
952.794596	2519.795544
953.095378	2519.392252
953.396122	2511.301200
953.696828	2513.166427
953.997496	2521.534742
954.298126	2514.124246
954.598718	2516.770852
954.899272	2516.997704
955.199788	2516.720440
955.500266	2522.744619
955.800706	2517.753877
956.101108	2517.753877
956.401472	2512.082579
956.701798	2515.107271
957.002087	2513.141221
957.302337	2516.594412
957.602550	2520.627335
957.902724	2526.223015
958.202861	2516.090296
958.502960	2518.661285
958.803022	2524.332583
959.103045	2510.192146
959.403031	2524.987933
959.702979	2522.341327
960.002889	2507.243071
960.302762	2519.190606
960.602596	2523.828467
960.902393	2517.905112
961.202153	2516.367560
961.501875	2521.232273
961.801559	2515.813033
962.101205	2520.148425
962.400814	2517.703465
962.700385	2511.376817
962.999918	2517.274967
963.299414	2513.040398
963.598873	2519.946779
963.898293	2508.755417
964.197677	2517.879906
964.497022	2519.997190
964.796331	2520.375277
965.095601	2503.840292
965.394835	2513.746160
965.694030	2525.315608
965.993189	2513.443690
966.292309	2518.636079
966.591393	2521.257479
966.890439	2519.417458
967.189447	2515.056860
967.488419	2517.073321
967.787353	2517.552231
968.086249	2521.156656
968.385108	2512.586694
968.683930	2514.628362
968.982714	2508.679800
969.281462	2515.233300
969.580172	2518.257992
969.878844	2521.761594
970.177480	2506.713750
970.476078	2517.804288
970.774639	2514.981242
971.073162	2521.131450
971.371649	2517.779083
971.670098	2513.998217
971.968510	2519.669515
972.266885	2515.939062
972.565223	2522.114475
972.863524	2518.459638
973.161788	2518.787313
973.460014	2510.368587
973.758204	2519.568692
974.056356	2523.047088
974.354471	2516.644823
974.652550	2509.335150
974.950591	2519.871162
975.248595	2515.384535
975.546563	2520.955010
975.844493	2510.217352
976.142386	2519.417458
976.440243	2514.552744
976.738062	2512.561488
977.035845	2511.099554
977.333590	2523.525998
977.631299	2510.494615
977.928971	2514.351098
978.226606	2504.722494
978.524204	2516.947292
978.821765	2508.200890
979.119290	2523.450381
979.416777	2509.183915
979.714228	2522.820237
980.011642	2515.031654
980.309020	2516.947292
980.606360	2521.055833
980.903664	2505.377844
981.200931	2521.333096
981.498162	2517.249762
981.795356	2523.399969
982.092513	2509.461179
982.389633	2512.183402
982.686717	2520.627335
982.983764	2514.225069
983.280775	2520.652540
983.577749	2519.719927
983.874686	2512.259019
984.171587	2513.368073
984.468451	2513.443690
984.765279	2525.567665
985.062070	2512.964781
985.358824	2517.602642
985.655543	2522.568179
985.952224	2515.434946
986.248869	2525.063550
986.545478	2510.393792
986.842050	2519.215812
987.138586	2511.704492
987.435086	2514.451921
987.731549	2517.048115
988.027975	2515.863444
988.324366	2514.401510
988.620719	2517.728671
988.917037	2513.695748
989.213318	2514.225069
989.509563	2517.476613
989.805772	2514.073835
990.101944	2515.687004
990.398080	2520.274454
990.694180	2514.401510
990.990244	2512.334637
991.286271	2522.895854
991.582262	2517.148938
991.878217	2510.166940
992.174136	2521.509537
992.470019	2513.065604
992.765865	2510.645850
993.061676	2513.443690
993.357450	2511.149965
993.653188	2509.133504
993.948890	2520.501306
994.244556	2515.586181
994.540186	2515.006448
994.835780	2513.771365
995.131337	2508.805829
995.426859	2515.737415
995.722345	2519.845956
996.017795	2515.384535
996.313208	2510.217352
996.608586	2511.855727
996.903928	2523.677233
997.199234	2514.199863
997.494504	2515.308917
997.789738	2517.098527
998.084936	2515.964267
998.380099	2514.779596
998.675225	2522.316121
998.970316	2516.342354
999.265371	2514.099040
999.560390	2519.114988
999.855373	2512.309431
1000.150320	2512.107785
1000.445232	2526.676719
1000.740108	2516.644823
1001.034948	2508.654594
1001.329752	2513.594925
1001.624521	2512.385048
1001.919254	2521.660771
1002.213951	2516.417971
1002.508613	2521.862417
1002.803239	2514.401510
1003.097829	2514.149452
1003.392384	2512.284225
1003.686903	2518.308404
1003.981386	2526.701925
1004.275834	2513.342867
1004.570246	2514.628362
1004.864623	2520.249248
1005.158964	2518.837725
1005.453270	2519.241017
1005.747540	2518.434433
1006.041775	2514.804802
1006.335974	2520.324865
1006.630138	2523.878879
1006.924266	2514.073835
1007.218359	2512.359842
1007.512416	2513.746160
1007.806438	2510.116529
1008.100425	2514.149452
1008.394376	2507.822804
1008.688292	2513.973012
1008.982172	2511.149965
1009.276017	2510.444204
1009.569827	2508.478154
1009.863602	2516.191119
1010.157341	2510.721467
1010.451045	2515.888650
1010.744714	2515.737415
1011.038347	2519.367046
1011.331945	2515.334123
1011.625508	2524.660258
1011.919036	2517.527025
1012.212528	2519.770338
1012.505986	2516.745646
1012.799408	2515.460152
1013.092795	2515.939062
1013.386147	2512.132990
1013.679464	2509.183915
1013.972745	2511.250788
1014.265992	2519.140194
1014.559204	2526.096987
1014.852380	2509.662825
1015.145521	2513.242044
1015.438628	2508.906652
1015.731699	2511.603669
1016.024736	2517.148938
1016.317737	2517.653054
1016.610703	2514.300687
1016.903635	2510.393792
1017.196531	2514.729185
1017.489393	2517.627848
1017.782219	2512.712723
1018.075011	2527.029600
1018.367768	2518.787313
1018.660490	2513.620131
1018.953177	2513.620131
1019.245829	2513.620131
