Dividing Wavelength (nm)	Counts (n)	Slit_number_9_of_a_total_of_40	
326.493990	2058.857642
326.888308	2058.857642
327.282561	2058.857642
327.676750	2029.114835
328.070874	2025.661644
328.464933	2031.585000
328.858929	2047.893133
329.252859	2054.043340
329.646726	2067.730073
330.040528	2084.290263
330.434265	2107.731629
330.827938	2124.317025
331.221547	2152.245017
331.615091	2165.956956
332.008571	2185.945131
332.401986	2202.883408
332.795338	2227.887531
333.188625	2253.244535
333.581847	2272.678183
333.975006	2283.844338
334.368100	2302.320167
334.761129	2325.610298
335.154095	2337.431804
335.546996	2386.961140
335.939833	2513.141221
336.332606	2520.425688
336.725315	2531.743079
337.117960	2540.665921
337.510540	2552.008517
337.903056	2563.023438
338.295508	2564.989488
338.687896	2581.776531
339.080220	2582.683938
339.472480	2591.531163
339.864676	2592.362954
340.256807	2593.724065
340.648875	2591.127871
341.040879	2600.554829
341.432818	2596.370671
341.824694	2600.075919
342.216506	2608.973556
342.608253	2597.404108
342.999937	2596.723552
343.391557	2596.194231
343.783113	2609.049173
344.174605	2600.932915
344.566033	2588.128385
344.957397	2596.899992
345.348697	2599.571804
345.739934	2589.539908
346.131106	2587.750298
346.522215	2595.160794
346.913260	2596.975610
347.304241	2580.440625
347.695159	2584.902046
348.086012	2590.522933
348.476802	2585.708631
348.867528	2581.171592
349.258191	2581.927765
349.648789	2582.255440
350.039324	2578.323340
350.429796	2581.095975
350.820203	2577.995665
351.210548	2575.097002
351.600828	2582.759556
351.991045	2581.348033
352.381198	2577.995665
352.771288	2591.127871
353.161314	2579.306365
353.551276	2576.735377
353.941175	2578.751838
354.331010	2590.396904
354.720782	2596.622729
355.110490	2593.950917
355.500135	2592.942687
355.889717	2583.389700
356.279235	2586.086717
356.668689	2595.286823
357.058080	2594.354210
357.447408	2601.184973
357.836672	2600.958121
358.225873	2610.334667
358.615010	2626.668006
359.004084	2627.474590
359.393095	2630.952987
359.782043	2652.806388
360.170927	2672.164419
360.559748	2694.118644
360.948505	2723.407748
361.337199	2753.125350
361.725830	2797.613533
362.114398	2853.091431
362.502903	2918.197933
362.891344	2994.042092
363.279722	3043.521017
363.668037	3131.388329
364.056289	3222.834860
364.444478	3336.159998
364.832603	3435.193465
365.220665	3532.613763
365.608665	3663.330883
365.996601	3731.033579
366.384474	3847.736290
366.772284	3928.571192
367.160031	4012.077906
367.547715	4098.962192
367.935336	4187.686500
368.322893	4265.345475
368.710388	4307.388698
369.097820	4423.007562
369.485189	4433.619190
369.872495	4535.828585
370.259738	4591.079631
370.646918	4665.965971
371.034035	4701.909398
371.421090	4744.053444
371.808081	4837.768494
372.195010	4901.463473
372.581875	4965.360098
372.968678	5035.860635
373.355418	5108.478456
373.742096	5238.313373
374.128710	5350.579869
374.515262	5400.109206
374.901751	5514.871073
375.288177	5653.981713
375.674540	5815.575900
376.060841	5932.807933
376.447079	6096.468992
376.833254	6284.806500
377.219367	6467.674356
377.605417	6689.560742
377.991404	6870.891046
378.377329	7171.671490
378.763191	7452.035262
379.148991	7778.147504
379.534727	8221.441367
379.920402	8559.702790
380.306013	9055.122185
380.691563	9602.566287
381.077049	10133.828285
381.462474	10665.392752
381.847835	11448.031887
382.233134	12171.437463
382.618371	12765.310592
383.003545	13708.964181
383.388657	14530.571435
383.773706	15433.265648
384.158693	16206.679471
384.543618	17115.246629
384.928480	17966.747925
385.313280	18865.308392
385.698017	19739.041177
386.082692	20690.760612
386.467305	20752.464335
386.851856	21660.325731
387.236344	22615.473150
387.620770	22376.875338
388.005133	22924.344646
388.389435	23528.552140
388.773674	23412.529985
389.157851	23490.768692
389.541965	23630.786740
389.926018	22632.285398
390.310008	22873.176935
390.693936	22329.412875
391.077802	22075.237898
391.461606	21593.555648
391.845348	20997.640852
392.229027	20342.694144
392.612645	20079.445090
392.996200	19272.860475
393.379694	18649.899888
393.763125	18282.223333
394.146494	17704.002987
394.529801	17171.505906
394.913047	16861.853031
395.296230	16166.476269
395.679351	15590.877323
396.062410	15613.260046
396.445408	14859.758781
396.828343	14749.886833
397.211217	14633.511796
397.594028	14080.547631
397.976778	14074.599069
398.359466	14082.337240
398.742092	13715.215212
399.124656	13861.711142
399.507158	13855.812992
399.889598	13873.482237
400.271977	14045.612435
400.654294	14224.018869
401.036549	14466.599192
401.418742	14518.371842
401.800874	15229.603033
402.182944	15448.615962
402.564952	16321.491750
402.946898	16189.388313
403.328783	16759.290756
403.710606	17342.048140
404.092367	18526.870529
404.474067	19670.531896
404.855705	19819.346758
405.237282	20517.067656
405.618797	22499.879492
406.000250	23549.246077
406.381642	25225.001233
406.762972	26365.108587
407.144240	26768.728569
407.525447	28670.503858
407.906593	29308.285437
408.287677	31287.845729
408.668700	33147.350942
409.049661	34314.529292
409.430560	35678.690729
409.811399	36466.749104
410.192176	38252.653471
410.572891	38999.223150
410.953545	41981.973058
411.334138	41382.983158
411.714669	44208.423860
412.095139	41469.212094
412.475547	44562.943004
412.855894	43373.003844
413.236180	44335.309702
413.616405	42585.499996
413.996568	42916.401335
414.376670	41736.872158
414.756711	39919.183315
415.136691	39528.771156
415.516609	38528.732262
415.896466	36686.064502
416.276262	35771.674812
416.655997	33983.249867
417.035670	31591.297985
417.415283	31359.581348
417.794834	30007.266623
418.174324	28234.393638
418.553753	26819.014079
418.933121	26806.259960
419.312428	25334.873181
419.691674	24260.174798
420.070859	24045.522467
420.449983	22957.338998
420.829045	23180.132792
421.208047	22203.207588
421.586988	22456.374335
421.965867	22761.464965
422.344686	22537.410883
422.723444	22813.968583
423.102141	21075.148592
423.480777	22428.169079
423.859352	21840.698215
424.237866	23473.906033
424.616319	23006.641483
424.994712	23912.032713
425.373044	23927.609879
425.751314	24820.751106
426.129524	23789.683910
426.507673	25638.148996
426.885762	24842.705331
427.263789	25848.087848
427.641756	26005.749935
428.019662	26521.863265
428.397508	26593.145181
428.775292	27741.847702
429.153016	28297.231621
429.530679	28722.251302
429.908282	29314.788525
430.285824	29346.169708
430.663305	31464.235702
431.040726	31311.438329
431.418086	31814.822746
431.795385	33547.618558
432.172624	35423.154640
432.549802	35898.232979
432.926920	36540.602008
433.303977	37649.681060
433.680974	39344.491777
434.057910	40441.648500
434.434786	41640.233238
434.811601	42061.446848
435.188355	45554.815229
435.565050	45462.032792
435.941683	45668.720100
436.318257	47969.250658
436.694770	48807.115633
437.071222	50701.379602
437.447614	50105.313571
437.823946	51255.402410
438.200218	51988.461796
438.576429	52495.727902
438.952580	52837.644162
439.328670	53406.235904
439.704700	53897.294700
440.080670	52746.928598
440.456580	53659.453062
440.832429	53909.519498
441.208218	50802.076650
441.583947	51517.970908
441.959616	50730.366237
442.335224	49895.677188
442.710773	49156.518006
443.086261	48694.042552
443.461689	46302.821637
443.837057	44582.956385
444.212365	44121.363133
444.587612	42702.832852
444.962800	39725.981094
445.337927	39264.362637
445.712995	35520.650556
446.088002	36910.622700
446.462949	35693.108429
446.837837	34150.086854
447.212664	31900.345921
447.587431	32071.014185
447.962139	31032.511287
448.336786	31133.384775
448.711374	30080.867469
449.085901	27774.766437
449.460369	28577.066071
449.834776	28101.710469
450.209124	28898.414423
450.583412	27453.216438
450.957640	28632.115471
451.331808	28255.364838
451.705917	27669.204675
452.079965	27976.110121
452.453954	28223.000631
452.827883	28197.744450
453.201752	27916.523683
453.575562	28466.488362
453.949311	29542.270592
454.323001	29667.467648
454.696632	28985.525562
455.070202	30645.653140
455.443713	29989.143675
455.817164	30695.409329
456.190556	30787.511210
456.563888	30597.182446
456.937160	31580.761973
457.310373	31006.322492
457.683526	32552.444377
458.056619	33416.296500
458.429653	33645.895852
458.802628	34536.869383
459.175542	34725.963063
459.548398	35896.443369
459.921194	37565.392967
460.293930	36878.813019
460.666607	38195.663227
461.039224	39467.722783
461.411782	40357.209173
461.784280	40546.958204
462.156719	42362.025646
462.529099	44003.475750
462.901419	45025.418458
463.273680	45800.873948
463.645882	47352.868777
464.018024	48525.113487
464.390106	49593.207958
464.762130	51538.916902
465.134094	52528.697048
465.505999	53726.727260
465.877845	55383.275619
466.249631	56255.596881
466.621358	56826.885640
466.993026	57908.616433
467.364634	58931.214490
467.736184	59255.965621
468.107674	60275.765838
468.479105	61049.204867
468.850477	61948.672742
469.221790	62182.683104
469.593043	62066.686154
469.964238	62568.432196
470.335373	63150.811494
470.706449	64215.276335
471.077467	63736.568365
471.448425	63915.756179
471.819324	64834.834142
472.190164	65107.787417
472.560945	65049.259621
472.931667	64690.984817
473.302330	64967.366077
473.672934	64973.541490
474.043479	65473.321483
474.413965	64846.706060
474.784393	64498.286712
475.154761	65032.724637
475.525070	64640.573279
475.895321	64111.882269
476.265513	64135.600898
476.635645	64222.283538
477.005719	63665.967006
477.375734	63403.348096
477.745691	62878.942067
478.115588	62941.225523
478.485427	62714.146748
478.855207	62832.790304
479.224928	62371.575138
479.594591	62094.462912
479.964194	61386.180796
480.333739	61458.596971
480.703226	61373.779558
481.072653	61210.269733
481.442022	60931.695571
481.811333	61048.171431
482.180584	60332.630054
482.549777	60397.131617
482.918912	60152.837302
483.287988	60159.869712
483.657005	59847.872700
484.025964	59670.020792
484.394864	60146.006538
484.763706	60207.634644
485.132489	59896.645863
485.501213	59911.063563
485.869879	60167.002944
486.238487	59839.731237
486.607036	59948.872217
486.975527	59573.054198
487.343959	59504.368477
487.712333	59637.933848
488.080648	59567.030019
488.448905	59893.923640
488.817104	59701.830473
489.185244	59803.636575
489.553326	59709.493027
489.921350	59691.294462
490.289315	59868.768283
490.657222	59520.298523
491.025070	59826.926706
491.392861	59545.907585
491.760593	59663.643733
492.128267	59519.920437
492.495883	59521.256342
492.863440	59503.435863
493.230939	59394.042825
493.598380	59118.140475
493.965763	59486.522792
494.333088	59327.323154
494.700354	59226.348842
495.067563	59210.267562
495.434713	59469.559310
495.801805	59589.160685
496.168839	59512.157060
496.535815	59363.039729
496.902733	59589.790829
497.269593	59446.168356
497.636395	59395.555171
498.003139	59917.843915
498.369825	59611.694642
498.736453	59901.056873
499.103023	59609.552152
499.469535	59495.117960
499.835989	59845.629387
500.202385	59597.831469
500.568723	59802.603138
500.935003	59697.696727
501.301226	59402.789227
501.667390	59907.887637
502.033497	60296.106894
502.399546	59756.350552
502.765537	59466.282560
503.131470	60058.038404
503.497345	60382.058567
503.863163	59597.982704
504.228923	60189.133610
504.594625	60591.947008
504.960269	60243.275602
505.325856	60827.973831
505.691385	60319.926346
506.056856	60418.405287
506.422270	60832.334429
506.787625	60714.421840
507.152924	60741.190367
507.518164	60928.872525
507.883347	60154.450471
508.248472	60605.885798
508.613540	60851.944517
508.978550	61203.111294
509.343503	60973.461531
509.708398	61121.595837
510.073236	61430.820213
510.438016	61368.763610
510.802738	60959.043831
511.167403	61309.530052
511.532010	61388.550138
511.896561	61553.723544
512.261053	62141.471671
512.625488	61861.385163
512.989866	61740.498294
513.354186	61570.359352
513.718449	61646.455569
514.082655	62005.335312
514.446803	61900.504517
514.810894	62040.295713
515.174927	62094.160442
515.538904	61903.554415
515.902822	62446.889977
516.266684	61860.150081
516.630488	62212.677969
516.994235	62120.273619
517.357925	62368.575652
517.721558	62447.494915
518.085133	62603.871508
518.448651	62652.241379
518.812112	62509.879194
519.175516	62474.666735
519.538863	62664.239325
519.902152	62575.414194
520.265385	62829.816023
520.628560	62957.231187
520.991678	62691.738819
521.354739	62769.070119
521.717743	63008.197252
522.080690	62860.945148
522.443580	63160.314069
522.806413	63165.128371
523.169189	63075.370627
523.531908	63187.460683
523.894569	63128.479183
524.257174	63182.545558
524.619722	63363.573392
524.982213	63191.317165
525.344647	63102.366006
525.707025	63073.152519
526.069345	63253.676238
526.431608	63245.257512
526.793815	63391.627413
527.155964	63045.577408
527.518057	63095.131950
527.880093	62926.555765
528.242072	63190.460169
528.603995	62919.044446
528.965860	62949.366987
529.327669	62920.355146
529.689421	62831.983719
530.051117	62750.493467
530.412755	62698.846846
530.774337	62700.964131
531.135862	62438.647690
531.497331	62632.984171
531.858743	62400.662596
532.220098	62456.921873
532.581396	62258.678498
532.942638	62021.845090
533.303824	62149.638340
533.664953	62024.542108
534.026025	61760.637704
534.387040	61944.816260
534.747999	61737.524013
535.108902	61772.181946
535.469748	61465.629381
535.830537	61472.157675
536.191270	61473.644815
536.551947	61144.558292
536.912567	61302.573260
537.273131	61340.608765
537.633638	60822.075681
537.994089	61065.714646
538.354483	60511.943896
538.714821	60679.259792
539.075103	60901.423442
539.435328	60589.401225
539.795497	60428.008685
540.155609	60182.529698
540.515665	60357.634177
540.875665	59976.447329
541.235609	60081.000860
541.595496	59957.139710
541.955328	60304.525621
542.315102	59835.824342
542.674821	59324.726960
543.034483	59364.627692
543.394090	59196.076713
543.753640	59081.768550
544.113134	59706.720392
544.472571	58811.613115
544.831953	59674.860300
545.191278	59052.479446
545.550548	58679.232415
545.909761	58879.189783
546.268918	59025.257215
546.628019	59033.373473
546.987064	58702.018431
547.346053	57993.408640
547.704986	58643.944338
548.063863	58072.958048
548.422684	58175.847998
548.781449	58090.753321
549.140158	58160.749742
549.498811	57979.797525
549.857408	57503.937808
550.215949	58002.129837
550.574434	57826.017127
550.932864	57513.238737
551.291237	57990.333537
551.649555	57448.359087
552.007817	57587.016023
552.366022	57174.372375
552.724173	57275.371892
553.082267	57425.799923
553.440305	57710.473881
553.798288	57093.663502
554.156215	57173.893465
554.514086	57322.657915
554.871902	57020.113067
555.229661	57023.188171
555.587365	56769.693750
555.945014	56881.733394
556.302606	56572.887104
556.660143	56881.178867
557.017625	56714.568733
557.375050	56584.582581
557.732421	56822.046133
558.089735	56721.122233
558.446994	56590.052233
558.804197	57024.498871
559.161345	56907.821365
559.518437	56189.280502
559.875474	56517.963733
560.232455	56409.957012
560.589381	56703.629429
560.946251	56286.196685
561.303065	56973.280748
561.659825	56831.120210
562.016528	56322.442581
562.373177	56206.344808
562.729770	56596.630938
563.086307	56072.023263
563.442789	56433.852081
563.799216	56652.083631
564.155587	56278.408102
564.511904	56364.763067
564.868164	56371.493008
565.224370	56495.505392
565.580520	56300.513562
565.936615	56434.658665
566.292654	56267.771267
566.648638	56293.153477
567.004567	56220.636479
567.360441	56203.925054
567.716260	56079.811846
568.072023	56178.315992
568.427732	56114.192515
568.783385	55722.520067
569.138982	56002.909044
569.494525	55863.193465
569.850013	55777.040146
570.205445	55587.165087
570.560823	55692.222733
570.916145	55481.754560
571.271412	55361.397012
571.626625	55204.213835
571.981782	55276.907273
572.336884	55038.183433
572.691931	55311.086296
573.046923	54863.406629
573.401860	54703.047525
573.756743	54633.353573
574.111570	54660.853067
574.466342	54462.004754
574.821059	54517.734710
575.175722	54075.524694
575.530330	53932.229896
575.884882	53783.289006
576.239380	53818.047762
576.593823	53489.389737
576.948211	53456.218944
577.302544	52946.583496
577.656823	52919.638529
578.011047	53074.880862
578.365216	52641.215602
578.719330	52458.070483
579.073389	52074.741144
579.427394	52147.132113
579.781344	52137.705156
580.135239	51637.874752
580.489080	51630.439050
580.842866	51092.169848
581.196597	51367.492465
581.550273	51169.980058
581.903895	50787.104423
582.257463	51038.884852
582.610975	50315.731333
582.964434	50343.583708
583.317837	50016.312000
583.671186	49687.275888
584.024481	49664.515079
584.377721	49136.000510
584.730906	49422.766546
585.084037	49350.123519
585.437113	48980.556531
585.790135	48964.399633
586.143103	48471.526021
586.496016	48499.277573
586.848874	48453.377867
587.201679	48401.075896
587.554428	47717.596258
587.907124	47841.860700
588.259765	47542.693425
588.612352	47800.573650
588.964884	47145.853794
589.317362	47377.620842
589.669786	47213.606902
590.022155	46907.306394
590.374470	47439.198537
590.726731	46927.143335
591.078937	46646.729152
591.431090	46511.122113
591.783188	46490.705440
592.135232	46108.434744
592.487222	46358.198712
592.839157	46458.845348
593.191038	46255.586025
593.542866	46097.747498
593.894639	45502.135171
594.246358	45796.160469
594.598022	45975.323077
594.949633	45609.461337
595.301190	45611.200535
595.652692	45503.647517
596.004141	45751.873933
596.355535	44967.999715
596.706876	45082.761583
597.058162	45012.034194
597.409395	45535.810079
597.760573	45643.564742
598.111698	45216.604217
598.462768	45429.693790
598.813785	45616.292100
599.164748	44965.277492
599.515657	45495.833729
599.866511	45033.534715
600.217312	45556.428398
600.568060	44509.859654
600.918753	45247.481285
601.269392	45355.840887
601.619978	44974.200335
601.970510	45243.523979
602.320988	45529.962340
602.671412	45887.052473
603.021783	45563.511219
603.372100	45322.569271
603.722363	45437.835254
604.072572	45629.399100
604.422728	45752.403254
604.772830	45529.836312
605.122878	45609.763806
605.472872	45548.765844
605.822813	45915.887873
606.172701	45727.651188
606.522534	45890.026754
606.872314	46278.876156
607.222041	45886.296300
607.571714	46325.431212
607.921333	45651.756617
608.270899	45862.930552
608.620411	46084.564881
608.969870	45886.195477
609.319276	45834.926942
609.668627	45915.963490
610.017926	46222.087558
610.367171	46431.497088
610.716362	46314.063410
611.065500	46129.078269
611.414585	46130.237735
611.763616	46386.328350
612.112594	46180.019129
612.461518	46330.623600
612.810389	46382.522279
613.159207	46133.942983
613.507971	46138.051523
613.856682	46336.395721
614.205340	46091.345233
614.553945	46647.586148
614.902496	46081.439365
615.250994	46340.252204
615.599439	46256.216169
615.947830	46404.854590
616.296169	46242.050527
616.644454	46094.269102
616.992686	46136.967675
617.340864	46346.982144
617.688990	45969.727396
618.037063	46220.928092
618.385082	46012.224323
618.733048	46024.827208
619.080961	45983.590569
619.428821	45790.337937
619.776628	45766.946983
620.124382	45492.531773
620.472083	45643.035421
620.819731	45690.850765
621.167326	45529.433019
621.514868	45543.699485
621.862357	45273.594462
622.209793	45329.475652
622.557176	45202.589810
622.904506	45049.590790
623.251783	44921.948775
623.599007	44870.478594
623.946179	44615.270181
624.293297	44893.163787
624.640363	44298.685719
624.987376	44538.064910
625.334336	44282.579233
625.681243	44056.987598
626.028097	44024.018452
626.374899	43878.858427
626.721647	43831.774050
627.068343	43818.288963
627.414987	43522.020352
627.761577	43240.900408
628.108115	43475.314062
628.454600	42935.784571
628.801032	42896.035073
629.147412	42773.913121
629.493739	42707.143038
629.840014	42265.865637
630.186236	42350.708256
630.532405	41879.108313
630.878521	41941.139712
631.224585	41730.671538
631.570597	41288.637963
631.916556	41269.305138
632.262462	41170.876610
632.608316	41061.382748
632.954117	40987.353404
633.299866	40903.493810
633.645562	40727.935627
633.991206	40442.732348
634.336797	39933.122106
634.682336	40029.382938
635.027823	39885.785671
635.373257	39600.632804
635.718639	39536.685767
636.063968	39415.219165
636.409245	38963.128488
636.754470	39094.677398
637.099642	38858.196871
637.444762	38408.525948
637.789829	38553.887619
638.134845	38216.659633
638.479808	38164.382867
638.824719	37905.418794
639.169577	37614.216542
639.514383	37555.739158
639.859137	37305.118194
640.203839	37429.861546
640.548489	36853.808896
640.893086	37004.892277
641.237632	36686.820675
641.582125	36562.606644
641.926566	36497.197673
642.270955	36246.349858
642.615292	36175.370412
642.959576	36018.716556
643.303809	35794.233975
643.647990	35750.678406
643.992118	35555.711781
644.336195	35314.593392
644.680219	35131.221421
645.024192	35073.752267
645.368112	35126.533148
645.711981	34597.237200
646.055797	34954.402950
646.399562	34406.001029
646.743274	34684.373544
647.086935	34596.405410
647.430544	34013.017881
647.774101	33883.208169
648.117606	33785.409785
648.461059	34053.120260
648.804460	33736.132506
649.147810	33164.516071
649.491108	33220.699731
649.834354	32954.249544
650.177548	32509.166071
650.520690	32513.703110
650.863781	32747.763883
651.206820	32850.905890
651.549807	32715.954202
651.892742	32511.585825
652.235626	32365.720038
652.578458	32272.786367
652.921238	31974.299648
653.263967	32183.759590
653.606644	31901.303740
653.949269	31872.191077
654.291843	31523.318025
654.634365	31916.376790
654.976836	31583.458990
655.319255	31398.246998
655.661622	31497.608140
656.003938	31226.646121
656.346203	31096.886821
656.688416	31207.540148
657.030577	31058.473229
657.372687	30902.373900
657.714746	31138.350312
658.056753	31096.433117
658.398708	30681.470538
658.740612	30646.888223
659.082465	30895.870812
659.424266	30680.159838
659.766016	30770.421698
660.107715	30578.933469
660.449362	30658.079585
660.790958	30587.427813
661.132503	30596.678331
661.473996	30459.533740
661.815438	30527.160819
662.156829	30773.874888
662.498168	30460.794029
662.839456	30466.263681
663.180693	30522.321312
663.521879	30627.126900
663.863013	30508.911842
664.204097	30445.040423
664.545129	30803.264815
664.886110	30744.661402
665.227040	30703.172706
665.567918	30842.434581
665.908746	30804.877985
666.249522	30966.194908
666.590248	30950.642948
666.930922	31067.774158
667.271545	31094.819948
667.612118	31205.196012
667.952639	31138.904838
668.293109	31312.068473
668.633528	31435.778388
668.973896	31531.635929
669.314213	31754.656575
669.654480	31703.362835
669.994695	31912.772365
670.334859	31917.006935
670.674973	32072.476119
671.015035	32296.479790
671.355047	32467.954638
671.695008	32535.606923
672.034918	32606.233488
672.374777	32779.674387
672.714585	32755.527260
673.054342	33152.442508
673.394049	33056.988260
673.733705	33509.280583
674.073310	33370.800087
674.412864	33630.747185
674.752368	33521.328940
675.091820	34134.585306
675.431223	34047.953077
675.770574	34065.773556
676.109875	34314.025177
676.449125	34326.350798
676.788324	34629.626613
677.127473	34406.631173
677.466571	34723.442487
677.805619	34618.586487
678.144616	34945.732165
678.483562	35085.699802
678.822458	34968.719827
679.161303	35027.953385
679.500098	35043.303698
679.838842	34994.303683
680.177535	35063.720371
680.516179	35239.228142
680.854771	35077.709573
681.193314	35164.367008
681.531805	35153.452910
681.870247	34815.292310
682.208638	34761.528404
682.546978	34682.835992
682.885268	34751.042804
683.223508	34430.324596
683.561697	34302.002025
683.899836	34339.256152
684.237925	33938.912919
684.575963	33877.360431
684.913951	33469.228615
685.251889	33456.827377
685.589776	33284.621562
685.927614	32985.983608
686.265401	32750.687752
686.603137	32377.465927
686.940824	32309.309527
687.278460	32190.665971
687.616046	31728.946690
687.953582	31716.444629
688.291068	31211.522660
688.628504	31215.807640
688.965889	31100.970156
689.303224	30835.402171
689.640510	30788.443823
689.977745	30483.176752
690.314930	30243.923590
690.652065	30228.774923
690.989150	30118.802152
691.326185	29914.937890
691.663170	29746.941438
692.000105	29718.484125
692.336990	29508.015952
692.673825	29588.750031
693.010610	29597.168758
693.347345	29494.480454
693.684030	29259.839948
694.020665	29320.106942
694.357251	29031.652119
694.693786	29314.511262
695.030272	29401.546783
695.366707	29058.597087
695.703093	29033.265288
696.039429	29081.257073
696.375716	28943.079046
696.711952	28971.763212
697.048139	28763.639175
697.384276	28662.387600
697.720363	28814.529623
698.056400	28508.178704
698.392388	28320.345312
698.728326	28326.495519
699.064214	28142.644638
699.400053	28116.380227
699.735842	27951.887377
700.071581	27606.064223
700.407270	27373.339356
700.742910	27244.991579
701.078501	27110.342360
701.414042	26749.269715
701.749533	26507.899269
702.084974	26154.186710
702.420366	26427.417248
702.755709	25978.401675
703.091002	25676.411354
703.426246	25695.794590
703.761440	25562.859363
704.096584	25238.183850
704.431679	25244.409675
704.766725	24987.083977
705.101721	24888.579831
705.436668	24913.205867
705.771565	24369.088927
706.106413	24710.576688
706.441212	24471.273115
706.775961	24501.318392
707.110661	24407.250462
707.445311	24529.750500
707.779913	24050.412387
708.114465	24056.461771
708.448967	23986.893848
708.783421	24513.543190
709.117825	24345.370298
709.452180	24204.495254
709.786485	24114.485452
710.120742	24478.053467
710.454949	24013.662375
710.789107	24059.914962
711.123216	24344.992212
711.457275	24115.670123
711.791286	24435.833804
712.125247	24387.766402
712.459159	24189.825496
712.793023	24926.086015
713.126837	24139.111488
713.460602	24739.260854
713.794318	24918.499079
714.127985	24989.302085
714.461602	24705.787592
714.795171	25307.953419
715.128691	24861.130748
715.462162	24976.220290
715.795584	25149.988863
716.128957	25536.166454
716.462281	25670.563615
716.795556	26069.495325
717.128782	26050.414558
717.461960	26000.759192
717.795088	26525.013987
718.128167	26402.161067
718.461198	26397.119913
718.794180	26783.121063
719.127113	26883.868523
719.459997	27161.308425
719.792833	27355.468465
720.125619	27778.118804
720.458357	27850.081275
720.791046	28105.541746
721.123686	28325.915787
721.456278	28419.857688
721.788821	28800.716862
722.121315	28779.972513
722.453761	29279.954152
722.786158	29567.098275
723.118506	29861.148779
723.450805	29933.690983
723.783056	30453.333121
724.115259	30563.910831
724.447412	30493.385088
724.779518	31318.571562
725.111574	31442.987238
725.443582	31794.532102
725.775542	31696.330425
726.107453	32489.329131
726.439315	31925.350044
726.771129	32360.527650
727.102895	32542.941802
727.434612	32486.455673
727.766281	32431.557508
728.097901	32783.782927
728.429473	32781.287556
728.760996	32808.761844
729.092471	32973.733604
729.423897	32677.364169
729.755276	32253.478748
730.086606	31983.575371
730.417887	32187.162369
730.749120	32202.537888
731.080305	31671.653977
731.411442	31534.610210
731.742530	31079.141960
732.073570	30573.362994
732.404562	30457.441662
732.735506	29816.484156
733.066401	29304.807040
733.397249	28753.330015
733.728048	28269.832950
734.058798	27481.371283
734.389501	26780.852544
734.720156	26362.335952
735.050762	25652.112992
735.381320	25003.140052
735.711831	24383.531833
736.042293	23429.896760
736.372707	22969.462973
736.703073	22057.745094
737.033391	21715.526365
737.363661	20945.212852
737.693883	20305.364400
738.024056	19654.576644
738.354182	19081.951979
738.684260	18564.780006
739.014290	17973.553483
739.344272	17417.463802
739.674207	17005.904002
740.004093	16506.552508
740.333931	15944.312619
740.663722	15541.121135
740.993464	15188.063925
741.323159	14733.175408
741.652806	14311.054390
741.982405	13933.421556
742.311956	13513.392617
742.641460	13319.585458
742.970915	13008.596677
743.300323	12627.913944
743.629683	12404.086713
743.958996	12144.895788
744.288260	11896.744990
744.617477	11656.937302
744.946647	11500.308652
745.275768	11277.540063
745.604842	11093.462331
745.933869	10907.721017
746.262847	10790.690631
746.591778	10670.509523
746.920662	10509.797538
747.249498	10363.024344
747.578286	10286.852510
747.907027	10204.933760
748.235720	10170.452267
748.564365	10070.410569
748.892963	9956.001583
749.221514	9947.103946
749.550017	9872.721721
749.878473	9875.494356
750.206881	9785.106467
750.535242	9770.260269
750.863555	9776.133213
751.191821	9757.506150
751.520039	9862.614208
751.848210	9800.910485
752.176334	9871.915137
752.504411	9848.196508
752.832440	9830.275206
753.160421	9945.843658
753.488356	9967.495413
753.816243	10015.814873
754.144082	10035.046875
754.471875	10120.292787
754.799620	10211.386437
755.127318	10302.782556
755.454969	10389.011492
755.782572	10478.870060
756.110129	10619.593869
756.437638	10661.057360
756.765100	10788.144848
757.092515	10890.656712
757.419882	10993.823925
757.747203	11103.973137
758.074477	11296.671242
758.401703	11285.000971
758.728882	11528.665142
759.056014	11618.977413
759.383099	11720.859133
759.710138	11865.061338
760.037129	12069.303687
760.364073	12206.977598
760.690970	12331.342863
761.017820	12420.420052
761.344623	12654.833706
761.671379	12864.419677
761.998088	13002.925379
762.324751	13134.776758
762.651366	13284.272175
762.977935	13551.327300
763.304456	13611.644706
763.630931	13822.465760
763.957359	14018.591850
764.283740	14177.186550
764.610074	14421.127985
764.936362	14460.045692
765.262602	14760.044758
765.588796	14837.628115
765.914943	15120.966167
766.241044	15322.914790
766.567097	15530.585123
766.893104	15677.030642
767.219064	15956.663446
767.544978	16114.653208
767.870845	16273.827640
768.196665	16644.327242
768.522438	16881.261473
768.848165	17212.288840
769.173846	17469.513715
769.499479	17852.061675
769.825066	18075.485613
770.150607	18266.494933
770.476101	18786.590775
770.801548	19070.886646
771.126949	19271.776627
771.452303	19605.223748
771.777611	19758.978940
772.102872	20278.495050
772.428087	20498.843885
772.753256	20748.784292
773.078378	21070.636760
773.403453	21173.073006
773.728482	21355.235100
774.053465	21659.191471
774.378401	21808.359213
774.703291	21863.937935
775.028135	21865.425075
775.352932	22035.639635
775.677683	21975.649904
776.002388	21815.038742
776.327046	22014.618023
776.651658	21692.412675
776.976224	21451.067435
777.300743	21361.914629
777.625216	21045.960312
777.949643	20690.735406
778.274024	20587.190106
778.598359	20042.921931
778.922647	19746.577702
779.246889	19240.924765
779.571086	18871.584629
779.895236	18407.193537
780.219339	17837.089448
780.543397	17371.387656
780.867409	17050.140127
781.191374	16659.249058
781.515294	16134.969058
781.839167	15931.659323
782.162995	15535.323808
782.486776	15087.694552
782.810511	14725.109562
783.134201	14309.088340
783.457844	14134.790446
783.781441	13888.101583
784.104993	13634.103046
784.428498	13354.848329
784.751958	13166.611644
785.075372	12949.539560
785.398739	12708.395965
785.722061	12596.633585
786.045337	12381.174669
786.368568	12433.224583
786.691752	12046.668906
787.014891	12024.865915
787.337983	11841.191475
787.661030	11744.678585
787.984031	11660.466110
788.306987	11550.216075
788.629897	11486.243833
788.952760	11422.548854
789.275579	11415.844119
789.598351	11267.356933
789.921078	11191.260715
790.243759	11101.301325
790.566395	11142.285906
790.888984	11071.558517
791.211529	11177.523571
791.534027	11089.757083
791.856480	11072.339896
792.178888	11158.064717
792.501249	11197.284894
792.823566	11090.714902
793.145836	11233.026675
793.468062	11269.625452
793.790241	11207.568848
794.112375	11322.683596
794.434464	11475.178500
794.756507	11402.863148
795.078505	11422.574060
795.400457	11540.713500
795.722364	11690.612210
796.044226	11789.973352
796.366042	11949.777929
796.687812	11840.813388
797.009538	12046.290819
797.331218	12079.688463
797.652852	12240.324831
797.974442	12271.302721
798.295986	12475.393835
798.617484	12543.953527
798.938938	12614.554887
799.260346	12857.664531
799.581709	12786.281792
799.903026	13016.586906
800.224299	13153.227381
800.545526	13093.439296
800.866708	13212.360115
801.187845	13362.309237
801.508936	13326.264987
801.829983	13486.044358
802.150984	13284.675467
802.471940	13394.345769
802.792851	13451.260396
803.113717	13478.381804
803.434538	13423.206375
803.755314	13351.672402
804.076045	13245.606525
804.396731	13002.900173
804.717372	12932.777723
805.037967	12696.221579
805.358518	12542.869679
805.679024	12459.211731
805.999485	12176.856704
806.319901	11887.444062
806.640272	11633.924435
806.960598	11466.759773
807.280879	11126.028185
807.601115	10924.029150
807.921306	10550.756913
808.241453	10248.287683
808.561554	10060.151821
808.881611	9764.967058
809.201623	9539.778715
809.521590	9235.166994
809.841513	9036.016212
810.161390	8941.217313
810.481223	8593.176052
810.801011	8402.973317
811.120755	8233.590548
811.440453	7981.028740
811.760107	7826.366140
812.079716	7661.444792
812.399281	7453.068698
812.718801	7345.969385
813.038276	7203.783640
813.357707	7035.560337
813.677093	6978.670915
813.996434	6778.637931
814.315731	6700.399223
814.634983	6575.529842
814.954191	6478.008721
815.273354	6408.541621
815.592473	6309.987063
815.911547	6224.237037
816.230577	6134.101206
816.549562	6077.211785
816.868502	5977.396938
817.187399	5922.927271
817.506250	5865.785792
817.825058	5759.442652
818.143821	5728.565585
818.462539	5699.175658
818.781213	5603.343323
819.099843	5558.149379
819.418429	5566.794958
819.736970	5508.796483
820.055466	5438.321152
820.373919	5414.350465
820.692327	5386.120004
821.010691	5325.953833
821.329011	5322.223379
821.647286	5301.831912
821.965517	5294.597856
822.283704	5216.409560
822.601847	5259.662660
822.919945	5203.277354
823.237999	5214.872008
823.556010	5208.343713
823.873976	5192.161610
824.191897	5149.387419
824.509775	5152.916227
824.827609	5115.586483
825.145398	5120.173933
825.463144	5110.570535
825.780845	5115.031956
826.098502	5109.032983
826.416116	5098.118885
826.733685	5095.875571
827.051210	5105.529381
827.368692	5076.593158
827.686129	5090.027833
828.003522	5097.866827
828.320872	5079.441410
828.638177	5075.030400
828.955439	5101.698104
829.272656	5086.625054
829.589830	5113.116317
829.906960	5106.109113
830.224046	5115.334425
830.541088	5118.838027
830.858086	5140.187313
831.175041	5134.717662
831.491952	5158.133821
831.808819	5159.419315
832.125642	5199.924987
832.442421	5212.099373
832.759157	5225.710488
833.075849	5236.196088
833.392497	5261.855562
833.709101	5294.371004
834.025662	5293.035098
834.342179	5330.364842
834.658653	5331.473896
834.975083	5367.518146
835.291469	5399.151387
835.607811	5406.007356
835.924110	5476.911185
836.240366	5503.704917
836.556578	5512.022821
836.872746	5548.873656
837.188871	5588.900417
837.504952	5619.903513
837.820990	5657.485315
838.136984	5677.624725
838.452935	5749.662813
838.768842	5769.877840
839.084706	5825.380944
839.400526	5853.460171
839.716303	5901.981277
840.032037	5950.502383
840.347727	5984.454554
840.663373	6039.151073
840.978977	6108.996260
841.294537	6157.870246
841.610054	6191.444331
841.925527	6248.585810
842.240957	6295.972656
842.556344	6378.395521
842.871687	6444.056550
843.186987	6484.083312
843.502244	6544.728392
843.817458	6589.871925
844.132629	6662.893038
844.447756	6736.191415
844.762840	6824.588048
845.077881	6873.008331
845.392879	6933.300531
845.707833	7006.775348
846.022745	7076.822181
846.337613	7176.183323
846.652438	7230.400933
846.967221	7344.204981
847.281960	7385.416413
847.596656	7496.397415
847.911309	7596.161850
848.225919	7644.204046
848.540485	7736.759631
848.855009	7825.080646
849.169490	7887.011221
849.483928	7980.272567
849.798323	8074.290087
850.112675	8109.124460
850.426984	8247.705779
850.741251	8285.211963
851.055474	8354.603446
851.369654	8457.342162
851.683792	8493.840115
851.997887	8626.170404
852.311938	8691.957462
852.625947	8752.300073
852.939914	8766.566538
853.253837	8905.349504
853.567718	8934.689019
853.881555	8962.213719
854.195350	9065.229698
854.509103	9090.435467
854.822812	9135.074885
855.136479	9133.234863
855.450103	9212.406185
855.763685	9169.304319
856.077224	9186.166979
856.390720	9201.844967
856.704173	9255.936548
857.017584	9199.198362
857.330953	9154.987442
857.644278	9152.819746
857.957561	9134.797621
858.270802	9094.569213
858.584000	9081.008510
858.897155	9024.068677
859.210268	8929.647865
859.523339	8800.795973
859.836367	8767.322712
860.149352	8692.663223
860.462295	8648.603538
860.775195	8548.788692
861.088054	8471.583421
861.400869	8394.302533
861.713642	8301.520096
862.026373	8222.978919
862.339062	8124.348744
862.651708	8034.036473
862.964312	7973.340981
863.276873	7819.863052
863.589392	7804.084240
863.901869	7672.409302
864.214303	7540.885598
864.526696	7457.101621
864.839045	7368.780606
865.151353	7316.755898
865.463619	7204.388579
865.775842	7138.702344
866.088023	7082.191010
866.400162	6989.080898
866.712258	6924.226454
867.024313	6853.599888
867.336325	6798.248019
867.648296	6765.329285
867.960224	6690.039652
868.272110	6658.734087
868.583954	6591.207831
868.895755	6563.657925
869.207515	6479.747919
869.519233	6472.236600
869.830909	6431.151196
870.142542	6395.762296
870.454134	6332.420198
870.765684	6316.742210
871.077191	6305.928935
871.388657	6265.146000
871.700081	6257.886738
872.011463	6247.501962
872.322803	6217.708742
872.634101	6169.716958
872.945357	6150.106869
873.256571	6148.090408
873.567744	6140.957175
873.878874	6115.448937
874.189963	6144.838863
874.501010	6116.129492
874.812015	6071.893367
875.122979	6104.207163
875.433900	6079.127423
875.744780	6058.861985
876.055618	6075.321352
876.366415	6059.517335
876.677169	6050.115583
876.987882	6056.290996
877.298554	6054.854267
877.609183	6066.247275
877.919771	6042.528646
878.230317	6045.074429
878.540822	6017.852198
878.851285	6035.269385
879.161707	6013.743658
879.472087	6004.972050
879.782425	5963.735412
880.092722	6000.687069
880.402977	6000.863510
880.713191	5963.256502
881.023363	5954.232837
881.333494	5923.229740
881.643583	5940.041988
881.953631	5913.827988
882.263637	5904.148973
882.573602	5879.674171
882.883526	5879.497731
883.193408	5853.334142
883.503248	5833.093910
883.813048	5824.171067
884.122806	5828.859340
884.432522	5782.606754
884.742197	5793.596469
885.051831	5792.890708
885.361424	5762.089258
885.670975	5752.712712
885.980485	5718.155602
886.289954	5696.024937
886.599382	5674.625238
886.908768	5671.449312
887.218113	5658.216283
887.527417	5642.588706
887.836680	5611.232729
888.145901	5594.470892
888.455082	5577.053706
888.764221	5552.906579
889.073319	5531.280029
889.382376	5512.829406
889.691392	5495.059338
890.000366	5478.221885
890.309300	5450.697185
890.618193	5444.168890
890.927044	5414.022790
891.235855	5381.961052
891.544625	5377.827306
891.853353	5348.487790
892.162041	5316.451258
892.470687	5300.168331
892.779293	5272.114310
893.087858	5258.956898
893.396381	5252.428604
893.704864	5207.940421
894.013306	5183.969735
894.321707	5165.393083
894.630068	5143.413652
894.938387	5105.453763
895.246665	5095.396662
895.554903	5070.947065
895.863100	5019.552502
896.171256	5010.654865
896.479371	5005.437271
896.787446	4964.553513
897.095480	4929.013379
897.403473	4912.075102
897.711425	4875.325090
898.019336	4855.412533
898.327207	4837.491231
898.635038	4821.107481
898.942827	4771.275675
899.250576	4757.967029
899.558284	4727.291608
899.865952	4708.916602
900.173579	4693.919169
900.481165	4659.891381
900.788711	4641.667610
901.096216	4620.595587
901.403681	4585.181481
901.711105	4579.711829
902.018489	4537.315725
902.325832	4521.738560
902.633135	4486.021985
902.940397	4460.917038
903.247619	4454.741625
903.554800	4426.788427
903.861941	4411.740583
904.169041	4389.332654
904.476101	4356.766800
904.783121	4331.510619
905.090100	4319.487467
905.397039	4299.726144
905.703938	4279.889204
906.010796	4244.223040
906.317614	4236.787338
906.624391	4217.983835
906.931129	4196.382490
907.237826	4174.327442
907.544483	4151.894308
907.851099	4132.662306
908.157675	4101.381946
908.464211	4072.546546
908.770707	4056.314031
909.077163	4038.090260
909.383578	4022.513094
909.689954	3982.889625
909.996289	3979.486846
910.302584	3955.995069
910.608839	3949.517187
910.915054	3906.415321
911.221229	3886.326323
911.527363	3865.329917
911.833458	3865.027448
912.139513	3842.291844
912.445527	3801.735762
912.751502	3797.904485
913.057436	3776.504787
913.363331	3752.130808
913.669186	3732.924012
913.975000	3712.053635
914.280775	3694.510419
914.586510	3665.624608
914.892205	3649.089623
915.197859	3620.002165
915.503475	3612.969756
915.809050	3598.552056
916.114585	3579.950198
916.420081	3558.676529
916.725536	3546.376113
917.030952	3515.977956
917.336328	3505.719208
917.641665	3481.950167
917.946961	3458.029892
918.252218	3459.290181
918.557435	3431.059719
918.862612	3416.213521
919.167750	3405.526275
919.472848	3389.545817
919.777906	3383.269581
920.082925	3355.492823
920.387904	3327.716065
920.692843	3316.096206
920.997743	3308.005154
921.302603	3282.244858
921.607423	3273.826131
921.912204	3254.165631
922.216946	3240.579721
922.521647	3226.666137
922.826310	3206.350287
923.130932	3205.568908
923.435516	3181.119312
923.740059	3169.827127
924.044564	3150.746360
924.349028	3141.647077
924.653454	3143.688744
924.957840	3114.424846
925.262186	3104.720625
925.566493	3093.982967
925.870761	3073.969587
926.174989	3064.240160
926.479178	3056.728840
926.783328	3039.286448
927.087438	3038.530275
927.391509	3022.348171
927.695541	3014.257119
927.999533	2998.377485
928.303486	2992.000425
928.607400	2978.061635
928.911275	2961.047740
929.215110	2961.652679
929.518906	2949.755556
929.822663	2941.488063
930.126381	2925.305960
930.430060	2926.062133
930.733699	2914.769948
931.037299	2917.719023
931.340861	2891.832698
931.644383	2894.958213
931.947866	2883.817263
932.251309	2871.542054
932.554714	2863.803883
932.858080	2859.090404
933.161407	2852.133612
933.464694	2849.512212
933.767943	2847.646985
934.071153	2827.381546
934.374323	2830.280210
934.677455	2821.811071
934.980548	2814.526604
935.283602	2813.215904
935.586617	2798.621763
935.889593	2800.613019
936.192530	2807.544606
936.495428	2798.042031
936.798287	2791.438119
937.101108	2783.372273
937.403890	2787.405196
937.706632	2767.467433
938.009336	2769.912392
938.312002	2769.710746
938.614628	2768.979779
938.917216	2761.619694
939.219765	2764.720004
939.522275	2764.140271
939.824747	2754.688108
940.127179	2750.579567
940.429573	2743.194277
940.731929	2754.032758
941.034246	2738.279152
941.336524	2742.009606
941.638763	2741.833165
941.940964	2746.647467
942.243126	2738.455592
942.545250	2730.087277
942.847335	2739.035325
943.149381	2728.700960
943.451389	2730.994685
943.753359	2730.667010
944.055290	2730.994685
944.357182	2728.297667
944.659036	2728.322873
944.960851	2724.945300
945.262628	2724.743654
945.564367	2733.338821
945.866067	2729.230281
946.167729	2721.114023
946.469352	2728.852194
946.770937	2734.750344
947.072484	2722.651575
947.373992	2725.449415
947.675462	2731.397977
947.976893	2727.944787
948.278286	2729.079046
948.579641	2727.919581
948.880958	2725.928325
949.182236	2735.380488
949.483476	2727.717935
949.784678	2735.506517
950.085841	2736.842423
950.386967	2737.245715
950.688054	2747.101171
950.989103	2730.667010
951.290114	2734.296640
951.591087	2739.110942
951.892021	2746.647467
952.192917	2741.203021
952.493776	2743.597569
952.794596	2748.386665
953.095378	2750.100658
953.396122	2753.251379
953.696828	2749.470513
953.997496	2756.276071
954.298126	2759.704056
954.598718	2761.392842
954.899272	2756.956627
955.199788	2761.846546
955.500266	2762.048192
955.800706	2766.181938
956.101108	2764.266300
956.401472	2774.096550
956.701798	2777.222065
957.002087	2771.676796
957.302337	2781.103754
957.602550	2773.567229
957.902724	2784.506533
958.202861	2789.346040
958.502960	2776.264246
958.803022	2780.650050
959.103045	2783.573919
959.403031	2789.497275
959.702979	2788.489044
960.002889	2791.412913
960.302762	2792.774025
960.602596	2801.999337
960.902393	2799.352731
961.202153	2792.925260
961.501875	2791.765794
961.801559	2804.167033
962.101205	2795.118162
962.400814	2800.915488
962.700385	2801.570838
962.999918	2809.989565
963.299414	2796.479273
963.598873	2809.989565
963.898293	2794.513223
964.197677	2804.116621
964.497022	2805.326498
964.796331	2799.932463
965.095601	2806.939667
965.394835	2810.418063
965.694030	2807.595017
965.993189	2811.678352
966.292309	2810.821356
966.591393	2803.209213
966.890439	2813.972077
967.189447	2813.367138
967.488419	2806.536375
967.787353	2822.693273
968.086249	2813.619196
968.385108	2817.274033
968.683930	2811.426294
968.982714	2821.559013
969.281462	2808.704071
969.580172	2811.854792
969.878844	2808.073927
970.177480	2810.594504
970.476078	2807.922692
970.774639	2803.259625
971.073162	2806.687610
971.371649	2803.562094
971.670098	2813.568785
971.968510	2795.975158
972.266885	2806.057465
972.565223	2800.411373
972.863524	2796.126392
973.161788	2797.941208
973.460014	2789.749333
973.758204	2800.486990
974.056356	2786.044085
974.354471	2793.454581
974.652550	2796.580096
974.950591	2801.722073
975.248595	2790.606329
975.546563	2791.564148
975.844493	2793.504992
976.142386	2782.187602
976.440243	2781.078548
976.738062	2784.859413
977.035845	2781.406223
977.333590	2774.978752
977.631299	2776.440687
977.928971	2769.181425
978.226606	2777.600152
978.524204	2772.256529
978.821765	2768.324429
979.119290	2766.887700
979.416777	2767.795108
979.714228	2759.930908
980.011642	2762.829571
980.309020	2760.107348
980.606360	2759.729262
980.903664	2753.150556
981.200931	2757.738006
981.498162	2759.830085
981.795356	2754.057963
982.092513	2749.016810
982.389633	2743.345512
982.686717	2745.311562
982.983764	2741.379462
983.280775	2737.422156
983.577749	2731.423183
983.874686	2730.742627
984.171587	2733.313615
984.468451	2725.474621
984.765279	2724.037892
985.062070	2725.651062
985.358824	2729.734396
985.655543	2713.678321
985.952224	2711.107333
986.248869	2711.561037
986.545478	2709.342929
986.842050	2710.451983
987.138586	2716.778631
987.435086	2704.478215
987.731549	2697.218954
988.027975	2700.848585
988.324366	2694.597554
988.620719	2697.521423
988.917037	2686.531708
989.213318	2691.245187
989.509563	2680.658763
989.805772	2689.279137
990.101944	2690.741071
990.398080	2686.481296
990.694180	2673.550737
990.990244	2679.272446
991.286271	2666.014212
991.582262	2670.601662
991.878217	2668.005467
992.174136	2671.937567
992.470019	2668.307937
992.765865	2665.182421
993.061676	2658.402069
993.357450	2660.620177
993.653188	2656.511637
993.948890	2650.663898
994.244556	2652.882006
994.540186	2643.732312
994.835780	2648.723054
995.131337	2644.841365
995.426859	2634.154119
995.722345	2637.556898
996.017795	2646.530152
996.313208	2643.354225
996.608586	2639.749800
996.903928	2633.120683
997.199234	2630.322842
997.494504	2624.802779
997.789738	2635.817700
998.084936	2631.255456
998.380099	2623.945783
998.675225	2627.877883
998.970316	2625.911833
999.265371	2615.249792
999.560390	2617.039402
999.855373	2629.289406
1000.150320	2617.316665
1000.445232	2612.603187
1000.740108	2615.426233
1001.034948	2614.165944
1001.329752	2609.376848
1001.624521	2607.612444
1001.919254	2593.925712
1002.213951	2609.427260
1002.508613	2604.436517
1002.803239	2604.991044
1003.097829	2598.487956
1003.392384	2597.857812
1003.686903	2597.883017
1003.981386	2601.411825
1004.275834	2594.908737
1004.570246	2593.194744
1004.864623	2586.515215
1005.158964	2589.212233
1005.453270	2579.810481
1005.747540	2592.388160
1006.041775	2592.816658
1006.335974	2584.045050
1006.630138	2583.490523
1006.924266	2579.356777
1007.218359	2582.230235
1007.512416	2578.928279
1007.806438	2580.617065
1008.100425	2569.526527
1008.394376	2571.013667
1008.688292	2567.157185
1008.982172	2576.029615
1009.276017	2577.567167
1009.569827	2570.484346
1009.863602	2576.659760
1010.157341	2565.594427
1010.451045	2567.762123
1010.744714	2568.694737
1011.038347	2569.526527
1011.331945	2563.653583
1011.625508	2562.216854
1011.919036	2558.057902
1012.212528	2569.955025
1012.505986	2556.797613
1012.799408	2567.005950
1013.092795	2559.166956
1013.386147	2566.199365
1013.679464	2551.731254
1013.972745	2559.469425
1014.265992	2561.511092
1014.559204	2555.562531
1014.852380	2558.889692
1015.145521	2560.502862
1015.438628	2550.723023
1015.731699	2550.470965
1016.024736	2545.177754
1016.317737	2552.210163
1016.610703	2541.522917
1016.903635	2542.606765
1017.196531	2540.287835
1017.489393	2547.799154
1017.782219	2551.353167
1018.075011	2548.681356
1018.367768	2543.085675
1018.660490	2544.219935
1018.953177	2544.219935
1019.245829	2544.219935
