Dividing Wavelength (nm)	Counts (n)	Slit_number_4_of_a_total_of_40	
326.493990	2042.507500
326.888308	2042.507500
327.282561	2042.507500
327.676750	2031.585000
328.070874	2081.996538
328.464933	2030.744808
328.858929	2056.790769
329.252859	2065.192692
329.646726	2092.919038
330.040528	2113.923846
330.434265	2108.882692
330.827938	2150.052115
331.221547	2132.408077
331.615091	2217.267500
332.008571	2222.308654
332.401986	2219.788077
332.795338	2282.802500
333.188625	2296.245577
333.581847	2265.998654
333.975006	2320.611154
334.368100	2331.533654
334.761129	2320.611154
335.154095	2376.063846
335.546996	2426.475385
335.939833	2486.129038
336.332606	2466.804615
336.725315	2497.051538
337.117960	2486.129038
337.510540	2499.572115
337.903056	2486.129038
338.295508	2551.664038
338.687896	2523.097500
339.080220	2563.426731
339.472480	2566.787500
339.864676	2556.705192
340.256807	2560.906154
340.648875	2570.148269
341.040879	2555.024808
341.432818	2581.910962
341.824694	2598.714808
342.216506	2555.865000
342.608253	2508.814231
342.999937	2603.755962
343.391557	2565.947308
343.783113	2516.375962
344.174605	2576.029615
344.566033	2602.915769
344.957397	2556.705192
345.348697	2523.097500
345.739934	2553.344423
346.131106	2544.102308
346.522215	2607.956923
346.913260	2531.499423
347.304241	2576.869808
347.695159	2560.065962
348.086012	2539.901346
348.476802	2516.375962
348.867528	2481.928077
349.258191	2544.942500
349.648789	2523.097500
350.039324	2523.937692
350.429796	2556.705192
350.820203	2542.421923
351.210548	2540.741538
351.600828	2556.705192
351.991045	2558.385577
352.381198	2515.535769
352.771288	2535.700385
353.161314	2544.942500
353.551276	2566.787500
353.941175	2508.814231
354.331010	2560.906154
354.720782	2562.586538
355.110490	2557.545385
355.500135	2506.293654
355.889717	2528.978846
356.279235	2582.751154
356.668689	2513.015192
357.058080	2560.065962
357.447408	2579.390385
357.836672	2580.230577
358.225873	2563.426731
358.615010	2612.157885
359.004084	2583.591346
359.393095	2589.472692
359.782043	2617.199038
360.170927	2618.879423
360.559748	2596.194231
360.948505	2644.085192
361.337199	2639.884231
361.725830	2664.249808
362.114398	2705.419231
362.502903	2723.063269
362.891344	2819.685385
363.279722	2823.046154
363.668037	2886.060577
364.056289	2986.043462
364.444478	3052.418654
364.832603	3117.953654
365.220665	3183.488654
365.608665	3212.895385
365.996601	3307.837115
366.384474	3376.732885
366.772284	3496.040192
367.160031	3496.880385
367.547715	3566.616346
367.935336	3715.330385
368.322893	3707.768654
368.710388	3744.737115
369.097820	3885.889423
369.485189	3842.199423
369.872495	3908.574615
370.259738	3945.543077
370.646918	3974.109615
371.034035	4048.046538
371.421090	4026.201538
371.808081	4144.668654
372.195010	4173.235192
372.581875	4210.203654
372.968678	4278.259231
373.355418	4390.004808
373.742096	4444.617308
374.128710	4479.905385
374.515262	4541.239423
374.901751	4611.815577
375.288177	4762.210000
375.674540	4824.384231
376.060841	4828.585192
376.447079	4978.979615
376.833254	5069.720385
377.219367	5166.342500
377.605417	5360.426923
377.991404	5399.915962
378.377329	5646.092308
378.763191	5740.193846
379.148991	5926.716538
379.534727	6134.244038
379.920402	6394.703654
380.306013	6615.674231
380.691563	6929.906154
381.077049	7198.767692
381.462474	7481.072308
381.847835	7967.543654
382.233134	8351.511538
382.618371	8695.150192
383.003545	9211.028269
383.388657	9564.749231
383.773706	10042.818654
384.158693	10512.486154
384.543618	10983.834038
384.928480	11363.600962
385.313280	11795.459808
385.698017	12334.863269
386.082692	12533.148654
386.467305	12816.293462
386.851856	13103.639231
387.236344	13749.747115
387.620770	13414.510385
388.005133	13876.616154
388.389435	13921.986538
388.773674	13734.623654
389.157851	14046.335000
389.541965	13920.306154
389.926018	13405.268269
390.310008	13483.406154
390.693936	13205.302500
391.077802	13029.702308
391.461606	12807.051346
391.845348	12341.584808
392.229027	11992.064808
392.612645	12044.996923
392.996200	11465.264231
393.379694	11209.005577
393.763125	11058.611154
394.146494	10578.861346
394.529801	10503.244038
394.913047	10341.086923
395.296230	9882.341923
395.679351	9570.630577
396.062410	9553.826731
396.445408	9224.471346
396.828343	9050.551538
397.211217	8936.285385
397.594028	8594.327115
397.976778	8480.060962
398.359466	8548.956731
398.742092	8298.579423
399.124656	8296.058846
399.507158	8285.976538
399.889598	8338.068462
400.271977	8280.095192
400.654294	8294.378462
401.036549	8390.160385
401.418742	8361.593846
401.800874	8718.675577
402.182944	8730.438269
402.564952	9196.745000
402.946898	9148.854038
403.328783	9379.066731
403.710606	9665.572308
404.092367	10061.302885
404.474067	10608.268077
404.855705	10604.907308
405.237282	10929.221538
405.618797	11814.784231
406.000250	12232.359808
406.381642	13096.917692
406.762972	13747.226538
407.144240	13974.918654
407.525447	14757.137692
407.906593	15141.945769
408.287677	16304.771923
408.668700	17190.334615
409.049661	18002.800577
409.430560	18722.005192
409.811399	19114.375000
410.192176	20134.368462
410.572891	20823.326154
410.953545	22348.275192
411.334138	22218.885577
411.714669	23764.839423
412.095139	22560.003654
412.475547	24366.417115
412.855894	24207.620769
413.236180	24673.927500
413.616405	23911.873077
413.996568	24282.397885
414.376670	23972.366923
414.756711	22924.647115
415.136691	22795.257500
415.516609	22149.989808
415.896466	21277.870192
416.276262	20637.643654
416.655997	19746.199615
417.035670	18495.153269
417.415283	18146.473462
417.794834	17538.174231
418.174324	16396.352885
418.553753	15509.950000
418.933121	15459.538462
419.312428	14599.181538
419.691674	14011.046923
420.070859	13758.989231
420.449983	13208.663269
420.829045	13255.714038
421.208047	12601.204231
421.586988	12882.668654
421.965867	12735.635000
422.344686	12656.656923
422.723444	12910.395000
423.102141	11949.215000
423.480777	12612.126731
423.859352	12315.538846
424.237866	13091.036346
424.616319	12921.317500
424.994712	13275.038462
425.373044	13309.486346
425.751314	13814.441923
426.129524	13213.704423
426.507673	14074.061346
426.885762	13808.560577
427.263789	14274.027115
427.641756	14106.828846
428.019662	14453.828269
428.397508	14509.280962
428.775292	15120.100769
429.153016	15363.756538
429.530679	15388.122115
429.908282	15668.746346
430.285824	15600.690769
430.663305	16670.255577
431.040726	16644.209615
431.418086	16811.407885
431.795385	17610.430769
432.172624	18589.254808
432.549802	18778.298077
432.926920	19236.202885
433.303977	19795.770962
433.680974	20592.273269
434.057910	21298.875000
434.434786	22097.057692
434.811601	22149.989808
435.188355	23918.594615
435.565050	23931.197500
435.941683	24362.216154
436.318257	25478.831731
436.694770	25998.070577
437.071222	27090.320577
437.447614	26773.568077
437.823946	27559.147885
438.200218	28092.670000
438.576429	28523.688654
438.952580	28617.790192
439.328670	29435.297308
439.704700	29799.940769
440.080670	29068.973462
440.456580	29428.575769
440.832429	29539.481154
441.208218	27911.188462
441.583947	27950.677500
441.959616	27627.203462
442.335224	27128.129231
442.710773	26650.900000
443.086261	26485.382115
443.461689	24994.880962
443.837057	24004.294231
444.212365	23644.691923
444.587612	22676.790385
444.962800	21207.294038
445.337927	20934.231538
445.712995	18927.852308
446.088002	19326.943654
446.462949	18704.361154
446.837837	17748.222308
447.212664	16692.100577
447.587431	16682.018269
447.962139	16119.929615
448.336786	15941.808846
448.711374	15420.049423
449.085901	14300.913269
449.460369	14636.990192
449.834776	14352.165000
450.209124	14630.268654
450.583412	14142.957115
450.957640	14402.576538
451.331808	14217.734231
451.705917	14011.046923
452.079965	14000.124423
452.453954	14064.819231
452.827883	13918.625769
453.201752	13827.885000
453.575562	13990.042115
453.949311	14406.777500
454.323001	14376.530577
454.696632	14085.824038
455.070202	14707.566346
455.443713	14361.407115
455.817164	14609.263846
456.190556	14631.949038
456.563888	14535.326923
456.937160	14793.265962
457.310373	14686.561538
457.683526	15017.597308
458.056619	15414.168077
458.429653	15510.790192
458.802628	16009.864423
459.175542	15952.731346
459.548398	16402.234231
459.921194	17286.116538
460.293930	16859.298846
460.666607	17554.137885
461.039224	18170.839038
461.411782	18440.540769
461.784280	18568.250000
462.156719	19505.904615
462.529099	20319.210769
462.901419	20824.166346
463.273680	21286.272115
463.645882	21943.302500
464.018024	22933.889231
464.390106	23319.537500
464.762130	24553.780000
465.134094	25254.500385
465.505999	26225.762692
465.877845	27298.688269
466.249631	28326.243462
466.621358	28568.218846
466.993026	29677.272692
467.364634	30813.212692
467.736184	31292.122308
468.107674	32555.771538
468.479105	33691.711538
468.850477	34662.973846
469.221790	35121.718846
469.593043	35416.626346
469.964238	36329.915385
470.335373	37239.003462
470.706449	39005.927885
471.077467	38339.655385
471.448425	39225.218077
471.819324	40579.608077
472.190164	41419.800385
472.560945	41482.814808
472.931667	41098.846923
473.302330	41637.410192
473.672934	42103.716923
474.043479	43022.887308
474.413965	42237.307500
474.784393	42106.237500
475.154761	43041.371538
475.525070	42642.280192
475.895321	41834.015192
476.265513	42193.617500
476.635645	42627.156731
477.005719	41864.262115
477.375734	41753.356731
477.745691	40961.055385
478.115588	41284.529423
478.485427	40933.329038
478.855207	40938.370192
479.224928	40420.811731
479.594591	39973.829423
479.964194	38983.242692
480.333739	39336.963654
480.703226	39235.300385
481.072653	38921.908654
481.442022	38395.108077
481.811333	38373.263077
482.180584	37515.426731
482.549777	37411.242885
482.918912	37193.633077
483.287988	37105.412885
483.657005	36631.544423
484.025964	36703.800962
484.394864	36835.711154
484.763706	36886.962885
485.132489	36576.091731
485.501213	36552.566346
485.869879	36805.464231
486.238487	36361.002500
486.607036	36564.329038
486.975527	35849.325385
487.343959	35843.444038
487.712333	35880.412500
488.080648	35916.540769
488.448905	36077.017500
488.817104	35780.429615
489.185244	36003.920769
489.553326	35741.780769
489.921350	35818.238269
490.289315	36206.407115
490.657222	35570.381538
491.025070	35851.845962
491.392861	35771.187500
491.760593	35796.393269
492.128267	35693.049615
492.495883	35688.008462
492.863440	35435.110577
493.230939	35293.958269
493.598380	34889.825769
493.965763	35308.241538
494.333088	35263.711346
494.700354	34924.273654
495.067563	34998.210577
495.434713	35253.629038
495.801805	35423.347885
496.168839	35046.941731
496.535815	34878.903269
496.902733	35237.665385
497.269593	34887.305192
497.636395	34856.218077
498.003139	35262.871154
498.369825	35030.978077
498.736453	35020.055577
499.103023	34846.975962
499.469535	34722.627500
499.835989	34975.525385
500.202385	34839.414231
500.568723	34844.455385
500.935003	34603.320192
501.301226	34318.495000
501.667390	34964.602885
502.033497	35224.222308
502.399546	34638.608269
502.765537	34656.252308
503.131470	34715.065769
503.497345	35102.394423
503.863163	34559.630192
504.228923	34964.602885
504.594625	35302.360192
504.960269	34931.835385
505.325856	35564.500192
505.691385	35232.624231
506.056856	35078.869038
506.422270	35400.662692
506.787625	35541.815000
507.152924	35464.517308
507.518164	35385.539231
507.883347	34831.012308
508.248472	35126.760000
508.613540	35360.333462
508.978550	35797.233462
509.343503	35529.212115
509.708398	35765.306154
510.073236	36143.392692
510.438016	35730.018077
510.802738	35577.103077
511.167403	35836.722500
511.532010	36016.523654
511.896561	36217.329615
512.261053	36590.375000
512.625488	36357.641731
512.989866	36326.554615
513.354186	36226.571731
513.718449	36067.775385
514.082655	36489.551923
514.446803	36388.728846
514.810894	36665.152115
515.174927	36709.682308
515.538904	36441.660962
515.902822	37044.919038
516.266684	36520.639038
516.630488	36700.440192
516.994235	36725.645962
517.357925	36986.945769
517.721558	36723.965577
518.085133	37154.144038
518.448651	37188.591923
518.812112	36950.817500
519.175516	37064.243462
519.538863	36986.945769
519.902152	37159.185192
520.265385	37480.978846
520.628560	37517.107115
520.991678	37228.080962
521.354739	37312.940385
521.717743	37556.596154
522.080690	37360.831346
522.443580	37685.985769
522.806413	37748.160000
523.169189	37824.617500
523.531908	37944.765000
523.894569	37747.319808
524.257174	37749.840385
524.619722	37940.564038
524.982213	37807.813654
525.344647	37748.160000
525.707025	37646.496731
526.069345	37770.845192
526.431608	37693.547500
526.793815	38046.428269
527.155964	37638.935000
527.518057	37700.269038
527.880093	37423.005577
528.242072	37664.980962
528.603995	37643.976154
528.965860	37192.792885
529.327669	37342.347115
529.689421	37186.911538
530.051117	37157.504808
530.412755	37167.587115
530.774337	37093.650192
531.135862	36794.541731
531.497331	36986.105577
531.858743	36956.698846
532.220098	37102.892308
532.581396	36610.539615
532.942638	36456.784423
533.303824	36638.265962
533.664953	36476.949038
534.026025	36137.511346
534.387040	36217.329615
534.747999	35843.444038
535.108902	36121.547692
535.469748	35903.937885
535.830537	35720.775962
536.191270	35901.417308
536.551947	35496.444615
536.912567	35756.064038
537.273131	35759.424808
537.633638	35384.699038
537.994089	35423.347885
538.354483	34895.707115
538.714821	34988.968462
539.075103	35339.328654
539.435328	34794.884038
539.795497	34704.983462
540.155609	34552.068462
540.515665	34799.085000
540.875665	34434.441538
541.235609	34668.015000
541.595496	34318.495000
541.955328	34539.465577
542.315102	34323.536154
542.674821	33569.883654
543.034483	33789.173846
543.394090	33525.353462
543.753640	33534.595577
544.113134	34013.505192
544.472571	33308.583846
544.831953	34196.667115
545.191278	33474.941923
545.550548	33111.978846
545.909761	33445.535192
546.268918	33601.810962
546.628019	33548.878846
546.987064	33250.610577
547.346053	32607.023269
547.704986	33230.445962
548.063863	32712.047308
548.422684	32634.749615
548.781449	32580.137115
549.140158	32753.216731
549.498811	32612.064423
549.857408	32115.510769
550.215949	32573.415577
550.574434	32364.207692
550.932864	32165.922308
551.291237	32665.836731
551.649555	32269.265962
552.007817	32196.169231
552.366022	31854.210962
552.724173	31931.508654
553.082267	32068.460000
553.440305	32353.285192
553.798288	31980.239808
554.156215	31801.278846
554.514086	32089.464808
554.871902	31998.724038
555.229661	31827.324808
555.587365	31549.221154
555.945014	31698.775385
556.302606	31266.916538
556.660143	31548.380962
557.017625	31265.236154
557.375050	31483.686154
557.732421	31512.252692
558.089735	31452.599038
558.446994	31382.863077
558.804197	31617.276731
559.161345	31664.327500
559.518437	31100.558462
559.875474	31076.192885
560.232455	31217.345192
560.589381	31513.092885
560.946251	31116.522115
561.303065	32032.331731
561.659825	31566.865192
562.016528	31056.028269
562.373177	31086.275192
562.729770	31304.725192
563.086307	31125.764231
563.442789	31147.609231
563.799216	31302.204615
564.155587	31206.422692
564.511904	31332.451538
564.868164	31111.480962
565.224370	31321.529038
565.580520	30929.159231
565.936615	31295.483077
566.292654	31261.035192
566.648638	31056.868462
567.004567	31040.904808
567.360441	31032.502885
567.716260	30963.607115
568.072023	30869.505577
568.427732	30956.045385
568.783385	30649.375192
569.138982	30688.024038
569.494525	30946.803269
569.850013	30624.169423
570.205445	30696.425962
570.560823	30711.549423
570.916145	30697.266154
571.271412	30386.395000
571.626625	30110.811923
571.981782	30311.617885
572.336884	30358.668654
572.691931	30381.353846
573.046923	30043.596538
573.401860	30091.487500
573.756743	29825.146538
574.111570	30061.240577
574.466342	29760.451731
574.821059	29655.427692
575.175722	29639.464038
575.530330	29517.636154
575.884882	29484.868654
576.239380	29388.246538
576.593823	29103.421346
576.948211	29276.500962
577.302544	28924.460385
577.656823	29004.278654
578.011047	28708.530962
578.365216	28728.695577
578.719330	28492.601538
579.073389	28445.550769
579.427394	28423.705769
579.781344	28223.740000
580.135239	28101.071923
580.489080	28068.304423
580.842866	27820.447692
581.196597	27873.379808
581.550273	27875.060192
581.903895	27630.564231
582.257463	27727.186346
582.610975	27028.146346
582.964434	27429.758269
583.317837	27165.097692
583.671186	26802.134615
584.024481	26894.555769
584.377721	26561.839615
584.730906	26789.531731
585.084037	26779.449423
585.437113	26651.740192
585.790135	26599.648269
586.143103	26607.210000
586.496016	26410.605000
586.848874	26170.310000
587.201679	26138.382692
587.554428	25843.475192
587.907124	26078.729038
588.259765	25985.467692
588.612352	25897.247500
588.964884	25580.495000
589.317362	25835.073269
589.669786	25772.899038
590.022155	25596.458654
590.374470	25692.240577
590.726731	25459.507308
591.078937	25338.519615
591.431090	25227.614231
591.783188	25363.725385
592.135232	25162.919423
592.487222	25215.851538
592.839157	25234.335769
593.191038	25027.648462
593.542866	24937.747885
593.894639	24659.644231
594.246358	25010.844615
594.598022	25031.009231
594.949633	24762.987885
595.301190	24879.774615
595.652692	24873.053077
596.004141	24959.592885
596.355535	24514.290962
596.706876	24434.472692
597.058162	24437.833462
597.409395	24863.810962
597.760573	24861.290385
598.111698	24697.452885
598.462768	24859.610000
598.813785	24809.198462
599.164748	24540.336923
599.515657	24685.690192
599.866511	24530.254615
600.217312	24704.174423
600.568060	24400.024808
600.918753	24839.445385
601.269392	24785.673077
601.619978	24583.186731
601.970510	24689.050962
602.320988	24716.777308
602.671412	24869.692308
603.021783	24981.437885
603.372100	24702.494038
603.722363	24868.852115
604.072572	24862.970769
604.422728	25026.808269
604.772830	24768.869231
605.122878	25085.621731
605.472872	24880.614808
605.822813	25148.636154
606.172701	24883.135385
606.522534	25003.282885
606.872314	25106.626538
607.222041	25103.265769
607.571714	25325.916731
607.921333	24901.619615
608.270899	24929.345962
608.620411	25290.628654
608.969870	25079.740385
609.319276	25110.827500
609.668627	25215.851538
610.017926	25293.989423
610.367171	25513.279615
610.716362	25216.691731
611.065500	25291.468846
611.414585	25148.636154
611.763616	25632.586923
612.112594	25238.536731
612.461518	25464.548462
612.810389	25424.219231
613.159207	25299.030577
613.507971	25498.996346
613.856682	25404.054615
614.205340	25250.299423
614.553945	25668.715192
614.902496	25235.175962
615.250994	25467.069038
615.599439	25398.173269
615.947830	25259.541538
616.296169	25451.945577
616.644454	25243.577885
616.992686	25485.553269
617.340864	25575.453846
617.688990	25130.151923
618.037063	25501.516923
618.385082	25283.066923
618.733048	25491.434615
619.080961	25305.752115
619.428821	25357.003846
619.776628	25111.667692
620.124382	25058.735577
620.472083	25369.606731
620.819731	25159.558654
621.167326	24930.186154
621.514868	25320.875577
621.862357	25119.229423
622.209793	25006.643654
622.557176	24933.546923
622.904506	24764.668269
623.251783	24823.481731
623.599007	24854.568846
623.946179	24638.639423
624.293297	24719.297885
624.640363	24432.792308
624.987376	24686.530385
625.334336	24479.843077
625.681243	24295.000769
626.028097	24341.211346
626.374899	24490.765577
626.721647	24283.238077
627.068343	24369.777885
627.414987	24159.729808
627.761577	23860.621346
628.108115	24138.725000
628.454600	23816.091154
628.801032	23881.626154
629.147412	23810.209808
629.493739	23679.139808
629.840014	23679.980000
630.186236	23602.682308
630.532405	23322.898269
630.878521	23385.072500
631.224585	23032.191731
631.570597	23094.365962
631.916556	23025.470192
632.262462	22912.884423
632.608316	22912.044231
632.954117	22873.395385
633.299866	22790.216346
633.645562	22685.192308
633.991206	22423.052308
634.336797	22176.875962
634.682336	22386.924038
635.027823	22141.587885
635.373257	22204.602308
635.718639	22093.696923
636.063968	22014.718846
636.409245	21782.825769
636.754470	22026.481538
637.099642	21771.063077
637.444762	21524.886731
637.789829	21658.477308
638.134845	21454.310577
638.479808	21317.359231
638.824719	21137.558077
639.169577	21051.018269
639.514383	21007.328269
639.859137	20926.669808
640.203839	20924.149231
640.548489	20840.130000
640.893086	20761.992115
641.237632	20567.067500
641.582125	20588.912500
641.926566	20419.193654
642.270955	20181.419231
642.615292	20188.140769
642.959576	20173.017308
643.303809	20162.935000
643.647990	20117.564615
643.992118	20062.952115
644.336195	19876.429423
644.680219	19820.976731
645.024192	19815.095385
645.368112	19972.211346
645.711981	19537.831923
646.055797	19544.553462
646.399562	19483.219423
646.743274	19572.279808
647.086935	19551.275000
647.430544	19164.786538
647.774101	19206.796154
648.117606	19164.786538
648.461059	19311.820192
648.804460	19154.704231
649.147810	18695.959231
649.491108	18794.261731
649.834354	18522.879615
650.177548	18364.923462
650.520690	18359.882308
650.863781	18619.501731
651.206820	18658.150577
651.549807	18669.073077
651.892742	18467.426923
652.235626	18417.015385
652.578458	18398.531154
652.921238	18348.959808
653.263967	18173.359615
653.606644	18197.725192
653.949269	18167.478269
654.291843	17887.694231
654.634365	18196.044808
654.976836	18000.280000
655.319255	17874.251154
655.661622	18024.645577
656.003938	17902.817692
656.346203	17786.030962
656.688416	17732.258654
657.030577	17735.619423
657.372687	17616.312115
657.714746	17755.784038
658.056753	17906.178462
658.398708	17610.430769
658.740612	17864.168846
659.082465	17671.764808
659.424266	17457.515769
659.766016	17566.740769
660.107715	17542.375192
660.449362	17650.760000
660.790958	17676.805962
661.132503	17536.493846
661.473996	17461.716731
661.815438	17449.954038
662.156829	17528.932115
662.498168	17365.094615
662.839456	17634.796346
663.180693	17517.169423
663.521879	17367.615192
663.863013	17538.174231
664.204097	17550.777115
664.545129	17675.965769
664.886110	17705.372500
665.227040	17738.980192
665.567918	17734.779231
665.908746	17891.055000
666.249522	17911.219615
666.590248	17922.982308
666.930922	18006.161346
667.271545	18051.531731
667.612118	17817.958269
667.952639	17985.996731
668.293109	18254.018077
668.633528	18378.366538
668.973896	18316.192308
669.314213	18453.143654
669.654480	18435.499615
669.994695	18479.189615
670.334859	18555.647115
670.674973	18782.499038
671.015035	18684.196538
671.355047	18919.450385
671.695008	18780.818654
672.034918	18786.700000
672.374777	18971.542308
672.714585	19130.338654
673.054342	19170.667885
673.394049	19003.469615
673.733705	19484.059615
674.073310	19412.643269
674.412864	19448.771538
674.752368	19406.761923
675.091820	19500.863462
675.431223	19657.979423
675.770574	19586.563077
676.109875	19727.715385
676.449125	19594.965000
676.788324	19754.601538
677.127473	19711.751731
677.466571	19911.717500
677.805619	19676.463654
678.144616	19909.196923
678.483562	19930.201731
678.822458	19863.826538
679.161303	19777.286731
679.500098	19730.235962
679.838842	19629.412885
680.177535	19553.795577
680.516179	19589.923846
680.854771	19530.270192
681.193314	19551.275000
681.531805	19390.798269
681.870247	19182.430577
682.208638	19247.965577
682.546978	19292.495769
682.885268	18971.542308
683.223508	18932.053269
683.561697	18590.935192
683.899836	18707.721923
684.237925	18385.928269
684.575963	18349.800000
684.913951	17879.292308
685.251889	18127.989231
685.589776	17983.476154
685.927614	17649.919808
686.265401	17647.399231
686.603137	17556.658462
686.940824	17354.172115
687.278460	17403.743462
687.616046	17209.659038
687.953582	17215.540385
688.291068	16824.850962
688.628504	16899.628077
688.965889	16891.226154
689.303224	16750.914038
689.640510	16639.168462
689.977745	16534.984615
690.314930	16516.500385
690.652065	16601.359808
690.989150	16491.294615
691.326185	16584.555962
691.663170	16320.735577
692.000105	16439.202692
692.336990	16322.415962
692.673825	16449.285000
693.010610	16283.767115
693.347345	16422.398846
693.684030	16193.026346
694.020665	16283.767115
694.357251	16135.893269
694.693786	16329.137500
695.030272	16377.028462
695.366707	16037.590769
695.703093	16025.828077
696.039429	15993.900769
696.375716	15904.000192
696.711952	15982.978269
697.048139	15783.012500
697.384276	15616.654423
697.720363	15708.235385
698.056400	15520.032308
698.392388	15319.226346
698.728326	15264.613846
699.064214	15031.880577
699.400053	15035.241346
699.735842	14815.110962
700.071581	14705.045769
700.407270	14543.728846
700.742910	14384.092308
701.078501	14305.114231
701.414042	13988.361731
701.749533	13952.233462
702.084974	13669.088654
702.420366	13898.461154
702.755709	13659.846538
703.091002	13510.292308
703.426246	13460.720962
703.761440	13434.675000
704.096584	13264.956154
704.431679	13231.348462
704.766725	13017.099423
705.101721	13024.661154
705.436668	13090.196154
705.771565	12828.896346
706.106413	12886.029423
706.441212	12839.818846
706.775961	12840.659038
707.110661	12754.119231
707.445311	12831.416923
707.779913	12649.935385
708.114465	12475.175385
708.448967	12430.645192
708.783421	12688.584231
709.117825	12662.538269
709.452180	12606.245385
709.786485	12592.802308
710.120742	12623.889423
710.454949	12480.216538
710.789107	12549.112308
711.123216	12702.867500
711.457275	12504.582115
711.791286	12675.141154
712.125247	12799.489615
712.459159	12571.797500
712.793023	12936.440962
713.126837	12633.971731
713.460602	12903.673462
713.794318	13055.748269
714.127985	13091.036346
714.461602	13012.898462
714.795171	13151.530192
715.128691	13061.629615
715.462162	13007.017115
715.795584	13207.823077
716.128957	13254.033654
716.462281	13451.478846
716.795556	13649.764231
717.128782	13652.284808
717.461960	13771.592115
717.795088	13917.785577
718.128167	13942.991346
718.461198	13860.652500
718.794180	14048.015385
719.127113	14176.564808
719.459997	14340.402308
719.792833	14500.879038
720.125619	14700.004615
720.458357	14849.558846
720.791046	14878.125385
721.123686	15041.962885
721.456278	15211.681731
721.788821	15347.792885
722.121315	15215.042500
722.453761	15614.133846
722.786158	15785.533077
723.118506	16136.733462
723.450805	16052.714231
723.783056	16402.234231
724.115259	16359.384423
724.447412	16384.590192
724.779518	16840.814615
725.111574	16835.773462
725.443582	16971.044423
725.775542	17120.598654
726.107453	17338.208462
726.439315	17285.276346
726.771129	17370.135769
727.102895	17413.825769
727.434612	17344.930000
727.766281	17397.862115
728.097901	17628.915000
728.429473	17437.351154
728.760996	17353.331923
729.092471	17370.135769
729.423897	16900.468269
729.755276	16842.495000
730.086606	16674.456538
730.417887	16506.418077
730.749120	16426.599808
731.080305	15915.762885
731.411442	15928.365769
731.742530	15535.155769
732.073570	15136.064423
732.404562	14983.989615
732.735506	14554.651346
733.066401	14311.835769
733.397249	13969.877500
733.728048	13563.224423
734.058798	13227.987692
734.389501	12869.225577
734.720156	12535.669231
735.050762	12130.696538
735.381320	11729.924808
735.711831	11503.072885
736.042293	11077.095385
736.372707	10856.124808
736.703073	10480.558846
737.033391	10316.721346
737.363661	9948.717115
737.693883	9766.395385
738.024056	9470.647692
738.354182	9258.919231
738.684260	9014.423269
739.014290	8811.936923
739.344272	8604.409423
739.674207	8483.421731
740.004093	8240.606154
740.333931	8097.773462
740.663722	7951.580000
740.993464	7863.359808
741.323159	7628.105962
741.652806	7449.985192
741.982405	7334.878846
742.311956	7308.832885
742.641460	7199.607885
742.970915	7171.881538
743.300323	7080.300577
743.629683	6913.942500
743.958996	6918.143462
744.288260	6834.124231
744.617477	6808.078269
744.946647	6735.821731
745.275768	6644.240769
745.604842	6667.766154
745.933869	6571.984231
746.262847	6621.555577
746.591778	6482.923846
746.920662	6524.093269
747.249498	6450.156346
747.578286	6457.718077
747.907027	6503.088462
748.235720	6553.500000
748.564365	6543.417692
748.892963	6472.841538
749.221514	6597.190000
749.550017	6487.124808
749.878473	6572.824423
750.206881	6626.596731
750.535242	6567.783269
750.863555	6683.729808
751.191821	6579.545962
751.520039	6714.816923
751.848210	6722.378654
752.176334	6778.671538
752.504411	6829.923269
752.832440	6892.937692
753.160421	7017.286154
753.488356	6931.586538
753.816243	7028.208654
754.144082	7050.893846
754.471875	7144.155192
754.799620	7261.782115
755.127318	7326.476923
755.454969	7418.898077
755.782572	7480.232115
756.110129	7577.694423
756.437638	7654.992115
756.765100	7820.510000
757.092515	7855.798077
757.419882	7983.507308
757.747203	7989.388654
758.074477	8140.623269
758.401703	8120.458654
758.728882	8270.853077
759.056014	8384.279038
759.383099	8464.097308
759.710138	8687.588462
760.037129	8729.598077
760.364073	8925.362885
760.690970	8936.285385
761.017820	8934.605000
761.344623	9148.854038
761.671379	9220.270385
761.998088	9427.797885
762.324751	9474.848654
762.651366	9647.088077
762.977935	9723.545577
763.304456	9815.126538
763.630931	9842.012692
763.957359	10060.462692
764.283740	10181.450385
764.610074	10384.776923
764.936362	10409.982692
765.262602	10524.248846
765.588796	10732.616538
765.914943	10788.069231
766.241044	11039.286731
766.567097	11080.456154
766.893104	11227.489808
767.219064	11409.811538
767.544978	11455.181923
767.870845	11597.174423
768.196665	11945.014038
768.522438	12121.454423
768.848165	12153.381731
769.173846	12471.814615
769.499479	12724.712500
769.825066	13038.944423
770.150607	13049.026731
770.476101	13308.646154
770.801548	13519.534423
771.126949	13700.175769
771.452303	14040.453654
771.777611	14079.102500
772.102872	14309.315192
772.428087	14623.547115
772.753256	14596.660962
773.078378	14860.481346
773.403453	15022.638462
773.728482	15154.548654
774.053465	15115.059615
774.378401	15291.500000
774.703291	15208.320962
775.028135	15263.773654
775.352932	15506.589231
775.677683	15249.490385
776.002388	15173.032885
776.327046	15177.233846
776.651658	14788.224808
776.976224	14677.319423
777.300743	14436.184231
777.625216	14143.797308
777.949643	13798.478269
778.274024	13701.856154
778.598359	13392.665385
778.922647	13025.501346
779.246889	12602.884615
779.571086	12254.204808
779.895236	11926.529808
780.219339	11529.959038
780.543397	11132.548077
780.867409	11054.410192
781.191374	10762.863462
781.515294	10326.803654
781.839167	10153.724038
782.162995	9905.867308
782.486776	9577.352115
782.810511	9351.340385
783.134201	9051.391731
783.457844	9053.072115
783.781441	8773.288077
784.104993	8545.595962
784.428498	8532.152885
784.751958	8316.223462
785.075372	8100.294038
785.398739	8017.955192
785.722061	7886.885192
786.045337	7831.432500
786.368568	7786.062115
786.691752	7497.876154
787.014891	7602.900192
787.337983	7413.856923
787.661030	7328.157308
787.984031	7369.326731
788.306987	7227.334231
788.629897	7124.830769
788.952760	7088.702500
789.275579	7108.867115
789.598351	6996.281346
789.921078	6904.700385
790.243759	6919.823846
790.566395	6831.603654
790.888984	6846.727115
791.211529	6902.179808
791.534027	6797.995962
791.856480	6782.872500
792.178888	6843.366346
792.501249	6887.056346
792.823566	6751.785385
793.145836	6875.293654
793.468062	6858.489808
793.790241	6810.598846
794.112375	6930.746346
794.434464	7017.286154
794.756507	6888.736731
795.078505	6905.540577
795.400457	7033.249808
795.722364	7016.445962
796.044226	7174.402115
796.366042	7213.891154
796.687812	7230.695000
797.009538	7287.828077
797.331218	7299.590769
797.652852	7429.820577
797.974442	7512.999615
798.295986	7472.670385
798.617484	7636.507885
798.938938	7676.837115
799.260346	7634.827500
799.581709	7792.783654
799.903026	7840.674615
800.224299	7834.793269
800.545526	7880.163654
800.866708	7917.132115
801.187845	7927.214423
801.508936	7973.425000
801.829983	7998.630769
802.150984	7910.410577
802.471940	7949.899615
802.792851	7895.287115
803.113717	7925.534038
803.434538	7894.446923
803.755314	7840.674615
804.076045	7686.079231
804.396731	7468.469423
804.717372	7287.828077
805.037967	7233.215577
805.358518	7087.022115
805.679024	7039.971346
805.999485	6867.731923
806.319901	6719.858077
806.640272	6525.773654
806.960598	6432.512308
807.280879	6255.231731
807.601115	6182.975192
807.921306	5970.406538
808.241453	5851.939423
808.561554	5713.307692
808.881611	5573.835769
809.201623	5620.046346
809.521590	5388.153269
809.841513	5330.180000
810.161390	5245.320577
810.481223	5156.260192
810.801011	5034.432308
811.120755	5024.350000
811.440453	4881.517308
811.760107	4847.069423
812.079716	4775.653077
812.399281	4744.565962
812.718801	4632.820385
813.038276	4579.048077
813.357707	4526.956154
813.677093	4475.704423
813.996434	4452.179038
814.315731	4451.338846
814.634983	4371.520577
814.954191	4327.830577
815.273354	4314.387500
815.592473	4308.506154
815.911547	4242.130962
816.230577	4250.532885
816.549562	4231.208462
816.868502	4166.513654
817.187399	4148.029423
817.506250	4179.956731
817.825058	4070.731731
818.143821	4108.540385
818.462539	4091.736538
818.781213	4098.458077
819.099843	3973.269423
819.418429	4014.438846
819.736970	4049.726923
820.055466	3948.063654
820.373919	4009.397692
820.692327	3999.315385
821.010691	3975.790000
821.329011	3981.671346
821.647286	3949.744038
821.965517	3953.104808
822.283704	3958.986154
822.601847	3938.821538
822.919945	3978.310577
823.237999	3916.136346
823.556010	3885.889423
823.873976	3911.095192
824.191897	3981.671346
824.509775	3947.223462
824.827609	3901.012885
825.145398	3908.574615
825.463144	3911.935385
825.780845	3891.770769
826.098502	3916.976538
826.416116	3889.250192
826.733685	3934.620577
827.051210	3981.671346
827.368692	3996.794808
827.686129	3869.085577
828.003522	3980.831154
828.320872	3979.150769
828.638177	3985.872308
828.955439	3992.593846
829.272656	3965.707692
829.589830	3985.872308
829.906960	3964.867500
830.224046	3928.739231
830.541088	3930.419615
830.858086	4003.516346
831.175041	4015.279038
831.491952	4049.726923
831.808819	4060.649423
832.125642	4058.128846
832.442421	4058.969038
832.759157	4079.973846
833.075849	4156.431346
833.392497	4100.138462
833.709101	4138.787308
834.025662	4140.467692
834.342179	4119.462885
834.658653	4095.937500
834.975083	4211.043846
835.291469	4251.373077
835.607811	4227.847692
835.924110	4247.172115
836.240366	4292.542500
836.556578	4275.738654
836.872746	4279.939615
837.188871	4418.571346
837.504952	4369.840192
837.820990	4341.273654
838.136984	4390.845000
838.452935	4432.014423
838.768842	4487.467115
839.084706	4466.462308
839.400526	4531.997308
839.716303	4545.440385
840.032037	4577.367692
840.347727	4565.605000
840.663373	4672.309423
840.978977	4649.624231
841.294537	4703.396538
841.610054	4784.055000
841.925527	4823.544038
842.240957	4837.827308
842.556344	4851.270385
842.871687	4942.011154
843.186987	4900.001538
843.502244	4952.093462
843.817458	5017.628462
844.132629	5097.446731
844.447756	5073.921346
844.762840	5199.110000
845.077881	5241.119615
845.392879	5262.124423
845.707833	5289.010577
846.022745	5294.051731
846.337613	5400.756154
846.652438	5420.920769
846.967221	5482.254808
847.281960	5556.191731
847.596656	5588.959231
847.911309	5672.138269
848.225919	5761.198654
848.540485	5785.564231
848.855009	5844.377692
849.169490	5841.857115
849.483928	5942.680192
849.798323	6030.900385
850.112675	6075.430577
850.426984	6181.294808
850.741251	6122.481346
851.055474	6245.989615
851.369654	6237.587692
851.683792	6305.643269
851.997887	6373.698846
852.311938	6451.836731
852.625947	6400.585000
852.939914	6430.831923
853.253837	6486.284615
853.567718	6506.449231
853.881555	6482.083654
854.195350	6590.468462
854.509103	6460.238654
854.822812	6535.855962
855.136479	6542.577500
855.450103	6556.020577
855.763685	6573.664615
856.077224	6534.175577
856.390720	6494.686538
856.704173	6503.928654
857.017584	6438.393654
857.330953	6386.301731
857.644278	6419.069231
857.957561	6397.224231
858.270802	6331.689231
858.584000	6351.013654
858.897155	6246.829808
859.210268	6188.856538
859.523339	6057.786538
859.836367	6067.028654
860.149352	5987.210385
860.462295	5865.382500
860.775195	5810.770000
861.088054	5747.755577
861.400869	5713.307692
861.713642	5771.280962
862.026373	5614.165000
862.339062	5527.625192
862.651708	5459.569615
862.964312	5351.184808
863.276873	5382.271923
863.589392	5348.664231
863.901869	5356.225962
864.214303	5214.233462
864.526696	5145.337692
864.839045	5079.802692
865.151353	5034.432308
865.463619	5015.948077
865.775842	4920.166154
866.088023	4964.696346
866.400162	4900.001538
866.712258	4826.904808
867.024313	4796.657885
867.336325	4834.466538
867.648296	4789.096154
867.960224	4686.592692
868.272110	4760.529615
868.583954	4718.520000
868.895755	4679.871154
869.207515	4684.912308
869.519233	4614.336154
869.830909	4681.551538
870.142542	4636.181154
870.454134	4546.280577
870.765684	4673.989808
871.077191	4603.413654
871.388657	4564.764808
871.700081	4604.253846
872.011463	4583.249038
872.322803	4613.495962
872.634101	4620.217500
872.945357	4518.554231
873.256571	4623.578269
873.567744	4590.810769
873.878874	4549.641346
874.189963	4532.837500
874.501010	4486.626923
874.812015	4552.161923
875.122979	4516.033654
875.433900	4510.992500
875.744780	4531.157115
876.055618	4596.692115
876.366415	4457.220192
876.677169	4529.476731
876.987882	4546.280577
877.298554	4468.142692
877.609183	4533.677692
877.919771	4491.668077
878.230317	4484.106346
878.540822	4469.823077
878.851285	4447.137885
879.161707	4544.600192
879.472087	4488.307308
879.782425	4466.462308
880.092722	4484.106346
880.402977	4454.699615
880.713191	4374.041154
881.023363	4386.644038
881.333494	4450.498654
881.643583	4355.556923
881.953631	4405.128269
882.263637	4375.721538
882.573602	4337.072692
882.883526	4349.675577
883.193408	4342.954038
883.503248	4262.295577
883.813048	4332.871731
884.122806	4340.433462
884.432522	4234.569231
884.742197	4342.113846
885.051831	4242.971154
885.361424	4267.336731
885.670975	4217.765385
885.980485	4282.460192
886.289954	4247.172115
886.599382	4246.331923
886.908768	4132.905962
887.218113	4134.586346
887.527417	4154.750962
887.836680	4159.792115
888.145901	4206.002692
888.455082	4047.206346
888.764221	4121.143269
889.073319	4066.530769
889.382376	4030.402500
889.691392	4077.453269
890.000366	4046.366154
890.309300	4029.562308
890.618193	4003.516346
890.927044	4014.438846
891.235855	3979.150769
891.544625	3942.182308
891.853353	3937.981346
892.162041	4007.717308
892.470687	3904.373654
892.779293	3910.255000
893.087858	3857.322885
893.396381	3816.993654
893.704864	3867.405192
894.013306	3847.240577
894.321707	3853.121923
894.630068	3848.920962
894.938387	3802.710385
895.246665	3833.797500
895.554903	3778.344808
895.863100	3706.088269
896.171256	3692.645192
896.479371	3743.056731
896.787446	3734.654808
897.095480	3717.010769
897.403473	3652.315962
897.711425	3659.037500
898.019336	3633.831731
898.327207	3632.991538
898.635038	3612.826923
898.942827	3618.708269
899.250576	3606.105385
899.558284	3584.260385
899.865952	3639.713077
900.173579	3563.255577
900.481165	3560.735000
900.788711	3605.265192
901.096216	3542.250769
901.403681	3554.853654
901.711105	3495.200000
902.018489	3545.611538
902.325832	3438.907115
902.633135	3488.478462
902.940397	3467.473654
903.247619	3405.299423
903.554800	3417.062115
903.861941	3433.025769
904.169041	3408.660192
904.476101	3417.062115
904.783121	3421.263077
905.090100	3362.449615
905.397039	3328.841923
905.703938	3386.815192
906.010796	3364.970192
906.317614	3328.001731
906.624391	3328.841923
906.931129	3278.430385
907.237826	3348.166346
907.544483	3313.718462
907.851099	3367.490769
908.157675	3228.018846
908.464211	3300.275385
908.770707	3267.507885
909.077163	3270.868654
909.383578	3255.745192
909.689954	3243.142308
909.996289	3235.580577
910.302584	3191.050385
910.608839	3214.575769
910.915054	3196.931731
911.221229	3159.963269
911.527363	3156.602500
911.833458	3123.835000
912.139513	3187.689615
912.445527	3184.328846
912.751502	3157.442692
913.057436	3169.205385
913.363331	3090.227308
913.669186	3155.762308
913.975000	3146.520192
914.280775	3086.026346
914.586510	3075.944038
914.892205	3039.815769
915.197859	3054.099038
915.503475	3044.856923
915.809050	3004.527692
916.114585	3068.382308
916.420081	3039.815769
916.725536	3028.893269
917.030952	3090.227308
917.336328	2975.120962
917.641665	3002.007115
917.946961	2969.239615
918.252218	2950.755385
918.557435	2964.198462
918.862612	2947.394615
919.167750	2959.157308
919.472848	2914.627115
919.777906	2941.513269
920.082925	2921.348654
920.387904	2916.307500
920.692843	2942.353462
920.997743	2942.353462
921.302603	2881.859615
921.607423	2918.828077
921.912204	2879.339038
922.216946	2873.457692
922.521647	2917.987885
922.826310	2823.046154
923.130932	2892.782115
923.435516	2868.416538
923.740059	2872.617500
924.044564	2854.973462
924.349028	2803.721731
924.653454	2844.050962
924.957840	2824.726538
925.262186	2819.685385
925.566493	2781.876731
925.870761	2763.392500
926.174989	2770.954231
926.479178	2769.273846
926.783328	2782.716923
927.087438	2807.082500
927.391509	2727.264231
927.695541	2781.036538
927.999533	2733.985769
928.303486	2773.474808
928.607400	2762.552308
928.911275	2712.980962
929.215110	2710.460385
929.518906	2686.935000
929.822663	2725.583846
930.126381	2754.150385
930.430060	2754.150385
930.733699	2728.944615
931.037299	2740.707308
931.340861	2687.775192
931.644383	2739.867115
931.947866	2728.944615
932.251309	2672.651731
932.554714	2720.542692
932.858080	2701.218269
933.161407	2690.295769
933.464694	2685.254615
933.767943	2707.099615
934.071153	2707.939808
934.374323	2719.702500
934.677455	2712.140769
934.980548	2723.903462
935.283602	2694.496731
935.586617	2718.862308
935.889593	2691.976154
936.192530	2704.579038
936.495428	2668.450769
936.798287	2692.816346
937.101108	2702.898654
937.403890	2697.857500
937.706632	2689.455577
938.009336	2683.574231
938.312002	2710.460385
938.614628	2687.775192
938.917216	2686.094808
939.219765	2700.378077
939.522275	2670.131154
939.824747	2655.007692
940.127179	2707.939808
940.429573	2665.090000
940.731929	2752.470000
941.034246	2705.419231
941.336524	2674.332115
941.638763	2702.058462
941.940964	2686.094808
942.243126	2704.579038
942.545250	2719.702500
942.847335	2714.661346
943.149381	2649.126346
943.451389	2703.738846
943.753359	2697.857500
944.055290	2703.738846
944.357182	2716.341731
944.659036	2703.738846
944.960851	2732.305385
945.262628	2677.692885
945.564367	2713.821154
945.866067	2660.889038
946.167729	2718.862308
946.469352	2757.511154
946.770937	2668.450769
947.072484	2711.300577
947.373992	2718.022115
947.675462	2697.017308
947.976893	2702.058462
948.278286	2672.651731
948.579641	2737.346538
948.880958	2694.496731
949.182236	2673.491923
949.483476	2697.857500
949.784678	2729.784808
950.085841	2685.254615
950.386967	2741.547500
950.688054	2732.305385
950.989103	2713.821154
951.290114	2653.327308
951.591087	2670.971346
951.892021	2670.971346
952.192917	2736.506346
952.493776	2740.707308
952.794596	2700.378077
953.095378	2723.063269
953.396122	2765.913077
953.696828	2781.036538
953.997496	2708.780000
954.298126	2760.031731
954.598718	2764.232692
954.899272	2734.825962
955.199788	2734.825962
955.500266	2769.273846
955.800706	2740.707308
956.101108	2796.160000
956.401472	2729.784808
956.701798	2758.351346
957.002087	2746.588654
957.302337	2722.223077
957.602550	2739.867115
957.902724	2767.593462
958.202861	2765.913077
958.502960	2789.438462
958.803022	2742.387692
959.103045	2774.315000
959.403031	2725.583846
959.702979	2812.123654
960.002889	2797.000192
960.302762	2756.670962
960.602596	2759.191538
960.902393	2769.273846
961.202153	2763.392500
961.501875	2750.789615
961.801559	2783.557115
962.101205	2729.784808
962.400814	2740.707308
962.700385	2772.634615
962.999918	2747.428846
963.299414	2792.799231
963.598873	2735.666154
963.898293	2775.995385
964.197677	2808.762885
964.497022	2769.273846
964.796331	2739.867115
965.095601	2781.036538
965.394835	2731.465192
965.694030	2797.000192
965.993189	2723.063269
966.292309	2769.273846
966.591393	2757.511154
966.890439	2765.913077
967.189447	2742.387692
967.488419	2735.666154
967.787353	2739.867115
968.086249	2768.433654
968.385108	2772.634615
968.683930	2728.104423
968.982714	2751.629808
969.281462	2735.666154
969.580172	2784.397308
969.878844	2753.310192
970.177480	2743.227885
970.476078	2719.702500
970.774639	2749.109231
971.073162	2763.392500
971.371649	2737.346538
971.670098	2740.707308
971.968510	2733.985769
972.266885	2714.661346
972.565223	2705.419231
972.863524	2727.264231
973.161788	2723.903462
973.460014	2698.697692
973.758204	2736.506346
974.056356	2731.465192
974.354471	2739.026923
974.652550	2744.068077
974.950591	2721.382885
975.248595	2753.310192
975.546563	2686.094808
975.844493	2706.259423
976.142386	2745.748462
976.440243	2679.373269
976.738062	2688.615385
977.035845	2723.903462
977.333590	2720.542692
977.631299	2654.167500
977.928971	2690.295769
978.226606	2644.085192
978.524204	2666.770385
978.821765	2732.305385
979.119290	2712.980962
979.416777	2677.692885
979.714228	2680.213462
980.011642	2714.661346
980.309020	2680.213462
980.606360	2663.409615
980.903664	2679.373269
981.200931	2663.409615
981.498162	2664.249808
981.795356	2710.460385
982.092513	2671.811538
982.389633	2642.404808
982.686717	2700.378077
982.983764	2664.249808
983.280775	2685.254615
983.577749	2644.085192
983.874686	2675.172308
984.171587	2678.533077
984.468451	2665.930192
984.765279	2648.286154
985.062070	2678.533077
985.358824	2681.053654
985.655543	2644.085192
985.952224	2661.729231
986.248869	2674.332115
986.545478	2684.414423
986.842050	2660.048846
987.138586	2682.734038
987.435086	2660.889038
987.731549	2672.651731
988.027975	2675.172308
988.324366	2643.245000
988.620719	2622.240192
988.917037	2618.879423
989.213318	2620.559808
989.509563	2576.029615
989.805772	2614.678462
990.101944	2668.450769
990.398080	2666.770385
990.694180	2565.107115
990.990244	2580.230577
991.286271	2576.869808
991.582262	2566.787500
991.878217	2610.477500
992.174136	2562.586538
992.470019	2603.755962
992.765865	2551.664038
993.061676	2618.879423
993.357450	2602.075577
993.653188	2586.952115
993.948890	2602.075577
994.244556	2589.472692
994.540186	2591.153077
994.835780	2581.070769
995.131337	2632.322500
995.426859	2601.235385
995.722345	2518.896538
996.017795	2609.637308
996.313208	2602.915769
996.608586	2631.482308
996.903928	2605.436346
997.199234	2584.431538
997.494504	2530.659231
997.789738	2587.792308
998.084936	2625.600962
998.380099	2581.910962
998.675225	2560.906154
998.970316	2593.673654
999.265371	2571.828654
999.560390	2572.668846
999.855373	2544.942500
1000.150320	2593.673654
1000.445232	2581.910962
1000.740108	2540.741538
1001.034948	2555.865000
1001.329752	2550.823846
1001.624521	2586.111923
1001.919254	2521.417115
1002.213951	2576.869808
1002.508613	2535.700385
1002.803239	2565.107115
1003.097829	2521.417115
1003.392384	2555.865000
1003.686903	2502.932885
1003.981386	2573.509038
1004.275834	2570.988462
1004.570246	2534.020000
1004.864623	2584.431538
1005.158964	2585.271731
1005.453270	2546.622885
1005.747540	2558.385577
1006.041775	2581.910962
1006.335974	2581.910962
1006.630138	2516.375962
1006.924266	2579.390385
1007.218359	2523.937692
1007.512416	2534.020000
1007.806438	2557.545385
1008.100425	2566.787500
1008.394376	2557.545385
1008.688292	2570.988462
1008.982172	2538.220962
1009.276017	2607.116731
1009.569827	2551.664038
1009.863602	2571.828654
1010.157341	2585.271731
1010.451045	2555.024808
1010.744714	2494.530962
1011.038347	2550.823846
1011.331945	2544.102308
1011.625508	2534.020000
1011.919036	2522.257308
1012.212528	2492.010385
1012.505986	2544.942500
1012.799408	2516.375962
1013.092795	2519.736731
1013.386147	2570.988462
1013.679464	2550.823846
1013.972745	2570.988462
1014.265992	2546.622885
1014.559204	2545.782692
1014.852380	2546.622885
1015.145521	2502.932885
1015.438628	2526.458269
1015.731699	2554.184615
1016.024736	2562.586538
1016.317737	2548.303269
1016.610703	2528.138654
1016.903635	2585.271731
1017.196531	2526.458269
1017.489393	2539.061154
1017.782219	2523.937692
1018.075011	2539.061154
1018.367768	2565.107115
1018.660490	2519.736731
1018.953177	2519.736731
1019.245829	2519.736731
