Dividing Wavelength (nm)	Counts (n)	Slit_number_8_of_a_total_of_40	
326.493990	2047.716692
326.888308	2047.716692
327.282561	2047.716692
327.676750	2034.282017
328.070874	2030.349917
328.464933	2035.365865
328.858929	2050.817002
329.252859	2060.369988
329.646726	2069.922975
330.040528	2090.062385
330.434265	2107.076279
330.827938	2132.937398
331.221547	2149.699235
331.615091	2169.107677
332.008571	2194.263035
332.401986	2206.613862
332.795338	2226.778477
333.188625	2252.891654
333.581847	2259.672006
333.975006	2293.649383
334.368100	2309.302165
334.761129	2317.897333
335.154095	2338.339212
335.546996	2412.015675
335.939833	2530.054292
336.332606	2536.028060
336.725315	2557.074877
337.117960	2568.190621
337.510540	2578.903073
337.903056	2588.859352
338.295508	2590.875813
338.687896	2593.598037
339.080220	2595.412852
339.472480	2607.889708
339.864676	2609.906169
340.256807	2603.680344
340.648875	2608.318206
341.040879	2619.938065
341.432818	2618.425719
341.824694	2624.525515
342.216506	2623.340844
342.608253	2616.636110
342.999937	2617.568723
343.391557	2619.131481
343.783113	2606.604213
344.174605	2617.946810
344.566033	2615.779113
344.957397	2607.108329
345.348697	2612.603187
345.739934	2610.485902
346.131106	2602.924171
346.522215	2602.571290
346.913260	2607.788885
347.304241	2594.858325
347.695159	2600.832092
348.086012	2601.159767
348.476802	2598.992071
348.867528	2589.287850
349.258191	2585.330544
349.648789	2583.591346
350.039324	2584.927252
350.429796	2596.219437
350.820203	2588.859352
351.210548	2593.547625
351.600828	2588.481265
351.991045	2591.077460
352.381198	2583.692169
352.771288	2586.893302
353.161314	2589.161821
353.551276	2588.077973
353.941175	2574.265212
354.331010	2582.683938
354.720782	2581.625296
355.110490	2598.009046
355.500135	2594.001329
355.889717	2581.978177
356.279235	2584.826429
356.668689	2585.985894
357.058080	2592.060485
357.447408	2590.044023
357.836672	2591.203488
358.225873	2593.749271
358.615010	2591.732810
359.004084	2592.917481
359.393095	2594.505444
359.782043	2587.725092
360.170927	2584.523960
360.559748	2588.834146
360.948505	2584.019844
361.337199	2598.487956
361.725830	2599.420569
362.114398	2598.261104
362.502903	2606.604213
362.891344	2604.890221
363.279722	2580.163362
363.668037	2606.175715
364.056289	2597.530137
364.444478	2598.311515
364.832603	2603.024994
365.220665	2610.057404
365.608665	2606.931888
365.996601	2596.874787
366.384474	2601.613471
366.772284	2591.329517
367.160031	2593.749271
367.547715	2602.495673
367.935336	2595.992585
368.322893	2596.723552
368.710388	2595.059971
369.097820	2601.613471
369.485189	2593.396390
369.872495	2607.436004
370.259738	2609.402054
370.646918	2602.672113
371.034035	2598.714808
371.421090	2604.688575
371.808081	2607.335181
372.195010	2607.108329
372.581875	2602.596496
372.968678	2601.588265
373.355418	2601.663883
373.742096	2599.849067
374.128710	2604.108842
374.515262	2603.957608
374.901751	2614.418002
375.288177	2607.562033
375.674540	2604.512135
376.060841	2598.437544
376.447079	2608.267794
376.833254	2607.889708
377.219367	2603.579521
377.605417	2609.376848
377.991404	2610.359873
378.377329	2616.031171
378.763191	2604.234871
379.148991	2603.453492
379.534727	2610.107815
379.920402	2616.787344
380.306013	2609.023967
380.691563	2621.526029
381.077049	2604.587752
381.462474	2601.134562
381.847835	2609.603700
382.233134	2611.594956
382.618371	2622.206585
383.003545	2611.040429
383.388657	2621.198354
383.773706	2615.174175
384.158693	2613.283742
384.543618	2617.820781
384.928480	2613.586212
385.313280	2612.729215
385.698017	2611.670573
386.082692	2616.005965
386.467305	2618.778600
386.851856	2622.660288
387.236344	2626.894858
387.620770	2613.787858
388.005133	2625.962244
388.389435	2614.846500
388.773674	2618.350102
389.157851	2625.861421
389.541965	2622.307408
389.926018	2622.483848
390.310008	2615.930348
390.693936	2621.349588
391.077802	2626.592388
391.461606	2620.568210
391.845348	2617.190637
392.229027	2621.929321
392.612645	2625.558952
392.996200	2631.431896
393.379694	2628.986937
393.763125	2623.113992
394.146494	2628.709673
394.529801	2632.994654
394.913047	2620.139712
395.296230	2632.440127
395.679351	2628.659262
396.062410	2633.599592
396.445408	2632.515744
396.828343	2631.280662
397.211217	2634.078502
397.594028	2636.473050
397.976778	2640.758031
398.359466	2630.121196
398.742092	2636.372227
399.124656	2638.187042
399.507158	2639.674183
399.889598	2645.244658
400.271977	2645.471510
400.654294	2640.682413
401.036549	2651.697335
401.418742	2655.957110
401.800874	2657.293015
402.182944	2665.787360
402.564952	2671.055365
402.946898	2665.686537
403.328783	2671.458658
403.710606	2670.147958
404.092367	2673.727177
404.474067	2682.448373
404.855705	2686.859383
405.237282	2699.386650
405.618797	2691.850125
406.000250	2704.957125
406.381642	2709.216900
406.762972	2719.021944
407.144240	2722.122254
407.525447	2729.129458
407.906593	2736.968452
408.287677	2746.521438
408.668700	2759.603233
409.049661	2766.635642
409.430560	2769.660335
409.811399	2778.835235
410.192176	2784.506533
410.572891	2800.234933
410.953545	2815.459217
411.334138	2815.156748
411.714669	2839.505521
412.095139	2833.582165
412.475547	2859.065198
412.855894	2868.416538
413.236180	2884.775083
413.616405	2896.546177
413.996568	2923.793613
414.376670	2933.397012
414.756711	2929.364088
415.136691	2955.578088
415.516609	2976.473671
415.896466	2998.730365
416.276262	3025.599715
416.655997	3037.194369
417.035670	3052.645506
417.415283	3097.360540
417.794834	3131.665592
418.174324	3146.562202
418.553753	3171.415090
418.933121	3225.859552
419.312428	3258.526229
419.691674	3287.084365
420.070859	3326.254131
420.449983	3360.508771
420.829045	3415.633788
421.208047	3443.889456
421.586988	3526.060263
421.965867	3585.445056
422.344686	3638.024290
422.723444	3710.163202
423.102141	3680.344777
423.480777	3806.146771
423.859352	3834.125175
424.237866	3999.147346
424.616319	4037.762585
424.994712	4152.927744
425.373044	4226.780648
425.751314	4372.369171
426.129524	4369.016804
426.507673	4584.778188
426.885762	4601.161938
427.263789	4752.371348
427.641756	4857.403788
428.019662	4990.666690
428.397508	5071.879679
428.775292	5274.206388
429.153016	5422.013019
429.530679	5528.255337
429.908282	5688.135531
430.285824	5753.998206
430.663305	6053.367127
431.040726	6100.300269
431.418086	6224.035390
431.795385	6509.389904
432.172624	6766.035046
432.549802	6910.060812
432.926920	7025.024325
433.303977	7231.585604
433.680974	7484.727144
434.057910	7692.422683
434.434786	7909.948471
434.811601	8012.283894
435.188355	8515.592694
435.565050	8601.594779
435.941683	8651.426585
436.318257	9041.989979
436.694770	9246.433973
437.071222	9611.161454
437.447614	9607.909910
437.823946	9867.151246
438.200218	10097.582388
438.576429	10271.174521
438.952580	10444.388567
439.328670	10672.677219
439.704700	10897.865562
440.080670	10816.753396
440.456580	11141.958231
440.832429	11345.646052
441.208218	10928.440160
441.583947	11200.032323
441.959616	11236.353837
442.335224	11278.674323
442.710773	11316.457771
443.086261	11450.123965
443.461689	11179.161946
443.837057	11038.715400
444.212365	11158.820890
444.587612	11035.589885
444.962800	10617.501790
445.337927	10676.054792
445.712995	10038.298419
446.088002	10487.162758
446.462949	10350.093785
446.837837	10089.819012
447.212664	9664.017952
447.587431	9772.024673
447.962139	9572.621833
448.336786	9614.967525
448.711374	9366.161377
449.085901	8817.507398
449.460369	8974.337694
449.834776	8859.928708
450.209124	8958.533677
450.583412	8585.563910
450.957640	8778.841748
451.331808	8616.415771
451.705917	8426.792769
452.079965	8398.940394
452.453954	8382.254175
452.827883	8298.243346
453.201752	8144.715006
453.575562	8172.088471
453.949311	8315.887385
454.323001	8224.163590
454.696632	7999.907862
455.070202	8205.990231
455.443713	8011.931013
455.817164	8020.879062
456.190556	7907.679952
456.563888	7758.335769
456.937160	7789.389277
457.310373	7574.837769
457.683526	7689.019904
458.056619	7693.758588
458.429653	7588.474090
458.802628	7560.420069
459.175542	7436.432890
459.548398	7435.021367
459.921194	7504.034763
460.293930	7260.017712
460.666607	7256.740962
461.039224	7233.854123
461.411782	7163.681262
461.784280	7012.295412
462.156719	7065.529996
462.529099	7095.020746
462.901419	7050.230094
463.273680	6965.513504
463.645882	6985.829354
464.018024	6960.522762
464.390106	6915.480052
464.762130	6999.163206
465.134094	6976.704865
465.505999	6992.105590
465.877845	7063.967238
466.249631	7064.219296
466.621358	7049.423510
466.993026	7123.956969
467.364634	7183.971906
467.736184	7194.029008
468.107674	7285.198275
468.479105	7358.849533
468.850477	7477.266237
469.221790	7514.822833
469.593043	7506.278077
469.964238	7613.301773
470.335373	7728.693785
470.706449	7945.362577
471.077467	7937.321937
471.448425	8028.138323
471.819324	8261.745392
472.190164	8417.895133
472.560945	8474.053587
472.931667	8517.004217
473.302330	8711.214669
473.672934	8834.218823
474.043479	9066.641221
474.413965	9117.834138
474.784393	9197.131488
475.154761	9484.880550
475.525070	9592.030275
475.895321	9660.489144
476.265513	9865.613694
476.635645	10084.223331
477.005719	10183.408033
477.375734	10356.647285
477.745691	10445.447210
478.115588	10724.323840
478.485427	10923.399006
478.855207	11203.914012
479.224928	11347.460867
479.594591	11531.538600
479.964194	11588.301992
480.333739	11871.362781
480.703226	12128.940537
481.072653	12337.593894
481.442022	12510.606294
481.811333	12853.757637
482.180584	12877.677912
482.549777	13183.171835
482.918912	13375.491854
483.287988	13577.112802
483.657005	13755.317590
484.025964	13931.203448
484.394864	14319.775587
484.763706	14573.900152
485.132489	14704.793712
485.501213	14958.893071
485.869879	15248.255302
486.238487	15319.159131
486.607036	15555.664863
486.975527	15630.475587
487.343959	15794.943231
487.712333	16030.087852
488.080648	16205.494800
488.448905	16544.184721
488.817104	16626.708410
489.185244	16871.002725
489.553326	17014.675610
489.921350	17168.708065
490.289315	17417.766271
490.657222	17432.839321
491.025070	17730.973160
491.392861	17786.627498
491.760593	17995.129621
492.128267	18115.613198
492.495883	18289.810269
492.863440	18454.353531
493.230939	18505.546448
493.598380	18562.183812
493.965763	18868.030615
494.333088	18932.658208
494.700354	19021.937042
495.067563	19144.235435
495.434713	19448.116188
495.801805	19636.856988
496.168839	19719.103413
496.535815	19796.132244
496.902733	20008.793319
497.269593	20104.197156
497.636395	20185.284115
498.003139	20597.675706
498.369825	20581.972512
498.736453	20872.847088
499.103023	20819.436063
499.469535	20895.985985
499.835989	21206.924354
500.202385	21191.145542
500.568723	21397.807644
500.935003	21467.728448
501.301226	21427.626069
501.667390	21844.126200
502.033497	22176.640708
502.399546	22006.174090
502.765537	22000.654027
503.131470	22420.128438
503.497345	22758.238627
503.863163	22375.615050
504.228923	22858.683617
504.594625	23241.508840
504.960269	23201.860165
505.325856	23689.591800
505.691385	23502.489375
506.056856	23725.157140
506.422270	24150.025587
506.787625	24199.000396
507.152924	24341.564227
507.518164	24599.721715
507.883347	24267.560088
508.248472	24732.430090
508.613540	25000.216183
508.978550	25397.912810
509.343503	25386.444185
509.708398	25675.377917
510.073236	26052.506637
510.438016	26135.131148
510.802738	26023.343562
511.167403	26464.595758
511.532010	26725.853556
511.896561	26960.090769
512.261053	27572.011229
512.625488	27548.973156
512.989866	27637.319377
513.354186	27638.756106
513.718449	27863.667185
514.082655	28401.785152
514.446803	28487.232710
514.810894	28743.524971
515.174927	28999.817233
515.538904	29015.848102
515.902822	29644.908485
516.266684	29299.866710
516.630488	29763.552040
516.994235	29842.294863
517.357925	30287.882452
517.721558	30512.692708
518.085133	30783.654727
518.448651	31021.723217
518.812112	31081.914594
519.175516	31200.835413
519.538863	31619.830915
519.902152	31659.656031
520.265385	32112.175206
520.628560	32401.713877
520.991678	32341.421677
521.354739	32592.118258
521.717743	32967.406956
522.080690	32979.556137
522.443580	33467.565035
522.806413	33632.788852
523.169189	33723.000300
523.531908	33988.820342
523.894569	34132.468021
524.257174	34324.309131
524.619722	34642.053058
524.982213	34637.188344
525.344647	34711.973862
525.707025	34820.232640
526.069345	35154.309906
526.431608	35297.100588
526.793815	35631.807998
527.155964	35398.301752
527.518057	35565.819294
527.880093	35555.182460
528.242072	35953.559642
528.603995	35789.520496
528.965860	35937.377538
529.327669	36079.412048
529.689421	36075.379125
530.051117	36119.237163
530.412755	36201.735646
530.774337	36336.687335
531.135862	36130.529348
531.497331	36498.256315
531.858743	36335.578281
532.220098	36551.289254
532.581396	36434.536131
532.942638	36280.932173
533.303824	36577.604077
533.664953	36534.477006
534.026025	36328.268608
534.387040	36623.075285
534.747999	36531.124638
535.108902	36678.780035
535.469748	36505.490371
535.830537	36551.087608
536.191270	36666.202356
536.551947	36456.439944
536.912567	36701.792902
537.273131	36862.756944
537.633638	36355.163163
537.994089	36730.275421
538.354483	36278.940917
538.714821	36503.725967
539.075103	36804.355177
539.435328	36603.818077
539.795497	36520.487804
540.155609	36355.768102
540.515665	36640.215208
540.875665	36353.020673
541.235609	36506.221338
541.595496	36488.552094
541.955328	36940.869623
542.315102	36543.425054
542.674821	36128.260829
543.034483	36383.217185
543.394090	36200.198094
543.753640	36170.278846
544.113134	36873.797071
544.472571	36119.816896
544.831953	37111.285829
545.191278	36517.815992
545.550548	36282.898223
545.909761	36481.418862
546.268918	36740.786227
546.628019	36858.043465
546.987064	36655.263052
547.346053	36055.617802
547.704986	36775.444160
548.063863	36286.099356
548.422684	36478.847873
548.781449	36517.261465
549.140158	36683.947217
549.498811	36557.414256
549.857408	36252.953769
550.215949	36848.011569
550.574434	36710.186423
550.932864	36548.113327
551.291237	37134.223079
551.649555	36724.175625
552.007817	36963.983313
552.366022	36696.197221
552.724173	36879.039871
553.082267	37112.092413
553.440305	37548.076604
553.798288	37006.732298
554.156215	37254.883096
554.514086	37474.828638
554.871902	37333.046187
555.229661	37452.571944
555.587365	37340.708740
555.945014	37503.411981
556.302606	37399.135713
556.660143	37819.719179
557.017625	37813.291708
557.375050	37790.178017
557.732421	38104.267108
558.089735	38172.751183
558.446994	38215.500167
558.804197	38745.148996
559.161345	38779.554871
559.518437	38276.548540
559.875474	38755.911860
560.232455	38793.594485
560.589381	39224.562727
560.946251	38961.969023
561.303065	39803.413217
561.659825	39828.593781
562.016528	39545.205317
562.373177	39543.466119
562.729770	40076.013612
563.086307	39785.668356
563.442789	40307.276544
563.799216	40644.277679
564.155587	40464.031223
564.511904	40707.670188
564.868164	40963.659981
565.224370	41258.164188
565.580520	41222.296379
565.936615	41556.827348
566.292654	41595.316558
566.648638	41843.542973
567.004567	42000.373269
567.360441	42148.381546
567.716260	42278.014817
568.072023	42537.936710
568.427732	42704.345198
568.783385	42572.317379
569.138982	43069.022267
569.494525	43142.648319
569.850013	43228.221906
570.205445	43328.944160
570.560823	43652.107327
570.916145	43770.927323
571.271412	43841.226213
571.626625	43890.125406
571.981782	44217.749994
572.336884	44171.018498
572.691931	44751.961067
573.046923	44553.616869
573.401860	44578.948667
573.756743	44871.335590
574.111570	45134.055323
574.466342	45179.198856
574.821059	45513.225710
575.175722	45345.078023
575.530330	45468.813144
575.884882	45630.533360
576.239380	45921.055056
576.593823	45885.086423
576.948211	46144.857081
577.302544	45933.960410
577.656823	46152.065931
578.011047	46597.451873
578.365216	46422.775892
578.719330	46548.628298
579.073389	46497.082500
579.427394	46926.916483
579.781344	47118.581152
580.135239	46940.603215
580.489080	47196.794654
580.842866	46931.403110
581.196597	47521.142492
581.550273	47628.115777
581.903895	47615.966596
582.257463	48146.699273
582.610975	47708.875062
582.964434	48040.734219
583.317837	47961.336046
583.671186	47988.659100
584.024481	48324.576387
584.377721	48061.024863
584.730906	48658.300771
585.084037	48877.414523
585.437113	48850.444350
585.790135	49142.831273
586.143103	48994.949025
586.496016	49271.657960
586.848874	49532.562877
587.201679	49840.249702
587.554428	49427.454819
587.907124	49829.486838
588.259765	49840.098467
588.612352	50423.385173
588.964884	50055.179296
589.317362	50514.025119
589.669786	50683.231448
590.022155	50638.642442
590.374470	51493.269254
590.726731	51211.216696
591.078937	51305.335038
591.431090	51450.973973
591.783188	51691.361394
592.135232	51615.391206
592.487222	52192.250440
592.839157	52501.525229
593.191038	52533.032440
593.542866	52649.886387
593.894639	52333.100279
594.246358	52973.175583
594.598022	53368.578485
594.949633	53253.841823
595.301190	53544.691194
595.652692	53691.968504
596.004141	54202.990269
596.355535	53632.886181
596.706876	53939.842038
597.058162	54195.302510
597.409395	54957.020856
597.760573	55289.863038
598.111698	55091.090342
598.462768	55543.256637
598.813785	55922.225377
599.164748	55577.360042
599.515657	56260.764063
599.866511	56081.752690
600.217312	56730.801248
600.568060	55917.436281
600.918753	56872.432465
601.269392	57152.418150
601.619978	56981.523035
601.970510	57416.524200
602.320988	57825.941510
602.671412	58366.806906
603.021783	58222.856758
603.372100	58198.003869
603.722363	58458.782758
604.072572	58755.379044
604.422728	59034.583350
604.772830	59029.970694
605.122878	59234.893598
605.472872	59352.528923
605.822813	59783.824840
606.172701	59817.474542
606.522534	60018.919050
606.872314	60498.685662
607.222041	60335.553923
607.571714	60763.220210
607.921333	60413.162487
608.270899	60743.862179
608.620411	61019.361237
608.969870	61014.824198
609.319276	61069.797981
609.668627	61232.728073
610.017926	61615.276033
610.367171	61821.257579
610.716362	61867.661400
611.065500	61836.935567
611.414585	61965.031287
611.763616	62263.921298
612.112594	62189.740719
612.461518	62398.318460
612.810389	62535.967165
613.159207	62440.891004
613.507971	62556.887954
613.856682	62768.540798
614.205340	62716.490885
614.553945	63182.671587
614.902496	62872.111304
615.250994	63159.129398
615.599439	63209.893817
615.947830	63322.664429
616.296169	63351.877915
616.644454	63293.703000
616.992686	63414.766310
617.340864	63637.585310
617.688990	63472.714373
618.037063	63693.642940
618.385082	63631.107427
618.733048	63728.452108
619.080961	63731.023096
619.428821	63660.724206
619.776628	63717.285952
620.124382	63599.650627
620.472083	63759.782879
620.819731	63896.977881
621.167326	63843.163563
621.514868	63898.868313
621.862357	63788.845131
622.209793	63882.232506
622.557176	63834.896071
622.904506	63789.626510
623.251783	63776.040600
623.599007	63780.199552
623.946179	63684.266394
624.293297	63893.373456
624.640363	63529.679412
624.987376	63743.247894
625.334336	63630.603312
625.681243	63517.126938
626.028097	63519.521487
626.374899	63489.299769
626.721647	63495.475183
627.068343	63520.126425
627.414987	63393.845521
627.761577	63203.667992
628.108115	63399.365585
628.454600	63103.928763
628.801032	63104.130410
629.147412	63050.114446
629.493739	63020.774931
629.840014	62760.953862
630.186236	62851.543396
630.532405	62509.475902
630.878521	62579.850410
631.224585	62478.094719
631.570597	62208.443400
631.916556	62224.197006
632.262462	62142.933606
632.608316	62129.246873
632.954117	62091.765894
633.299866	62037.346638
633.645562	61983.053412
633.991206	61710.679869
634.336797	61341.289321
634.682336	61509.739477
635.027823	61353.892206
635.373257	61177.703879
635.718639	61185.769725
636.063968	61056.640569
636.409245	60731.410529
636.754470	60847.987212
637.099642	60713.161552
637.444762	60300.593521
637.789829	60447.165069
638.134845	60211.818802
638.479808	60215.398021
638.824719	59999.561019
639.169577	59723.028525
639.514383	59664.677169
639.859137	59431.851479
640.203839	59638.261523
640.548489	59070.526777
640.893086	59243.312325
641.237632	58923.123438
641.582125	58878.584844
641.926566	58828.374952
642.270955	58566.814685
642.615292	58568.301825
642.959576	58369.503923
643.303809	58160.170010
643.647990	58136.476587
643.992118	57933.444115
644.336195	57681.361217
644.680219	57501.139967
645.024192	57517.296865
645.368112	57493.250562
645.711981	56951.830638
646.055797	57360.516981
646.399562	56779.070296
646.743274	57158.870827
647.086935	57015.928910
647.430544	56358.259979
647.774101	56258.697190
648.117606	56071.897235
648.461059	56383.339719
648.804460	56053.698669
649.147810	55392.324490
649.491108	55440.845596
649.834354	55085.494662
650.177548	54549.670419
650.520690	54506.644171
650.863781	54901.568163
651.206820	54977.160265
651.549807	54808.634492
651.892742	54499.662173
652.235626	54367.281473
652.578458	54212.870931
652.921238	53772.349702
653.263967	54100.579229
653.606644	53653.000385
653.949269	53633.692765
654.291843	53090.911731
654.634365	53611.083190
654.976836	53147.498683
655.319255	52910.614863
655.661622	52958.203356
656.003938	52610.565387
656.346203	52379.932598
656.688416	52499.004652
657.030577	52245.711877
657.372687	52033.479300
657.714746	52337.838963
658.056753	52275.731948
658.398708	51662.374760
658.740612	51610.828962
659.082465	51841.789425
659.424266	51455.536217
659.766016	51555.577915
660.107715	51316.173519
660.449362	51395.193606
660.790958	51206.049513
661.132503	51224.424519
661.473996	50942.195521
661.815438	50999.110148
662.156829	51223.088613
662.498168	50706.168698
662.839456	50670.074037
663.180693	50672.065292
663.521879	50737.852350
663.863013	50576.585838
664.204097	50410.530231
664.545129	50894.909498
664.886110	50682.979390
665.227040	50538.021012
665.567918	50627.173817
665.908746	50546.263298
666.249522	50678.291117
666.590248	50617.822477
666.930922	50643.834831
667.271545	50569.578635
667.612118	50734.550394
667.952639	50550.018958
668.293109	50725.425906
668.633528	50770.720673
668.973896	50774.350304
669.314213	51084.784558
669.654480	50812.335398
669.994695	51034.070550
670.334859	50972.770119
670.674973	51043.069010
671.015035	51254.797471
671.355047	51326.986794
671.695008	51402.931777
672.034918	51399.276940
672.374777	51563.013617
672.714585	51440.085081
673.054342	51917.633585
673.394049	51710.895865
673.733705	52261.163013
674.073310	52026.446890
674.412864	52393.896594
674.752368	52120.061117
675.091820	52929.720837
675.431223	52840.013504
675.770574	52824.411133
676.109875	53197.002813
676.449125	53222.989962
676.788324	53646.572913
677.127473	53405.807406
677.466571	53846.832750
677.805619	53744.446915
678.144616	54275.230004
678.483562	54495.251163
678.822458	54428.556698
679.161303	54664.028994
679.500098	54786.856708
679.838842	54778.387569
680.177535	55091.796104
680.516179	55329.108421
680.854771	55294.526106
681.193314	55606.271060
681.531805	55765.521110
681.870247	55492.945921
682.208638	55643.348746
682.546978	55763.378619
682.885268	56039.154940
683.223508	55870.402315
683.561697	55884.618369
683.899836	56167.830392
684.237925	55939.869415
684.575963	56061.008342
684.913951	55731.820996
685.251889	55913.327740
685.589776	55920.990294
685.927614	55807.513921
686.265401	55656.682598
686.603137	55369.437652
686.940824	55476.461348
687.278460	55481.754560
687.616046	54954.248221
687.953582	55054.768829
688.291068	54464.096833
688.628504	54595.519713
688.965889	54365.617892
689.303224	54006.838973
689.640510	53926.205717
689.977745	53413.066667
690.314930	52951.826296
690.652065	52847.978527
690.989150	52512.590562
691.326185	51991.108402
691.663170	51607.703446
692.000105	51191.606608
692.336990	50704.832792
692.673825	50588.356933
693.010610	50196.306398
693.347345	49695.165294
693.684030	49015.542138
694.020665	48793.227254
694.357251	48011.041823
694.693786	48035.945123
695.030272	47830.316458
695.366707	46928.454035
695.703093	46500.560896
696.039429	46250.771723
696.375716	45625.693852
696.711952	45326.652606
697.048139	44819.991438
697.384276	44299.920802
697.720363	44310.028315
698.056400	43595.621198
698.392388	43061.964652
698.728326	42948.740337
699.064214	42553.135788
699.400053	42406.589446
699.735842	42036.291490
700.071581	41492.603048
700.407270	41101.964037
700.742910	40943.066867
701.078501	40689.143948
701.414042	40249.051217
701.749533	39958.126229
702.084974	39444.054565
702.420366	39972.065019
702.755709	39353.616265
703.091002	39036.275631
703.426246	39168.202627
703.761440	39128.856421
704.096584	38679.538379
704.431679	38814.817742
704.766725	38608.231258
705.101721	38599.232798
705.436668	38749.459183
705.771565	38000.066458
706.106413	38767.556925
706.441212	38454.602094
706.775961	38642.838779
707.110661	38612.818708
707.445311	39053.541583
707.779913	38347.578398
708.114465	38505.946246
708.448967	38524.699338
708.783421	39462.303542
709.117825	39316.009258
709.452180	39185.468579
709.786485	39155.171244
710.120742	39909.731152
710.454949	39260.606977
710.789107	39294.735588
711.123216	39937.961613
711.457275	39667.201240
711.791286	40295.303804
712.125247	40271.131471
712.459159	39987.894242
712.793023	41290.856071
713.126837	40036.390142
713.460602	41109.198092
713.794318	41466.212608
714.127985	41592.266660
714.461602	41145.418783
714.795171	42230.552354
715.128691	41425.278438
715.462162	41594.913265
715.795584	41934.813063
716.128957	42473.107471
716.462281	42806.957885
716.795556	43393.571752
717.128782	43311.552179
717.461960	43162.737317
717.795088	43926.875417
718.128167	43814.306452
718.461198	43657.551773
718.794180	44220.421806
719.127113	44292.989215
719.459997	44722.646758
719.792833	44903.447740
720.125619	45542.161933
720.458357	45650.193860
720.791046	45847.378592
721.123686	46109.644621
721.456278	46154.561302
721.788821	46594.956502
722.121315	46480.194635
722.453761	47190.568829
722.786158	47592.550437
723.118506	47893.658556
723.450805	47911.957944
723.783056	48674.709727
724.115259	48702.234427
724.447412	48557.603723
724.779518	49663.607671
725.111574	49788.300612
725.443582	50253.851169
725.775542	50119.378390
726.107453	51207.486242
726.439315	50431.728283
726.771129	51055.596277
727.102895	51378.129300
727.434612	51269.013525
727.766281	51309.090698
728.097901	51849.704037
728.429473	51901.501892
728.760996	52075.774581
729.092471	52447.484060
729.423897	52154.945902
729.755276	51688.815612
730.086606	51547.058365
730.417887	51990.301817
730.749120	52349.962938
731.080305	51815.071310
731.411442	51972.506544
731.742530	51644.730721
732.073570	51242.345821
732.404562	51476.330977
732.735506	50908.495408
733.066401	50480.904738
733.397249	50141.685496
733.728048	49758.330952
734.058798	48952.956213
734.389501	48341.590281
734.720156	48006.504785
735.050762	47207.960810
735.381320	46599.745598
735.711831	45937.892510
736.042293	44585.250110
736.372707	44156.676415
736.703073	42897.270156
737.033391	42653.101869
737.363661	41412.095821
737.693883	40516.912927
738.024056	39569.881765
738.354182	38576.043490
738.684260	37774.878115
739.014290	36755.380367
739.344272	35754.988592
739.674207	35072.996094
740.004093	34095.970067
740.333931	33038.840106
740.663722	32230.465881
740.993464	31565.260425
741.323159	30569.078013
741.652806	29642.236673
741.982405	28796.961202
742.311956	27865.784469
742.641460	27388.160348
742.970915	26695.909102
743.300323	25895.550312
743.629683	25366.556833
743.958996	24760.988227
744.288260	24169.686087
744.617477	23462.412202
744.946647	23094.458383
745.275768	22501.341427
745.604842	21995.764108
745.933869	21461.048919
746.262847	21196.161490
746.591778	20843.431956
746.920662	20392.752802
747.249498	20035.461023
747.578286	19754.845194
747.907027	19488.420213
748.235720	19347.545169
748.564365	19028.087250
748.892963	18675.912242
749.221514	18590.162215
749.550017	18268.965098
749.878473	18267.251106
750.206881	17978.115727
750.535242	17903.052946
750.863555	17781.712373
751.191821	17690.895987
751.520039	17831.292121
751.848210	17651.600192
752.176334	17710.506075
752.504411	17539.006021
752.832440	17446.500848
753.160421	17687.367179
753.488356	17626.117160
753.816243	17724.318837
754.144082	17680.612033
754.471875	17750.835306
754.799620	17845.281323
755.127318	18046.524185
755.454969	18155.917223
755.782572	18246.330317
756.110129	18511.293363
756.437638	18568.838135
756.765100	18764.258463
757.092515	18937.825390
757.419882	19091.958669
757.747203	19253.653679
758.074477	19545.687721
758.401703	19534.647594
758.728882	19953.214598
759.056014	20101.853019
759.383099	20296.794438
759.710138	20549.910773
760.037129	20856.135663
760.364073	21178.643481
760.690970	21322.719658
761.017820	21494.875062
761.344623	21901.444119
761.671379	22274.993619
761.998088	22443.191717
762.324751	22726.857444
762.651366	22999.230987
762.977935	23543.121075
763.304456	23655.286748
763.630931	24017.266800
763.957359	24388.094077
764.283740	24615.046823
764.610074	25096.678662
764.936362	25171.590208
765.262602	25723.546142
765.588796	25905.002475
765.914943	26394.725365
766.241044	26728.928660
766.567097	27083.825890
766.893104	27391.991625
767.219064	27845.645060
767.544978	28124.546896
767.870845	28388.451300
768.196665	29030.417037
768.522438	29479.911519
768.848165	30014.979588
769.173846	30466.389710
769.499479	31069.462944
769.825066	31433.182194
770.150607	31704.471888
770.476101	32595.092538
770.801548	33129.631287
771.126949	33500.206506
771.452303	34125.511229
771.777611	34347.095146
772.102872	35210.543977
772.428087	35657.089385
772.753256	36104.718640
773.078378	36689.517692
773.403453	37018.780656
773.728482	37343.405758
774.053465	37912.224352
774.378401	38311.105650
774.703291	38521.548617
775.028135	38604.324363
775.352932	39044.744769
775.677683	39090.165565
776.002388	38886.805419
776.327046	39504.901292
776.651658	39112.170202
776.976224	38882.293587
777.300743	38953.928383
777.625216	38537.932367
777.949643	38152.863831
778.274024	38123.146229
778.598359	37388.599702
778.922647	37141.331106
779.246889	36286.653883
779.571086	35734.042598
779.895236	35121.744052
780.219339	34148.322450
780.543397	33315.549040
780.867409	32920.070521
781.191374	32102.546602
781.515294	31181.830263
781.839167	30867.010206
782.162995	29975.759412
782.486776	29139.734458
782.810511	28386.812925
783.134201	27463.979302
783.457844	27131.338765
783.781441	26462.906971
784.104993	25976.385213
784.428498	25329.958056
784.751958	24861.912127
785.075372	24383.229363
785.398739	23776.350058
785.722061	23511.134954
786.045337	23039.862687
786.368568	23073.058685
786.691752	22280.438065
787.014891	22235.470973
787.337983	21749.478537
787.661030	21573.214592
787.984031	21320.551962
788.306987	21095.540060
788.629897	20900.220554
788.952760	20701.498269
789.275579	20655.901033
789.598351	20319.908129
789.921078	20138.955912
790.243759	19915.002652
790.566395	19948.450708
790.888984	19764.851885
791.211529	19896.173942
791.534027	19667.028294
791.856480	19576.993287
792.178888	19698.056596
792.501249	19760.491287
792.823566	19494.242746
793.145836	19677.135808
793.468062	19724.220185
793.790241	19554.182065
794.112375	19695.914106
794.434464	19983.814402
794.756507	19738.587473
795.078505	19723.312777
795.400457	19894.510362
795.722364	20093.484704
796.044226	20231.410673
796.366042	20443.239958
796.687812	20188.283602
797.009538	20522.184427
797.331218	20541.744104
797.652852	20795.288937
797.974442	20798.590892
798.295986	21153.362094
798.617484	21167.174856
798.938938	21243.145044
799.260346	21609.964604
799.581709	21456.864762
799.903026	21805.788225
800.224299	22047.940050
800.545526	21924.356163
800.866708	22117.407150
801.187845	22384.361452
801.508936	22338.688598
801.829983	22641.283858
802.150984	22324.573367
802.471940	22580.865629
802.792851	22785.107977
803.113717	22901.861100
803.434538	22942.694446
803.755314	22896.088979
804.076045	22854.121373
804.396731	22578.622315
804.717372	22570.657292
805.037967	22357.114015
805.358518	22281.219444
805.679024	22321.624292
805.999485	21940.588679
806.319901	21609.788163
806.640272	21325.971202
806.960598	21191.851304
807.280879	20668.831592
807.601115	20423.503840
807.921306	19853.651810
808.241453	19387.798783
808.561554	19111.115054
808.881611	18585.221885
809.201623	18222.863746
809.521590	17608.851208
809.841513	17254.004388
810.161390	17074.413283
810.481223	16388.816360
810.801011	16027.869744
811.120755	15636.953469
811.440453	15110.203304
811.760107	14699.979410
812.079716	14372.581673
812.399281	13863.853633
812.718801	13625.785142
813.038276	13267.233075
813.357707	12857.362062
813.677093	12721.729817
813.996434	12223.764640
814.315731	12029.579394
814.634983	11730.916235
814.954191	11438.302460
815.273354	11290.092537
815.592473	11027.398010
815.911547	10811.737448
816.230577	10549.698271
816.549562	10394.254292
816.868502	10161.806688
817.187399	9994.163117
817.506250	9855.934679
817.825058	9613.404767
818.143821	9531.788487
818.462539	9395.526098
818.781213	9171.572838
819.099843	9023.060446
819.418429	9033.016725
819.736970	8861.113379
820.055466	8714.768683
820.373919	8647.418867
820.692327	8571.700737
821.010691	8378.750573
821.329011	8354.477417
821.647286	8296.453737
821.965517	8243.244358
822.283704	8091.303981
822.601847	8156.057602
822.919945	8012.258688
823.237999	7986.195923
823.556010	7948.412475
823.873976	7906.621310
824.191897	7822.055954
824.509775	7807.915517
824.827609	7707.445321
825.145398	7677.374838
825.463144	7678.635127
825.780845	7704.269394
826.098502	7646.346537
826.416116	7604.076462
826.733685	7615.897967
827.051210	7593.212775
827.368692	7547.111423
827.686129	7563.343938
828.003522	7575.367090
828.320872	7509.151535
828.638177	7513.033223
828.955439	7526.745162
829.272656	7513.461721
829.589830	7551.093935
829.906960	7515.301742
830.224046	7536.071296
830.541088	7529.467385
830.858086	7561.100625
831.175041	7532.592900
831.491952	7576.148469
831.808819	7567.376862
832.125642	7595.456088
832.442421	7623.207640
832.759157	7632.760627
833.075849	7667.418560
833.392497	7694.061058
833.709101	7709.335754
834.025662	7711.604273
834.342179	7746.035354
834.658653	7769.804394
834.975083	7816.409862
835.291469	7863.897531
835.607811	7859.209258
835.924110	7960.612067
836.240366	8022.971140
836.556578	8010.746342
836.872746	8046.841004
837.188871	8111.997917
837.504952	8159.258735
837.820990	8183.531890
838.136984	8230.339004
838.452935	8345.327723
838.768842	8364.660548
839.084706	8438.286600
839.400526	8497.747010
839.716303	8515.769135
840.032037	8592.823171
840.347727	8654.022779
840.663373	8729.816527
840.978977	8822.649375
841.294537	8897.384481
841.610054	8916.666894
841.925527	9040.855719
842.240957	9136.738465
842.556344	9213.590856
842.871687	9315.472575
843.186987	9374.806956
843.502244	9461.237538
843.817458	9528.461325
844.132629	9590.593546
844.447756	9725.494823
844.762840	9874.183656
845.077881	9924.998487
845.392879	10025.998004
845.707833	10127.627665
846.022745	10223.359177
846.337613	10382.331963
846.652438	10418.477037
846.967221	10619.316606
847.281960	10660.931331
847.596656	10799.210181
847.911309	10971.869700
848.225919	11028.910356
848.540485	11173.692294
848.855009	11311.971144
849.169490	11378.337935
849.483928	11535.269054
849.798323	11672.111175
850.112675	11721.716129
850.426984	11935.965167
850.741251	12011.859738
851.055474	12114.018721
851.369654	12290.887604
851.683792	12354.053262
851.997887	12535.660829
852.311938	12682.030731
852.625947	12820.233963
852.939914	12842.062160
853.253837	13104.655863
853.567718	13177.097244
853.881555	13234.667221
854.195350	13454.965644
854.509103	13494.286644
854.822812	13632.867963
855.136479	13650.663237
855.450103	13862.492521
855.763685	13786.572744
856.077224	13881.548083
856.390720	14018.364998
856.704173	14092.343931
857.017584	14106.938071
857.330953	14132.597544
857.644278	14153.568744
857.957561	14182.933465
858.270802	14227.472060
858.584000	14257.391308
858.897155	14258.298715
859.210268	14144.318227
859.523339	14043.469944
859.836367	14077.774996
860.149352	13984.185975
860.462295	13972.414881
860.775195	13860.249208
861.088054	13804.594869
861.400869	13712.644223
861.713642	13610.258388
862.026373	13519.719265
862.339062	13390.867373
862.651708	13249.563831
862.964312	13194.716077
863.276873	12949.262296
863.589392	12917.629056
863.901869	12756.286927
864.214303	12479.376346
864.526696	12340.114471
864.839045	12163.371617
865.151353	12076.487331
865.463619	11864.380783
865.775842	11703.694004
866.088023	11577.589540
866.400162	11361.273629
866.712258	11228.565254
867.024313	11065.509133
867.336325	10953.746752
867.648296	10791.950919
867.960224	10640.489452
868.272110	10530.919973
868.583954	10372.426096
868.895755	10270.594788
869.207515	10035.878665
869.519233	10037.239777
869.830909	9859.942396
870.142542	9759.724258
870.454134	9567.530267
870.765684	9492.190223
871.077191	9427.260162
871.388657	9294.324935
871.700081	9240.107325
872.011463	9159.625304
872.322803	9071.203465
872.634101	8928.765663
872.945357	8865.448771
873.256571	8839.965738
873.567744	8769.439996
873.878874	8661.559304
874.189963	8680.715688
874.501010	8605.047969
874.812015	8515.214608
875.122979	8536.009367
875.433900	8454.619938
875.744780	8403.830313
876.055618	8401.234119
876.366415	8339.328750
876.677169	8304.292731
876.987882	8296.831823
877.298554	8271.550437
877.609183	8267.492308
877.919771	8230.792708
878.230317	8192.958848
878.540822	8166.946494
878.851285	8153.310173
879.161707	8105.520035
879.472087	8099.873942
879.782425	8057.150163
880.092722	8103.453162
880.402977	8072.828152
880.713191	8015.812702
881.023363	8025.768981
881.333494	7957.562169
881.643583	7973.643450
881.953631	7954.915563
882.263637	7932.457223
882.573602	7886.053402
882.883526	7895.782829
883.193408	7863.544650
883.503248	7846.278698
883.813048	7827.097108
884.122806	7842.044129
884.432522	7787.977754
884.742197	7790.246273
885.051831	7813.032288
885.361424	7767.182994
885.670975	7758.436592
885.980485	7739.255002
886.289954	7699.077006
886.599382	7710.722071
886.908768	7693.708177
887.218113	7682.794079
887.527417	7674.703027
887.836680	7649.497258
888.145901	7617.813606
888.455082	7637.776575
888.764221	7625.123279
889.073319	7572.922131
889.382376	7564.276552
889.691392	7560.823362
890.000366	7544.288377
890.309300	7517.419027
890.618193	7524.249790
890.927044	7482.861917
891.235855	7483.366033
891.544625	7489.188565
891.853353	7454.732279
892.162041	7429.375275
892.470687	7410.949858
892.779293	7365.705502
893.087858	7361.647373
893.396381	7360.865994
893.704864	7333.190060
894.013306	7300.750235
894.321707	7293.465767
894.630068	7259.715242
894.938387	7213.991977
895.246665	7195.616971
895.554903	7164.008937
895.863100	7109.766121
896.171256	7102.078362
896.479371	7093.735252
896.787446	7063.009419
897.095480	7003.549010
897.403473	6964.530479
897.711425	6935.392610
898.019336	6913.866883
898.327207	6871.924483
898.635038	6857.027873
898.942827	6793.458923
899.250576	6764.673935
899.558284	6698.735642
899.865952	6709.498506
900.173579	6654.096225
900.481165	6627.050435
900.788711	6586.166677
901.096216	6534.595673
901.403681	6499.937740
901.711105	6482.722200
902.018489	6414.565800
902.325832	6392.561163
902.633135	6329.748387
902.940397	6295.418129
903.247619	6248.258135
903.554800	6208.206167
903.861941	6196.056987
904.169041	6136.546165
904.476101	6101.182471
904.783121	6041.923708
905.090100	6019.389750
905.397039	5968.398479
905.703938	5939.361433
906.010796	5882.850098
906.317614	5850.006981
906.624391	5796.192663
906.931129	5781.220437
907.237826	5727.859823
907.544483	5688.866498
907.851099	5646.823275
908.157675	5609.972440
908.464211	5540.833015
908.770707	5527.020254
909.077163	5488.556250
909.383578	5436.707983
909.689954	5366.081417
909.996289	5353.226475
910.302584	5285.750631
910.608839	5276.878200
910.915054	5206.604515
911.221229	5165.619935
911.527363	5150.420856
911.833458	5123.929592
912.139513	5082.592131
912.445527	4995.002083
912.751502	4990.263398
913.057436	4950.942398
913.363331	4926.316362
913.669186	4870.157908
913.975000	4823.678469
914.280775	4792.272081
914.586510	4750.884208
914.892205	4706.446437
915.197859	4664.403213
915.503475	4649.683044
915.809050	4609.454637
916.114585	4577.695367
916.420081	4535.097617
916.725536	4517.554402
917.030952	4437.904171
917.336328	4428.376390
917.641665	4389.710740
917.946961	4361.102192
918.252218	4342.676775
918.557435	4277.217392
918.862612	4248.381992
919.167750	4237.039396
919.472848	4194.366029
919.777906	4182.771375
920.082925	4138.459633
920.387904	4091.677725
920.692843	4079.931837
920.997743	4045.727608
921.302603	4005.801669
921.607423	3984.754852
921.912204	3942.711629
922.216946	3923.101540
922.521647	3894.089700
922.826310	3866.111296
923.130932	3835.057788
923.435516	3801.886996
923.740059	3790.998104
924.044564	3756.768669
924.349028	3734.537181
924.653454	3721.203329
924.957840	3670.514527
925.262186	3669.581913
925.566493	3632.756285
925.870761	3590.183740
926.174989	3586.755756
926.479178	3565.179617
926.783328	3533.470760
927.087438	3525.077238
927.391509	3500.375585
927.695541	3470.859629
927.999533	3454.072587
928.303486	3431.059719
928.607400	3407.441913
928.911275	3403.913106
929.215110	3377.194990
929.518906	3350.577698
929.822663	3353.451156
930.126381	3321.364212
930.430060	3315.314827
930.733699	3301.350831
931.037299	3283.757204
931.340861	3252.426433
931.644383	3244.032912
931.947866	3234.127044
932.251309	3200.956252
932.554714	3204.938763
932.858080	3189.386804
933.161407	3161.433606
933.464694	3156.014365
933.767943	3149.586894
934.071153	3129.623925
934.374323	3118.810650
934.677455	3101.695933
934.980548	3100.107969
935.283602	3079.842531
935.586617	3076.263312
935.889593	3067.315263
936.192530	3060.282854
936.495428	3043.445400
936.798287	3035.808052
937.101108	3026.986033
937.403890	3016.954137
937.706632	3017.180988
938.009336	3000.368740
938.312002	3000.141888
938.614628	2989.126967
938.917216	2984.715958
939.219765	2969.264821
939.522275	2974.910913
939.824747	2962.131588
940.127179	2959.535394
940.429573	2954.242183
940.731929	2937.329112
941.034246	2941.462858
941.336524	2930.170673
941.638763	2925.860487
941.940964	2927.196392
942.243126	2922.482913
942.545250	2913.963363
942.847335	2908.493712
943.149381	2903.351735
943.451389	2896.193296
943.753359	2897.478790
944.055290	2892.084756
944.357182	2898.890313
944.659036	2893.269427
944.960851	2891.076525
945.262628	2883.565206
945.564367	2885.027140
945.866067	2877.969525
946.167729	2877.238558
946.469352	2884.598642
946.770937	2872.701519
947.072484	2867.509131
947.373992	2873.810573
947.675462	2885.732902
947.976893	2866.727752
948.278286	2862.896475
948.579641	2868.114069
948.880958	2865.467463
949.182236	2870.634646
949.483476	2870.029708
949.784678	2866.576517
950.085841	2869.399563
950.386967	2864.459233
950.688054	2874.844010
950.989103	2871.063144
951.290114	2863.501413
951.591087	2872.802342
951.892021	2877.994731
952.192917	2874.339894
952.493776	2878.952550
952.794596	2873.987013
953.095378	2874.491129
953.396122	2870.004502
953.696828	2869.475181
953.997496	2881.321892
954.298126	2884.976729
954.598718	2875.852240
954.899272	2880.490102
955.199788	2880.288456
955.500266	2878.750904
955.800706	2886.589898
956.101108	2884.497819
956.401472	2894.328069
956.701798	2888.505537
957.002087	2881.901625
957.302337	2893.924777
957.602550	2892.009138
957.902724	2883.691235
958.202861	2895.109448
958.502960	2898.083729
958.803022	2905.015315
959.103045	2890.698438
959.403031	2892.286402
959.702979	2897.352762
960.002889	2890.925290
960.302762	2904.536406
960.602596	2903.981879
960.902393	2908.997827
961.202153	2909.930440
961.501875	2905.443813
961.801559	2912.829104
962.101205	2905.897517
962.400814	2914.341450
962.700385	2911.846079
962.999918	2898.512227
963.299414	2900.528688
963.598873	2908.418094
963.898293	2902.444327
964.197677	2914.417067
964.497022	2921.827563
964.796331	2908.922210
965.095601	2919.206163
965.394835	2911.115112
965.694030	2917.945875
965.993189	2912.980338
966.292309	2917.214908
966.591393	2917.542583
966.890439	2915.248858
967.189447	2919.911925
967.488419	2915.425298
967.787353	2904.057496
968.086249	2911.215935
968.385108	2909.602765
968.683930	2905.670665
968.982714	2907.510687
969.281462	2903.477763
969.580172	2910.686613
969.878844	2902.998854
970.177480	2906.326015
970.476078	2899.167577
970.774639	2900.957187
971.073162	2894.882596
971.371649	2890.723644
971.670098	2890.900085
971.968510	2893.092987
972.266885	2894.529715
972.565223	2898.285375
972.863524	2882.027654
973.161788	2881.977242
973.460014	2883.338354
973.758204	2889.665002
974.056356	2885.808519
974.354471	2876.583208
974.652550	2873.936602
974.950591	2888.102244
975.248595	2872.651108
975.546563	2880.994217
975.844493	2877.364587
976.142386	2873.281252
976.440243	2876.507590
976.738062	2874.743187
977.035845	2869.550798
977.333590	2859.115610
977.631299	2862.115096
977.928971	2855.738037
978.226606	2849.335771
978.524204	2852.108406
978.821765	2856.998325
979.119290	2853.671163
979.416777	2852.108406
979.714228	2841.950481
980.011642	2843.336798
980.309020	2842.126921
980.606360	2830.002946
980.903664	2840.286900
981.200931	2839.127435
981.498162	2831.137206
981.795356	2837.715912
982.092513	2830.809531
982.389633	2824.256031
982.686717	2828.868687
982.983764	2817.551296
983.280775	2819.466935
983.577749	2816.744712
983.874686	2813.669608
984.171587	2814.299752
984.468451	2817.450473
984.765279	2799.151085
985.062070	2797.916002
985.358824	2795.067750
985.655543	2799.100673
985.952224	2800.764254
986.248869	2785.716410
986.545478	2795.723100
986.842050	2793.656227
987.138586	2783.725154
987.435086	2786.270937
987.731549	2781.179371
988.027975	2775.734925
988.324366	2778.784823
988.620719	2773.491612
988.917037	2774.978752
989.213318	2774.020933
989.509563	2764.669592
989.805772	2763.006012
990.101944	2759.804879
990.398080	2760.535846
990.694180	2752.797675
990.990244	2756.805392
991.286271	2752.671646
991.582262	2747.378435
991.878217	2744.202508
992.174136	2734.221023
992.470019	2747.806933
992.765865	2738.732856
993.061676	2738.959708
993.357450	2744.303331
993.653188	2739.085737
993.948890	2726.482852
994.244556	2732.532237
994.540186	2725.928325
994.835780	2732.834706
995.131337	2723.054867
995.426859	2717.635627
995.722345	2715.745194
996.017795	2720.357850
996.313208	2717.711244
996.608586	2714.963815
996.903928	2704.326981
997.199234	2709.443752
997.494504	2709.242106
997.789738	2705.234388
998.084936	2703.797660
998.380099	2699.487473
998.675225	2703.268338
998.970316	2700.420087
999.265371	2692.102183
999.560390	2696.765250
999.855373	2692.354240
1000.150320	2694.043027
1000.445232	2683.380987
1000.740108	2679.297652
1001.034948	2684.666481
1001.329752	2688.094465
1001.624521	2674.987465
1001.919254	2677.835717
1002.213951	2676.903104
1002.508613	2670.677279
1002.803239	2675.516787
1003.097829	2673.097033
1003.392384	2673.727177
1003.686903	2660.065650
1003.981386	2665.686537
1004.275834	2668.333142
1004.570246	2663.443223
1004.864623	2662.913902
1005.158964	2662.334169
1005.453270	2659.511123
1005.747540	2656.511637
1006.041775	2651.747746
1006.335974	2653.612973
1006.630138	2647.336737
1006.924266	2648.949906
1007.218359	2652.705565
1007.512416	2648.571819
1007.806438	2640.682413
1008.100425	2637.708133
1008.394376	2639.472537
1008.688292	2645.143835
1008.982172	2638.061013
1009.276017	2644.135604
1009.569827	2643.253402
1009.863602	2640.480767
1010.157341	2641.640233
1010.451045	2629.969962
1010.744714	2626.743623
1011.038347	2633.902062
1011.331945	2634.204531
1011.625508	2634.204531
1011.919036	2635.263173
1012.212528	2624.626338
1012.505986	2631.885600
1012.799408	2629.112965
1013.092795	2622.559465
1013.386147	2620.921090
1013.679464	2625.886627
1013.972745	2622.635083
1014.265992	2616.409258
1014.559204	2613.561006
1014.852380	2617.997221
1015.145521	2612.401540
1015.438628	2607.587238
1015.731699	2612.451952
1016.024736	2613.258537
1016.317737	2619.081069
1016.610703	2610.032198
1016.903635	2617.845987
1017.196531	2607.309975
1017.489393	2611.544544
1017.782219	2606.326950
1018.075011	2606.276538
1018.367768	2597.555342
1018.660490	2601.487442
1018.953177	2601.487442
1019.245829	2601.487442
