Dividing Wavelength (nm)	Counts (n)	Slit_number_5_of_a_total_of_40	
326.493990	2066.032885
326.888308	2066.032885
327.282561	2066.032885
327.676750	2073.594615
328.070874	2070.233846
328.464933	2094.599423
328.858929	2091.238654
329.252859	2087.037692
329.646726	2116.444423
330.040528	2161.814808
330.434265	2160.974615
330.827938	2152.572692
331.221547	2196.262692
331.615091	2201.303846
332.008571	2218.107692
332.401986	2261.797692
332.795338	2276.921154
333.188625	2273.560385
333.581847	2297.925962
333.975006	2324.812115
334.368100	2317.250385
334.761129	2349.177692
335.154095	2421.434231
335.546996	2427.315577
335.939833	2549.143462
336.332606	2544.102308
336.725315	2600.395192
337.117960	2588.632500
337.510540	2522.257308
337.903056	2632.322500
338.295508	2590.312885
338.687896	2640.724423
339.080220	2662.569423
339.472480	2655.007692
339.864676	2629.801923
340.256807	2608.797115
340.648875	2593.673654
341.040879	2657.528269
341.432818	2603.755962
341.824694	2642.404808
342.216506	2629.801923
342.608253	2715.501538
342.999937	2628.961731
343.391557	2643.245000
343.783113	2655.007692
344.174605	2609.637308
344.566033	2637.363654
344.957397	2650.806731
345.348697	2632.322500
345.739934	2643.245000
346.131106	2649.126346
346.522215	2655.847885
346.913260	2640.724423
347.304241	2646.605769
347.695159	2692.816346
348.086012	2633.162692
348.476802	2624.760769
348.867528	2665.930192
349.258191	2619.719615
349.648789	2651.646923
350.039324	2637.363654
350.429796	2640.724423
350.820203	2606.276538
351.210548	2643.245000
351.600828	2514.695577
351.991045	2605.436346
352.381198	2612.157885
352.771288	2599.555000
353.161314	2621.400000
353.551276	2576.029615
353.941175	2612.998077
354.331010	2621.400000
354.720782	2618.879423
355.110490	2692.816346
355.500135	2567.627692
355.889717	2537.380769
356.279235	2617.199038
356.668689	2604.596154
357.058080	2595.354038
357.447408	2625.600962
357.836672	2511.334808
358.225873	2610.477500
358.615010	2630.642115
359.004084	2623.080385
359.393095	2585.271731
359.782043	2624.760769
360.170927	2600.395192
360.559748	2614.678462
360.948505	2606.276538
361.337199	2589.472692
361.725830	2604.596154
362.114398	2618.039231
362.502903	2645.765577
362.891344	2591.993269
363.279722	2604.596154
363.668037	2629.801923
364.056289	2607.116731
364.444478	2614.678462
364.832603	2617.199038
365.220665	2652.487115
365.608665	2621.400000
365.996601	2640.724423
366.384474	2628.121538
366.772284	2628.961731
367.160031	2607.116731
367.547715	2641.564615
367.935336	2608.797115
368.322893	2609.637308
368.710388	2601.235385
369.097820	2656.688077
369.485189	2630.642115
369.872495	2651.646923
370.259738	2639.044038
370.646918	2627.281346
371.034035	2607.956923
371.421090	2648.286154
371.808081	2654.167500
372.195010	2606.276538
372.581875	2687.775192
372.968678	2618.879423
373.355418	2663.409615
373.742096	2610.477500
374.128710	2618.879423
374.515262	2649.126346
374.901751	2584.431538
375.288177	2621.400000
375.674540	2585.271731
376.060841	2652.487115
376.447079	2657.528269
376.833254	2567.627692
377.219367	2623.920577
377.605417	2624.760769
377.991404	2621.400000
378.377329	2644.085192
378.763191	2611.317692
379.148991	2652.487115
379.534727	2654.167500
379.920402	2634.843077
380.306013	2576.869808
380.691563	2644.085192
381.077049	2643.245000
381.462474	2649.126346
381.847835	2689.455577
382.233134	2602.075577
382.618371	2655.847885
383.003545	2612.998077
383.388657	2639.884231
383.773706	2651.646923
384.158693	2649.126346
384.543618	2651.646923
384.928480	2665.090000
385.313280	2624.760769
385.698017	2679.373269
386.082692	2661.729231
386.467305	2544.942500
386.851856	2628.961731
387.236344	2605.436346
387.620770	2661.729231
388.005133	2625.600962
388.389435	2630.642115
388.773674	2639.044038
389.157851	2583.591346
389.541965	2662.569423
389.926018	2655.847885
390.310008	2647.445962
390.693936	2643.245000
391.077802	2610.477500
391.461606	2639.884231
391.845348	2619.719615
392.229027	2567.627692
392.612645	2634.843077
392.996200	2657.528269
393.379694	2627.281346
393.763125	2624.760769
394.146494	2589.472692
394.529801	2652.487115
394.913047	2628.121538
395.296230	2632.322500
395.679351	2624.760769
396.062410	2651.646923
396.445408	2632.322500
396.828343	2647.445962
397.211217	2639.884231
397.594028	2583.591346
397.976778	2642.404808
398.359466	2581.910962
398.742092	2622.240192
399.124656	2641.564615
399.507158	2580.230577
399.889598	2661.729231
400.271977	2669.290962
400.654294	2599.555000
401.036549	2644.085192
401.418742	2668.450769
401.800874	2656.688077
402.182944	2672.651731
402.564952	2631.482308
402.946898	2593.673654
403.328783	2635.683269
403.710606	2634.843077
404.092367	2651.646923
404.474067	2627.281346
404.855705	2682.734038
405.237282	2655.007692
405.618797	2581.910962
406.000250	2650.806731
406.381642	2642.404808
406.762972	2623.080385
407.144240	2630.642115
407.525447	2641.564615
407.906593	2634.002885
408.287677	2665.090000
408.668700	2628.121538
409.049661	2665.090000
409.430560	2649.966538
409.811399	2644.925385
410.192176	2659.208654
410.572891	2660.889038
410.953545	2644.085192
411.334138	2678.533077
411.714669	2623.920577
412.095139	2644.085192
412.475547	2638.203846
412.855894	2632.322500
413.236180	2666.770385
413.616405	2627.281346
413.996568	2652.487115
414.376670	2612.157885
414.756711	2607.956923
415.136691	2628.121538
415.516609	2625.600962
415.896466	2624.760769
416.276262	2661.729231
416.655997	2636.523462
417.035670	2588.632500
417.415283	2656.688077
417.794834	2628.961731
418.174324	2654.167500
418.553753	2644.925385
418.933121	2665.090000
419.312428	2695.336923
419.691674	2702.058462
420.070859	2665.930192
420.449983	2598.714808
420.829045	2622.240192
421.208047	2628.961731
421.586988	2616.358846
421.965867	2628.121538
422.344686	2665.930192
422.723444	2656.688077
423.102141	2656.688077
423.480777	2641.564615
423.859352	2600.395192
424.237866	2659.208654
424.616319	2644.085192
424.994712	2693.656538
425.373044	2653.327308
425.751314	2649.126346
426.129524	2634.843077
426.507673	2652.487115
426.885762	2576.869808
427.263789	2606.276538
427.641756	2685.254615
428.019662	2692.816346
428.397508	2629.801923
428.775292	2611.317692
429.153016	2631.482308
429.530679	2654.167500
429.908282	2649.966538
430.285824	2623.080385
430.663305	2652.487115
431.040726	2612.157885
431.418086	2615.518654
431.795385	2665.090000
432.172624	2638.203846
432.549802	2634.843077
432.926920	2626.441154
433.303977	2614.678462
433.680974	2644.925385
434.057910	2665.930192
434.434786	2620.559808
434.811601	2636.523462
435.188355	2660.889038
435.565050	2652.487115
435.941683	2644.925385
436.318257	2620.559808
436.694770	2618.879423
437.071222	2644.085192
437.447614	2670.131154
437.823946	2623.080385
438.200218	2585.271731
438.576429	2628.961731
438.952580	2649.126346
439.328670	2649.966538
439.704700	2631.482308
440.080670	2655.007692
440.456580	2626.441154
440.832429	2643.245000
441.208218	2623.920577
441.583947	2612.157885
441.959616	2635.683269
442.335224	2671.811538
442.710773	2621.400000
443.086261	2644.085192
443.461689	2635.683269
443.837057	2659.208654
444.212365	2637.363654
444.587612	2677.692885
444.962800	2628.961731
445.337927	2639.884231
445.712995	2633.162692
446.088002	2623.080385
446.462949	2640.724423
446.837837	2606.276538
447.212664	2673.491923
447.587431	2602.915769
447.962139	2607.956923
448.336786	2623.080385
448.711374	2659.208654
449.085901	2676.012500
449.460369	2616.358846
449.834776	2653.327308
450.209124	2649.966538
450.583412	2648.286154
450.957640	2601.235385
451.331808	2630.642115
451.705917	2599.555000
452.079965	2655.007692
452.453954	2682.734038
452.827883	2645.765577
453.201752	2664.249808
453.575562	2651.646923
453.949311	2648.286154
454.323001	2670.131154
454.696632	2601.235385
455.070202	2659.208654
455.443713	2618.879423
455.817164	2644.925385
456.190556	2593.673654
456.563888	2615.518654
456.937160	2618.039231
457.310373	2614.678462
457.683526	2591.993269
458.056619	2643.245000
458.429653	2584.431538
458.802628	2634.002885
459.175542	2628.961731
459.548398	2643.245000
459.921194	2667.610577
460.293930	2622.240192
460.666607	2627.281346
461.039224	2655.007692
461.411782	2663.409615
461.784280	2643.245000
462.156719	2628.121538
462.529099	2604.596154
462.901419	2639.044038
463.273680	2601.235385
463.645882	2660.048846
464.018024	2618.879423
464.390106	2640.724423
464.762130	2660.889038
465.134094	2623.920577
465.505999	2589.472692
465.877845	2615.518654
466.249631	2691.135962
466.621358	2630.642115
466.993026	2578.550192
467.364634	2680.213462
467.736184	2622.240192
468.107674	2655.847885
468.479105	2637.363654
468.850477	2628.121538
469.221790	2623.080385
469.593043	2651.646923
469.964238	2614.678462
470.335373	2617.199038
470.706449	2610.477500
471.077467	2636.523462
471.448425	2650.806731
471.819324	2686.094808
472.190164	2682.734038
472.560945	2599.555000
472.931667	2713.821154
473.302330	2637.363654
473.672934	2607.956923
474.043479	2634.002885
474.413965	2684.414423
474.784393	2612.998077
475.154761	2669.290962
475.525070	2609.637308
475.895321	2634.002885
476.265513	2647.445962
476.635645	2656.688077
477.005719	2586.111923
477.375734	2628.121538
477.745691	2688.615385
478.115588	2657.528269
478.485427	2606.276538
478.855207	2686.935000
479.224928	2630.642115
479.594591	2630.642115
479.964194	2590.312885
480.333739	2639.884231
480.703226	2668.450769
481.072653	2638.203846
481.442022	2617.199038
481.811333	2640.724423
482.180584	2639.884231
482.549777	2660.889038
482.918912	2674.332115
483.287988	2677.692885
483.657005	2660.048846
484.025964	2631.482308
484.394864	2625.600962
484.763706	2617.199038
485.132489	2624.760769
485.501213	2653.327308
485.869879	2610.477500
486.238487	2564.266923
486.607036	2650.806731
486.975527	2652.487115
487.343959	2612.157885
487.712333	2665.090000
488.080648	2616.358846
488.448905	2618.039231
488.817104	2651.646923
489.185244	2634.843077
489.553326	2636.523462
489.921350	2616.358846
490.289315	2593.673654
490.657222	2607.116731
491.025070	2622.240192
491.392861	2638.203846
491.760593	2628.121538
492.128267	2680.213462
492.495883	2607.116731
492.863440	2636.523462
493.230939	2645.765577
493.598380	2619.719615
493.965763	2662.569423
494.333088	2642.404808
494.700354	2597.874615
495.067563	2610.477500
495.434713	2638.203846
495.801805	2636.523462
496.168839	2633.162692
496.535815	2656.688077
496.902733	2652.487115
497.269593	2623.920577
497.636395	2649.126346
498.003139	2628.961731
498.369825	2646.605769
498.736453	2644.925385
499.103023	2628.121538
499.469535	2596.194231
499.835989	2609.637308
500.202385	2586.111923
500.568723	2646.605769
500.935003	2600.395192
501.301226	2609.637308
501.667390	2644.925385
502.033497	2607.956923
502.399546	2632.322500
502.765537	2620.559808
503.131470	2588.632500
503.497345	2665.090000
503.863163	2687.775192
504.228923	2638.203846
504.594625	2652.487115
504.960269	2612.998077
505.325856	2648.286154
505.691385	2624.760769
506.056856	2627.281346
506.422270	2675.172308
506.787625	2618.039231
507.152924	2599.555000
507.518164	2600.395192
507.883347	2677.692885
508.248472	2608.797115
508.613540	2625.600962
508.978550	2612.998077
509.343503	2612.157885
509.708398	2620.559808
510.073236	2614.678462
510.438016	2606.276538
510.802738	2626.441154
511.167403	2618.039231
511.532010	2638.203846
511.896561	2645.765577
512.261053	2653.327308
512.625488	2584.431538
512.989866	2671.811538
513.354186	2628.961731
513.718449	2658.368462
514.082655	2629.801923
514.446803	2608.797115
514.810894	2620.559808
515.174927	2621.400000
515.538904	2618.039231
515.902822	2621.400000
516.266684	2619.719615
516.630488	2618.879423
516.994235	2660.048846
517.357925	2640.724423
517.721558	2617.199038
518.085133	2665.930192
518.448651	2576.029615
518.812112	2584.431538
519.175516	2622.240192
519.538863	2620.559808
519.902152	2643.245000
520.265385	2644.085192
520.628560	2630.642115
520.991678	2641.564615
521.354739	2611.317692
521.717743	2628.961731
522.080690	2632.322500
522.443580	2662.569423
522.806413	2602.915769
523.169189	2620.559808
523.531908	2646.605769
523.894569	2587.792308
524.257174	2627.281346
524.619722	2660.048846
524.982213	2588.632500
525.344647	2644.925385
525.707025	2608.797115
526.069345	2612.998077
526.431608	2634.843077
526.793815	2599.555000
527.155964	2597.034423
527.518057	2597.874615
527.880093	2613.838269
528.242072	2617.199038
528.603995	2639.044038
528.965860	2657.528269
529.327669	2624.760769
529.689421	2612.157885
530.051117	2628.121538
530.412755	2644.925385
530.774337	2584.431538
531.135862	2622.240192
531.497331	2623.080385
531.858743	2622.240192
532.220098	2591.993269
532.581396	2618.879423
532.942638	2626.441154
533.303824	2656.688077
533.664953	2660.048846
534.026025	2646.605769
534.387040	2645.765577
534.747999	2606.276538
535.108902	2618.039231
535.469748	2608.797115
535.830537	2651.646923
536.191270	2605.436346
536.551947	2611.317692
536.912567	2632.322500
537.273131	2656.688077
537.633638	2664.249808
537.994089	2636.523462
538.354483	2657.528269
538.714821	2611.317692
539.075103	2629.801923
539.435328	2637.363654
539.795497	2609.637308
540.155609	2627.281346
540.515665	2623.080385
540.875665	2623.080385
541.235609	2621.400000
541.595496	2596.194231
541.955328	2644.085192
542.315102	2582.751154
542.674821	2652.487115
543.034483	2662.569423
543.394090	2555.024808
543.753640	2632.322500
544.113134	2614.678462
544.472571	2661.729231
544.831953	2655.007692
545.191278	2614.678462
545.550548	2624.760769
545.909761	2614.678462
546.268918	2612.998077
546.628019	2619.719615
546.987064	2630.642115
547.346053	2591.993269
547.704986	2640.724423
548.063863	2636.523462
548.422684	2631.482308
548.781449	2615.518654
549.140158	2639.884231
549.498811	2622.240192
549.857408	2550.823846
550.215949	2615.518654
550.574434	2602.915769
550.932864	2640.724423
551.291237	2636.523462
551.649555	2600.395192
552.007817	2631.482308
552.366022	2618.039231
552.724173	2597.874615
553.082267	2622.240192
553.440305	2645.765577
553.798288	2591.993269
554.156215	2649.126346
554.514086	2639.044038
554.871902	2638.203846
555.229661	2591.153077
555.587365	2626.441154
555.945014	2547.463077
556.302606	2623.080385
556.660143	2620.559808
557.017625	2622.240192
557.375050	2618.039231
557.732421	2602.915769
558.089735	2663.409615
558.446994	2633.162692
558.804197	2596.194231
559.161345	2602.915769
559.518437	2602.915769
559.875474	2643.245000
560.232455	2637.363654
560.589381	2594.513846
560.946251	2609.637308
561.303065	2649.966538
561.659825	2574.349231
562.016528	2654.167500
562.373177	2644.085192
562.729770	2663.409615
563.086307	2621.400000
563.442789	2581.070769
563.799216	2612.157885
564.155587	2586.952115
564.511904	2621.400000
564.868164	2631.482308
565.224370	2570.148269
565.580520	2624.760769
565.936615	2631.482308
566.292654	2654.167500
566.648638	2637.363654
567.004567	2628.961731
567.360441	2602.075577
567.716260	2622.240192
568.072023	2609.637308
568.427732	2612.157885
568.783385	2644.085192
569.138982	2592.833462
569.494525	2602.075577
569.850013	2611.317692
570.205445	2621.400000
570.560823	2607.116731
570.916145	2612.998077
571.271412	2616.358846
571.626625	2587.792308
571.981782	2616.358846
572.336884	2630.642115
572.691931	2579.390385
573.046923	2612.157885
573.401860	2630.642115
573.756743	2660.889038
574.111570	2591.993269
574.466342	2581.070769
574.821059	2604.596154
575.175722	2627.281346
575.530330	2610.477500
575.884882	2602.915769
576.239380	2610.477500
576.593823	2613.838269
576.948211	2620.559808
577.302544	2590.312885
577.656823	2626.441154
578.011047	2539.901346
578.365216	2602.075577
578.719330	2644.085192
579.073389	2586.952115
579.427394	2634.843077
579.781344	2598.714808
580.135239	2587.792308
580.489080	2610.477500
580.842866	2612.998077
581.196597	2628.961731
581.550273	2594.513846
581.903895	2645.765577
582.257463	2607.956923
582.610975	2621.400000
582.964434	2590.312885
583.317837	2601.235385
583.671186	2607.116731
584.024481	2647.445962
584.377721	2618.879423
584.730906	2572.668846
585.084037	2586.952115
585.437113	2621.400000
585.790135	2600.395192
586.143103	2549.983654
586.496016	2549.143462
586.848874	2628.961731
587.201679	2660.048846
587.554428	2657.528269
587.907124	2612.998077
588.259765	2636.523462
588.612352	2591.153077
588.964884	2594.513846
589.317362	2576.029615
589.669786	2646.605769
590.022155	2607.956923
590.374470	2591.993269
590.726731	2630.642115
591.078937	2622.240192
591.431090	2636.523462
591.783188	2571.828654
592.135232	2577.710000
592.487222	2577.710000
592.839157	2618.879423
593.191038	2537.380769
593.542866	2606.276538
593.894639	2612.157885
594.246358	2617.199038
594.598022	2595.354038
594.949633	2581.070769
595.301190	2594.513846
595.652692	2574.349231
596.004141	2543.262115
596.355535	2572.668846
596.706876	2576.869808
597.058162	2581.910962
597.409395	2628.961731
597.760573	2576.869808
598.111698	2592.833462
598.462768	2607.956923
598.813785	2638.203846
599.164748	2586.111923
599.515657	2607.116731
599.866511	2628.121538
600.217312	2625.600962
600.568060	2602.075577
600.918753	2578.550192
601.269392	2618.879423
601.619978	2625.600962
601.970510	2616.358846
602.320988	2686.935000
602.671412	2611.317692
603.021783	2626.441154
603.372100	2636.523462
603.722363	2607.956923
604.072572	2605.436346
604.422728	2656.688077
604.772830	2602.075577
605.122878	2634.843077
605.472872	2632.322500
605.822813	2570.988462
606.172701	2589.472692
606.522534	2591.153077
606.872314	2615.518654
607.222041	2604.596154
607.571714	2632.322500
607.921333	2639.884231
608.270899	2590.312885
608.620411	2614.678462
608.969870	2605.436346
609.319276	2558.385577
609.668627	2628.121538
610.017926	2576.029615
610.367171	2611.317692
610.716362	2588.632500
611.065500	2652.487115
611.414585	2665.930192
611.763616	2626.441154
612.112594	2630.642115
612.461518	2579.390385
612.810389	2589.472692
613.159207	2668.450769
613.507971	2629.801923
613.856682	2642.404808
614.205340	2619.719615
614.553945	2616.358846
614.902496	2662.569423
615.250994	2621.400000
615.599439	2648.286154
615.947830	2636.523462
616.296169	2661.729231
616.644454	2639.884231
616.992686	2607.116731
617.340864	2652.487115
617.688990	2663.409615
618.037063	2651.646923
618.385082	2602.915769
618.733048	2618.039231
619.080961	2636.523462
619.428821	2658.368462
619.776628	2652.487115
620.124382	2641.564615
620.472083	2664.249808
620.819731	2673.491923
621.167326	2617.199038
621.514868	2655.007692
621.862357	2635.683269
622.209793	2565.107115
622.557176	2701.218269
622.904506	2642.404808
623.251783	2628.961731
623.599007	2651.646923
623.946179	2665.930192
624.293297	2645.765577
624.640363	2634.843077
624.987376	2618.039231
625.334336	2665.930192
625.681243	2589.472692
626.028097	2722.223077
626.374899	2622.240192
626.721647	2659.208654
627.068343	2642.404808
627.414987	2649.966538
627.761577	2649.126346
628.108115	2668.450769
628.454600	2643.245000
628.801032	2660.048846
629.147412	2639.884231
629.493739	2619.719615
629.840014	2667.610577
630.186236	2702.058462
630.532405	2649.126346
630.878521	2676.012500
631.224585	2676.852692
631.570597	2677.692885
631.916556	2719.702500
632.262462	2674.332115
632.608316	2648.286154
632.954117	2702.898654
633.299866	2655.847885
633.645562	2664.249808
633.991206	2719.702500
634.336797	2661.729231
634.682336	2695.336923
635.027823	2723.903462
635.373257	2712.980962
635.718639	2723.903462
636.063968	2748.269038
636.409245	2744.068077
636.754470	2731.465192
637.099642	2687.775192
637.444762	2752.470000
637.789829	2758.351346
638.134845	2744.068077
638.479808	2701.218269
638.824719	2714.661346
639.169577	2748.269038
639.514383	2776.835577
639.859137	2725.583846
640.203839	2760.871923
640.548489	2786.917885
640.893086	2808.762885
641.237632	2754.150385
641.582125	2815.484423
641.926566	2782.716923
642.270955	2717.181923
642.615292	2767.593462
642.959576	2809.603077
643.303809	2825.566731
643.647990	2816.324615
643.992118	2844.891154
644.336195	2824.726538
644.680219	2823.886346
645.024192	2844.050962
645.368112	2833.968654
645.711981	2868.416538
646.055797	2871.777308
646.399562	2874.297885
646.743274	2888.581154
647.086935	2933.111346
647.430544	2856.653846
647.774101	2873.457692
648.117606	2870.937115
648.461059	2949.075000
648.804460	2965.038654
649.147810	2948.234808
649.491108	2932.271154
649.834354	2954.956346
650.177548	2949.075000
650.520690	2965.038654
650.863781	2989.404231
651.206820	3049.057885
651.549807	3012.089423
651.892742	3063.341154
652.235626	3017.970769
652.578458	3081.825385
652.921238	3076.784231
653.263967	3133.917308
653.606644	3169.205385
653.949269	3156.602500
654.291843	3124.675192
654.634365	3122.154615
654.976836	3159.123077
655.319255	3198.612115
655.661622	3225.498269
656.003938	3200.292500
656.346203	3236.420769
656.688416	3264.147115
657.030577	3250.704038
657.372687	3294.394038
657.714746	3330.522308
658.056753	3362.449615
658.398708	3362.449615
658.740612	3434.706154
659.082465	3403.619038
659.424266	3474.195192
659.766016	3453.190385
660.107715	3495.200000
660.449362	3531.328269
660.790958	3522.926346
661.132503	3588.461346
661.473996	3617.868077
661.815438	3621.228846
662.156829	3674.160962
662.498168	3700.206923
662.839456	3729.613654
663.180693	3816.153462
663.521879	3843.039615
663.863013	3893.451154
664.204097	3909.414808
664.545129	3985.032115
664.886110	3925.378462
665.227040	3980.831154
665.567918	4041.325000
665.908746	4101.818846
666.249522	4116.102115
666.590248	4189.198846
666.930922	4249.692692
667.271545	4263.975962
667.612118	4239.610385
667.952639	4309.346346
668.293109	4394.205769
668.633528	4451.338846
668.973896	4454.699615
669.314213	4520.234615
669.654480	4571.486346
669.994695	4668.948654
670.334859	4595.851923
670.674973	4698.355385
671.015035	4736.164038
671.355047	4770.611923
671.695008	4815.982308
672.034918	4945.371923
672.374777	5023.509808
672.714585	4977.299231
673.054342	5064.679231
673.394049	5137.775962
673.733705	5189.027692
674.073310	5310.855577
674.412864	5393.194423
674.752368	5428.482500
675.091820	5537.707500
675.431223	5543.588846
675.770574	5551.990769
676.109875	5722.549808
676.449125	5862.861923
676.788324	5830.094423
677.127473	5958.643846
677.466571	5980.488846
677.805619	6046.864038
678.144616	6239.268077
678.483562	6319.086346
678.822458	6342.611731
679.161303	6443.434808
679.500098	6518.211923
679.838842	6588.788077
680.177535	6752.625577
680.516179	6813.119423
680.854771	6959.312885
681.193314	7085.341731
681.531805	7148.356154
681.870247	7234.895962
682.208638	7350.002308
682.546978	7576.014038
682.885268	7486.113462
683.223508	7729.769231
683.561697	7896.967500
683.899836	8009.553269
684.237925	8131.381154
684.575963	8200.276923
684.913951	8285.136346
685.251889	8476.700192
685.589776	8606.089808
685.927614	8766.566538
686.265401	8856.467115
686.603137	8914.440385
686.940824	9166.498077
687.278460	9475.688846
687.616046	9320.253269
687.953582	9512.657308
688.291068	9715.983846
688.628504	9908.387885
688.965889	10062.143077
689.303224	10301.597885
689.640510	10379.735769
689.977745	10680.524615
690.314930	10789.749615
690.652065	11007.359423
690.989150	11170.356731
691.326185	11253.535769
691.663170	11494.670962
692.000105	11584.571538
692.336990	11871.077115
692.673825	12041.636154
693.010610	12231.519615
693.347345	12560.875000
693.684030	12729.753654
694.020665	13053.227692
694.357251	13087.675577
694.693786	13486.766923
695.030272	13740.505000
695.366707	13877.456346
695.703093	14178.245192
696.039429	14462.230192
696.375716	14722.689808
696.711952	14878.125385
697.048139	15167.151538
697.384276	15465.419808
697.720363	15857.789615
698.056400	16045.992692
698.392388	16318.215000
698.728326	16634.967500
699.064214	16959.281731
699.400053	17316.363462
699.735842	17573.462308
700.071581	17897.776538
700.407270	18206.127115
700.742910	18603.538077
701.078501	18981.624615
701.414042	19284.934038
701.749533	19652.098077
702.084974	19946.165385
702.420366	20620.839808
702.755709	20699.817885
703.091002	21031.693846
703.426246	21603.024615
703.761440	22022.280577
704.096584	22502.030385
704.431679	23043.114231
704.766725	23398.515577
705.101721	23937.919038
705.436668	24359.695577
705.771565	24457.998077
706.106413	25419.178077
706.441212	25696.441538
706.775961	26176.191346
707.110661	26822.299231
707.445311	27420.516154
707.779913	27544.864615
708.114465	28286.754423
708.448967	28611.068654
708.783421	29741.967500
709.117825	30109.971731
709.452180	30585.520577
709.786485	30827.495962
710.120742	31937.390000
710.454949	31797.077885
710.789107	32554.091154
711.123216	33482.503654
711.457275	33336.310192
711.791286	34458.807115
712.125247	34660.453269
712.459159	35057.864231
712.793023	36545.004615
713.126837	35839.243077
713.460602	37121.376538
713.794318	37756.561923
714.127985	38050.629231
714.461602	37895.193654
714.795171	39200.852500
715.128691	38892.501923
715.462162	39136.157692
715.795584	39767.982308
716.128957	40663.627308
716.462281	41271.086346
716.795556	42027.259423
717.128782	42438.953654
717.461960	42448.195769
717.795088	43137.993654
718.128167	43266.543077
718.461198	43375.768077
718.794180	44339.468654
719.127113	44762.085385
719.459997	45288.885962
719.792833	45583.793462
720.125619	46407.181923
720.458357	46684.445385
720.791046	47009.599808
721.123686	47495.230962
721.456278	47918.687885
721.788821	48563.115385
722.121315	48564.795769
722.453761	49197.460577
722.786158	49741.065000
723.118506	50132.594615
723.450805	50378.770962
723.783056	51431.531923
724.115259	51577.725385
724.447412	51466.820000
724.779518	52859.858846
725.111574	52973.284808
725.443582	53441.271923
725.775542	53371.535962
726.107453	54801.543269
726.439315	54183.161731
726.771129	54617.541154
727.102895	55289.695000
727.434612	55018.312885
727.766281	55225.840385
728.097901	55987.054615
728.429473	55966.890000
728.760996	56373.543077
729.092471	56699.537692
729.423897	56602.075385
729.755276	56342.455962
730.086606	56278.601346
730.417887	56655.007500
730.749120	56920.508269
731.080305	56826.406731
731.411442	57107.030962
731.742530	56743.227692
732.073570	56498.731731
732.404562	56815.484231
732.735506	56396.228269
733.066401	56215.586923
733.397249	56155.933269
733.728048	55830.778846
734.058798	55252.726538
734.389501	54968.741538
734.720156	54362.962885
735.050762	53885.733654
735.381320	53477.400192
735.711831	53098.473462
736.042293	51939.848269
736.372707	51543.277500
736.703073	49911.624038
737.033391	50097.306538
737.363661	48988.252692
737.693883	47729.644615
738.024056	46880.210192
738.354182	45861.897115
738.684260	45092.280962
739.014290	43762.256538
739.344272	42806.957885
739.674207	41959.203846
740.004093	40828.305000
740.333931	39305.876538
740.663722	38398.468846
740.993464	37556.596154
741.323159	36438.300192
741.652806	35261.190769
741.982405	34427.720000
742.311956	33207.760769
742.641460	32572.575385
742.970915	31821.443462
743.300323	30587.200962
743.629683	29836.069038
743.958996	28894.213462
744.288260	28267.430000
744.617477	27311.291154
744.946647	26886.153846
745.275768	26131.661154
745.604842	25257.861154
745.933869	24518.491923
746.262847	24101.756538
746.591778	23638.810577
746.920662	23280.048462
747.249498	22615.456346
747.578286	22157.551538
747.907027	21939.941731
748.235720	21662.678269
748.564365	21366.090385
748.892963	20604.035962
749.221514	20518.336346
749.550017	20188.140769
749.878473	20239.392500
750.206881	19708.390962
750.535242	19573.120000
750.863555	19447.091154
751.191821	19148.822885
751.520039	19297.536923
751.848210	19082.447692
752.176334	19137.060192
752.504411	18896.765192
752.832440	18878.280962
753.160421	19103.452500
753.488356	19012.711731
753.816243	18941.295385
754.144082	19051.360577
754.471875	19174.868846
754.799620	19282.413462
755.127318	19579.841538
755.454969	19434.488269
755.782572	19605.887500
756.110129	19797.451346
756.437638	19992.375962
756.765100	20079.755962
757.092515	20399.029038
757.419882	20657.808269
757.747203	20788.878269
758.074477	21292.153462
758.401703	21193.850962
758.728882	21671.080192
759.056014	21719.811346
759.383099	22049.166731
759.710138	22490.267692
760.037129	22866.673846
760.364073	23094.365962
760.690970	23232.157500
761.017820	23377.510769
761.344623	23983.289423
761.671379	24568.903462
761.998088	24532.775192
762.324751	24977.236923
762.651366	25225.933846
762.977935	25928.334615
763.304456	25983.787308
763.630931	26419.847115
763.957359	26881.952885
764.283740	27339.017500
764.610074	27686.857115
764.936362	27980.924423
765.262602	28596.785385
765.588796	28767.344423
765.914943	29439.498269
766.241044	29677.272692
766.567097	30145.259808
766.893104	30468.733846
767.219064	31004.776538
767.544978	31376.981731
767.870845	31720.620385
768.196665	32465.870962
768.522438	32864.122115
768.848165	33836.224615
769.173846	34143.735000
769.499479	35128.440385
769.825066	35522.490577
770.150607	35733.378846
770.476101	36823.108269
770.801548	37244.044615
771.126949	37801.932308
771.452303	38379.984615
771.777611	38970.639808
772.102872	40143.548269
772.428087	40421.651923
772.753256	41098.006731
773.078378	41985.249808
773.403453	42112.959038
773.728482	42659.084038
774.053465	43498.436154
774.378401	43974.825192
774.703291	44216.800577
775.028135	44455.415192
775.352932	45009.101923
775.677683	45050.271346
776.002388	45159.496346
776.327046	45829.129615
776.651658	45514.897692
776.976224	45546.825000
777.300743	45724.105577
777.625216	45167.058077
777.949643	44898.196538
778.274024	45561.108269
778.598359	44531.872692
778.922647	44306.701154
779.246889	43695.041154
779.571086	43195.126731
779.895236	42717.897500
780.219339	41718.068654
780.543397	41053.476538
780.867409	40768.651346
781.191374	40174.635385
781.515294	38779.075962
781.839167	38987.443654
782.162995	38038.866538
782.486776	37030.635769
782.810511	36633.224808
783.134201	35626.674423
783.457844	35218.340962
783.781441	34763.796923
784.104993	34377.308462
784.428498	33884.955769
784.751958	33615.254038
785.075372	32922.935577
785.398739	32502.839423
785.722061	32412.098654
786.045337	31948.312500
786.368568	32323.878462
786.691752	31329.090769
787.014891	31461.841154
787.337983	30846.820385
787.661030	30939.241538
787.984031	30731.714038
788.306987	30525.866923
788.629897	30614.927308
788.952760	30577.118654
789.275579	30513.264038
789.598351	30483.857308
789.921078	30192.310577
790.243759	29941.093077
790.566395	29996.545769
790.888984	29905.805000
791.211529	30408.240000
791.534027	30094.008077
791.856480	30304.056154
792.178888	30413.281154
792.501249	30470.414231
792.823566	30239.361346
793.145836	30269.608269
793.468062	30601.484231
793.790241	30603.164615
794.112375	30626.690000
794.434464	31129.965192
794.756507	30728.353269
795.078505	30777.924615
795.400457	30968.648269
795.722364	31397.146346
796.044226	31667.688269
796.366042	32080.222692
796.687812	31365.219038
797.009538	32128.113654
797.331218	31923.946923
797.652852	32568.374423
797.974442	32397.815385
798.295986	32734.732500
798.617484	32909.492500
798.938938	32964.945192
799.260346	33534.595577
799.581709	33289.259423
799.903026	34073.158846
800.224299	34177.342692
800.545526	33832.023654
800.866708	34380.669231
801.187845	34831.012308
801.508936	34479.811923
801.829983	35330.086538
802.150984	34752.874423
802.471940	35293.958269
802.792851	35700.611346
803.113717	35935.025000
803.434538	36213.968846
803.755314	36386.208269
804.076045	36544.164423
804.396731	36354.280962
804.717372	36364.363269
805.037967	36299.668462
805.358518	36496.273462
805.679024	36928.972500
805.999485	36445.861923
806.319901	36661.791346
806.640272	36379.486731
806.960598	36457.624615
807.280879	35997.199231
807.601115	35897.216346
807.921306	35312.442500
808.241453	34936.036346
808.561554	34883.104231
808.881611	34319.335192
809.201623	34293.289231
809.521590	33616.094231
809.841513	33330.428846
810.161390	33288.419231
810.481223	31969.317308
810.801011	31793.717115
811.120755	31194.660000
811.440453	30351.106923
811.760107	29701.638269
812.079716	29117.704615
812.399281	28445.550769
812.718801	27895.224808
813.038276	27144.092885
813.357707	26318.183846
813.677093	26006.472500
813.996434	25077.219808
814.315731	24595.789615
814.634983	23857.260577
814.954191	23229.636923
815.273354	22723.841154
815.592473	22246.611923
815.911547	21635.792115
816.230577	20804.841923
816.549562	20570.428269
816.868502	20117.564615
817.187399	19427.766731
817.506250	19051.360577
817.825058	18380.046923
818.143821	18154.035192
818.462539	17728.897885
818.781213	17206.298269
819.099843	16718.986731
819.418429	16698.822115
819.736970	16137.573654
820.055466	15641.020000
820.373919	15547.758654
820.692327	15206.640577
821.010691	14710.927115
821.329011	14574.815962
821.647286	14342.922885
821.965517	14247.981154
822.283704	13806.880192
822.601847	13577.507692
822.919945	13488.447308
823.237999	13311.166731
823.556010	13123.803846
823.873976	12895.271538
824.191897	12700.346923
824.509775	12756.639808
824.827609	12292.853654
825.145398	12146.660192
825.463144	12150.020962
825.780845	12021.471538
826.098502	11884.520192
826.416116	11719.842500
826.733685	11681.193654
827.051210	11466.944615
827.368692	11424.094808
827.686129	11267.819038
828.003522	11350.998077
828.320872	11072.894423
828.638177	11183.799808
828.955439	11107.342308
829.272656	10914.938269
829.589830	11095.579615
829.906960	10785.548654
830.224046	10970.390962
830.541088	10721.694038
830.858086	10743.539038
831.175041	10732.616538
831.491952	10841.841538
831.808819	10589.783846
832.125642	10697.328462
832.442421	10620.870962
832.759157	10569.619231
833.075849	10674.643269
833.392497	10632.633654
833.709101	10741.018462
834.025662	10532.650769
834.342179	10617.510192
834.658653	10528.449808
834.975083	10706.570577
835.291469	10657.839423
835.607811	10679.684423
835.924110	10721.694038
836.240366	10827.558269
836.556578	10816.635769
836.872746	10702.369615
837.188871	10967.030192
837.504952	10949.386154
837.820990	10883.010962
838.136984	10898.974615
838.452935	10934.262692
838.768842	11130.867692
839.084706	11180.439038
839.400526	11137.589231
839.716303	11123.305962
840.032037	11235.051538
840.347727	11377.044038
840.663373	11388.806731
840.978977	11544.242308
841.294537	11647.585962
841.610054	11587.932308
841.925527	11596.334231
842.240957	11857.634038
842.556344	11845.871346
842.871687	11946.694423
843.186987	12069.362500
843.502244	12169.345385
843.817458	12221.437308
844.132629	12294.534038
844.447756	12511.303654
844.762840	12626.410000
845.077881	12671.780385
845.392879	12785.206346
845.707833	12849.901154
846.022745	12922.157692
846.337613	13156.571346
846.652438	13122.123462
846.967221	13427.953462
847.281960	13510.292308
847.596656	13707.737500
847.911309	13917.785577
848.225919	13931.228654
848.540485	14024.490000
848.855009	14232.017500
849.169490	14247.140962
849.483928	14585.738462
849.798323	14705.045769
850.112675	14635.309808
850.426984	15115.059615
850.741251	14985.670000
851.055474	15216.722885
851.369654	15501.548077
851.683792	15546.078269
851.997887	15738.482308
852.311938	15919.123654
852.625947	16021.627115
852.939914	16231.675192
853.253837	16391.311731
853.567718	16730.749423
853.881555	16787.882500
854.195350	16914.751538
854.509103	16951.720000
854.822812	17027.337308
855.136479	17380.218077
855.450103	17650.760000
855.763685	17508.767500
856.077224	17671.764808
856.390720	17777.629038
856.704173	18101.103077
857.017584	18160.756731
857.330953	18095.221731
857.644278	18293.507115
857.957561	18448.102500
858.270802	18354.000962
858.584000	18507.756154
858.897155	18551.446154
859.210268	18480.870000
859.523339	18474.988654
859.836367	18633.785000
860.149352	18552.286346
860.462295	18426.257500
860.775195	18594.295962
861.088054	18464.066154
861.400869	18306.110000
861.713642	18438.860385
862.026373	18280.064038
862.339062	18311.991346
862.651708	17953.229231
862.964312	18085.979615
863.276873	17849.045385
863.589392	17922.982308
863.901869	17569.261346
864.214303	17340.729038
864.526696	17155.046538
864.839045	17014.734423
865.151353	17048.342115
865.463619	16593.798077
865.775842	16474.490769
866.088023	16271.164231
866.400162	15921.644231
866.712258	15789.734038
867.024313	15565.402692
867.336325	15376.359423
867.648296	15236.047308
867.960224	15019.277692
868.272110	14708.406538
868.583954	14468.111538
868.895755	14286.630000
869.207515	13911.904231
869.519233	13786.715577
869.830909	13795.957692
870.142542	13478.365000
870.454134	13183.457500
870.765684	12986.012308
871.077191	12980.971154
871.388657	12696.145962
871.700081	12519.705577
872.011463	12361.749423
872.322803	12257.565577
872.634101	11945.854231
872.945357	11787.898077
873.256571	11563.566731
873.567744	11633.302692
873.878874	11309.828654
874.189963	11413.172308
874.501010	11129.187308
874.812015	11051.049423
875.122979	10912.417692
875.433900	10851.083654
875.744780	10834.279808
876.055618	10748.580192
876.366415	10633.473846
876.677169	10464.595192
876.987882	10429.307115
877.298554	10429.307115
877.609183	10357.050577
877.919771	10157.084808
878.230317	10227.660962
878.540822	10089.029231
878.851285	10058.782308
879.161707	10068.024423
879.472087	9936.114231
879.782425	9924.351538
880.092722	9940.315192
880.402977	9842.852885
880.713191	9912.588846
881.023363	9699.180000
881.333494	9713.463269
881.643583	9736.988654
881.953631	9508.456346
882.263637	9631.964615
882.573602	9407.633269
882.883526	9510.976923
883.193408	9522.739615
883.503248	9473.168269
883.813048	9431.158654
884.122806	9428.638077
884.432522	9409.313654
884.742197	9434.519423
885.051831	9399.231346
885.361424	9440.400769
885.670975	9361.422692
885.980485	9311.851346
886.289954	9286.645577
886.599382	9384.107885
886.908768	9266.480962
887.218113	9294.207308
887.527417	9323.614038
887.836680	9205.146923
888.145901	9283.284808
888.455082	9289.166154
888.764221	9285.805385
889.073319	9347.979615
889.382376	9278.243654
889.691392	9295.887692
890.000366	9247.996731
890.309300	9236.234038
890.618193	9324.454231
890.927044	9189.183269
891.235855	9137.091346
891.544625	9158.936346
891.853353	9237.074231
892.162041	9193.384231
892.470687	9226.991923
892.779293	9264.800577
893.087858	9158.096154
893.396381	9200.105769
893.704864	9140.452115
894.013306	9198.425385
894.321707	9118.607115
894.630068	9106.004231
894.938387	9053.912308
895.246665	9082.478846
895.554903	9079.958269
895.863100	9052.231923
896.171256	9005.181154
896.479371	9046.350577
896.787446	9042.149615
897.095480	9006.021346
897.403473	8937.125577
897.711425	8836.302500
898.019336	8849.745577
898.327207	8865.709231
898.635038	8902.677692
898.942827	8798.493846
899.250576	8842.183846
899.558284	8660.702308
899.865952	8703.552115
900.173579	8722.036346
900.481165	8658.181731
900.788711	8530.472500
901.096216	8427.128846
901.403681	8489.303077
901.711105	8424.608269
902.018489	8301.100000
902.325832	8386.799615
902.633135	8212.879808
902.940397	8211.199423
903.247619	8100.294038
903.554800	8234.724808
903.861941	8038.960000
904.169041	8107.015577
904.476101	8003.671923
904.783121	7890.245962
905.090100	7808.747308
905.397039	7909.570385
905.703938	7701.202692
906.010796	7663.394038
906.317614	7616.343269
906.624391	7597.018846
906.931129	7494.515385
907.237826	7491.154615
907.544483	7379.409038
907.851099	7368.486538
908.157675	7286.147692
908.464211	7202.968654
908.770707	7218.092115
909.077163	7068.537885
909.383578	7050.053654
909.689954	6894.618077
909.996289	6911.421923
910.302584	6876.974038
910.608839	6829.083077
910.915054	6624.916346
911.221229	6686.250385
911.527363	6679.528846
911.833458	6479.563077
912.139513	6537.536346
912.445527	6340.091154
912.751502	6303.122692
913.057436	6287.999231
913.363331	6317.405962
913.669186	6224.144615
913.975000	6155.248846
914.280775	6081.311923
914.586510	5977.968269
914.892205	5925.876346
915.197859	5855.300192
915.503475	5857.820769
915.809050	5726.750769
916.114585	5730.951731
916.420081	5684.741154
916.725536	5646.092308
917.030952	5581.397500
917.336328	5502.419423
917.641665	5402.436538
917.946961	5397.395385
918.252218	5354.545577
918.557435	5271.366538
918.862612	5259.603846
919.167750	5191.548269
919.472848	5176.424808
919.777906	5113.410385
920.082925	5029.391154
920.387904	4924.367115
920.692843	4907.563269
920.997743	4931.928846
921.302603	4831.105769
921.607423	4799.178462
921.912204	4728.602308
922.216946	4737.004231
922.521647	4642.902692
922.826310	4662.227115
923.130932	4578.207885
923.435516	4542.919808
923.740059	4485.786731
924.044564	4483.266154
924.349028	4378.242115
924.653454	4323.629615
924.957840	4332.871731
925.262186	4282.460192
925.566493	4255.574038
925.870761	4159.792115
926.174989	4197.600769
926.479178	4163.152885
926.783328	4106.860000
927.087438	4072.412115
927.391509	4115.261923
927.695541	4018.639808
927.999533	3960.666538
928.303486	3969.068462
928.607400	3909.414808
928.911275	3872.446346
929.215110	3853.962115
929.518906	3834.637692
929.822663	3769.102692
930.126381	3743.896923
930.430060	3729.613654
930.733699	3683.403077
931.037299	3716.170577
931.340861	3607.785769
931.644383	3612.826923
931.947866	3593.502500
932.251309	3567.456538
932.554714	3538.049808
932.858080	3601.064231
933.161407	3541.410577
933.464694	3486.798077
933.767943	3532.168462
934.071153	3448.149231
934.374323	3480.076538
934.677455	3446.468846
934.980548	3390.175962
935.283602	3364.970192
935.586617	3365.810385
935.889593	3355.728077
936.192530	3322.120385
936.495428	3288.512692
936.798287	3291.873462
937.101108	3303.636154
937.403890	3275.909808
937.706632	3288.512692
938.009336	3305.316538
938.312002	3203.653269
938.614628	3217.096346
938.917216	3249.023654
939.219765	3217.936538
939.522275	3221.297308
939.824747	3175.926923
940.127179	3179.287692
940.429573	3114.592885
940.731929	3140.638846
941.034246	3146.520192
941.336524	3151.561346
941.638763	3113.752692
941.940964	3132.236923
942.243126	3124.675192
942.545250	3155.762308
942.847335	3096.948846
943.149381	3138.118269
943.451389	3086.026346
943.753359	3096.108654
944.055290	3108.711538
944.357182	3052.418654
944.659036	3060.820577
944.960851	3064.181346
945.262628	3054.939231
945.564367	3029.733462
945.866067	3070.062692
946.167729	3006.208077
946.469352	3028.053077
946.770937	3060.820577
947.072484	2981.002308
947.373992	3047.377500
947.675462	2981.002308
947.976893	3028.893269
948.278286	3012.089423
948.579641	3033.094231
948.880958	2991.924808
949.182236	3017.130577
949.483476	3013.769808
949.784678	3060.820577
950.085841	2997.806154
950.386967	3006.208077
950.688054	3012.929615
950.989103	3008.728654
951.290114	3054.099038
951.591087	3009.568846
951.892021	3043.176538
952.192917	3024.692308
952.493776	3031.413846
952.794596	3035.614808
953.095378	3010.409038
953.396122	2984.363077
953.696828	2993.605192
953.997496	3021.331538
954.298126	2986.043462
954.598718	3034.774615
954.899272	3060.820577
955.199788	3005.367885
955.500266	2978.481731
955.800706	2976.801346
956.101108	2992.765000
956.401472	3002.007115
956.701798	3019.651154
957.002087	2975.961154
957.302337	2992.765000
957.602550	2991.084615
957.902724	3051.578462
958.202861	3012.089423
958.502960	3024.692308
958.803022	3070.062692
959.103045	2990.244423
959.403031	2977.641538
959.702979	3023.011923
960.002889	3049.057885
960.302762	3022.171731
960.602596	3043.176538
960.902393	3037.295192
961.202153	3049.898077
961.501875	2960.837692
961.801559	3029.733462
962.101205	3028.053077
962.400814	2988.564038
962.700385	3038.135385
962.999918	3013.769808
963.299414	2991.084615
963.598873	3013.769808
963.898293	3038.135385
964.197677	2939.832885
964.497022	3013.769808
964.796331	2977.641538
965.095601	3000.326731
965.394835	3007.048269
965.694030	3054.099038
965.993189	3075.944038
966.292309	3022.171731
966.591393	2970.079808
966.890439	3007.888462
967.189447	3047.377500
967.488419	3030.573654
967.787353	3004.527692
968.086249	3002.007115
968.385108	3026.372692
968.683930	2998.646346
968.982714	3029.733462
969.281462	3052.418654
969.580172	3021.331538
969.878844	3028.053077
970.177480	2997.806154
970.476078	2975.961154
970.774639	2952.435769
971.073162	3027.212885
971.371649	2985.203269
971.670098	2980.162115
971.968510	2988.564038
972.266885	2977.641538
972.565223	2990.244423
972.863524	2953.275962
973.161788	2983.522885
973.460014	2960.837692
973.758204	2954.956346
974.056356	2931.430962
974.354471	2938.152500
974.652550	2980.162115
974.950591	2977.641538
975.248595	2979.321923
975.546563	2944.033846
975.844493	2967.559231
976.142386	2960.837692
976.440243	2978.481731
976.738062	2977.641538
977.035845	2875.978269
977.333590	2907.905577
977.631299	2925.549615
977.928971	2972.600385
978.226606	2952.435769
978.524204	2934.791731
978.821765	2954.116154
979.119290	2949.915192
979.416777	2921.348654
979.714228	2954.116154
980.011642	2986.043462
980.309020	2887.740962
980.606360	2867.576346
980.903664	2903.704615
981.200931	2842.370577
981.498162	2854.973462
981.795356	2870.096923
982.092513	2905.385000
982.389633	2949.915192
982.686717	2896.142885
982.983764	2873.457692
983.280775	2948.234808
983.577749	2865.055769
983.874686	2852.452885
984.171587	2865.895962
984.468451	2870.096923
984.765279	2878.498846
985.062070	2898.663462
985.358824	2865.895962
985.655543	2902.024231
985.952224	2857.494038
986.248869	2835.649038
986.545478	2814.644231
986.842050	2813.804038
987.138586	2870.096923
987.435086	2797.000192
987.731549	2854.133269
988.027975	2851.612692
988.324366	2859.174423
988.620719	2844.891154
988.917037	2824.726538
989.213318	2873.457692
989.509563	2828.927500
989.805772	2857.494038
990.101944	2818.005000
990.398080	2811.283462
990.694180	2859.174423
990.990244	2825.566731
991.286271	2833.128462
991.582262	2823.046154
991.878217	2829.767692
992.174136	2830.607885
992.470019	2794.479615
992.765865	2798.680577
993.061676	2786.917885
993.357450	2803.721731
993.653188	2787.758077
993.948890	2811.283462
994.244556	2800.360962
994.540186	2825.566731
994.835780	2810.443269
995.131337	2799.520769
995.426859	2817.164808
995.722345	2765.913077
996.017795	2747.428846
996.313208	2781.036538
996.608586	2728.104423
996.903928	2757.511154
997.199234	2776.835577
997.494504	2816.324615
997.789738	2802.041346
998.084936	2787.758077
998.380099	2740.707308
998.675225	2745.748462
998.970316	2748.269038
999.265371	2769.273846
999.560390	2733.145577
999.855373	2764.232692
1000.150320	2717.181923
1000.445232	2717.181923
1000.740108	2709.620192
1001.034948	2732.305385
1001.329752	2733.985769
1001.624521	2754.150385
1001.919254	2704.579038
1002.213951	2747.428846
1002.508613	2697.857500
1002.803239	2760.871923
1003.097829	2737.346538
1003.392384	2733.145577
1003.686903	2727.264231
1003.981386	2764.232692
1004.275834	2685.254615
1004.570246	2727.264231
1004.864623	2669.290962
1005.158964	2730.625000
1005.453270	2739.026923
1005.747540	2709.620192
1006.041775	2725.583846
1006.335974	2698.697692
1006.630138	2721.382885
1006.924266	2710.460385
1007.218359	2702.058462
1007.512416	2686.094808
1007.806438	2739.867115
1008.100425	2762.552308
1008.394376	2727.264231
1008.688292	2707.939808
1008.982172	2722.223077
1009.276017	2688.615385
1009.569827	2728.104423
1009.863602	2691.135962
1010.157341	2691.135962
1010.451045	2637.363654
1010.744714	2695.336923
1011.038347	2655.847885
1011.331945	2702.058462
1011.625508	2701.218269
1011.919036	2664.249808
1012.212528	2655.847885
1012.505986	2647.445962
1012.799408	2665.930192
1013.092795	2677.692885
1013.386147	2684.414423
1013.679464	2664.249808
1013.972745	2707.939808
1014.265992	2691.976154
1014.559204	2642.404808
1014.852380	2693.656538
1015.145521	2662.569423
1015.438628	2667.610577
1015.731699	2670.971346
1016.024736	2630.642115
1016.317737	2676.852692
1016.610703	2703.738846
1016.903635	2644.085192
1017.196531	2633.162692
1017.489393	2654.167500
1017.782219	2690.295769
1018.075011	2636.523462
1018.367768	2623.920577
1018.660490	2671.811538
1018.953177	2671.811538
1019.245829	2671.811538
