Dividing Wavelength (nm)	Counts (n)	Slit_number_40_of_a_total_of_40	
326.493990	2116.444423
326.888308	2116.444423
327.282561	2116.444423
327.676750	2087.877885
328.070874	2014.781154
328.464933	2086.197500
328.858929	2094.599423
329.252859	2094.599423
329.646726	2131.567885
330.040528	2125.686538
330.434265	2160.134423
330.827938	2186.180385
331.221547	2209.705769
331.615091	2209.705769
332.008571	2231.550769
332.401986	2218.107692
332.795338	2233.231154
333.188625	2288.683846
333.581847	2336.574808
333.975006	2331.533654
334.368100	2361.780577
334.761129	2362.620769
335.154095	2413.032308
335.546996	2422.274423
335.939833	2527.298462
336.332606	2479.407500
336.725315	2466.804615
337.117960	2553.344423
337.510540	2524.777885
337.903056	2562.586538
338.295508	2586.952115
338.687896	2552.504231
339.080220	2583.591346
339.472480	2599.555000
339.864676	2558.385577
340.256807	2584.431538
340.648875	2597.034423
341.040879	2548.303269
341.432818	2595.354038
341.824694	2578.550192
342.216506	2557.545385
342.608253	2618.039231
342.999937	2545.782692
343.391557	2594.513846
343.783113	2596.194231
344.174605	2617.199038
344.566033	2524.777885
344.957397	2596.194231
345.348697	2552.504231
345.739934	2555.865000
346.131106	2602.075577
346.522215	2593.673654
346.913260	2591.993269
347.304241	2539.061154
347.695159	2564.266923
348.086012	2513.855385
348.476802	2606.276538
348.867528	2612.998077
349.258191	2493.690769
349.648789	2551.664038
350.039324	2567.627692
350.429796	2586.952115
350.820203	2512.175000
351.210548	2574.349231
351.600828	2569.308077
351.991045	2501.252500
352.381198	2598.714808
352.771288	2565.947308
353.161314	2530.659231
353.551276	2534.860192
353.941175	2555.865000
354.331010	2518.896538
354.720782	2572.668846
355.110490	2554.184615
355.500135	2555.865000
355.889717	2560.906154
356.279235	2508.814231
356.668689	2523.937692
357.058080	2524.777885
357.447408	2560.065962
357.836672	2551.664038
358.225873	2525.618077
358.615010	2531.499423
359.004084	2579.390385
359.393095	2587.792308
359.782043	2558.385577
360.170927	2500.412308
360.559748	2584.431538
360.948505	2607.956923
361.337199	2555.024808
361.725830	2540.741538
362.114398	2566.787500
362.502903	2536.540577
362.891344	2536.540577
363.279722	2604.596154
363.668037	2591.993269
364.056289	2555.024808
364.444478	2581.910962
364.832603	2551.664038
365.220665	2600.395192
365.608665	2518.896538
365.996601	2537.380769
366.384474	2547.463077
366.772284	2550.823846
367.160031	2529.819038
367.547715	2545.782692
367.935336	2538.220962
368.322893	2570.148269
368.710388	2526.458269
369.097820	2603.755962
369.485189	2502.092692
369.872495	2606.276538
370.259738	2573.509038
370.646918	2607.956923
371.034035	2598.714808
371.421090	2594.513846
371.808081	2621.400000
372.195010	2610.477500
372.581875	2600.395192
372.968678	2550.823846
373.355418	2608.797115
373.742096	2610.477500
374.128710	2594.513846
374.515262	2602.915769
374.901751	2612.998077
375.288177	2657.528269
375.674540	2651.646923
376.060841	2640.724423
376.447079	2649.966538
376.833254	2627.281346
377.219367	2705.419231
377.605417	2687.775192
377.991404	2670.131154
378.377329	2702.058462
378.763191	2676.012500
379.148991	2751.629808
379.534727	2728.944615
379.920402	2732.305385
380.306013	2766.753269
380.691563	2771.794423
381.077049	2764.232692
381.462474	2790.278654
381.847835	2818.845192
382.233134	2850.772500
382.618371	2914.627115
383.003545	2905.385000
383.388657	2923.869231
383.773706	2992.765000
384.158693	3015.450192
384.543618	3011.249231
384.928480	3081.825385
385.313280	3133.917308
385.698017	3184.328846
386.082692	3165.844615
386.467305	3182.648462
386.851856	3275.909808
387.236344	3326.321346
387.620770	3340.604615
388.005133	3339.764423
388.389435	3454.870769
388.773674	3487.638269
389.157851	3535.529231
389.541965	3653.996346
389.926018	3690.964808
390.310008	3694.325577
390.693936	3688.444231
391.077802	3778.344808
391.461606	3891.770769
391.845348	3885.049231
392.229027	3957.305769
392.612645	4032.923077
392.996200	4053.927885
393.379694	4176.595962
393.763125	4286.661154
394.146494	4253.893654
394.529801	4403.447885
394.913047	4395.045962
395.296230	4441.256538
395.679351	4558.883462
396.062410	4638.701731
396.445408	4566.445192
396.828343	4700.035769
397.211217	4740.365000
397.594028	4684.912308
397.976778	4767.251154
398.359466	4865.553654
398.742092	4908.403462
399.124656	4960.495385
399.507158	5028.550962
399.889598	5103.328077
400.271977	5110.889808
400.654294	5170.543462
401.036549	5312.535962
401.418742	5360.426923
401.800874	5478.053846
402.182944	5475.533269
402.564952	5702.385192
402.946898	5588.119038
403.328783	5713.307692
403.710606	5765.399615
404.092367	5997.292692
404.474067	6072.069808
404.855705	5975.447692
405.237282	6014.936731
405.618797	6235.907308
406.000250	6385.461538
406.381642	6559.381346
406.762972	6511.490385
407.144240	6532.495192
407.525447	6682.049423
407.906593	6629.957500
408.287677	6791.274423
408.668700	6852.608462
409.049661	6867.731923
409.430560	6971.915769
409.811399	6958.472692
410.192176	7137.433654
410.572891	7065.177115
410.953545	7398.733462
411.334138	7271.024231
411.714669	7509.638846
412.095139	7203.808846
412.475547	7578.534615
412.855894	7460.907692
413.236180	7486.953654
413.616405	7445.784231
413.996568	7729.769231
414.376670	7656.672500
414.756711	7619.704038
415.136691	7727.248654
415.516609	7879.323462
415.896466	7903.689038
416.276262	8042.320769
416.655997	8308.661731
417.035670	8371.676154
417.415283	8785.050769
417.794834	8850.585769
418.174324	8853.106346
418.553753	8687.588462
418.933121	9090.880769
419.312428	8898.476731
419.691674	8815.297692
420.070859	9082.478846
420.449983	8985.856731
420.829045	9321.933654
421.208047	9246.316346
421.586988	9398.391154
421.965867	9639.526346
422.344686	9815.966731
422.723444	9871.419423
423.102141	9569.790385
423.480777	10073.905769
423.859352	9831.930385
424.237866	10508.285192
424.616319	10310.840000
424.994712	10635.154231
425.373044	10705.730385
425.751314	11200.603654
426.129524	10633.473846
426.507673	11386.286154
426.885762	11000.637885
427.263789	11350.157885
427.641756	11331.673654
428.019662	11414.012500
428.397508	11412.332115
428.775292	11859.314423
429.153016	11902.164231
429.530679	11771.094231
429.908282	12026.512692
430.285824	11776.975577
430.663305	12242.442115
431.040726	11987.863846
431.418086	11954.256154
431.795385	12292.013462
432.172624	12614.647308
432.549802	12629.770769
432.926920	12544.911346
433.303977	12630.610962
433.680974	12777.644615
434.057910	12799.489615
434.434786	13022.140577
434.811601	12844.019808
435.188355	13660.686731
435.565050	13560.703846
435.941683	13461.561154
436.318257	13964.836346
436.694770	14109.349423
437.071222	14317.717115
437.447614	14029.531154
437.823946	14058.097692
438.200218	13932.068846
438.576429	13876.616154
438.952580	14044.654615
439.328670	14119.431731
439.704700	14513.481923
440.080670	14276.547692
440.456580	14505.920192
440.832429	14890.728269
441.208218	14153.879615
441.583947	14547.089615
441.959616	14492.477115
442.335224	14745.375000
442.710773	14924.335962
443.086261	15041.122692
443.461689	14908.372308
443.837057	14980.628846
444.212365	15321.746923
444.587612	15651.942500
444.962800	15056.246154
445.337927	15577.165385
445.712995	14893.248846
446.088002	15970.375385
446.462949	16289.648462
446.837837	16335.859038
447.212664	16229.994808
447.587431	17758.304615
447.962139	19868.027500
448.336786	21965.147500
448.711374	21792.067885
449.085901	19216.878462
449.460369	18958.939423
449.834776	18716.123846
450.209124	20108.322500
450.583412	20246.114038
450.957640	21137.558077
451.331808	20068.833462
451.705917	19256.367500
452.079965	19129.498462
452.453954	19437.849038
452.827883	19085.808462
453.201752	19157.224808
453.575562	19395.839423
453.949311	20352.818462
454.323001	20441.038654
454.696632	20244.433654
455.070202	21372.811923
455.443713	21446.748846
455.817164	22161.752500
456.190556	22608.734808
456.563888	22410.449423
456.937160	22893.560000
457.310373	21782.825769
457.683526	22139.907500
458.056619	22218.045385
458.429653	22002.956154
458.802628	22161.752500
459.175542	22383.563269
459.548398	23490.096538
459.921194	24946.149808
460.293930	25090.662885
460.666607	26761.805385
461.039224	28416.984231
461.411782	29302.546923
461.784280	28483.359423
462.156719	28364.052115
462.529099	27713.743269
462.901419	27071.836346
463.273680	26159.387500
463.645882	25815.748846
464.018024	25991.349038
464.390106	26163.588462
464.762130	27998.568462
465.134094	30747.677692
465.505999	35320.004231
465.877845	39958.705962
466.249631	41672.698269
466.621358	40751.847500
466.993026	39454.590577
467.364634	37719.593462
467.736184	35640.117500
468.107674	34929.314808
468.479105	34149.616346
468.850477	33773.210192
469.221790	32512.081538
469.593043	30877.067308
469.964238	30312.458077
470.335373	30226.758462
470.706449	30922.437692
471.077467	32480.994423
471.448425	36572.730962
471.819324	40020.040000
472.190164	39815.873269
472.560945	36731.527308
472.931667	33840.425577
473.302330	32693.563077
473.672934	31911.344038
474.043479	32209.612308
474.413965	31507.211538
474.784393	31408.068846
475.154761	32030.651346
475.525070	31987.801538
475.895321	31965.116346
476.265513	32368.408654
476.635645	32948.981538
477.005719	33008.635192
477.375734	33683.309615
477.745691	34063.076538
478.115588	35355.292308
478.485427	36671.873654
478.855207	39420.982885
479.224928	41965.925385
479.594591	43992.469231
479.964194	44157.987115
480.333739	44186.553654
480.703226	43849.636538
481.072653	44385.679231
481.442022	44896.516154
481.811333	45649.328462
482.180584	44723.436538
482.549777	44339.468654
482.918912	43765.617308
483.287988	43511.879231
483.657005	42944.749423
484.025964	42090.273846
484.394864	42600.270577
484.763706	42040.702500
485.132489	41385.352500
485.501213	41424.841538
485.869879	41576.916346
486.238487	41112.290000
486.607036	41302.173462
486.975527	41095.486154
487.343959	41035.832500
487.712333	41416.439615
488.080648	41467.691346
488.448905	41863.421923
488.817104	41501.299038
489.185244	42271.755385
489.553326	43459.787308
489.921350	46169.407500
490.289315	48975.649808
490.657222	50522.443846
491.025070	51018.997500
491.392861	50368.688654
491.760593	49562.104038
492.128267	47742.247500
492.495883	46484.479615
492.863440	45315.772115
493.230939	44027.757308
493.598380	42965.754231
493.965763	42361.655962
494.333088	41762.598846
494.700354	41334.940962
495.067563	41043.394231
495.434713	41157.660385
495.801805	41128.253654
496.168839	40668.668462
496.535815	40159.511923
496.902733	40534.237692
497.269593	40216.645000
497.636395	40057.848654
498.003139	40524.995577
498.369825	39976.350000
498.736453	40284.700577
499.103023	39859.563269
499.469535	39644.474038
499.835989	40030.122308
500.202385	39513.404038
500.568723	40104.059231
500.935003	39889.810192
501.301226	39705.808077
501.667390	40531.717115
502.033497	41350.064423
502.399546	40392.245192
502.765537	39959.546154
503.131470	40267.056538
503.497345	40575.407115
503.863163	39636.072115
504.228923	39819.234038
504.594625	40331.751346
504.960269	39919.216923
505.325856	40207.402885
505.691385	39783.105769
506.056856	39823.435000
506.422270	40217.485192
506.787625	40284.700577
507.152924	40390.564808
507.518164	40472.063462
507.883347	39712.529615
508.248472	40054.487885
508.613540	40431.734231
508.978550	41019.868846
509.343503	40542.639615
509.708398	41051.796154
510.073236	41266.045192
510.438016	41391.233846
510.802738	40735.883846
511.167403	41557.591923
511.532010	41948.281346
511.896561	42300.321923
512.261053	43249.739231
512.625488	42563.302115
512.989866	42706.975000
513.354186	42497.767115
513.718449	42515.411154
514.082655	43149.756346
514.446803	43043.892115
514.810894	43169.080769
515.174927	43347.201538
515.538904	43298.470385
515.902822	44217.640769
516.266684	43539.605577
516.630488	43635.387500
516.994235	43853.837500
517.357925	44488.182692
517.721558	44514.228654
518.085133	44970.453077
518.448651	45322.493654
518.812112	44846.944808
519.175516	45101.523077
519.538863	45395.590385
519.902152	45322.493654
520.265385	46100.511731
520.628560	45994.647500
520.991678	45955.998654
521.354739	46308.039231
521.717743	46417.264231
522.080690	46539.932308
522.443580	47083.536731
522.806413	47280.141731
523.169189	47074.294615
523.531908	47396.928462
523.894569	47416.252885
524.257174	47388.526538
524.619722	47612.017692
524.982213	47679.233077
525.344647	47625.460769
525.707025	47943.893654
526.069345	48082.525385
526.431608	48311.057692
526.793815	48580.759423
527.155964	48189.229808
527.518057	48432.045385
527.880093	48286.692115
528.242072	48652.175769
528.603995	48474.055000
528.965860	48461.452115
529.327669	48882.388462
529.689421	48547.991923
530.051117	48707.628462
530.412755	48897.511923
530.774337	48963.046923
531.135862	48469.854038
531.497331	49008.417308
531.858743	48597.563269
532.220098	49052.947500
532.581396	48516.904808
532.942638	48712.669615
533.303824	48747.117500
533.664953	48800.049615
534.026025	48740.395962
534.387040	49000.855577
534.747999	48686.623654
535.108902	49036.983846
535.469748	48842.899423
535.830537	48676.541346
536.191270	48845.420000
536.551947	48474.895192
536.912567	48752.158654
537.273131	48789.127115
537.633638	48412.720962
537.994089	48722.751923
538.354483	48152.261346
538.714821	48621.088654
539.075103	49067.230769
539.435328	48849.620962
539.795497	48843.739615
540.155609	48669.819808
540.515665	49287.361154
540.875665	48709.308846
541.235609	49246.191731
541.595496	49018.499615
541.955328	49369.700000
542.315102	49318.448269
542.674821	48630.330769
543.034483	48993.293846
543.394090	48752.158654
543.753640	48698.386346
544.113134	49619.237115
544.472571	48616.047500
544.831953	49990.602115
545.191278	49020.180000
545.550548	48797.529038
545.909761	49210.063462
546.268918	49175.615577
546.628019	49525.135577
546.987064	49244.511346
547.346053	48424.483654
547.704986	49557.903077
548.063863	48558.074231
548.422684	49139.487308
548.781449	48528.667500
549.140158	49103.359038
549.498811	49209.223269
549.857408	48397.597500
550.215949	48942.042115
550.574434	49261.315192
550.932864	48656.376731
551.291237	49446.157500
551.649555	48983.211538
552.007817	49677.210385
552.366022	48918.516731
552.724173	49281.479808
553.082267	49297.443462
553.440305	49918.345577
553.798288	49468.842692
554.156215	49277.278846
554.514086	49716.699423
554.871902	49463.801538
555.229661	49541.939423
555.587365	49576.387308
555.945014	49477.244615
556.302606	49329.370769
556.660143	49851.970385
557.017625	49443.636923
557.375050	49583.108846
557.732421	49642.762500
558.089735	49760.389423
558.446994	49583.949038
558.804197	50271.226346
559.161345	50230.897115
559.518437	49277.278846
559.875474	49515.893462
560.232455	49599.072500
560.589381	49815.001923
560.946251	49286.520962
561.303065	50424.141346
561.659825	50198.129615
562.016528	49641.082115
562.373177	49498.249423
562.729770	50094.785962
563.086307	49460.440769
563.442789	50018.328462
563.799216	49837.687115
564.155587	49458.760385
564.511904	49891.459423
564.868164	49793.997115
565.224370	50010.766731
565.580520	49764.590385
565.936615	50055.296923
566.292654	49853.650769
566.648638	50109.909423
567.004567	49921.706346
567.360441	49857.011538
567.716260	50109.069231
568.072023	50358.606346
568.427732	50123.352500
568.783385	49680.571154
569.138982	50175.444423
569.494525	50029.250962
569.850013	49872.975192
570.205445	49748.626731
570.560823	49888.938846
570.916145	49621.757692
571.271412	49549.501154
571.626625	49266.356346
571.981782	49577.227500
572.336884	49398.266538
572.691931	49494.888654
573.046923	49099.158077
573.401860	48932.800000
573.756743	48932.800000
574.111570	49144.528462
574.466342	48994.974231
574.821059	49047.066154
575.175722	48594.202500
575.530330	48358.108462
575.884882	48553.873269
576.239380	48395.076923
576.593823	48268.207885
576.948211	48400.958269
577.302544	47713.680962
577.656823	47746.448462
578.011047	48231.239423
578.365216	47628.821538
578.719330	47561.606154
579.073389	47166.715769
579.427394	47233.931154
579.781344	47408.691154
580.135239	47006.239038
580.489080	46932.302115
580.842866	46583.622308
581.196597	47300.306346
581.550273	46923.060000
581.903895	46428.186731
582.257463	47088.577885
582.610975	46507.164808
582.964434	46681.084615
583.317837	46601.266346
583.671186	46260.988462
584.024481	46449.191538
584.377721	46161.845769
584.730906	46371.053654
585.084037	46192.092692
585.437113	46045.899231
585.790135	46293.755962
586.143103	46000.528846
586.496016	45882.061731
586.848874	46140.000769
587.201679	45816.526731
587.554428	45337.617115
587.907124	45595.556154
588.259765	45296.447692
588.612352	45653.529423
588.964884	45099.002500
589.317362	45518.258462
589.669786	45190.583462
590.022155	44971.293269
590.374470	45178.820769
590.726731	44992.298077
591.078937	44749.482500
591.431090	44523.470769
591.783188	44263.851346
592.135232	44014.314231
592.487222	43984.067308
592.839157	44215.120192
593.191038	44231.924038
593.542866	43595.058269
593.894639	43040.531346
594.246358	43258.141154
594.598022	43091.783077
594.949633	43026.248077
595.301190	42647.321346
595.652692	42749.824808
596.004141	42777.551154
596.355535	41995.332115
596.706876	41905.431538
597.058162	41746.635192
597.409395	42224.704615
597.760573	42329.728654
598.111698	41627.327885
598.462768	41929.797115
598.813785	41956.683269
599.164748	41435.764038
599.515657	41591.199615
599.866511	41329.059615
600.217312	41592.039808
600.568060	40558.603269
600.918753	41265.205000
601.269392	41278.648077
601.619978	41057.677500
601.970510	41078.682308
602.320988	41292.091154
602.671412	41626.487692
603.021783	41302.173462
603.372100	41103.888077
603.722363	41123.212500
604.072572	41274.447115
604.422728	41234.958077
604.772830	40887.118462
605.122878	41298.812692
605.472872	41028.270769
605.822813	41247.560962
606.172701	40907.283077
606.522534	41069.440192
606.872314	41387.032885
607.222041	41258.483462
607.571714	41547.509615
607.921333	40738.404423
608.270899	40959.375000
608.620411	41381.991731
608.969870	41431.563077
609.319276	41202.190577
609.668627	41250.921731
610.017926	41808.809423
610.367171	41907.111923
610.716362	41812.170192
611.065500	42067.588654
611.414585	41579.436923
611.763616	42034.821154
612.112594	41699.584423
612.461518	42224.704615
612.810389	42488.525000
613.159207	42160.009808
613.507971	42259.992692
613.856682	42593.549038
614.205340	42748.984615
614.553945	42869.132115
614.902496	42665.805577
615.250994	42784.272692
615.599439	42768.309038
615.947830	42941.388654
616.296169	42858.209615
616.644454	42910.301538
616.992686	43122.030000
617.340864	43682.438269
617.688990	43276.625385
618.037063	44170.590000
618.385082	44067.246346
618.733048	43758.055577
619.080961	43736.210577
619.428821	43858.038462
619.776628	43831.992500
620.124382	43633.707115
620.472083	43721.087115
620.819731	43813.508269
621.167326	43440.462885
621.514868	43216.131538
621.862357	43034.650000
622.209793	42705.294615
622.557176	42649.001731
622.904506	42112.959038
623.251783	41986.930192
623.599007	41810.489808
623.946179	41145.057500
624.293297	41167.742692
624.640363	40544.320000
624.987376	40522.475000
625.334336	40202.361731
625.681243	39913.335577
626.028097	39733.534423
626.374899	39445.348462
626.721647	39163.043846
627.068343	39273.949231
627.414987	38901.744038
627.761577	38527.018269
628.108115	38717.741923
628.454600	38327.052500
628.801032	38280.001731
629.147412	38237.151923
629.493739	38104.401538
629.840014	37897.714231
630.186236	38008.619615
630.532405	37696.068077
630.878521	37610.368462
631.224585	37423.005577
631.570597	37318.821731
631.916556	37138.180385
632.262462	36859.236538
632.608316	37123.056923
632.954117	36889.483462
633.299866	36961.740000
633.645562	36570.210385
633.991206	36292.946923
634.336797	35476.280000
634.682336	35706.492692
635.027823	35382.178462
635.373257	35004.091923
635.718639	34727.668654
636.063968	34426.879808
636.409245	33845.466731
636.754470	34052.154038
637.099642	33686.670385
637.444762	33135.504231
637.789829	33148.107115
638.134845	32996.872500
638.479808	32891.008269
638.824719	32510.401154
639.169577	32228.096538
639.514383	31943.271346
639.859137	31997.883846
640.203839	32081.903077
640.548489	31360.177885
640.893086	31711.378269
641.237632	31284.560577
641.582125	31402.187500
641.926566	31225.747115
642.270955	31044.265577
642.615292	31135.006346
642.959576	30998.895192
643.303809	30836.738077
643.647990	30966.127692
643.992118	30976.210000
644.336195	30872.866346
644.680219	30747.677692
645.024192	31043.425385
645.368112	31188.778654
645.711981	31125.764231
646.055797	31917.225385
646.399562	31693.734231
646.743274	32392.774231
647.086935	32613.744808
647.430544	32672.558269
647.774101	32796.906731
648.117606	32847.318269
648.461059	33207.760769
648.804460	32730.531538
649.147810	32225.575962
649.491108	32168.442885
649.834354	31637.441346
650.177548	30588.881346
650.520690	30551.912885
650.863781	30500.661154
651.206820	30189.790000
651.549807	29895.722692
651.892742	29526.038077
652.235626	29071.494038
652.578458	28738.777885
652.921238	28621.150962
653.263967	28656.439038
653.606644	28244.744808
653.949269	28188.451923
654.291843	27764.154808
654.634365	28047.299615
654.976836	27860.776923
655.319255	27660.811154
655.661622	27691.898269
656.003938	27329.775385
656.346203	27329.775385
656.688416	27236.514038
657.030577	27116.366538
657.372687	26844.144231
657.714746	27001.260192
658.056753	27068.475577
658.398708	26815.577692
658.740612	26800.454231
659.082465	26825.660000
659.424266	26557.638654
659.766016	26778.609231
660.107715	26561.839615
660.449362	26760.125000
660.790958	26492.103654
661.132503	26708.873269
661.473996	26652.580385
661.815438	26797.933654
662.156829	26865.989231
662.498168	26424.888269
662.839456	26452.614615
663.180693	26486.222308
663.521879	26693.749808
663.863013	26539.154423
664.204097	26596.287500
664.545129	26829.860962
664.886110	26776.088654
665.227040	26853.386346
665.567918	26832.381538
665.908746	26989.497500
666.249522	27092.841154
666.590248	27175.180000
666.930922	27212.148462
667.271545	26976.054423
667.612118	26979.415192
667.952639	27116.366538
668.293109	26988.657308
668.633528	26850.865769
668.973896	26907.158654
669.314213	26750.882885
669.654480	26464.377308
669.994695	26573.602308
670.334859	26341.709231
670.674973	26344.229808
671.015035	26293.818269
671.355047	26249.288077
671.695008	26217.360769
672.034918	26369.435577
672.374777	26266.932115
672.714585	25998.070577
673.054342	26099.733846
673.394049	26033.358654
673.733705	26358.513077
674.073310	26090.491731
674.412864	26034.198846
674.752368	25578.814615
675.091820	25852.717308
675.431223	25581.335192
675.770574	25370.446923
676.109875	25138.553846
676.449125	24894.898077
676.788324	24915.062692
677.127473	24529.414423
677.466571	24570.583846
677.805619	24303.402692
678.144616	24014.376538
678.483562	23990.851154
678.822458	23596.800962
679.161303	23621.166538
679.500098	23662.335962
679.838842	23525.384615
680.177535	23553.951154
680.516179	23653.093846
680.854771	23764.839423
681.193314	24424.390385
681.531805	25081.420769
681.870247	25676.276923
682.208638	26450.094038
682.546978	26687.868462
682.885268	26823.979615
683.223508	26591.246346
683.561697	26119.058269
683.899836	26200.556923
684.237925	25544.366731
684.575963	25483.032692
684.913951	25299.030577
685.251889	25273.824808
685.589776	25283.066923
685.927614	25413.296731
686.265401	25116.708846
686.603137	25344.400962
686.940824	25733.410000
687.278460	26109.816154
687.616046	26087.130962
687.953582	26682.827308
688.291068	26745.001538
688.628504	26984.456346
688.965889	27036.548269
689.303224	26807.175769
689.640510	26595.447308
689.977745	25856.918269
690.314930	25386.410577
690.652065	24806.677885
690.989150	24368.937692
691.326185	23632.089038
691.663170	23222.075192
692.000105	22333.991923
692.336990	21813.072692
692.673825	21625.709808
693.010610	21148.480577
693.347345	20637.643654
693.684030	20267.118846
694.020665	19919.279231
694.357251	19245.445000
694.693786	19387.437500
695.030272	19158.905192
695.366707	18826.189038
695.703093	18569.090192
696.039429	18424.577115
696.375716	18364.923462
696.711952	18337.197115
697.048139	18005.321154
697.384276	17996.079038
697.720363	18195.204615
698.056400	17887.694231
698.392388	17912.900000
698.728326	17695.290192
699.064214	17656.641346
699.400053	17601.188654
699.735842	17400.382692
700.071581	17070.187115
700.407270	17077.748846
700.742910	16822.330385
701.078501	16763.516923
701.414042	16318.215000
701.749533	16138.413846
702.084974	15876.273846
702.420366	15923.324615
702.755709	15869.552308
703.091002	15529.274423
703.426246	15510.790192
703.761440	15362.076154
704.096584	15100.776346
704.431679	15152.028077
704.766725	15046.163846
705.101721	15074.730385
705.436668	15157.909423
705.771565	14989.030769
706.106413	15115.059615
706.441212	15136.904615
706.775961	15098.255769
707.110661	15227.645385
707.445311	15512.470577
707.779913	15424.250385
708.114465	15584.727115
708.448967	15983.818462
708.783421	16451.805577
709.117825	16408.115577
709.452180	16747.553269
709.786485	16944.158269
710.120742	17752.423269
710.454949	17897.776538
710.789107	18089.340385
711.123216	18619.501731
711.457275	18836.271346
711.791286	19388.277692
712.125247	19496.662500
712.459159	19455.493077
712.793023	19907.516538
713.126837	19110.174038
713.460602	19180.750192
713.794318	19015.232308
714.127985	18727.046346
714.461602	18078.417885
714.795171	18075.897308
715.128691	17160.927885
715.462162	16719.826923
715.795584	16526.582692
716.128957	16348.461923
716.462281	15937.607885
716.795556	15765.368462
717.128782	15337.710577
717.461960	14927.696731
717.795088	14802.508077
718.128167	14547.089615
718.461198	14272.346731
718.794180	14051.376154
719.127113	13838.807500
719.459997	13726.221731
719.792833	13369.140000
720.125619	13411.989808
720.458357	13227.147500
720.791046	13016.259231
721.123686	13012.058269
721.456278	12736.475192
721.788821	12714.630192
722.121315	12686.063654
722.453761	12531.468269
722.786158	12527.267308
723.118506	12459.211731
723.450805	12428.124615
723.783056	12582.720000
724.115259	12571.797500
724.447412	12401.238462
724.779518	12637.332500
725.111574	12575.158269
725.443582	12696.986154
725.775542	12795.288654
726.107453	13176.735962
726.439315	13090.196154
726.771129	13418.711346
727.102895	13734.623654
727.434612	13894.260192
727.766281	14003.485192
728.097901	14326.119038
728.429473	14300.913269
728.760996	14309.315192
729.092471	14419.380385
729.423897	14310.995577
729.755276	14305.954423
730.086606	14441.225385
730.417887	14695.803654
730.749120	15059.606923
731.080305	15226.805192
731.411442	15529.274423
731.742530	15556.160577
732.073570	15694.792308
732.404562	16041.791731
732.735506	15821.661346
733.066401	15705.714808
733.397249	15502.388269
733.728048	14956.263269
734.058798	14265.625192
734.389501	13563.224423
734.720156	13364.098846
735.050762	12857.462885
735.381320	12669.259808
735.711831	12304.616346
736.042293	12047.517500
736.372707	12039.955769
736.703073	11857.634038
737.033391	12020.631346
737.363661	12086.166346
737.693883	11993.745192
738.024056	12320.580000
738.354182	12471.814615
738.684260	12630.610962
739.014290	12769.242692
739.344272	13110.360769
739.674207	13294.362885
740.004093	13405.268269
740.333931	13446.437692
740.663722	13559.863654
740.993464	13653.965192
741.323159	13396.866346
741.652806	13270.837500
741.982405	13142.288077
742.311956	12877.627500
742.641460	12872.586346
742.970915	12523.906538
743.300323	12109.691731
743.629683	12117.253462
743.958996	11837.469423
744.288260	11699.677885
744.617477	11406.450769
744.946647	11304.787500
745.275768	11221.608462
745.604842	11077.095385
745.933869	10830.919038
746.262847	10787.229038
746.591778	10790.589808
746.920662	10622.551346
747.249498	10502.403846
747.578286	10701.529423
747.907027	10847.722885
748.235720	10938.463654
748.564365	11134.228462
748.892963	11136.749038
749.221514	11176.238077
749.550017	11104.821731
749.878473	11066.172885
750.206881	10896.454038
750.535242	10713.292115
750.863555	10725.895000
751.191821	10646.916923
751.520039	10698.168654
751.848210	10546.934038
752.176334	10706.570577
752.504411	10596.505385
752.832440	10479.718654
753.160421	10609.108269
753.488356	10357.890769
753.816243	10423.425769
754.144082	10355.370192
754.471875	10245.305000
754.799620	10251.186346
755.127318	10220.939423
755.454969	10173.048462
755.782572	10085.668462
756.110129	10158.765192
756.437638	10082.307692
756.765100	10110.874231
757.092515	10094.910577
757.419882	10077.266538
757.747203	9985.685577
758.074477	10290.675385
758.401703	10162.966154
758.728882	10326.803654
759.056014	10324.283077
759.383099	10349.488846
759.710138	10472.156923
760.037129	10703.209808
760.364073	10714.972500
760.690970	10622.551346
761.017820	10561.217308
761.344623	10812.434808
761.671379	10982.153654
761.998088	11339.235385
762.324751	12323.100577
762.651366	14504.239808
762.977935	17714.614615
763.304456	20229.310192
763.630931	21402.218654
763.957359	21057.739808
764.283740	19342.067115
764.610074	17586.065192
764.936362	15936.767692
765.262602	14355.525769
765.588796	12948.203654
765.914943	12018.950962
766.241044	11074.574808
766.567097	10498.202885
766.893104	10026.855000
767.219064	9584.913846
767.544978	9263.960385
767.870845	8990.057692
768.196665	8811.936923
768.522438	8632.975962
768.848165	8448.133654
769.173846	8424.608269
769.499479	8295.218654
769.825066	8071.727500
770.150607	8031.398269
770.476101	7902.008654
770.801548	7816.309038
771.126949	7549.968077
771.452303	7609.621731
771.777611	7438.222500
772.102872	7390.331538
772.428087	7301.271154
772.753256	7186.164808
773.078378	7161.799231
773.403453	7017.286154
773.728482	6910.581731
774.053465	6884.535769
774.378401	6854.288846
774.703291	6822.361538
775.028135	6606.432115
775.352932	6629.957500
775.677683	6479.563077
776.002388	6439.233846
776.327046	6429.151538
776.651658	6418.229038
776.976224	6300.602115
777.300743	6230.025962
777.625216	6223.304423
777.949643	6235.067115
778.274024	6207.340769
778.598359	6172.892885
778.922647	6102.316731
779.246889	6048.544423
779.571086	6210.701538
779.895236	6162.810577
780.219339	6130.883269
780.543397	6177.934038
780.867409	6157.769423
781.191374	6230.025962
781.515294	6162.810577
781.839167	6177.093846
782.162995	6245.989615
782.486776	6151.888077
782.810511	6137.604808
783.134201	6096.435385
783.457844	6165.331154
783.781441	6044.343462
784.104993	6076.270769
784.428498	5978.808462
784.751958	5929.237115
785.075372	5925.876346
785.398739	5904.871538
785.722061	5835.135577
786.045337	5944.360577
786.368568	5988.890769
786.691752	5995.612308
787.014891	6240.108269
787.337983	6398.064423
787.661030	6847.567308
787.984031	7206.329423
788.306987	7680.197885
788.629897	7742.372115
788.952760	7786.902308
789.275579	7640.708846
789.598351	7373.527692
789.921078	7144.995385
790.243759	6902.179808
790.566395	6678.688654
790.888984	6393.863462
791.211529	6295.560962
791.534027	6122.481346
791.856480	5955.283077
792.178888	5884.706923
792.501249	5791.445577
792.823566	5788.084808
793.145836	5682.220577
793.468062	5719.189038
793.790241	5696.503846
794.112375	5704.065577
794.434464	5758.678077
794.756507	5788.084808
795.078505	5878.825577
795.400457	6098.955962
795.722364	6377.059615
796.044226	6568.623462
796.366042	6822.361538
796.687812	6748.424615
797.009538	6841.685962
797.331218	6765.228462
797.652852	6714.816923
797.974442	6629.957500
798.295986	6542.577500
798.617484	6445.115192
798.938938	6293.880577
799.260346	6217.423077
799.581709	6075.430577
799.903026	6061.147308
800.224299	5919.995000
800.545526	5766.239808
800.866708	5785.564231
801.187845	5646.932500
801.508936	5594.000385
801.829983	5607.443462
802.150984	5463.770577
802.471940	5515.022308
802.792851	5476.373462
803.113717	5503.259615
803.434538	5400.756154
803.755314	5315.896731
804.076045	5380.591538
804.396731	5275.567500
804.717372	5354.545577
805.037967	5262.124423
805.358518	5402.436538
805.679024	5462.930385
805.999485	5524.264423
806.319901	5469.651923
806.640272	5465.450962
806.960598	5563.753462
807.280879	5544.429038
807.601115	5608.283654
807.921306	5574.675962
808.241453	5588.959231
808.561554	5479.734231
808.881611	5567.954423
809.201623	5517.542885
809.521590	5534.346731
809.841513	5532.666346
810.161390	5467.971538
810.481223	5431.843269
810.801011	5474.693077
811.120755	5440.245192
811.440453	5357.066154
811.760107	5359.586731
812.079716	5294.891923
812.399281	5308.335000
812.718801	5254.562692
813.038276	5199.950192
813.357707	5173.064038
813.677093	5173.904231
813.996434	5178.945385
814.315731	5162.141538
814.634983	5102.487885
814.954191	5158.780769
815.273354	5252.882308
815.592473	5266.325385
815.911547	5373.029808
816.230577	5372.189615
816.549562	5499.898846
816.868502	5488.976346
817.187399	5604.082692
817.506250	5725.910577
817.825058	5713.307692
818.143821	5940.159615
818.462539	5983.849615
818.781213	6276.236538
819.099843	6553.500000
819.418429	7224.813654
819.736970	7854.117692
820.055466	8588.445769
820.373919	9413.514615
820.692327	10797.311346
821.010691	12848.220769
821.329011	17733.098846
821.647286	26244.246923
821.965517	37107.093269
822.283704	44922.562115
822.601847	49198.300769
822.919945	46632.353462
823.237999	42118.000192
823.556010	36890.323654
823.873976	31402.187500
824.191897	26744.161346
824.509775	23038.073077
824.827609	19853.744231
825.145398	17547.416346
825.463144	16242.597692
825.780845	16035.070192
826.098502	16892.066346
826.416116	19206.796154
826.733685	21975.229808
827.051210	23531.265962
827.368692	22848.189615
827.686129	20465.404231
828.003522	17720.495962
828.320872	15110.858654
828.638177	13002.816154
828.955439	11513.995385
829.272656	10067.184231
829.589830	9113.565962
829.906960	8238.925769
830.224046	7428.140192
830.541088	6961.833462
830.858086	6566.943077
831.175041	6374.539038
831.491952	6259.432692
831.808819	6183.815385
832.125642	6381.260577
832.442421	6747.584423
832.759157	7818.829615
833.075849	9387.468654
833.392497	11652.627115
833.709101	13380.062500
834.025662	13727.902115
834.342179	12968.368269
834.658653	11525.758077
834.975083	10200.774808
835.291469	9168.178462
835.607811	8221.281731
835.924110	7479.391923
836.240366	6903.020000
836.556578	6313.205000
836.872746	5897.309808
837.188871	5431.003077
837.504952	5232.717692
837.820990	4999.984423
838.136984	4831.945962
838.452935	4742.885577
838.768842	4700.875962
839.084706	4877.316346
839.400526	5488.136154
839.716303	6549.299038
840.032037	7490.314423
840.347727	7769.258269
840.663373	7187.005000
840.978977	6482.083654
841.294537	5836.815962
841.610054	5422.601154
841.925527	5092.405577
842.240957	4770.611923
842.556344	4540.399231
842.871687	4411.009615
843.186987	4248.852500
843.502244	4061.489615
843.817458	3937.141154
844.132629	3847.240577
844.447756	3746.417500
844.762840	3727.933269
845.077881	3713.650000
845.392879	3575.858462
845.707833	3603.584808
846.022745	3563.255577
846.337613	3582.580000
846.652438	3467.473654
846.967221	3494.359808
847.281960	3486.798077
847.596656	3422.943462
847.911309	3422.103269
848.225919	3459.071731
848.540485	3442.267885
848.855009	3427.144423
849.169490	3367.490769
849.483928	3386.815192
849.798323	3379.253462
850.112675	3389.335769
850.426984	3348.166346
850.741251	3354.887885
851.055474	3353.207500
851.369654	3359.088846
851.683792	3306.996923
851.997887	3322.120385
852.311938	3362.449615
852.625947	3326.321346
852.939914	3342.285000
853.253837	3395.217115
853.567718	3351.527115
853.881555	3425.464038
854.195350	3336.403654
854.509103	3343.965385
854.822812	3349.846731
855.136479	3338.924231
855.450103	3370.851538
855.763685	3333.042885
856.077224	3332.202692
856.390720	3351.527115
856.704173	3380.933846
857.017584	3336.403654
857.330953	3381.774038
857.644278	3375.892692
857.957561	3466.633462
858.270802	3427.984615
858.584000	3436.386538
858.897155	3391.016154
859.210268	3422.103269
859.523339	3394.376923
859.836367	3438.907115
860.149352	3359.088846
860.462295	3383.454423
860.775195	3412.861154
861.088054	3326.321346
861.400869	3374.212308
861.713642	3408.660192
862.026373	3354.047692
862.339062	3385.134808
862.651708	3403.619038
862.964312	3420.422885
863.276873	3456.551154
863.589392	3476.715769
863.901869	3478.396154
864.214303	3509.483269
864.526696	3588.461346
864.839045	3589.301538
865.151353	3525.446923
865.463619	3596.863269
865.775842	3596.863269
866.088023	3567.456538
866.400162	3591.822115
866.712258	3607.785769
867.024313	3597.703462
867.336325	3638.032692
867.648296	3607.785769
867.960224	3639.713077
868.272110	3587.621154
868.583954	3617.868077
868.895755	3648.115000
869.207515	3616.187692
869.519233	3598.543654
869.830909	3631.311154
870.142542	3686.763846
870.454134	3701.887308
870.765684	3636.352308
871.077191	3715.330385
871.388657	3669.960000
871.700081	3776.664423
872.011463	3750.618462
872.322803	3800.189808
872.634101	3880.008077
872.945357	3877.487500
873.256571	3917.816731
873.567744	3868.245385
873.878874	3961.506731
874.189963	3992.593846
874.501010	3964.867500
874.812015	3969.908654
875.122979	3991.753654
875.433900	3948.063654
875.744780	3981.671346
876.055618	3995.114423
876.366415	3999.315385
876.677169	3944.702885
876.987882	4010.237885
877.298554	4016.119231
877.609183	4121.143269
877.919771	4161.472500
878.230317	4198.440962
878.540822	4325.310000
878.851285	4522.755192
879.161707	4846.229231
879.472087	5190.708077
879.782425	5926.716538
880.092722	7061.816346
880.402977	9002.660577
880.713191	11583.731346
881.023363	14170.683462
881.333494	16244.278077
881.643583	17491.963654
881.953631	17654.120769
882.263637	17201.257115
882.573602	16258.561346
882.883526	15092.374423
883.193408	14048.015385
883.503248	12838.978654
883.813048	11756.810962
884.122806	10767.064423
884.432522	9748.751346
884.742197	8827.900577
885.051831	8074.248077
885.361424	7373.527692
885.670975	6806.397885
885.980485	6173.733077
886.289954	5845.217885
886.599382	5501.579231
886.908768	5229.356923
887.218113	5007.546154
887.527417	4814.301923
887.836680	4548.801154
888.145901	4483.266154
888.455082	4383.283269
888.764221	4280.779808
889.073319	4155.591154
889.382376	4077.453269
889.691392	4073.252308
890.000366	4083.334615
890.309300	4062.329808
890.618193	4090.896346
890.927044	4041.325000
891.235855	4028.722115
891.544625	4011.918269
891.853353	4106.860000
892.162041	4165.673462
892.470687	4215.244808
892.779293	4411.849808
893.087858	4668.108462
893.396381	4953.773846
893.704864	5394.874808
894.013306	6081.311923
894.321707	6905.540577
894.630068	7550.808269
894.938387	7831.432500
895.246665	7810.427692
895.554903	7417.217692
895.863100	7009.724423
896.171256	6535.855962
896.479371	6217.423077
896.787446	5850.259038
897.095480	5537.707500
897.403473	5378.911154
897.711425	5104.168269
898.019336	5021.829423
898.327207	4747.926731
898.635038	4684.072115
898.942827	4533.677692
899.250576	4324.469808
899.558284	4212.724231
899.865952	4142.988269
900.173579	3967.388077
900.481165	3922.857885
900.788711	3912.775577
901.096216	3775.824231
901.403681	3796.829038
901.711105	3797.669231
902.018489	3680.042308
902.325832	3811.112308
902.633135	3820.354423
902.940397	3957.305769
903.247619	4368.159808
903.554800	5139.456346
903.861941	6367.817500
904.169041	7530.643654
904.476101	8238.085577
904.783121	8206.158269
905.090100	7724.728077
905.397039	7243.297885
905.703938	6698.013077
906.010796	6161.130192
906.317614	5834.295385
906.624391	5441.085385
906.931129	5187.347308
907.237826	4926.887692
907.544483	4571.486346
907.851099	4366.479423
908.157675	4126.184423
908.464211	3869.925769
908.770707	3712.809808
909.077163	3584.260385
909.383578	3498.560769
909.689954	3312.878269
909.996289	3333.883077
910.302584	3287.672500
910.608839	3239.781538
910.915054	3257.425577
911.221229	3233.900192
911.527363	3267.507885
911.833458	3270.028462
912.139513	3267.507885
912.445527	3278.430385
912.751502	3312.038077
913.057436	3394.376923
913.363331	3452.350192
913.669186	3567.456538
913.975000	3736.335192
914.280775	3906.894231
914.586510	4291.702308
914.892205	4789.096154
915.197859	5328.499615
915.503475	6067.028654
915.809050	6960.153077
916.114585	7530.643654
916.420081	7774.299423
916.725536	7824.710962
917.030952	7581.895385
917.336328	7307.992692
917.641665	7012.245000
917.946961	6777.831346
918.252218	6459.398462
918.557435	6032.580769
918.862612	5764.559423
919.167750	5476.373462
919.472848	5268.845962
919.777906	4950.413077
920.082925	4767.251154
920.387904	4516.033654
920.692843	4337.072692
920.997743	4120.303077
921.302603	3976.630192
921.607423	3844.720000
921.912204	3778.344808
922.216946	3671.640385
922.521647	3623.749423
922.826310	3559.054615
923.130932	3489.318654
923.435516	3464.953077
923.740059	3349.006538
924.044564	3322.120385
924.349028	3306.996923
924.653454	3275.069615
924.957840	3171.725962
925.262186	3171.725962
925.566493	3154.922115
925.870761	3080.985192
926.174989	3019.651154
926.479178	3024.692308
926.783328	3020.491346
927.087438	2921.348654
927.391509	2995.285577
927.695541	2978.481731
927.999533	2968.399423
928.303486	2897.823269
928.607400	2871.777308
928.911275	2888.581154
929.215110	2905.385000
929.518906	2880.179231
929.822663	2849.932308
930.126381	2865.055769
930.430060	2865.895962
930.733699	2891.941923
931.037299	2865.895962
931.340861	2884.380192
931.644383	2883.540000
931.947866	2923.869231
932.251309	2917.147692
932.554714	2924.709423
932.858080	2886.900769
933.161407	2846.571538
933.464694	2852.452885
933.767943	2854.973462
934.071153	2865.055769
934.374323	2901.184038
934.677455	2852.452885
934.980548	2822.205962
935.283602	2809.603077
935.586617	2811.283462
935.889593	2856.653846
936.192530	2844.050962
936.495428	2859.174423
936.798287	2881.019423
937.101108	2891.941923
937.403890	2877.658654
937.706632	2913.786923
938.009336	3010.409038
938.312002	3057.459808
938.614628	3065.021538
938.917216	3128.876154
939.219765	3152.401538
939.522275	3154.922115
939.824747	3207.014038
940.127179	3203.653269
940.429573	3173.406346
940.731929	3154.922115
941.034246	3171.725962
941.336524	3167.525000
941.638763	3152.401538
941.940964	3147.360385
942.243126	3107.031154
942.545250	3098.629231
942.847335	3088.546923
943.149381	3043.176538
943.451389	2987.723846
943.753359	3017.970769
944.055290	2995.285577
944.357182	2991.084615
944.659036	3009.568846
944.960851	2965.038654
945.262628	2924.709423
945.564367	3009.568846
945.866067	2981.002308
946.167729	2955.796538
946.469352	2935.631923
946.770937	2935.631923
947.072484	2961.677885
947.373992	2970.079808
947.675462	2980.162115
947.976893	2950.755385
948.278286	2902.024231
948.579641	2933.951538
948.880958	2916.307500
949.182236	2877.658654
949.483476	2916.307500
949.784678	2912.946731
950.085841	2862.535192
950.386967	2944.874038
950.688054	2907.065385
950.989103	2914.627115
951.290114	2934.791731
951.591087	2939.832885
951.892021	2994.445385
952.192917	2988.564038
952.493776	3066.701923
952.794596	3016.290385
953.095378	3018.810962
953.396122	3013.769808
953.696828	3009.568846
953.997496	3049.898077
954.298126	2986.043462
954.598718	2938.992692
954.899272	2977.641538
955.199788	2977.641538
955.500266	2940.673077
955.800706	2938.992692
956.101108	2898.663462
956.401472	2862.535192
956.701798	2894.462500
957.002087	2870.937115
957.302337	2792.799231
957.602550	2783.557115
957.902724	2802.041346
958.202861	2715.501538
958.502960	2693.656538
958.803022	2768.433654
959.103045	2683.574231
959.403031	2694.496731
959.702979	2687.775192
960.002889	2668.450769
960.302762	2667.610577
960.602596	2685.254615
960.902393	2641.564615
961.202153	2664.249808
961.501875	2618.879423
961.801559	2676.012500
962.101205	2612.157885
962.400814	2618.879423
962.700385	2664.249808
962.999918	2577.710000
963.299414	2634.843077
963.598873	2612.998077
963.898293	2577.710000
964.197677	2667.610577
964.497022	2644.085192
964.796331	2613.838269
965.095601	2584.431538
965.394835	2644.085192
965.694030	2615.518654
965.993189	2618.039231
966.292309	2645.765577
966.591393	2602.075577
966.890439	2645.765577
967.189447	2648.286154
967.488419	2586.952115
967.787353	2623.920577
968.086249	2545.782692
968.385108	2609.637308
968.683930	2597.034423
968.982714	2620.559808
969.281462	2635.683269
969.580172	2623.080385
969.878844	2626.441154
970.177480	2629.801923
970.476078	2654.167500
970.774639	2629.801923
971.073162	2604.596154
971.371649	2678.533077
971.670098	2648.286154
971.968510	2702.898654
972.266885	2645.765577
972.565223	2650.806731
972.863524	2681.053654
973.161788	2669.290962
973.460014	2663.409615
973.758204	2688.615385
974.056356	2694.496731
974.354471	2699.537885
974.652550	2692.816346
974.950591	2624.760769
975.248595	2618.879423
975.546563	2686.935000
975.844493	2695.336923
976.142386	2675.172308
976.440243	2660.048846
976.738062	2639.884231
977.035845	2606.276538
977.333590	2625.600962
977.631299	2652.487115
977.928971	2651.646923
978.226606	2613.838269
978.524204	2636.523462
978.821765	2619.719615
979.119290	2623.080385
979.416777	2634.002885
979.714228	2615.518654
980.011642	2621.400000
980.309020	2649.966538
980.606360	2644.085192
980.903664	2673.491923
981.200931	2683.574231
981.498162	2673.491923
981.795356	2741.547500
982.092513	2856.653846
982.389633	2901.184038
982.686717	2920.508462
982.983764	3020.491346
983.280775	3080.985192
983.577749	3079.304808
983.874686	3078.464615
984.171587	3029.733462
984.468451	2958.317115
984.765279	2996.965962
985.062070	2928.910385
985.358824	2877.658654
985.655543	2863.375385
985.952224	2883.540000
986.248869	2860.014615
986.545478	2768.433654
986.842050	2725.583846
987.138586	2704.579038
987.435086	2613.838269
987.731549	2655.847885
988.027975	2631.482308
988.324366	2567.627692
988.620719	2597.034423
988.917037	2599.555000
989.213318	2616.358846
989.509563	2564.266923
989.805772	2603.755962
990.101944	2597.874615
990.398080	2606.276538
990.694180	2576.029615
990.990244	2561.746346
991.286271	2569.308077
991.582262	2591.993269
991.878217	2603.755962
992.174136	2606.276538
992.470019	2573.509038
992.765865	2594.513846
993.061676	2528.978846
993.357450	2585.271731
993.653188	2557.545385
993.948890	2598.714808
994.244556	2611.317692
994.540186	2670.131154
994.835780	2636.523462
995.131337	2687.775192
995.426859	2721.382885
995.722345	2751.629808
996.017795	2740.707308
996.313208	2799.520769
996.608586	2810.443269
996.903928	2795.319808
997.199234	2863.375385
997.494504	2836.489231
997.789738	2800.360962
998.084936	2779.356154
998.380099	2781.876731
998.675225	2758.351346
998.970316	2744.908269
999.265371	2670.131154
999.560390	2689.455577
999.855373	2664.249808
1000.150320	2682.734038
1000.445232	2670.131154
1000.740108	2618.039231
1001.034948	2622.240192
1001.329752	2576.029615
1001.624521	2623.080385
1001.919254	2567.627692
1002.213951	2560.906154
1002.508613	2599.555000
1002.803239	2606.276538
1003.097829	2590.312885
1003.392384	2540.741538
1003.686903	2573.509038
1003.981386	2542.421923
1004.275834	2504.613269
1004.570246	2556.705192
1004.864623	2621.400000
1005.158964	2558.385577
1005.453270	2539.061154
1005.747540	2577.710000
1006.041775	2529.819038
1006.335974	2524.777885
1006.630138	2527.298462
1006.924266	2542.421923
1007.218359	2589.472692
1007.512416	2597.034423
1007.806438	2549.983654
1008.100425	2563.426731
1008.394376	2547.463077
1008.688292	2563.426731
1008.982172	2501.252500
1009.276017	2549.983654
1009.569827	2557.545385
1009.863602	2553.344423
1010.157341	2557.545385
1010.451045	2559.225769
1010.744714	2544.102308
1011.038347	2524.777885
1011.331945	2529.819038
1011.625508	2553.344423
1011.919036	2522.257308
1012.212528	2481.087885
1012.505986	2578.550192
1012.799408	2552.504231
1013.092795	2595.354038
1013.386147	2545.782692
1013.679464	2555.865000
1013.972745	2544.102308
1014.265992	2565.947308
1014.559204	2537.380769
1014.852380	2540.741538
1015.145521	2602.075577
1015.438628	2476.046731
1015.731699	2576.029615
1016.024736	2528.978846
1016.317737	2509.654423
1016.610703	2515.535769
1016.903635	2509.654423
1017.196531	2554.184615
1017.489393	2493.690769
1017.782219	2540.741538
1018.075011	2547.463077
1018.367768	2596.194231
1018.660490	2529.819038
1018.953177	2529.819038
1019.245829	2529.819038
