Dividing Wavelength (nm)	Counts (n)	Slit_number_11_of_a_total_of_40	
326.493990	2042.813024
326.888308	2042.813024
327.282561	2042.813024
327.676750	2031.126713
328.070874	1983.923182
328.464933	2014.399248
328.858929	2024.939843
329.252859	2038.001014
329.646726	2052.437045
330.040528	2077.642815
330.434265	2106.285734
330.827938	2123.013199
331.221547	2125.304633
331.615091	2150.052115
332.008571	2162.655000
332.401986	2204.129948
332.795338	2224.752850
333.188625	2244.917465
333.581847	2247.208899
333.975006	2288.454703
334.368100	2310.452465
334.761129	2304.723881
335.154095	2306.327885
335.546996	2384.007483
335.939833	2414.483549
336.332606	2435.793881
336.725315	2461.457937
337.117960	2450.917343
337.510540	2460.999650
337.903056	2473.602535
338.295508	2490.100857
338.687896	2483.226556
339.080220	2528.138654
339.472480	2495.600297
339.864676	2513.931766
340.256807	2499.037448
340.648875	2534.783811
341.040879	2478.643689
341.432818	2510.265472
341.824694	2527.909510
342.216506	2524.930647
342.608253	2527.680367
342.999937	2540.512395
343.391557	2504.078601
343.783113	2534.554668
344.174605	2536.616958
344.566033	2488.496853
344.957397	2530.200944
345.348697	2498.808304
345.739934	2504.078601
346.131106	2514.848339
346.522215	2514.160909
346.913260	2511.869476
347.304241	2485.747133
347.695159	2512.556906
348.086012	2488.725997
348.476802	2489.642570
348.867528	2495.371154
349.258191	2487.580280
349.648789	2521.722640
350.039324	2481.164266
350.429796	2526.763794
350.820203	2511.640332
351.210548	2470.852815
351.600828	2482.997413
351.991045	2493.996294
352.381198	2496.516871
352.771288	2473.373392
353.161314	2469.019668
353.551276	2472.915105
353.941175	2496.287727
354.331010	2485.976276
354.720782	2482.080839
355.110490	2499.954021
355.500135	2478.185402
355.889717	2506.828322
356.279235	2481.164266
356.668689	2504.995175
357.058080	2469.248811
357.447408	2486.663706
357.836672	2499.495734
358.225873	2470.852815
358.615010	2475.435682
359.004084	2495.371154
359.393095	2494.683724
359.782043	2473.831678
360.170927	2516.452343
360.559748	2490.330000
360.948505	2495.142010
361.337199	2478.185402
361.725830	2504.078601
362.114398	2522.868357
362.502903	2496.058584
362.891344	2541.428969
363.279722	2492.392290
363.668037	2503.849458
364.056289	2496.975157
364.444478	2520.806066
364.832603	2507.057465
365.220665	2498.579161
365.608665	2512.098619
365.996601	2528.138654
366.384474	2487.809423
366.772284	2509.119755
367.160031	2499.495734
367.547715	2513.473479
367.935336	2508.432325
368.322893	2524.701503
368.710388	2494.683724
369.097820	2511.869476
369.485189	2508.203182
369.872495	2507.286608
370.259738	2522.639213
370.646918	2510.494615
371.034035	2522.639213
371.421090	2493.996294
371.808081	2547.157552
372.195010	2515.306626
372.581875	2537.762675
372.968678	2510.265472
373.355418	2528.138654
373.742096	2532.492378
374.128710	2518.514633
374.515262	2547.844983
374.901751	2537.991818
375.288177	2532.950664
375.674540	2556.781573
376.060841	2546.011836
376.447079	2570.988462
376.833254	2568.467885
377.219367	2585.424493
377.605417	2630.565734
377.991404	2591.382220
378.377329	2618.191993
378.763191	2660.354371
379.148991	2660.583514
379.534727	2695.184161
379.920402	2690.601294
380.306013	2708.245332
380.691563	2744.908269
381.077049	2792.799231
381.462474	2816.171853
381.847835	2811.359843
382.233134	2860.625664
382.618371	2897.517745
383.003545	2917.682360
383.388657	2981.384213
383.773706	2987.112797
384.158693	3057.688951
384.543618	3104.892483
384.928480	3128.035962
385.313280	3168.594336
385.698017	3236.649913
386.082692	3275.604283
386.467305	3325.099248
386.851856	3401.403986
387.236344	3493.290472
387.620770	3488.707605
388.005133	3521.704248
388.389435	3640.858794
388.773674	3707.310367
389.157851	3798.738566
389.541965	3842.963234
389.926018	3883.521608
390.310008	3977.241241
390.693936	4057.899703
391.077802	4135.579301
391.461606	4168.346801
391.845348	4271.690455
392.229027	4328.518007
392.612645	4401.385594
392.996200	4517.790420
393.379694	4598.448881
393.763125	4748.079493
394.146494	4802.844755
394.529801	4901.147255
394.913047	4981.118287
395.296230	5056.277308
395.679351	5114.708864
396.062410	5247.153724
396.445408	5216.677657
396.828343	5331.478479
397.211217	5391.055752
397.594028	5336.748776
397.976778	5403.887780
398.359466	5533.812063
398.742092	5531.062343
399.124656	5621.573969
399.507158	5733.395927
399.889598	5743.019948
400.271977	5883.026538
400.654294	5898.379143
401.036549	6009.055385
401.418742	6050.530332
401.800874	6229.720437
402.182944	6258.821643
402.564952	6475.362115
402.946898	6404.098531
403.328783	6479.715839
403.710606	6605.515542
404.092367	6768.665612
404.474067	6974.207203
404.855705	6814.952570
405.237282	6820.910297
405.618797	7079.384003
406.000250	7233.826626
406.381642	7519.339248
406.762972	7431.119056
407.144240	7400.642990
407.525447	7510.631801
407.906593	7507.652937
408.287677	7639.639510
408.668700	7798.665000
409.049661	7841.056521
409.430560	7880.698322
409.811399	7909.112098
410.192176	8030.787220
410.572891	8088.073059
410.953545	8357.545647
411.334138	8173.543531
411.714669	8532.152885
412.095139	8067.908444
412.475547	8472.346469
412.855894	8367.169668
413.236180	8520.237430
413.616405	8313.091836
413.996568	8507.176259
414.376670	8458.368724
414.756711	8464.784738
415.136691	8690.032657
415.516609	8777.794563
415.896466	8770.003689
416.276262	8881.367360
416.655997	9084.617517
417.035670	9103.865559
417.415283	9603.398077
417.794834	9807.564808
418.174324	9645.789598
418.553753	9560.089983
418.933121	9880.203252
419.312428	9722.094336
419.691674	9715.678322
420.070859	9918.470192
420.449983	9758.528129
420.829045	10127.907220
421.208047	9914.803899
421.586988	10201.691381
421.965867	10434.730175
422.344686	10419.148427
422.723444	10675.101556
423.102141	10005.086381
423.480777	10666.394108
423.859352	10487.204003
424.237866	11064.645262
424.616319	11006.213706
424.994712	11334.346993
425.373044	11206.943287
425.751314	11577.697238
426.129524	11129.951119
426.507673	11730.306713
426.885762	11501.163357
427.263789	11770.635944
427.641756	11706.475804
428.019662	11878.333322
428.397508	11875.125315
428.775292	12167.512238
429.153016	12124.433287
429.530679	12163.616801
429.908282	12193.863724
430.285824	12027.734790
430.663305	12398.030455
431.040726	12226.402080
431.418086	11989.238706
431.795385	12534.599895
432.172624	12747.932360
432.549802	12563.242815
432.926920	12514.893566
433.303977	12518.101573
433.680974	12742.203776
434.057910	12815.758794
434.434786	12953.244808
434.811601	12717.227150
435.188355	13410.156661
435.565050	13182.846451
435.941683	13132.893199
436.318257	13628.759423
436.694770	13671.380087
437.071222	13997.680227
437.447614	13576.056451
437.823946	13654.194336
438.200218	13648.694895
438.576429	13480.732815
438.952580	13586.826189
439.328670	13572.848444
439.704700	13884.025122
440.080670	13584.305612
440.456580	13972.932745
440.832429	14184.890350
441.208218	13477.983094
441.583947	13852.632483
441.959616	13904.877168
442.335224	13967.662448
442.710773	14046.029476
443.086261	14362.247308
443.461689	14119.584493
443.837057	14082.004983
444.212365	14535.250542
444.587612	14514.169353
444.962800	14287.775717
445.337927	14520.127080
445.712995	13829.947290
446.088002	14895.234755
446.462949	15026.304755
446.837837	15045.323654
447.212664	14934.418269
447.587431	15888.342063
447.962139	17496.699283
448.336786	19828.232937
448.711374	20089.227220
449.085901	18184.358497
449.460369	17612.187535
449.834776	16857.160175
450.209124	17988.899213
450.583412	18183.441923
450.957640	19137.824003
451.331808	18481.099143
451.705917	17303.531434
452.079965	17256.786189
452.453954	17287.491399
452.827883	17063.160052
453.201752	17051.244598
453.575562	17210.270087
453.949311	17973.317465
454.323001	17941.466538
454.696632	17863.099510
455.070202	18765.695192
455.443713	18777.381503
455.817164	19374.299948
456.190556	19634.148514
456.563888	19521.180839
456.937160	20048.668846
457.310373	19122.471399
457.683526	19442.813811
458.056619	19334.199860
458.429653	19092.224476
458.802628	19350.698182
459.175542	19431.356643
459.548398	19989.320717
459.921194	21041.088724
460.293930	21222.799406
460.666607	22609.575000
461.039224	23841.449685
461.411782	24669.573776
461.784280	24230.076818
462.156719	24365.042255
462.529099	24129.253741
462.901419	23263.550140
463.273680	22481.942150
463.645882	22222.551871
464.018024	22006.927972
464.390106	22235.383899
464.762130	23316.023969
465.134094	25092.114126
465.505999	28240.543846
465.877845	32335.564773
466.249631	34703.073934
466.621358	34721.405402
466.993026	33780.084493
467.364634	32534.461206
467.736184	30551.683741
468.107674	29735.475105
468.479105	29133.057220
468.850477	28691.039685
469.221790	27721.763287
469.593043	26452.079948
469.964238	25995.626381
470.335373	25677.804545
470.706449	26201.855402
471.077467	26474.994283
471.448425	29677.501836
471.819324	33190.498636
472.190164	34069.721696
472.560945	31872.695192
472.931667	29270.084948
473.302330	28068.457185
473.672934	27217.189615
474.043479	27458.019283
474.413965	26800.148706
474.784393	26525.176678
475.154761	27193.587850
475.525070	27325.574423
475.895321	26915.178671
476.265513	27397.296294
476.635645	28259.562745
477.005719	28046.917710
477.375734	28331.055472
477.745691	28864.959493
478.115588	29848.671923
478.485427	30761.349913
478.855207	32884.133969
479.224928	34901.970367
479.594591	37060.729930
479.964194	37585.926503
480.333739	38023.361171
480.703226	37837.755052
481.072653	38024.965175
481.442022	38510.978234
481.811333	39302.668531
482.180584	38630.591066
482.549777	38375.554510
482.918912	37962.867325
483.287988	37888.166591
483.657005	37333.410524
484.025964	36930.805647
484.394864	37108.391748
484.763706	36901.933584
485.132489	36358.634685
485.501213	36173.028566
485.869879	36515.597885
486.238487	36044.708287
486.607036	36397.359913
486.975527	36131.095332
487.343959	36283.017378
487.712333	36440.209720
488.080648	36710.140594
488.448905	37002.298374
488.817104	37008.485245
489.185244	37618.694003
489.553326	38267.627990
489.921350	40352.145105
490.289315	43103.240245
490.657222	44831.439441
491.025070	45824.546748
491.392861	45586.008514
491.760593	45086.934283
492.128267	43794.107465
492.495883	42754.942343
492.863440	41340.211259
493.230939	40293.026119
493.598380	39320.770857
493.965763	39085.669773
494.333088	38513.269668
494.700354	37976.386783
495.067563	37914.747220
495.434713	37726.849668
495.801805	37937.890699
496.168839	37699.581608
496.535815	37565.761888
496.902733	37668.188969
497.269593	37406.278112
497.636395	37369.844318
498.003139	37934.911836
498.369825	37552.013287
498.736453	37861.815105
499.103023	37604.945402
499.469535	37415.902133
499.835989	37843.483636
500.202385	37532.765245
500.568723	37576.760769
500.935003	37851.274510
501.301226	37682.166713
501.667390	38441.089510
502.033497	38881.503042
502.399546	38586.824685
502.765537	38130.371119
503.131470	38514.644528
503.497345	38765.785647
503.863163	37817.590437
504.228923	38429.174056
504.594625	38682.606608
504.960269	38351.723601
505.325856	39032.508514
505.691385	38476.377587
506.056856	38414.738024
506.422270	39136.997885
506.787625	38742.183881
507.152924	39004.094738
507.518164	39231.404948
507.883347	38457.816976
508.248472	38806.802308
508.613540	39244.236976
508.978550	39586.577150
509.343503	39486.670647
509.708398	39609.033199
510.073236	40078.318794
510.438016	40143.395507
510.802738	39616.824073
511.167403	40238.031713
511.532010	40444.260734
511.896561	40879.174825
512.261053	41767.334476
512.625488	41326.004371
512.989866	41312.714056
513.354186	41075.321538
513.718449	41164.916591
514.082655	41671.094266
514.446803	41453.178934
514.810894	41843.639213
515.174927	41713.485787
515.538904	41643.367920
515.902822	42202.706853
516.266684	41810.871713
516.630488	42202.935997
516.994235	42112.195227
517.357925	42585.376259
517.721558	42671.763304
518.085133	42905.489528
518.448651	43085.596206
518.812112	42887.158059
519.175516	43021.665210
519.538863	43346.590490
519.902152	43241.184545
520.265385	43575.504703
520.628560	43734.530192
520.991678	43366.525962
521.354739	43507.678269
521.717743	43805.335490
522.080690	43823.437815
522.443580	44314.033741
522.806413	44280.807955
523.169189	44310.825734
523.531908	44499.410717
523.894569	44449.686608
524.257174	44190.754615
524.619722	44679.517395
524.982213	44695.786573
525.344647	44586.026906
525.707025	44418.293969
526.069345	44899.036731
526.431608	44801.650804
526.793815	45057.603934
527.155964	44602.754371
527.518057	44733.824371
527.880093	44573.424021
528.242072	45062.415944
528.603995	44560.591993
528.965860	44553.259406
529.327669	44774.841031
529.689421	44572.507448
530.051117	44402.253934
530.412755	44582.589755
530.774337	44528.511923
531.135862	44179.297448
531.497331	44459.310629
531.858743	44346.572098
532.220098	44579.610892
532.581396	44287.682255
532.942638	44138.739073
533.303824	44231.542133
533.664953	44244.145017
534.026025	43916.240874
534.387040	44270.496503
534.747999	44108.492150
535.108902	44165.548846
535.469748	43708.866136
535.830537	43849.331014
536.191270	43969.172990
536.551947	43730.863899
536.912567	43872.016206
537.273131	44082.598951
537.633638	43292.283514
537.994089	43686.639231
538.354483	43221.478217
538.714821	43630.040822
539.075103	43943.738077
539.435328	43612.167640
539.795497	43529.217745
540.155609	43563.360105
540.515665	43657.767168
540.875665	43332.383601
541.235609	43665.558042
541.595496	43462.307885
541.955328	44147.217378
542.315102	43397.231171
542.674821	43181.836416
543.034483	43344.069913
543.394090	43195.814161
543.753640	43155.943217
544.113134	43895.159685
544.472571	42926.570717
544.831953	43997.815909
545.191278	43243.475979
545.550548	42997.605157
545.909761	43340.632762
546.268918	43517.302290
546.628019	43719.406731
546.987064	43288.158934
547.346053	42698.114790
547.704986	43363.776241
548.063863	42931.611871
548.422684	43088.575070
548.781449	42963.921084
549.140158	43167.629528
549.498811	43109.656259
549.857408	42465.075997
550.215949	43239.809685
550.574434	43078.263619
550.932864	42777.856678
551.291237	43506.074266
551.649555	42910.759825
552.007817	43230.643951
552.366022	42841.558531
552.724173	43014.561766
553.082267	43286.784073
553.440305	43519.593724
553.798288	42910.072395
554.156215	43140.819755
554.514086	43164.879808
554.871902	43078.492762
555.229661	43054.661853
555.587365	42822.539633
555.945014	42777.169248
556.302606	42658.472990
556.660143	43017.540629
557.017625	42847.287115
557.375050	42837.204808
557.732421	43075.284755
558.089735	43210.479336
558.446994	43016.624056
558.804197	43469.411329
559.161345	43360.568234
559.518437	42541.839021
559.875474	42892.199213
560.232455	42954.526206
560.589381	43093.616224
560.946251	42589.959126
561.303065	43551.444650
561.659825	43286.325787
562.016528	42784.730979
562.373177	42616.310612
562.729770	42968.962238
563.086307	42542.068164
563.442789	43055.807570
563.799216	43063.369301
564.155587	42808.561888
564.511904	43014.332622
564.868164	42860.119143
565.224370	43089.262500
565.580520	42788.168129
565.936615	42924.050140
566.292654	42901.594091
566.648638	43036.101241
567.004567	43021.206923
567.360441	42933.445017
567.716260	42729.736573
568.072023	43035.184668
568.427732	43102.094528
568.783385	42559.253916
569.138982	42977.211399
569.494525	42888.303776
569.850013	42750.588619
570.205445	42529.465280
570.560823	42668.784441
570.916145	42438.724510
571.271412	42457.743409
571.626625	42328.048269
571.981782	42226.996049
572.336884	41982.270944
572.691931	42320.944825
573.046923	41835.619196
573.401860	41792.540245
573.756743	41776.500210
574.111570	41841.118636
574.466342	41654.366801
574.821059	41735.483549
575.175722	41377.332483
575.530330	41408.954266
575.884882	41033.617448
576.239380	41103.506171
576.593823	40913.317185
576.948211	40830.596434
577.302544	40428.678986
577.656823	40425.470979
578.011047	40675.466381
578.365216	40390.870332
578.719330	40177.996154
579.073389	40044.634720
579.427394	40024.011818
579.781344	39994.452325
580.135239	39637.676119
580.489080	39771.495839
580.842866	39192.908864
581.196597	39460.090017
581.550273	39431.217955
581.903895	39237.362675
582.257463	39581.306853
582.610975	38958.953497
582.964434	39131.040157
583.317837	38834.299510
583.671186	38650.526538
584.024481	38795.803427
584.377721	38526.789126
584.730906	38656.255122
585.084037	38767.847937
585.437113	38408.092867
585.790135	38443.380944
586.143103	38125.329965
586.496016	38165.888339
586.848874	38056.128671
587.201679	38145.494580
587.554428	37575.385909
587.907124	37762.596031
588.259765	37461.043374
588.612352	37805.216696
588.964884	37167.052448
589.317362	37359.074580
589.669786	37226.400577
590.022155	37012.609825
590.374470	37400.778671
590.726731	36892.767850
591.078937	36627.878129
591.431090	36523.388759
591.783188	36305.015140
592.135232	35947.780647
592.487222	36053.874021
592.839157	36163.175402
593.191038	35893.244528
593.542866	35751.863077
593.894639	35040.372955
594.246358	35245.914545
594.598022	35245.685402
594.949633	34904.261801
595.301190	34978.733392
595.652692	34678.097308
596.004141	34965.443077
596.355535	34063.993112
596.706876	33997.083252
597.058162	33951.712867
597.409395	34238.829493
597.760573	34296.573619
598.111698	33734.255822
598.462768	33803.457115
598.813785	33939.339126
599.164748	33294.071434
599.515657	33654.743077
599.866511	33206.309528
600.217312	33732.193531
600.568060	32692.340979
600.918753	33182.478619
601.269392	33157.731136
601.619978	32750.314248
601.970510	32872.905944
602.320988	33113.964755
602.671412	33297.050297
603.021783	32969.833584
603.372100	32703.798147
603.722363	32679.050664
604.072572	32758.105122
604.422728	32719.150752
604.772830	32582.581311
605.122878	32537.440070
605.472872	32368.332273
605.822813	32552.563531
606.172701	32479.925087
606.522534	32538.356643
606.872314	32692.799266
607.222041	32457.239895
607.571714	32590.143042
607.921333	32089.923094
608.270899	32353.437955
608.620411	32496.881696
608.969870	32236.345699
609.319276	32215.264510
609.668627	32220.305664
610.017926	32471.905070
610.367171	32568.374423
610.716362	32539.731503
611.065500	32360.770542
611.414585	32306.463566
611.763616	32550.042955
612.112594	32493.902832
612.461518	32553.938392
612.810389	32643.762587
613.159207	32387.122028
613.507971	32470.071923
613.856682	32729.920490
614.205340	32661.864913
614.553945	33033.077150
614.902496	32538.356643
615.250994	32877.717955
615.599439	32693.257552
615.947830	32834.868147
616.296169	32766.583427
616.644454	32847.241888
616.992686	32668.051783
617.340864	32974.645594
617.688990	32684.779248
618.037063	32996.643357
618.385082	33022.994843
618.733048	33050.721189
619.080961	33068.594371
619.428821	33006.267378
619.776628	32971.895874
620.124382	32753.522255
620.472083	32797.288636
620.819731	32904.756871
621.167326	32689.362115
621.514868	32484.507955
621.862357	32133.689476
622.209793	32080.986503
622.557176	31880.486066
622.904506	31609.638619
623.251783	31268.444161
623.599007	31082.150612
623.946179	30856.902692
624.293297	30860.798129
624.640363	30268.691696
624.987376	30194.907535
625.334336	30031.528322
625.681243	29659.628654
626.028097	29692.854441
626.374899	29496.249441
626.721647	29391.989213
627.068343	29118.621189
627.414987	28884.207535
627.761577	28673.624790
628.108115	28692.185402
628.454600	28375.738427
628.801032	28382.383584
629.147412	28265.749615
629.493739	28158.510524
629.840014	27935.324895
630.186236	28097.787535
630.532405	27638.813392
630.878521	27683.496346
631.224585	27558.384073
631.570597	27422.043776
631.916556	27380.339685
632.262462	27313.658969
632.608316	27224.063916
632.954117	27076.953881
633.299866	27110.179668
633.645562	26946.800455
633.991206	26632.186626
634.336797	26165.192465
634.682336	26276.097850
635.027823	26057.724231
635.373257	25818.956853
635.718639	25620.060420
636.063968	25479.366399
636.409245	25018.788252
636.754470	24986.249895
637.099642	24743.587080
637.444762	24462.886469
637.789829	24524.755175
638.134845	24052.490717
638.479808	24110.463986
638.824719	23887.507500
639.169577	23691.360787
639.514383	23610.931469
639.859137	23423.263059
640.203839	23469.091731
640.548489	23219.783759
640.893086	23322.898269
641.237632	22893.025332
641.582125	23021.116469
641.926566	22956.268899
642.270955	22906.544790
642.615292	22813.512587
642.959576	22661.819685
643.303809	22745.227867
643.647990	22798.618269
643.992118	22674.880857
644.336195	22493.399318
644.680219	22571.078916
645.024192	22604.762990
645.368112	22829.323479
645.711981	22607.512710
646.055797	23025.011906
646.399562	23016.533601
646.743274	23571.747955
647.086935	23757.812360
647.430544	23596.037150
647.774101	23693.193934
648.117606	23735.127168
648.461059	24067.155892
648.804460	23858.635437
649.147810	23360.248636
649.491108	23365.060647
649.834354	23017.908462
650.177548	22629.510472
650.520690	22311.230350
650.863781	22260.131381
651.206820	22111.417343
651.549807	21785.117203
651.892742	21676.961538
652.235626	21412.530105
652.578458	21228.069703
652.921238	20938.432500
653.263967	20909.789580
653.606644	20738.161206
653.949269	20610.070070
654.291843	20407.736486
654.634365	20564.012255
654.976836	20295.685385
655.319255	20197.841171
655.661622	20207.236049
656.003938	20103.434108
656.346203	20023.692220
656.688416	20037.440822
657.030577	19910.495402
657.372687	19676.998322
657.714746	19935.472028
658.056753	19909.807972
658.398708	19640.793671
658.740612	19619.254196
659.082465	19678.144038
659.424266	19496.891643
659.766016	19629.107360
660.107715	19498.724790
660.449362	19622.920490
660.790958	19508.577955
661.132503	19412.796031
661.473996	19396.068566
661.815438	19456.562413
662.156829	19544.324318
662.498168	19365.134213
662.839456	19366.050787
663.180693	19417.149755
663.521879	19415.316608
663.863013	19355.510192
664.204097	19401.109720
664.545129	19621.316486
664.886110	19534.929441
665.227040	19525.763706
665.567918	19604.589021
665.908746	19538.824878
666.249522	19644.689108
666.590248	19645.834825
666.930922	19764.760227
667.271545	19635.752517
667.612118	19669.207448
667.952639	19613.067325
668.293109	19521.409983
668.633528	19461.603566
668.973896	19432.502360
669.314213	19364.905070
669.654480	19324.804983
669.994695	19323.200979
670.334859	19199.463566
670.674973	19109.639371
671.015035	19225.585909
671.355047	19098.411346
671.695008	19123.158829
672.034918	18915.325804
672.374777	18911.201224
672.714585	18902.722920
673.054342	19079.392448
673.394049	18824.585035
673.733705	19119.263392
674.073310	18933.886416
674.412864	18908.680647
674.752368	18650.894371
675.091820	18857.352535
675.431223	18559.466171
675.770574	18422.667587
676.109875	18310.158199
676.449125	18245.998059
676.788324	18133.946958
677.127473	17802.147378
677.466571	17806.271958
677.805619	17570.941731
678.144616	17552.381119
678.483562	17564.525717
678.822458	17371.357867
679.161303	17338.361224
679.500098	17169.024283
679.838842	17070.721783
680.177535	17108.530437
680.516179	17307.426871
680.854771	17317.050892
681.193314	17542.298811
681.531805	17972.630035
681.870247	18299.846748
682.208638	18829.397045
682.546978	19175.861801
682.885268	19177.694948
683.223508	19090.620472
683.561697	18933.886416
683.899836	18810.149003
684.237925	18613.544003
684.575963	18426.792168
684.913951	18229.728881
685.251889	18207.731119
685.589776	18131.884668
685.927614	18161.902448
686.265401	18172.901329
686.603137	18152.049283
686.940824	18317.490787
687.278460	18513.637500
687.616046	18651.352657
687.953582	18848.186801
688.291068	18880.496014
688.628504	18957.946469
688.965889	19062.894126
689.303224	18942.364720
689.640510	18940.989860
689.977745	18509.283776
690.314930	18210.939126
690.652065	17896.325297
690.989150	17518.697045
691.326185	17090.198969
691.663170	16782.230297
692.000105	16389.707727
692.336990	16037.743531
692.673825	15805.392168
693.010610	15572.582517
693.347345	15207.557150
693.684030	14883.548444
694.020665	14750.187010
694.357251	14387.453077
694.693786	14293.504301
695.030272	14200.472098
695.366707	13999.055087
695.703093	13717.896189
696.039429	13797.408934
696.375716	13595.075350
696.711952	13529.769493
697.048139	13453.693899
697.384276	13283.211241
697.720363	13397.782920
698.056400	13340.726224
698.392388	13267.858636
698.728326	13242.652867
699.064214	13152.141241
699.400053	13097.834266
699.735842	12918.644161
700.071581	12762.826678
700.407270	12605.863479
700.742910	12561.638811
701.078501	12428.735664
701.414042	12292.624510
701.749533	12141.389895
702.084974	11945.243182
702.420366	12053.857133
702.755709	11839.837238
703.091002	11724.578129
703.426246	11735.347867
703.761440	11601.069860
704.096584	11508.954231
704.431679	11489.935332
704.766725	11383.841958
705.101721	11369.864213
705.436668	11421.421469
705.771565	11228.482762
706.106413	11430.128916
706.441212	11396.673986
706.775961	11423.483759
707.110661	11433.566066
707.445311	11649.648252
707.779913	11469.541573
708.114465	11625.129913
708.448967	11770.865087
708.783421	12008.028462
709.117825	12218.152920
709.452180	12323.558864
709.786485	12407.883619
710.120742	12798.343899
710.454949	12812.321643
710.789107	13075.607360
711.123216	13390.908619
711.457275	13501.584860
711.791286	13839.800455
712.125247	13837.279878
712.459159	13787.555769
712.793023	14305.878042
713.126837	13730.499073
713.460602	13936.957238
713.794318	13763.954003
714.127985	13641.362308
714.461602	13205.531643
714.795171	13170.930997
715.128691	12717.456294
715.462162	12345.556626
715.795584	12211.507762
716.128957	12072.876031
716.462281	11894.602500
716.795556	11762.615927
717.128782	11483.748462
717.461960	11216.796451
717.795088	11251.397098
718.128167	11012.400577
718.461198	10776.382920
718.794180	10679.684423
719.127113	10529.137238
719.459997	10446.874773
719.792833	10190.692500
720.125619	10253.477780
720.458357	10071.079668
720.791046	9991.796066
721.123686	9895.785000
721.456278	9770.214441
721.788821	9753.028689
722.121315	9589.878619
722.453761	9649.914178
722.786158	9633.645000
723.118506	9623.562692
723.450805	9526.405909
723.783056	9579.796311
724.115259	9547.487098
724.447412	9470.953217
724.779518	9607.293514
725.111574	9650.143322
725.443582	9693.680559
725.775542	9696.201136
726.107453	9945.279965
726.439315	9794.045350
726.771129	10034.875017
727.102895	10196.191941
727.434612	10344.905979
727.766281	10377.673479
728.097901	10579.777920
728.429473	10638.209476
728.760996	10674.414126
729.092471	10795.172675
729.423897	10629.502028
729.755276	10559.842448
730.086606	10644.625490
730.417887	10849.937937
730.749120	11072.206993
731.080305	11203.276993
731.411442	11328.160122
731.742530	11487.185612
732.073570	11487.185612
732.404562	11734.660437
732.735506	11690.664913
733.066401	11681.957465
733.397249	11460.146696
733.728048	11222.754178
734.058798	10850.625367
734.389501	10485.141713
734.720156	10260.810367
735.050762	9957.424563
735.381320	9719.573759
735.711831	9537.633934
736.042293	9308.719720
736.372707	9339.195787
736.703073	9180.628584
737.033391	9241.580717
737.363661	9235.852133
737.693883	9231.498409
738.024056	9322.239178
738.354182	9338.737500
738.684260	9600.648357
739.014290	9641.894161
739.344272	9750.508112
739.674207	9876.307815
740.004093	9992.254353
740.333931	9986.296626
740.663722	10027.084143
740.993464	10123.324353
741.323159	10033.958444
741.652806	9968.194301
741.982405	9824.521416
742.311956	9705.366871
742.641460	9638.686154
742.970915	9530.301346
743.300323	9332.092343
743.629683	9221.874388
743.958996	9097.678689
744.288260	8984.252727
744.617477	8814.228357
744.946647	8730.591031
745.275768	8619.227360
745.604842	8507.176259
745.933869	8398.104021
746.262847	8388.480000
746.591778	8352.275350
746.920662	8236.328811
747.249498	8280.782622
747.578286	8269.783741
747.907027	8329.590157
748.235720	8479.449913
748.564365	8489.532220
748.892963	8434.766958
749.221514	8502.822535
749.550017	8478.991626
749.878473	8465.701311
750.206881	8323.632430
750.535242	8297.739231
750.863555	8281.240909
751.191821	8255.347710
751.520039	8264.971731
751.848210	8200.582448
752.176334	8152.233199
752.504411	8084.177622
752.832440	8100.446801
753.160421	8113.507972
753.488356	8022.308916
753.816243	7984.500262
754.144082	7931.339003
754.471875	7912.549248
754.799620	7845.181101
755.127318	7841.743951
755.454969	7817.454755
755.782572	7762.002063
756.110129	7781.708392
756.437638	7739.316871
756.765100	7740.233444
757.092515	7724.422552
757.419882	7743.441451
757.747203	7774.375804
758.074477	7794.082133
758.401703	7774.604948
758.728882	7850.451399
759.056014	7837.848514
759.383099	7915.298969
759.710138	7998.019720
760.037129	8060.346713
760.364073	8084.635909
760.690970	8074.782745
761.017820	8098.155367
761.344623	8126.340000
761.671379	8223.955070
761.998088	8473.950472
762.324751	8981.044720
762.651366	10080.932832
762.977935	11870.542448
763.304456	13614.552535
763.630931	14686.256014
763.957359	14743.083566
764.283740	13970.183024
764.610074	13040.319283
764.936362	11761.011923
765.262602	10840.084773
765.588796	9897.389003
765.914943	9216.374948
766.241044	8652.911434
766.567097	8175.147535
766.893104	7756.273479
767.219064	7492.529476
767.544978	7262.469545
767.870845	7037.909056
768.196665	6943.043706
768.522438	6784.247360
768.848165	6710.692343
769.173846	6559.228584
769.499479	6513.399913
769.825066	6397.453374
770.150607	6341.771538
770.476101	6260.196503
770.801548	6182.975192
771.126949	6116.523619
771.452303	6102.316731
771.777611	5999.889650
772.102872	5973.996451
772.428087	5868.132220
772.753256	5884.172255
773.078378	5774.412587
773.403453	5698.795280
773.728482	5627.989983
774.053465	5600.034493
774.378401	5547.789808
774.703291	5453.153601
775.028135	5438.946713
775.352932	5378.223724
775.677683	5343.623077
776.002388	5294.815542
776.327046	5295.961259
776.651658	5242.570857
776.976224	5210.261643
777.300743	5209.345070
777.625216	5165.349545
777.949643	5150.455227
778.274024	5100.731119
778.598359	5103.480839
778.922647	5096.148252
779.246889	5078.045927
779.571086	5069.796766
779.895236	5074.608776
780.219339	5072.317343
780.543397	5060.860175
780.867409	5105.084843
781.191374	5130.519755
781.515294	5064.526469
781.839167	5158.475245
782.162995	5124.562028
782.486776	5097.752255
782.810511	5062.464178
783.134201	5018.239510
783.457844	5040.695559
783.781441	5042.528706
784.104993	4953.162797
784.428498	4970.806836
784.751958	4937.581049
785.075372	4916.041573
785.398739	4921.311871
785.722061	4924.978164
786.045337	4913.291853
786.368568	4979.743427
786.691752	4981.576573
787.014891	5098.668829
787.337983	5134.644336
787.661030	5410.991224
787.984031	5691.004406
788.306987	5930.917500
788.629897	6016.158829
788.952760	6070.465804
789.275579	6041.822885
789.598351	5931.604930
789.921078	5788.161189
790.243759	5612.866521
790.566395	5457.736469
790.888984	5321.625315
791.211529	5210.032500
791.534027	5122.728881
791.856480	5025.801241
792.178888	4979.055997
792.501249	4930.019318
792.823566	4845.465420
793.145836	4808.115052
793.468062	4819.343077
793.790241	4754.266364
794.112375	4755.641224
794.434464	4865.859178
794.756507	4841.569983
795.078505	4877.087203
795.400457	4956.370804
795.722364	5130.061469
796.044226	5285.649808
796.366042	5386.014598
796.687812	5380.286014
797.009538	5439.634143
797.331218	5446.508444
797.652852	5416.261521
797.974442	5351.184808
798.295986	5315.438444
798.617484	5208.199353
798.938938	5122.270594
799.260346	5112.875717
799.581709	5016.406364
799.903026	4992.117168
800.224299	4921.311871
800.545526	4859.672308
800.866708	4809.031626
801.187845	4791.845874
801.508936	4735.934895
801.829983	4742.350909
802.150984	4639.007255
802.471940	4573.701399
802.792851	4619.071783
803.113717	4561.785944
803.434538	4599.365455
803.755314	4551.474493
804.076045	4506.562395
804.396731	4450.193129
804.717372	4499.000664
805.037967	4528.101871
805.358518	4491.438934
805.679024	4518.477850
805.999485	4508.166399
806.319901	4522.602430
806.640272	4558.119650
806.960598	4600.052885
807.280879	4554.682500
807.601115	4620.675787
807.921306	4611.280909
808.241453	4610.364336
808.561554	4608.302045
808.881611	4586.075140
809.201623	4638.778112
809.521590	4596.386591
809.841513	4574.847115
810.161390	4600.740315
810.481223	4546.433339
810.801011	4541.621329
811.120755	4517.790420
811.440453	4461.879441
811.760107	4455.005140
812.079716	4462.566871
812.399281	4449.734843
812.718801	4439.881678
813.038276	4426.591364
813.357707	4397.031871
813.677093	4405.051888
813.996434	4367.930664
814.315731	4375.950682
814.634983	4361.972937
814.954191	4382.137552
815.273354	4419.258776
815.592473	4436.902815
815.911547	4471.732605
816.230577	4545.975052
816.549562	4601.886031
816.868502	4659.859301
817.187399	4711.416556
817.506250	4758.620087
817.825058	4774.430979
818.143821	4905.271836
818.462539	4996.700035
818.781213	5119.750017
819.099843	5301.918986
819.418429	5696.503846
819.736970	6102.316731
820.055466	6586.954930
820.373919	7101.381766
820.692327	7921.714983
821.010691	9125.175892
821.329011	11516.515962
821.647286	16172.708969
821.965517	22608.429283
822.283704	27871.623042
822.601847	31655.238147
822.919945	30907.772517
823.237999	28550.345664
823.556010	25530.007080
823.873976	22317.646364
824.191897	19250.562535
824.509775	16853.264738
824.827609	14686.485157
825.145398	13223.175682
825.463144	12239.463252
825.780845	11832.962937
826.098502	12061.189720
826.416116	13093.022255
826.733685	14757.977885
827.051210	15889.029493
827.368692	15929.587867
827.686129	14688.318304
828.003522	13134.497203
828.320872	11326.326976
828.638177	10029.833864
828.955439	8934.528619
829.272656	8025.975210
829.589830	7231.306049
829.906960	6622.701294
830.224046	6145.395682
830.541088	5775.329161
830.858086	5510.210297
831.175041	5279.462937
831.491952	5182.535297
831.808819	5163.974685
832.125642	5237.987990
832.442421	5476.067937
832.759157	5955.435839
833.075849	6851.386364
833.392497	8215.705909
833.709101	9428.332552
834.025662	9882.952972
834.342179	9589.191189
834.658653	8794.292885
834.975083	7951.274476
835.291469	7172.645350
835.607811	6509.275332
835.924110	6114.919615
836.240366	5704.294720
836.556578	5277.171503
836.872746	4935.747902
837.188871	4688.731364
837.504952	4470.816031
837.820990	4315.685979
838.136984	4175.450245
838.452935	4114.498112
838.768842	4069.127727
839.084706	4122.747273
839.400526	4418.342203
839.716303	5009.761206
840.032037	5639.218007
840.347727	5980.870752
840.663373	5764.101136
840.978977	5333.311626
841.294537	4908.938129
841.610054	4608.072902
841.925527	4341.120892
842.240957	4174.304528
842.556344	4036.818514
842.871687	3860.836416
843.186987	3737.099003
843.502244	3632.380490
843.817458	3538.202570
844.132629	3450.211521
844.447756	3413.319441
844.762840	3378.718794
845.077881	3360.845612
845.392879	3289.582028
845.707833	3285.686591
846.022745	3265.980262
846.337613	3239.857920
846.652438	3212.589860
846.967221	3198.153829
847.281960	3219.922448
847.596656	3155.991451
847.911309	3158.970315
848.225919	3169.281766
848.540485	3141.097133
848.855009	3144.992570
849.169490	3125.286241
849.483928	3140.180559
849.798323	3112.912500
850.112675	3119.786801
850.426984	3118.641084
850.741251	3132.160542
851.055474	3087.248444
851.369654	3080.832430
851.683792	3089.998164
851.997887	3116.120507
852.311938	3090.914738
852.625947	3100.997045
852.939914	3091.373024
853.253837	3102.601049
853.567718	3111.766783
853.881555	3115.662220
854.195350	3100.767902
854.509103	3113.141643
854.822812	3077.853566
855.136479	3091.143881
855.450103	3084.727867
855.763685	3080.603287
856.077224	3101.913619
856.390720	3101.913619
856.704173	3087.248444
857.017584	3107.413059
857.330953	3111.995927
857.644278	3137.659983
857.957561	3122.078234
858.270802	3130.098252
858.584000	3117.495367
858.897155	3129.410822
859.210268	3129.410822
859.523339	3103.746766
859.836367	3106.954773
860.149352	3095.726748
860.462295	3093.435315
860.775195	3098.705612
861.088054	3074.874703
861.400869	3087.248444
861.713642	3083.353007
862.026373	3097.789038
862.339062	3138.118269
862.651708	3087.706731
862.964312	3116.349650
863.276873	3126.431958
863.589392	3134.681119
863.901869	3184.863514
864.214303	3155.533164
864.526696	3193.112675
864.839045	3230.233899
865.151353	3224.963601
865.463619	3206.402990
865.775842	3236.191626
866.088023	3223.130455
866.400162	3233.900192
866.712258	3270.104843
867.024313	3246.503077
867.336325	3230.463042
867.648296	3246.273934
867.960224	3250.627657
868.272110	3263.917972
868.583954	3252.002517
868.895755	3285.686591
869.207515	3230.233899
869.519233	3277.208287
869.830909	3299.664336
870.142542	3265.292832
870.454134	3302.414056
870.765684	3314.787797
871.077191	3303.330629
871.388657	3319.370664
871.700081	3349.388444
872.011463	3361.533042
872.322803	3374.594213
872.634101	3394.300542
872.945357	3443.795507
873.256571	3435.546346
873.567744	3466.251556
873.878874	3457.085822
874.189963	3462.814406
874.501010	3492.373899
874.812015	3486.416171
875.122979	3493.748759
875.433900	3482.979021
875.744780	3531.099126
876.055618	3538.431713
876.366415	3540.035717
876.677169	3541.639720
876.987882	3564.554056
877.298554	3598.696416
877.609183	3604.195857
877.919771	3643.608514
878.230317	3712.351521
878.540822	3790.947692
878.851285	3880.542745
879.161707	4042.547098
879.472087	4339.287745
879.782425	4694.689091
880.092722	5349.809948
880.402977	6409.368829
880.713191	7841.514808
881.023363	9547.945385
881.333494	10838.251626
881.643583	11713.120962
881.953631	11951.200909
882.263637	11692.268916
882.573602	11135.450559
882.883526	10646.458636
883.193408	9972.777168
883.503248	9275.035647
883.813048	8622.893654
884.122806	8004.206591
884.432522	7341.294860
884.742197	6830.763462
885.051831	6254.467920
885.361424	5850.488182
885.670975	5478.588514
885.980485	5153.434091
886.289954	4885.794650
886.599382	4621.821503
886.908768	4460.046294
887.218113	4266.420157
887.527417	4143.828462
887.836680	4002.217867
888.145901	3908.498234
888.455082	3834.255787
888.764221	3765.971066
889.073319	3696.540629
889.382376	3612.215874
889.691392	3611.528444
890.000366	3563.866626
890.309300	3563.179196
890.618193	3568.220350
890.927044	3581.968951
891.235855	3570.970070
891.544625	3542.098007
891.853353	3576.240367
892.162041	3616.111311
892.470687	3640.171364
892.779293	3763.908776
893.087858	3899.790787
893.396381	4044.838531
893.704864	4319.123129
894.013306	4706.604545
894.321707	5211.407360
894.630068	5682.067815
894.938387	5902.503724
895.246665	5940.312378
895.554903	5788.161189
895.863100	5503.106853
896.171256	5252.424021
896.479371	5008.844633
896.787446	4813.843636
897.095480	4604.177465
897.403473	4438.048531
897.711425	4287.272203
898.019336	4183.470262
898.327207	4071.648304
898.635038	3968.304650
898.942827	3861.982133
899.250576	3749.014458
899.558284	3678.209161
899.865952	3613.361591
900.173579	3555.159178
900.481165	3491.228182
900.788711	3427.984615
901.096216	3400.029126
901.403681	3389.717675
901.711105	3380.322797
902.018489	3331.744406
902.325832	3353.742168
902.633135	3382.155944
902.940397	3488.707605
903.247619	3647.045664
903.554800	4051.941976
903.861941	4759.765804
904.169041	5533.812063
904.476101	6105.066451
904.783121	6208.639248
905.090100	6031.053147
905.397039	5672.902080
905.703938	5339.498497
906.010796	5027.634388
906.317614	4720.582290
906.624391	4506.791538
906.931129	4322.789423
907.237826	4085.855192
907.544483	3928.891993
907.851099	3788.197972
908.157675	3601.675280
908.464211	3452.961241
908.770707	3342.514143
909.077163	3256.585385
909.383578	3211.444143
909.689954	3115.891364
909.996289	3094.581031
910.302584	3072.354126
910.608839	3032.024895
910.915054	2999.715682
911.221229	3012.089423
911.527363	2994.445385
911.833458	3016.672290
912.139513	3036.836906
912.445527	3036.149476
912.751502	3060.896958
913.057436	3080.374143
913.363331	3122.078234
913.669186	3194.945822
913.975000	3270.104843
914.280775	3421.339458
914.586510	3661.710839
914.892205	3884.896469
915.197859	4257.483566
915.503475	4756.099510
915.809050	5201.325052
916.114585	5609.200227
916.420081	5825.282413
916.725536	5903.191154
917.030952	5725.834196
917.336328	5624.781976
917.641665	5422.677535
917.946961	5225.843392
918.252218	5078.962500
918.557435	4853.027150
918.862612	4680.711346
919.167750	4492.813794
919.472848	4301.937378
919.777906	4138.558164
920.082925	3989.844126
920.387904	3861.523846
920.692843	3744.431591
920.997743	3594.113549
921.302603	3471.063566
921.607423	3427.068042
921.912204	3373.906783
922.216946	3303.101486
922.521647	3248.336224
922.826310	3187.384091
923.130932	3147.742290
923.435516	3119.557657
923.740059	3065.938112
924.044564	3014.151713
924.349028	3027.900315
924.653454	2974.509913
924.957840	2961.219598
925.262186	2936.013829
925.566493	2906.912622
925.870761	2885.144003
926.174989	2845.960490
926.479178	2833.815892
926.783328	2818.921573
927.087438	2811.359843
927.391509	2794.403234
927.695541	2772.634615
927.999533	2769.197465
928.303486	2762.094021
928.607400	2755.678007
928.911275	2735.513392
929.215110	2756.365437
929.518906	2736.659108
929.822663	2746.741416
930.126381	2745.366556
930.430060	2751.782570
930.733699	2739.637972
931.037299	2699.996171
931.340861	2718.556783
931.644383	2758.427727
931.947866	2752.011713
932.251309	2759.344301
932.554714	2754.074003
932.858080	2719.473357
933.161407	2705.724755
933.464694	2731.847098
933.767943	2720.848217
934.071153	2732.076241
934.374323	2723.368794
934.677455	2718.785927
934.980548	2720.389930
935.283602	2700.912745
935.586617	2701.141888
935.889593	2708.016189
936.192530	2723.139650
936.495428	2694.267587
936.798287	2724.285367
937.101108	2731.159668
937.403890	2768.968322
937.706632	2778.821486
938.009336	2814.796993
938.312002	2841.148479
938.614628	2870.249685
938.917216	2873.686836
939.219765	2921.119510
939.522275	2909.891486
939.824747	2923.640087
940.127179	2944.492133
940.429573	2915.390927
940.731929	2939.450979
941.034246	2900.954895
941.336524	2938.992692
941.638763	2875.749126
941.940964	2936.013829
942.243126	2881.248566
942.545250	2897.059458
942.847335	2867.041678
943.149381	2857.188514
943.451389	2840.461049
943.753359	2819.379860
944.055290	2803.568969
944.357182	2791.653514
944.659036	2777.675769
944.960851	2807.464406
945.262628	2784.091783
945.564367	2778.592343
945.866067	2768.051748
946.167729	2782.258636
946.469352	2765.989458
946.770937	2755.907150
947.072484	2742.158549
947.373992	2790.049510
947.675462	2781.571206
947.976893	2751.095140
948.278286	2765.989458
948.579641	2751.095140
948.880958	2749.032850
949.182236	2736.429965
949.483476	2738.263112
949.784678	2761.177448
950.085841	2724.056224
950.386967	2750.865997
950.688054	2745.824843
950.989103	2757.969441
951.290114	2770.572325
951.591087	2756.594580
951.892021	2773.092902
952.192917	2786.154073
952.493776	2787.528934
952.794596	2787.070647
953.095378	2813.880420
953.396122	2824.879301
953.696828	2825.795874
953.997496	2802.423252
954.298126	2799.444388
954.598718	2803.339825
954.899272	2800.590105
955.199788	2778.592343
955.500266	2768.510035
955.800706	2748.345420
956.101108	2749.032850
956.401472	2691.059580
956.701798	2724.285367
957.002087	2700.683601
957.302337	2667.686958
957.602550	2674.332115
957.902724	2659.208654
958.202861	2636.981748
958.502960	2644.085192
958.803022	2611.088549
959.103045	2604.443392
959.403031	2604.443392
959.702979	2601.693671
960.002889	2604.443392
960.302762	2610.859406
960.602596	2563.885017
960.902393	2580.154196
961.202153	2559.760437
961.501875	2576.717045
961.801559	2561.822727
962.101205	2583.133059
962.400814	2565.718164
962.700385	2546.699266
962.999918	2564.801591
963.299414	2559.989580
963.598873	2545.324406
963.898293	2558.385577
964.197677	2544.178689
964.497022	2518.743776
964.796331	2532.721521
965.095601	2528.596941
965.394835	2537.304388
965.694030	2524.472360
965.993189	2523.784930
966.292309	2551.740420
966.591393	2535.012955
966.890439	2561.593584
967.189447	2543.032972
967.488419	2545.095262
967.787353	2544.866119
968.086249	2531.346661
968.385108	2562.968444
968.683930	2539.595822
968.982714	2562.510157
969.281462	2535.012955
969.580172	2525.847220
969.878844	2541.199825
970.177480	2553.344423
970.476078	2546.011836
970.774639	2557.698147
971.073162	2538.220962
971.371649	2554.260997
971.670098	2568.926171
971.968510	2544.866119
972.266885	2549.678129
972.565223	2565.489021
972.863524	2576.946189
973.161788	2586.341066
973.460014	2569.155315
973.758204	2586.341066
974.056356	2568.926171
974.354471	2569.613601
974.652550	2585.653636
974.950591	2562.510157
975.248595	2557.698147
975.546563	2573.967325
975.844493	2590.007360
976.142386	2590.923934
976.440243	2579.237622
976.738062	2568.467885
977.035845	2570.759318
977.333590	2575.800472
977.631299	2557.927290
977.928971	2548.761556
978.226606	2552.656993
978.524204	2560.447867
978.821765	2541.428969
979.119290	2566.405594
979.416777	2563.426731
979.714228	2527.222080
980.011642	2529.971801
980.309020	2565.947308
980.606360	2555.635857
980.903664	2585.424493
981.200931	2557.239860
981.498162	2592.757080
981.795356	2633.544598
982.092513	2636.981748
982.389633	2676.623549
982.686717	2748.803706
982.983764	2780.883776
983.280775	2774.238619
983.577749	2778.363199
983.874686	2785.008357
984.171587	2777.446626
984.468451	2804.027255
984.765279	2745.595699
985.062070	2730.930524
985.358824	2727.035087
985.655543	2667.916101
985.952224	2676.394406
986.248869	2672.040682
986.545478	2632.398881
986.842050	2629.649161
987.138586	2588.174213
987.435086	2576.258759
987.731549	2560.677010
988.027975	2532.721521
988.324366	2559.760437
988.620719	2546.011836
988.917037	2511.182045
989.213318	2521.493497
989.509563	2499.266591
989.805772	2518.972920
990.101944	2520.118636
990.398080	2522.639213
990.694180	2514.848339
990.990244	2514.390052
991.286271	2533.638094
991.582262	2509.119755
991.878217	2503.849458
992.174136	2528.367797
992.470019	2544.178689
992.765865	2496.058584
993.061676	2504.995175
993.357450	2503.849458
993.653188	2537.762675
993.948890	2530.659231
994.244556	2525.159790
994.540186	2551.969563
994.835780	2550.136416
995.131337	2571.217605
995.426859	2580.383339
995.722345	2601.235385
996.017795	2612.005122
996.313208	2656.458934
996.608586	2641.335472
996.903928	2670.665822
997.199234	2679.373269
997.494504	2662.645804
997.789738	2652.792640
998.084936	2642.481189
998.380099	2621.629143
998.675225	2650.730350
998.970316	2625.982867
999.265371	2625.295437
999.560390	2575.342185
999.855373	2584.966206
1000.150320	2562.051871
1000.445232	2551.052990
1000.740108	2562.739301
1001.034948	2527.222080
1001.329752	2523.784930
1001.624521	2529.284371
1001.919254	2519.431206
1002.213951	2537.991818
1002.508613	2493.767150
1002.803239	2495.600297
1003.097829	2523.326643
1003.392384	2510.723759
1003.686903	2496.058584
1003.981386	2485.288846
1004.275834	2509.348899
1004.570246	2488.955140
1004.864623	2478.414545
1005.158964	2491.246573
1005.453270	2498.350017
1005.747540	2461.687080
1006.041775	2479.331119
1006.335974	2479.789406
1006.630138	2501.558024
1006.924266	2485.517990
1007.218359	2486.205420
1007.512416	2459.395647
1007.806438	2490.788287
1008.100425	2497.433444
1008.394376	2480.935122
1008.688292	2454.354493
1008.982172	2474.748252
1009.276017	2482.768269
1009.569827	2490.559143
1009.863602	2480.018549
1010.157341	2479.560262
1010.451045	2522.180927
1010.744714	2449.771626
1011.038347	2499.037448
1011.331945	2482.309983
1011.625508	2489.413427
1011.919036	2483.913986
1012.212528	2477.497972
1012.505986	2477.727115
1012.799408	2497.662587
1013.092795	2496.975157
1013.386147	2470.623671
1013.679464	2466.269948
1013.972745	2483.684843
1014.265992	2491.704860
1014.559204	2488.496853
1014.852380	2476.810542
1015.145521	2490.788287
1015.438628	2505.453462
1015.731699	2472.227675
1016.024736	2507.974038
1016.317737	2476.581399
1016.610703	2461.228794
1016.903635	2501.099738
1017.196531	2474.519108
1017.489393	2493.538007
1017.782219	2476.352255
1018.075011	2477.497972
1018.367768	2482.309983
1018.660490	2463.291084
1018.953177	2463.291084
1019.245829	2463.291084
