Dividing Wavelength (nm)	Counts (n)	Slit_number_1_of_a_total_of_40	
326.493990	2307.103447
326.888308	2307.103447
327.282561	2307.103447
327.676750	2261.345281
328.070874	2254.946893
328.464933	2287.714393
328.858929	2289.847189
329.252859	2293.337219
329.646726	2298.184482
330.040528	2323.778033
330.434265	2348.983802
330.827938	2353.249393
331.221547	2389.313033
331.615091	2408.508195
332.008571	2416.263817
332.401986	2436.040651
332.795338	2482.574379
333.188625	2476.175991
333.581847	2486.452189
333.975006	2507.586257
334.368100	2522.709719
334.761129	2570.212899
335.154095	2554.313876
335.546996	2616.746627
335.939833	2726.682559
336.332606	2765.848447
336.725315	2778.063550
337.117960	2774.767411
337.510540	2811.800503
337.903056	2818.198891
338.295508	2798.034275
338.687896	2817.617219
339.080220	2811.412722
339.472480	2806.565459
339.864676	2824.015607
340.256807	2833.128462
340.648875	2821.882811
341.040879	2823.433935
341.432818	2845.343565
341.824694	2833.128462
342.216506	2853.874749
342.608253	2815.678314
342.999937	2806.177678
343.391557	2834.873476
343.783113	2852.905296
344.174605	2837.781834
344.566033	2849.027485
344.957397	2847.864142
345.348697	2845.731346
345.739934	2827.893417
346.131106	2849.415266
346.522215	2829.250651
346.913260	2824.791169
347.304241	2832.159009
347.695159	2821.495030
348.086012	2834.873476
348.476802	2800.942633
348.867528	2811.606612
349.258191	2815.290533
349.648789	2827.311746
350.039324	2826.148402
350.429796	2810.831050
350.820203	2827.699527
351.210548	2843.986331
351.600828	2834.679586
351.991045	2811.606612
352.381198	2803.463210
352.771288	2812.188284
353.161314	2798.228166
353.551276	2796.870932
353.941175	2810.637160
354.331010	2803.269320
354.720782	2794.544246
355.110490	2852.129734
355.500135	2831.383447
355.889717	2831.189556
356.279235	2817.811109
356.668689	2823.627825
357.058080	2824.985059
357.447408	2810.637160
357.836672	2819.556124
358.225873	2800.748743
358.615010	2839.720740
359.004084	2819.556124
359.393095	2808.504364
359.782043	2811.994393
360.170927	2824.985059
360.559748	2811.800503
360.948505	2817.229438
361.337199	2815.872204
361.725830	2828.475089
362.114398	2832.546790
362.502903	2804.626553
362.891344	2836.812382
363.279722	2829.056760
363.668037	2808.504364
364.056289	2833.516243
364.444478	2834.679586
364.832603	2841.659645
365.220665	2834.485695
365.608665	2830.995666
365.996601	2811.412722
366.384474	2843.598550
366.772284	2833.516243
367.160031	2824.015607
367.547715	2840.302411
367.935336	2836.036820
368.322893	2854.844201
368.710388	2831.771228
369.097820	2811.412722
369.485189	2830.413994
369.872495	2844.761893
370.259738	2844.568003
370.646918	2851.354172
371.034035	2863.181494
371.421090	2847.864142
371.808081	2864.344837
372.195010	2842.629098
372.581875	2835.842929
372.968678	2869.967663
373.355418	2868.416538
373.742096	2889.744497
374.128710	2906.031302
374.515262	2895.367322
374.901751	2899.051243
375.288177	2916.501391
375.674540	2916.113609
376.060841	2922.705888
376.447079	2961.871775
376.833254	2942.094941
377.219367	2984.944749
377.605417	3012.283314
377.991404	3019.069482
378.377329	3050.673639
378.763191	3083.247249
379.148991	3089.645636
379.534727	3148.782249
379.920402	3136.761036
380.306013	3206.173846
380.691563	3244.758062
381.077049	3276.556109
381.462474	3296.526834
381.847835	3370.980799
382.233134	3405.687204
382.618371	3430.117411
383.003545	3523.766538
383.388657	3587.168743
383.773706	3629.824660
384.158693	3705.248077
384.543618	3755.853506
384.928480	3829.531908
385.313280	3884.984601
385.698017	3998.022781
386.082692	4097.100843
386.467305	4131.419467
386.851856	4230.691420
387.236344	4334.035074
387.620770	4377.854334
388.005133	4509.312115
388.389435	4633.789837
388.773674	4692.538669
389.157851	4824.384231
389.541965	4914.349438
389.926018	4889.337559
390.310008	5103.198817
390.693936	5187.541198
391.077802	5322.682899
391.461606	5420.209837
391.845348	5474.886967
392.229027	5618.365962
392.612645	5781.234009
392.996200	5869.648092
393.379694	6026.699423
393.763125	6182.781302
394.146494	6350.690503
394.529801	6464.116464
394.913047	6627.178402
395.296230	6706.091849
395.679351	6766.585695
396.062410	6961.057899
396.445408	6934.301006
396.828343	7082.627263
397.211217	7215.830059
397.594028	7170.847456
397.976778	7332.164379
398.359466	7491.154615
398.742092	7441.712530
399.124656	7626.102426
399.507158	7730.027751
399.889598	7845.586509
400.271977	8009.811790
400.654294	8098.807544
401.036549	8266.910636
401.418742	8285.524127
401.800874	8609.321317
402.182944	8616.107485
402.564952	8973.641627
402.946898	8843.541080
403.328783	8973.447737
403.710606	9089.200385
404.092367	9453.908476
404.474067	9744.744275
404.855705	9598.356923
405.237282	9666.412500
405.618797	10084.828269
406.000250	10319.823595
406.381642	10676.776065
406.762972	10693.256760
407.144240	10582.545266
407.525447	10853.022559
407.906593	10847.981405
408.287677	11089.762899
408.668700	11335.228314
409.049661	11313.706464
409.430560	11429.459112
409.811399	11430.428565
410.192176	11761.787485
410.572891	11771.094231
410.953545	12339.193491
411.334138	11986.894393
411.714669	12602.496834
412.095139	11845.354305
412.475547	12569.341553
412.855894	12389.023358
413.236180	12708.167175
413.616405	12574.770488
413.996568	12802.397973
414.376670	12766.140444
414.756711	12733.179053
415.136691	12969.919393
415.516609	13236.518876
415.896466	13284.603728
416.276262	13635.351701
416.655997	13913.390725
417.035670	13946.933787
417.415283	14909.600281
417.794834	15256.276553
418.174324	15104.072485
418.553753	15102.909142
418.933121	15516.089867
419.312428	15354.966834
419.691674	15269.655000
420.070859	15620.015192
420.449983	15468.198905
420.829045	15986.856080
421.208047	15792.383876
421.586988	16291.651997
421.965867	16774.439423
422.344686	16843.464453
422.723444	17178.313402
423.102141	16222.820858
423.480777	17164.547175
423.859352	17017.190370
424.237866	18282.519985
424.616319	18051.402470
424.994712	18760.847929
425.373044	18723.814837
425.751314	19412.514009
426.129524	18633.849630
426.507673	19911.200459
426.885762	19366.174172
427.263789	19997.287855
427.641756	19970.530962
428.019662	20259.427855
428.397508	20180.320518
428.775292	20765.482145
429.153016	20926.992959
429.530679	21036.735000
429.908282	21207.358669
430.285824	20747.644216
430.663305	21733.965355
431.040726	21317.100710
431.418086	21084.044290
431.795385	21942.785459
432.172624	22479.280562
432.549802	22190.383669
432.926920	22203.762115
433.303977	22256.306450
433.680974	22715.245340
434.057910	22852.907618
434.434786	22936.862219
434.811601	22676.467234
435.188355	24096.327604
435.565050	23778.541021
435.941683	23505.155370
436.318257	24648.140059
436.694770	24839.510015
437.071222	25666.647027
437.447614	24972.325030
437.823946	25100.292781
438.200218	24947.119260
438.576429	24862.970769
438.952580	24957.395459
439.328670	25114.834571
439.704700	25568.344527
440.080670	25034.370000
440.456580	25816.330518
440.832429	26372.020784
441.208218	24994.234660
441.583947	25804.697086
441.959616	25837.464586
442.335224	26086.613920
442.710773	26282.055577
443.086261	26940.507825
443.461689	26525.000414
443.837057	26424.565118
444.212365	27306.573151
444.587612	27360.086938
444.962800	26721.799305
445.337927	27375.598180
445.712995	25977.647441
446.088002	28142.435237
446.462949	28582.566746
446.837837	28637.437766
447.212664	28121.107278
447.587431	30102.668521
447.962139	32576.905607
448.336786	37307.640710
448.711374	39092.403062
449.085901	35831.358195
449.460369	34855.701036
449.834776	33003.076997
450.209124	34488.472367
450.583412	34563.895784
450.957640	37114.331849
451.331808	36253.651775
451.705917	34217.025621
452.079965	33665.213166
452.453954	33478.884364
452.827883	33089.358284
453.201752	32948.593757
453.575562	33432.350636
453.949311	34991.230518
454.323001	34801.411686
454.696632	34445.428669
455.070202	36197.617411
455.443713	36149.144778
455.817164	37448.986908
456.190556	38044.618624
456.563888	37802.255459
456.937160	38897.155296
457.310373	37321.600828
457.683526	37995.370429
458.056619	37720.821435
458.429653	37040.265666
458.802628	37272.352633
459.175542	37228.727263
459.548398	38427.746317
459.921194	40446.340651
460.293930	40355.987663
460.666607	42689.654112
461.039224	45116.194127
461.411782	46791.408328
461.784280	46600.620044
462.156719	47087.091391
462.529099	46507.164808
462.901419	45000.829260
463.273680	43115.243831
463.645882	42571.768669
464.018024	41979.626982
464.390106	41933.287145
464.762130	43626.339275
465.134094	45859.376538
465.505999	50590.305533
465.877845	56635.618447
466.249631	59953.667130
466.621358	60728.841479
466.993026	60294.526686
467.364634	58899.872086
467.736184	56611.188240
468.107674	55057.349512
468.479105	53970.593077
468.850477	53254.361450
469.221790	51485.692012
469.593043	49252.073077
469.964238	47981.702308
470.335373	47191.792278
470.706449	47778.311139
471.077467	47242.591598
471.448425	51295.679290
471.819324	56904.544615
472.190164	58913.444423
472.560945	57268.089364
472.931667	53340.448846
473.302330	50817.739127
473.672934	49027.935621
474.043479	49038.987382
474.413965	47699.591583
474.784393	47012.443536
475.154761	48067.401923
475.525070	47914.616183
475.895321	47255.000592
476.265513	47966.191065
476.635645	48771.612337
477.005719	48530.024734
477.375734	48956.583905
477.745691	49511.692500
478.115588	50852.251642
478.485427	52145.889275
478.855207	54507.669852
479.224928	56825.631169
479.594591	59253.528417
479.964194	60148.333225
480.333739	60763.741775
480.703226	60593.893669
481.072653	60461.854216
481.442022	60692.583950
481.811333	61428.010740
482.180584	60930.487633
482.549777	60748.036642
482.918912	60206.500385
483.287988	60024.243284
483.657005	59504.228876
484.025964	58968.703225
484.394864	59230.649334
484.763706	58824.642559
485.132489	58178.599305
485.501213	57858.679926
485.869879	57952.329053
486.238487	57570.364704
486.607036	57735.559438
486.975527	57364.065178
487.343959	57337.502175
487.712333	57618.255666
488.080648	57792.369364
488.448905	58108.217041
488.817104	58084.562396
489.185244	58492.895858
489.553326	58831.428728
489.921350	60198.550873
490.289315	62475.407396
490.657222	63789.791317
491.025070	64858.709822
491.392861	64878.292766
491.760593	64623.326716
492.128267	63844.080666
492.495883	62909.334408
492.863440	61930.575000
493.230939	60849.829172
493.598380	59828.995518
493.965763	59596.908550
494.333088	58869.819053
494.700354	58352.131331
495.067563	58045.590399
495.434713	58000.413905
495.801805	58000.026124
496.168839	57644.430888
496.535815	57449.377012
496.902733	57497.849645
497.269593	57323.735947
497.636395	57104.445754
498.003139	57687.086805
498.369825	57270.803831
498.736453	57542.056686
499.103023	57161.061790
499.469535	57042.594675
499.835989	57268.283254
500.202385	57084.668920
500.568723	57064.698195
500.935003	57058.687589
501.301226	56826.212840
501.667390	57645.594231
502.033497	58206.907322
502.399546	57705.118624
502.765537	57370.657456
503.131470	57761.152988
503.497345	57961.829689
503.863163	56807.405459
504.228923	57409.047781
504.594625	57722.180991
504.960269	57333.236583
505.325856	57909.479246
505.691385	57238.036331
506.056856	57473.613328
506.422270	57784.807633
506.787625	57697.944675
507.152924	57639.389734
507.518164	57874.772840
507.883347	57100.955725
508.248472	57526.351553
508.613540	57826.106317
508.978550	58160.955266
509.343503	58004.291716
509.708398	58110.737618
510.073236	58573.748210
510.438016	58575.493225
510.802738	58155.720222
511.167403	58543.307396
511.532010	58749.413033
511.896561	59047.035000
512.261053	59844.118979
512.625488	59522.648476
512.989866	59416.396464
513.354186	59352.994260
513.718449	59406.508047
514.082655	59683.577618
514.446803	59506.167781
514.810894	59718.477914
515.174927	59749.694290
515.538904	59572.284453
515.902822	60197.581420
516.266684	59641.503373
516.630488	59923.807988
516.994235	59983.138491
517.357925	60305.772337
517.721558	60388.951376
518.085133	60656.326420
518.448651	60628.600074
518.812112	60452.159689
519.175516	60497.723964
519.538863	60787.784201
519.902152	60679.205503
520.265385	60980.899172
520.628560	61041.974689
520.991678	60873.483817
521.354739	60934.753225
521.717743	61210.853343
522.080690	61048.566967
522.443580	61451.471494
522.806413	61444.685325
523.169189	61335.331065
523.531908	61618.799024
523.894569	61461.747692
524.257174	61519.720962
524.619722	61742.113402
524.982213	61603.481672
525.344647	61483.657322
525.707025	61530.772722
526.069345	61771.778654
526.431608	61669.210562
526.793815	61804.352263
527.155964	61578.275902
527.518057	61618.411243
527.880093	61444.685325
528.242072	61750.450695
528.603995	61491.219053
528.965860	61580.214808
529.327669	61584.480399
529.689421	61402.804970
530.051117	61323.697633
530.412755	61383.028136
530.774337	61363.832973
531.135862	61186.035355
531.497331	61524.568225
531.858743	61267.663269
532.220098	61402.417189
532.581396	61167.615754
532.942638	60982.838077
533.303824	61148.226701
533.664953	61003.196583
534.026025	60829.470666
534.387040	61089.865651
534.747999	60948.325562
535.108902	61063.302648
535.469748	60733.300962
535.830537	60782.355266
536.191270	60865.922086
536.551947	60538.634867
536.912567	60708.676864
537.273131	60819.776139
537.633638	60281.536021
537.994089	60565.585651
538.354483	60187.886893
538.714821	60490.356124
539.075103	60780.610251
539.435328	60501.407885
539.795497	60539.410429
540.155609	60369.174541
540.515665	60641.978521
540.875665	60310.037929
541.235609	60501.601775
541.595496	60412.218240
541.955328	60892.097308
542.315102	60385.267456
542.674821	60118.861864
543.034483	60240.431228
543.394090	60158.803314
543.753640	60046.928476
544.113134	60762.384541
544.472571	59992.251346
544.831953	60871.351021
545.191278	60306.741790
545.550548	60001.170311
545.909761	60260.208062
546.268918	60506.642929
546.628019	60587.301391
546.987064	60304.996775
547.346053	59730.693018
547.704986	60310.425710
548.063863	59916.246257
548.422684	60028.121095
548.781449	60045.183462
549.140158	60110.330680
549.498811	59936.216982
549.857408	59595.163536
550.215949	60205.530932
550.574434	60034.713373
550.932864	59884.642101
551.291237	60476.589896
551.649555	60088.227160
552.007817	60223.756642
552.366022	59907.133402
552.724173	60120.994660
553.082267	60226.083328
553.440305	60573.147382
553.798288	60139.220370
554.156215	60186.335769
554.514086	60353.469408
554.871902	60187.111331
555.229661	60192.346376
555.587365	60039.948417
555.945014	60174.314556
556.302606	60011.252618
556.660143	60258.656938
557.017625	60280.954349
557.375050	60154.731612
557.732421	60510.520740
558.089735	60463.987012
558.446994	60273.780399
558.804197	60695.492308
559.161345	60647.989127
559.518437	60041.111760
559.875474	60343.387101
560.232455	60384.491893
560.589381	60596.995917
560.946251	60345.907678
561.303065	60822.684497
561.659825	60656.132530
562.016528	60347.652692
562.373177	60218.909379
562.729770	60579.157988
563.086307	60217.358254
563.442789	60485.314970
563.799216	60772.854630
564.155587	60426.178358
564.511904	60468.834275
564.868164	60536.308180
565.224370	60729.035370
565.580520	60601.649290
565.936615	60786.426967
566.292654	60638.294601
566.648638	60777.120222
567.004567	60711.779112
567.360441	60802.325991
567.716260	60793.019246
568.072023	60940.182160
568.427732	60958.020089
568.783385	60631.508432
569.138982	61031.892382
569.494525	60924.283136
569.850013	60857.197012
570.205445	60770.527944
570.560823	60824.623402
570.916145	60713.524127
571.271412	60673.194896
571.626625	60556.666686
571.981782	60596.220355
572.336884	60442.271272
572.691931	60752.690015
573.046923	60409.891553
573.401860	60319.344675
573.756743	60271.841494
574.111570	60357.928891
574.466342	60306.547899
574.821059	60456.231391
575.175722	60098.503358
575.530330	60070.195340
575.884882	59970.923388
576.239380	59946.299290
576.593823	59786.533491
576.948211	59935.053639
577.302544	59473.012500
577.656823	59436.173299
578.011047	59687.455429
578.365216	59419.110932
578.719330	59387.118994
579.073389	59104.620488
579.427394	59363.658240
579.781344	59263.029053
580.135239	59019.502544
580.489080	59045.096095
580.842866	58743.014645
581.196597	59000.307382
581.550273	58902.586553
581.903895	58784.313328
582.257463	59030.166524
582.610975	58611.944645
582.964434	58787.415577
583.317837	58520.428314
583.671186	58516.938284
584.024481	58562.308669
584.377721	58308.312071
584.730906	58644.906036
585.084037	58572.778757
585.437113	58375.785976
585.790135	58478.935740
586.143103	58080.878476
586.496016	58140.790651
586.848874	58199.927263
587.201679	58177.435962
587.554428	57760.571317
587.907124	58053.152130
588.259765	57811.952308
588.612352	58105.308683
588.964884	57493.584053
589.317362	57740.600592
589.669786	57725.477130
590.022155	57486.410104
590.374470	57967.840296
590.726731	57416.221731
591.078937	57149.234467
591.431090	57067.606553
591.783188	56917.729172
592.135232	56676.723240
592.487222	56935.373210
592.839157	56960.191198
593.191038	56633.679541
593.542866	56469.648151
593.894639	55811.002012
594.246358	56186.955754
594.598022	56077.795385
594.949633	55680.901464
595.301190	55873.434763
595.652692	55444.936686
596.004141	55813.328698
596.355535	54780.086050
596.706876	54815.374127
597.058162	54695.161997
597.409395	55229.718195
597.760573	55287.885355
598.111698	54582.317707
598.462768	54851.631657
598.813785	54953.230296
599.164748	54300.594763
599.515657	54734.521775
599.866511	54120.276568
600.217312	54699.427589
600.568060	53519.603698
600.918753	54376.793743
601.269392	54432.634216
601.619978	53919.793757
601.970510	54245.335962
602.320988	54444.849320
602.671412	54712.418254
603.021783	54406.846775
603.372100	54177.086494
603.722363	54194.730533
604.072572	54217.609615
604.422728	54442.522633
604.772830	54046.985947
605.122878	54295.165828
605.472872	54054.353787
605.822813	54386.488269
606.172701	54319.789926
606.522534	54269.766169
606.872314	54651.148846
607.222041	54283.726287
607.571714	54769.228180
607.921333	54096.621923
608.270899	54528.803920
608.620411	54638.352071
608.969870	54579.603240
609.319276	54381.059334
609.668627	54443.104305
610.017926	54986.967249
610.367171	55158.560370
610.716362	55134.711834
611.065500	55016.050828
611.414585	55077.514127
611.763616	55378.044453
612.112594	55335.582426
612.461518	55558.750429
612.810389	55698.739393
613.159207	55514.931169
613.507971	55612.070325
613.856682	56085.551006
614.205340	55746.242574
614.553945	56493.884467
614.902496	56000.045281
615.250994	56262.573062
615.599439	56439.013447
615.947830	56548.367707
616.296169	56495.047811
616.644454	56415.164911
616.992686	56651.129689
617.340864	57052.676982
617.688990	56683.121627
618.037063	57301.050754
618.385082	57164.745710
618.733048	57288.641760
619.080961	57356.891228
619.428821	57345.063905
619.776628	57463.531021
620.124382	57249.863654
620.472083	57399.159364
620.819731	57592.080444
621.167326	57400.904379
621.514868	57285.733402
621.862357	56901.054586
622.209793	56950.496672
622.557176	56675.753787
622.904506	56402.368136
623.251783	56128.594704
623.599007	55892.629926
623.946179	55655.501805
624.293297	55664.808550
624.640363	54925.891731
624.987376	55059.288417
625.334336	54590.848891
625.681243	54157.309660
626.028097	54056.486583
626.374899	53949.652899
626.721647	53731.913831
627.068343	53586.883713
627.414987	53321.253683
627.761577	52968.372914
628.108115	53141.129379
628.454600	52624.605000
628.801032	52715.345769
629.147412	52591.255828
629.493739	52583.694098
629.840014	52124.755207
630.186236	52281.612648
630.532405	51872.115843
630.878521	52040.994497
631.224585	51973.132811
631.570597	51470.374660
631.916556	51471.150222
632.262462	51443.617766
632.608316	51527.572367
632.954117	51372.072160
633.299866	51305.955488
633.645562	51211.336908
633.991206	50774.501538
634.336797	50039.074749
634.682336	50241.496464
635.027823	49885.707337
635.373257	49599.331021
635.718639	49186.150296
636.063968	49079.510503
636.409245	48388.096864
636.754470	48337.103654
637.099642	48020.092633
637.444762	47500.272115
637.789829	47573.368846
638.134845	47067.120666
638.479808	47016.321346
638.824719	46664.022249
639.169577	46358.644660
639.514383	46169.213609
639.859137	45876.438905
640.203839	46169.213609
640.548489	45461.125385
640.893086	45716.866997
641.237632	45316.870828
641.582125	45276.347707
641.926566	45312.411346
642.270955	45038.250133
642.615292	45115.418565
642.959576	45112.316317
643.303809	45041.158491
643.647990	45065.007027
643.992118	44915.905207
644.336195	44888.372751
644.680219	44846.686287
645.024192	44943.437663
645.368112	45440.185207
645.711981	45251.335828
646.055797	46264.413861
646.399562	45896.409630
646.743274	46956.990843
647.086935	47537.305207
647.430544	47392.856760
647.774101	47698.234349
648.117606	47881.848683
648.461059	48645.583491
648.804460	48180.440104
649.147810	47612.922515
649.491108	47573.562737
649.834354	47090.969201
650.177548	46246.575932
650.520690	45809.934453
650.863781	45831.844083
651.206820	45483.810577
651.549807	44991.910296
651.892742	44306.119482
652.235626	43957.504305
652.578458	43529.006228
652.921238	42995.807263
653.263967	43230.220917
653.606644	42734.636716
653.949269	42621.792426
654.291843	42073.470000
654.634365	42443.025355
654.976836	42158.975725
655.319255	42017.629527
655.661622	42032.365207
656.003938	41792.716509
656.346203	41644.584142
656.688416	41656.605355
657.030577	41573.620207
657.372687	41383.607485
657.714746	41688.791183
658.056753	41628.491228
658.398708	41095.292263
658.740612	41050.309660
659.082465	41283.559970
659.424266	41005.908728
659.766016	41146.479364
660.107715	40956.660533
660.449362	41136.784837
660.790958	41164.511183
661.132503	41161.796716
661.473996	41118.365237
661.815438	41363.248979
662.156829	41503.625725
662.498168	41230.433964
662.839456	41215.504393
663.180693	41286.080547
663.521879	41587.192544
663.863013	41321.756405
664.204097	41466.786524
664.545129	42052.335932
664.886110	41862.323210
665.227040	41882.875607
665.567918	42019.180651
665.908746	42287.137367
666.249522	42344.916746
666.590248	42538.419497
666.930922	42574.870917
667.271545	42610.740666
667.612118	42686.357973
667.952639	42496.539142
668.293109	42593.484408
668.633528	42407.931169
668.973896	42360.427988
669.314213	42564.400828
669.654480	42160.720740
669.994695	42229.939660
670.334859	42062.418240
670.674973	42076.766139
671.015035	42086.848447
671.355047	42094.991849
671.695008	42009.680015
672.034918	41893.927367
672.374777	42001.536612
672.714585	41835.566317
673.054342	41968.381331
673.394049	41758.979556
673.733705	42128.147130
674.073310	41816.177263
674.412864	41946.083920
674.752368	41539.495473
675.091820	41942.400000
675.431223	41450.887500
675.770574	41121.079704
676.109875	41070.474275
676.449125	40752.881583
676.788324	40580.706790
677.127473	40062.825178
677.466571	40038.782751
677.805619	39596.712337
678.144616	39578.098846
678.483562	39493.756464
678.822458	39041.215962
679.161303	38821.344098
679.500098	38614.462899
679.838842	38489.403506
680.177535	38517.711524
680.516179	38725.949956
680.854771	38765.309734
681.193314	39371.023757
681.531805	40345.517574
681.870247	41253.313047
682.208638	42576.615932
682.546978	43471.420740
682.885268	43983.873417
683.223508	43677.914157
683.561697	43415.192485
683.899836	43107.100429
684.237925	42622.955769
684.575963	42316.996509
684.913951	41771.388550
685.251889	41823.351213
685.589776	41743.662204
685.927614	41580.988047
686.265401	41620.153935
686.603137	41609.683846
686.940824	42099.451331
687.278460	42700.705873
687.616046	42694.113595
687.953582	43497.402071
688.291068	43545.874704
688.628504	44155.078757
688.965889	44283.434290
689.303224	44135.883595
689.640510	44051.541213
689.977745	43396.772885
690.314930	42720.676598
690.652065	42045.355873
690.989150	41339.982115
691.326185	40276.298654
691.663170	39317.122189
692.000105	38318.004275
692.336990	37450.731923
692.673825	36945.647086
693.010610	36097.376006
693.347345	35469.364571
693.684030	34516.974275
694.020665	34107.671361
694.357251	33344.324334
694.693786	33157.995533
695.030272	32808.992574
695.366707	32003.377411
695.703093	31786.413905
696.039429	31598.340089
696.375716	31066.498358
696.711952	31160.535266
697.048139	30850.892086
697.384276	30572.659172
697.720363	30815.410118
698.056400	30534.268846
698.392388	30416.965074
698.728326	30372.951923
699.064214	30241.106361
699.400053	30153.273950
699.735842	29838.201834
700.071581	29368.986746
700.407270	29173.545089
700.742910	28917.997367
701.078501	28663.419098
701.414042	28262.841257
701.749533	27845.976612
702.084974	27493.289734
702.420366	27655.576109
702.755709	27122.764926
703.091002	26817.969009
703.426246	26767.557470
703.761440	26676.816701
704.096584	26327.425962
704.431679	26118.605858
704.766725	26008.088254
705.101721	25905.132382
705.436668	25974.739083
705.771565	25617.980503
706.106413	26048.223595
706.441212	25922.194749
706.775961	26033.487914
707.110661	26246.379719
707.445311	26649.672027
707.779913	26220.204497
708.114465	26533.725488
708.448967	26908.515888
708.783421	27834.924852
709.117825	28014.467485
709.452180	28432.107692
709.786485	28786.733476
710.120742	29865.152618
710.454949	29859.529793
710.789107	30554.627352
711.123216	31433.727027
711.457275	31830.427056
711.791286	32706.618373
712.125247	32919.510178
712.459159	32942.970932
712.793023	33986.877559
713.126837	32710.302293
713.460602	33374.959038
713.794318	32957.124941
714.127985	32576.711716
714.461602	31586.512766
714.795171	31548.510222
715.128691	30216.676154
715.462162	29532.824246
715.795584	29025.024941
716.128957	28623.865429
716.462281	27995.466213
716.795556	27757.950311
717.128782	27009.338964
717.461960	26243.083580
717.795088	26119.963092
718.128167	25548.373802
718.461198	24866.266908
718.794180	24788.516805
719.127113	24291.769260
719.459997	24053.671686
719.792833	23532.300044
720.125619	23413.057367
720.458357	22964.006893
720.791046	22648.546997
721.123686	22434.297959
721.456278	22146.176627
721.788821	21950.153299
722.121315	21714.188521
722.453761	21725.628062
722.786158	21737.649275
723.118506	21635.081183
723.450805	21435.761716
723.783056	21595.527515
724.115259	21555.198284
724.447412	21315.161805
724.779518	21717.096879
725.111574	21730.281435
725.443582	21953.061657
725.775542	21951.510533
726.107453	22540.162189
726.439315	22180.689142
726.771129	22841.468077
727.102895	23326.582189
727.434612	23684.310222
727.766281	23967.002618
728.097901	24484.690340
728.429473	24709.991139
728.760996	24702.235518
729.092471	25059.769660
729.423897	24765.443831
729.755276	24602.381893
730.086606	24587.840104
730.417887	25151.285991
730.749120	25763.786183
731.080305	26109.299112
731.411442	26820.295695
731.742530	27026.983003
732.073570	27224.557456
732.404562	27724.795030
732.735506	27737.397914
733.066401	27947.769142
733.397249	27613.114083
733.728048	26879.626198
734.058798	25704.261790
734.389501	24781.342855
734.720156	23974.176568
735.050762	23006.662811
735.381320	22337.352692
735.711831	21874.148210
736.042293	21245.167322
736.372707	21151.712086
736.703073	20691.415962
737.033391	20930.095207
737.363661	20816.669246
737.693883	20901.981080
738.024056	20989.619601
738.354182	21200.766391
738.684260	21586.802441
739.014290	21987.574172
739.344272	22304.197411
739.674207	22721.255947
740.004093	23011.897855
740.333931	23149.172352
740.663722	23413.639038
740.993464	23452.029364
741.323159	23395.219438
741.652806	23141.998402
741.982405	22914.370917
742.311956	22572.735799
742.641460	22480.831686
742.970915	21958.490592
743.300323	21469.886450
743.629683	21225.196598
743.958996	20869.407470
744.288260	20467.084615
744.617477	19937.181790
744.946647	19843.338772
745.275768	19415.810148
745.604842	19133.117751
745.933869	18680.383358
746.262847	18677.475000
746.591778	18594.102071
746.920662	18354.453373
747.249498	18284.265000
747.578286	18301.521257
747.907027	18476.992189
748.235720	18797.881021
748.564365	18962.881864
748.892963	18972.188609
749.221514	19082.706213
749.550017	19045.673121
749.878473	19029.774098
750.206881	18731.958240
750.535242	18614.460577
750.863555	18509.371908
751.191821	18379.659142
751.520039	18358.912855
751.848210	18145.439379
752.176334	18201.085962
752.504411	18017.277737
752.832440	17941.466538
753.160421	18031.625636
753.488356	17873.023180
753.816243	17716.359630
754.144082	17529.643047
754.471875	17445.300666
754.799620	17435.800030
755.127318	17307.250607
755.454969	17280.299822
755.782572	17188.007929
756.110129	17240.552263
756.437638	17106.961686
756.765100	17091.450444
757.092515	17129.452988
757.419882	17086.409290
757.747203	17105.992234
758.074477	17168.812766
758.401703	17046.467840
758.728882	17317.720695
759.056014	17395.858580
759.383099	17474.190355
759.710138	17667.111435
760.037129	17861.777530
760.364073	18064.974808
760.690970	18121.203062
761.017820	17970.550118
761.344623	18279.223846
761.671379	18468.267115
761.998088	18936.900533
762.324751	19964.132574
762.651366	22475.402751
762.977935	27196.443328
763.304456	32462.897973
763.630931	36643.177855
763.957359	37901.139630
764.283740	36307.941124
764.610074	33677.428269
764.936362	30314.396982
765.262602	27330.809467
765.588796	24339.660222
765.914943	22241.764660
766.241044	20265.438462
766.567097	18841.312500
766.893104	17520.917973
767.219064	16801.390207
767.544978	16012.643521
767.870845	15370.284186
768.196665	14984.248136
768.522438	14589.099231
768.848165	14351.195547
769.173846	14049.114098
769.499479	13774.565104
769.825066	13478.494260
770.150607	13189.209586
770.476101	13086.059822
770.801548	12929.396272
771.126949	12694.207056
771.452303	12500.122633
771.777611	12234.298713
772.102872	12237.207071
772.428087	12051.266050
772.753256	11856.212175
773.078378	11665.230000
773.403453	11470.757796
773.728482	11227.231287
774.053465	11170.227470
774.378401	11023.646228
774.703291	10804.356036
775.028135	10701.400163
775.352932	10620.741701
775.677683	10497.815104
776.002388	10282.596612
776.327046	10333.589822
776.651658	10154.822751
776.976224	10060.204172
777.300743	9998.934763
777.625216	9957.054408
777.949643	9853.322973
778.274024	9827.147751
778.598359	9746.295399
778.922647	9704.221154
779.246889	9640.625059
779.571086	9603.785858
779.895236	9579.549541
780.219339	9584.978476
780.543397	9562.099393
780.867409	9713.721790
781.191374	9702.670030
781.515294	9714.109571
781.839167	9766.266124
782.162995	9773.827855
782.486776	9702.476139
782.810511	9679.015385
783.134201	9546.200370
783.457844	9525.454083
783.781441	9522.351834
784.104993	9461.082426
784.428498	9374.413358
784.751958	9306.163891
785.075372	9276.886420
785.398739	9241.016672
785.722061	9198.942426
786.045337	9223.372633
786.368568	9320.511790
786.691752	9252.068432
787.014891	9586.723491
787.337983	9815.514320
787.661030	10400.288166
787.984031	11140.756109
788.306987	11858.732751
788.629897	12453.007234
788.952760	12642.438284
789.275579	12613.742485
789.598351	12296.343683
789.921078	11806.576198
790.243759	11342.402263
790.566395	10896.260148
790.888984	10446.628003
791.211529	10255.258047
791.534027	9787.206302
791.856480	9540.577544
792.178888	9331.369660
792.501249	9230.934364
792.823566	8978.295000
793.145836	8951.344216
793.468062	8862.930133
793.790241	8768.699334
794.112375	8786.149482
794.434464	8887.166450
794.756507	8931.179601
795.078505	9071.750237
795.400457	9294.142678
795.722364	9696.465533
796.044226	10055.938580
796.366042	10555.594482
796.687812	10575.371317
797.009538	10802.029349
797.331218	10745.025533
797.652852	10711.676361
797.974442	10567.227914
798.295986	10457.291982
798.617484	10184.875784
798.938938	9997.771420
799.260346	9876.395947
799.581709	9573.538935
799.903026	9537.669186
800.224299	9405.435843
800.545526	9209.606405
800.866708	9050.810059
801.187845	8902.483802
801.508936	8746.789704
801.829983	8694.245370
802.150984	8491.629763
802.471940	8489.303077
802.792851	8384.602189
803.113717	8320.812204
803.434538	8281.646317
803.755314	8200.793964
804.076045	8196.722263
804.396731	8055.763846
804.717372	8071.662870
805.037967	8094.541953
805.358518	8126.921672
805.679024	8180.241568
805.999485	8185.670503
806.319901	8211.070163
806.640272	8297.739231
806.960598	8421.829172
807.280879	8388.867781
807.601115	8462.933964
807.921306	8405.542367
808.241453	8461.576731
808.561554	8493.956450
808.881611	8462.158402
809.201623	8478.445207
809.521590	8444.514364
809.841513	8409.032396
810.161390	8407.869053
810.481223	8293.473639
810.801011	8285.136346
811.120755	8284.748565
811.440453	8168.995917
811.760107	8128.860577
812.079716	8075.152899
812.399281	8003.025621
812.718801	7968.319216
813.038276	7887.272973
813.357707	7823.676879
813.677093	7886.109630
813.996434	7744.569541
814.315731	7799.052781
814.634983	7771.714216
814.954191	7747.671790
815.273354	7824.258550
815.592473	7908.988713
815.911547	8017.955192
816.230577	8103.460917
816.549562	8252.368846
816.868502	8449.943299
817.187399	8566.277618
817.506250	8789.057840
817.825058	8826.672604
818.143821	9064.382396
818.462539	9286.774837
818.781213	9542.710340
819.099843	9994.281391
819.418429	10898.005163
819.736970	11924.849423
820.055466	13241.172249
820.373919	14757.783994
820.692327	16774.439423
821.010691	19388.859364
821.329011	25247.261805
821.647286	36225.925429
821.965517	52801.239275
822.283704	63346.169778
822.601847	65535.000000
822.919945	65535.000000
823.237999	65535.000000
823.556010	64607.039911
823.873976	60060.113033
824.191897	53696.431864
824.509775	47064.018417
824.827609	39983.717840
825.145398	34808.779527
825.463144	31214.436834
825.780845	29503.546775
826.098502	29345.138210
826.416116	31582.247175
826.733685	36313.951731
827.051210	40544.255370
827.368692	42038.181923
827.686129	39952.889246
828.003522	35374.164320
828.320872	29853.906967
828.638177	25460.735281
828.955439	22073.467678
829.272656	19204.081686
829.589830	16863.241287
829.906960	14769.223536
830.224046	13217.323713
830.541088	11955.678018
830.858086	11069.016612
831.175041	10343.672130
831.491952	10007.853728
831.808819	9725.161331
832.125642	9834.321701
832.442421	10256.421391
832.759157	11403.671672
833.075849	13680.140414
833.392497	17252.379586
833.709101	21383.023491
834.025662	23790.562234
834.342179	23907.090444
834.658653	21830.716731
834.975083	19180.039260
835.291469	16704.444941
835.607811	14690.503979
835.924110	13188.821805
836.240366	11891.306361
836.556578	10676.194393
836.872746	9736.988654
837.188871	8879.023047
837.504952	8196.140592
837.820990	7685.239038
838.136984	7342.634467
838.452935	7063.238210
838.768842	6922.279793
839.084706	6961.057899
839.400526	7451.794837
839.716303	8849.163905
840.032037	10831.500710
840.347727	12281.220222
840.663373	12256.208343
840.978977	11085.497308
841.294537	9773.052293
841.610054	8690.949231
841.925527	7988.289941
842.240957	7472.347234
842.556344	7017.092263
842.871687	6618.841109
843.186987	6201.588683
843.502244	5844.830104
843.817458	5539.452515
844.132629	5331.795754
844.447756	5180.755030
844.762840	5038.245488
845.077881	4939.749098
845.392879	4894.960385
845.707833	4781.340533
846.022745	4754.001967
846.337613	4681.874689
846.652438	4602.379571
846.967221	4611.298536
847.281960	4554.294719
847.596656	4526.762263
847.911309	4488.759719
848.225919	4445.716021
848.540485	4419.346908
848.855009	4434.858151
849.169490	4386.385518
849.483928	4368.741479
849.798323	4351.291331
850.112675	4330.545044
850.426984	4327.055015
850.741251	4330.351154
851.055474	4343.729601
851.369654	4295.063077
851.683792	4303.206479
851.997887	4293.705843
852.311938	4298.746997
852.625947	4333.841183
852.939914	4311.543772
853.253837	4286.919675
853.567718	4317.942160
853.881555	4293.318062
854.195350	4295.644749
854.509103	4327.442796
854.822812	4299.522559
855.136479	4293.705843
855.450103	4284.011317
855.763685	4275.092352
856.077224	4279.745725
856.390720	4306.308728
856.704173	4290.797485
857.017584	4336.749541
857.330953	4321.819970
857.644278	4330.932825
857.957561	4366.996464
858.270802	4400.927308
858.584000	4412.366849
858.897155	4399.957855
859.210268	4344.699053
859.523339	4342.566257
859.836367	4338.300666
860.149352	4339.270118
860.462295	4314.646021
860.775195	4313.482678
861.088054	4329.575592
861.400869	4306.308728
861.713642	4307.665962
862.026373	4305.339275
862.339062	4301.073683
862.651708	4285.174660
862.964312	4321.238299
863.276873	4348.964645
863.589392	4413.336302
863.901869	4463.166169
864.214303	4509.312115
864.526696	4568.060947
864.839045	4626.421997
865.151353	4687.303624
865.463619	4670.241257
865.775842	4716.387204
866.088023	4723.367263
866.400162	4726.857293
866.712258	4753.226405
867.024313	4794.718979
867.336325	4750.511938
867.648296	4750.899719
867.960224	4738.878506
868.272110	4779.401627
868.583954	4758.655340
868.895755	4782.116095
869.207515	4735.582367
869.519233	4795.494541
869.830909	4781.922204
870.142542	4831.752071
870.454134	4847.263314
870.765684	4904.848802
871.077191	4927.921775
871.388657	4935.871287
871.700081	4976.200518
872.011463	5013.427500
872.322803	5082.646420
872.634101	5114.250577
872.945357	5183.275607
873.256571	5222.829275
873.567744	5276.730843
873.878874	5296.895459
874.189963	5383.370636
874.501010	5381.819512
874.812015	5368.634956
875.122979	5430.486036
875.433900	5449.293417
875.744780	5447.936183
876.055618	5471.396938
876.366415	5497.766050
876.677169	5488.265414
876.987882	5531.115222
877.298554	5574.352811
877.609183	5662.960784
877.919771	5710.270074
878.230317	5818.654882
878.540822	6000.330311
878.851285	6248.316302
879.161707	6601.584852
879.472087	7190.818180
879.782425	8081.163506
880.092722	9641.788402
880.402977	12206.766257
880.713191	16205.176820
881.023363	21492.571642
881.333494	26058.693683
881.643583	29637.912914
881.953631	31111.674852
882.263637	30942.408417
882.573602	29736.603195
882.883526	28108.310503
883.193408	26154.475607
883.503248	23882.466346
883.813048	21947.438831
884.122806	19915.659941
884.432522	17895.708373
884.742197	15994.223920
885.051831	14377.564660
885.361424	12790.376760
885.670975	11523.689911
885.980485	10419.483328
886.289954	9574.896169
886.599382	8854.205059
886.908768	8291.340843
887.218113	7795.368861
887.527417	7344.767263
887.836680	6941.281065
888.145901	6623.882263
888.455082	6381.519098
888.764221	6135.859793
889.073319	5951.469896
889.382376	5826.798284
889.691392	5709.882293
890.000366	5647.061760
890.309300	5613.906479
890.618193	5598.395237
890.927044	5589.088491
891.235855	5548.759260
891.544625	5563.301050
891.853353	5603.048609
892.162041	5686.809320
892.470687	5820.981568
892.779293	6078.274305
893.087858	6328.005311
893.396381	6809.241612
893.704864	7426.976849
894.013306	8402.634009
894.321707	9787.981864
894.630068	11235.956361
894.938387	12232.747589
895.246665	12636.039896
895.554903	12289.363624
895.863100	11509.535902
896.171256	10798.539320
896.479371	10150.944941
896.787446	9454.684038
897.095480	8889.299246
897.403473	8376.846568
897.711425	7942.919556
898.019336	7558.434630
898.327207	7179.766420
898.635038	6886.022263
898.942827	6552.530547
899.250576	6294.850030
899.558284	6021.076598
899.865952	5844.636213
900.173579	5637.173343
900.481165	5502.419423
900.788711	5365.532707
901.096216	5283.129231
901.403681	5144.303609
901.711105	5057.246760
902.018489	5014.396953
902.325832	5050.072811
902.633135	5048.327796
902.940397	5204.797456
903.247619	5614.682041
903.554800	6516.466908
903.861941	8220.570799
904.169041	10522.245311
904.476101	12575.739941
904.783121	13431.378861
905.090100	13181.647855
905.397039	12181.754379
905.703938	11202.413299
906.010796	10193.794749
906.317614	9477.369231
906.624391	8756.484231
906.931129	8119.941612
907.237826	7585.385414
907.544483	7053.349793
907.851099	6540.509334
908.157675	6118.021864
908.464211	5562.913269
908.770707	5229.033772
909.077163	4890.500902
909.383578	4630.687589
909.689954	4456.186109
909.996289	4366.996464
910.302584	4218.088536
910.608839	4166.901435
910.915054	4144.604024
911.221229	4086.824645
911.527363	4059.292189
911.833458	4073.446198
912.139513	4082.365163
912.445527	4100.203092
912.751502	4180.861553
913.057436	4268.112293
913.363331	4370.292604
913.669186	4545.763536
913.975000	4752.838624
914.280775	5058.797885
914.586510	5536.931938
914.892205	6227.957796
915.197859	7206.135533
915.503475	8470.107914
915.809050	9999.710325
916.114585	11337.361109
916.420081	12193.581701
916.725536	12614.711938
917.030952	12423.535873
917.336328	12080.737411
917.641665	11632.656391
917.946961	11048.270325
918.252218	10580.606361
918.557435	9915.949615
918.862612	9355.993757
919.167750	8839.857160
919.472848	8310.342115
919.777906	7817.472382
920.082925	7291.059586
920.387904	6815.833891
920.692843	6433.869541
920.997743	6048.996834
921.302603	5700.963328
921.607423	5439.598891
921.912204	5234.656598
922.216946	5058.022322
922.521647	4859.672308
922.826310	4728.214527
923.130932	4589.970577
923.435516	4503.301509
923.740059	4410.040163
924.044564	4256.478861
924.349028	4205.097870
924.653454	4138.399527
924.957840	4058.128846
925.262186	3963.704157
925.566493	3885.372382
925.870761	3836.899749
926.174989	3782.416509
926.479178	3740.536154
926.783328	3678.685074
927.087438	3620.130133
927.391509	3564.677441
927.695541	3552.268447
927.999533	3501.081346
928.303486	3467.344393
928.607400	3433.607441
928.911275	3421.974009
929.215110	3403.942189
929.518906	3377.766967
929.822663	3390.175962
930.126381	3379.705873
930.430060	3371.756361
930.733699	3387.073713
931.037299	3401.033831
931.340861	3369.429675
931.644383	3400.839941
931.947866	3406.268876
932.251309	3385.716479
932.554714	3407.044438
932.858080	3389.206509
933.161407	3377.960858
933.464694	3359.929038
933.767943	3373.307485
934.071153	3372.144142
934.374323	3344.030015
934.677455	3353.724541
934.980548	3337.825518
935.283602	3325.416524
935.586617	3349.071169
935.889593	3329.100444
936.192530	3319.599808
936.495428	3335.111050
936.798287	3344.999467
937.101108	3345.775030
937.403890	3415.381731
937.706632	3478.977825
938.009336	3526.674896
938.312002	3616.058432
938.614628	3691.675740
938.917216	3760.119098
939.219765	3876.453417
939.522275	3897.781376
939.824747	3945.478447
940.127179	3972.429231
940.429573	3958.275222
940.731929	3943.927322
941.034246	3951.682944
941.336524	3933.651124
941.638763	3902.240858
941.940964	3890.025754
942.243126	3865.595547
942.545250	3839.808107
942.847335	3797.733861
943.149381	3770.976967
943.451389	3711.258683
943.753359	3655.224320
944.055290	3647.662589
944.357182	3599.771627
944.659036	3598.608284
944.960851	3548.972308
945.262628	3527.256568
945.564367	3537.532766
945.866067	3529.195473
946.167729	3540.053343
946.469352	3491.774601
946.770937	3538.502219
947.072484	3500.693565
947.373992	3511.939216
947.675462	3505.928609
947.976893	3489.641805
948.278286	3464.048254
948.579641	3476.651139
948.880958	3457.068195
949.182236	3471.997766
949.483476	3399.870488
949.784678	3428.954068
950.085841	3422.555680
950.386967	3443.495858
950.688054	3427.402944
950.989103	3484.212870
951.290114	3466.956612
951.591087	3505.928609
951.892021	3528.226021
952.192917	3565.259112
952.493776	3635.253595
952.794596	3649.989275
953.095378	3655.805991
953.396122	3669.766109
953.696828	3651.346509
953.997496	3651.540399
954.298126	3645.335902
954.598718	3602.486095
954.899272	3590.077101
955.199788	3567.198018
955.500266	3554.207352
955.800706	3483.049527
956.101108	3467.344393
956.401472	3426.045710
956.701798	3362.837396
957.002087	3331.039349
957.302337	3298.271849
957.602550	3247.860311
957.902724	3217.031716
958.202861	3197.642663
958.502960	3149.945592
958.803022	3153.047840
959.103045	3093.329556
959.403031	3099.727944
959.702979	3070.062692
960.002889	3040.785222
960.302762	3002.588787
960.602596	3008.599393
960.902393	2991.924808
961.202153	2992.700370
961.501875	2984.363077
961.801559	2951.401686
962.101205	2955.279497
962.400814	2977.576908
962.700385	2929.685947
962.999918	2943.646065
963.299414	2919.797530
963.598873	2901.765710
963.898293	2914.562485
964.197677	2906.419083
964.497022	2905.837411
964.796331	2890.132278
965.095601	2908.357988
965.394835	2903.510725
965.694030	2889.550607
965.993189	2899.051243
966.292309	2879.468299
966.591393	2886.642249
966.890439	2882.764438
967.189447	2897.500118
967.488419	2894.979541
967.787353	2899.051243
968.086249	2872.294349
968.385108	2870.743225
968.683930	2885.091124
968.982714	2894.010089
969.281462	2892.652855
969.580172	2909.715222
969.878844	2898.469571
970.177480	2918.246405
970.476078	2952.371139
970.774639	2944.809408
971.073162	2933.563757
971.371649	2961.290104
971.670098	2978.740251
971.968510	2961.677885
972.266885	2955.279497
972.565223	2964.392352
972.863524	3000.068210
973.161788	2983.587515
973.460014	2991.537027
973.758204	2995.608728
974.056356	2995.608728
974.354471	3016.355015
974.652550	3019.457263
974.950591	3012.671095
975.248595	3014.803891
975.546563	2995.027056
975.844493	3006.466598
976.142386	2999.874320
976.440243	2983.587515
976.738062	2977.964689
977.035845	2967.494601
977.333590	2976.219675
977.631299	2990.567574
977.928971	2967.106820
978.226606	2960.320651
978.524204	2952.565030
978.821765	2943.646065
979.119290	2920.185311
979.416777	2917.470843
979.714228	2920.960873
980.011642	2938.411021
980.309020	2939.768254
980.606360	2939.962145
980.903664	2970.209068
981.200931	2973.117426
981.498162	3014.416109
981.795356	3096.625695
982.092513	3159.446228
982.389633	3290.904009
982.686717	3429.147959
982.983764	3573.014734
983.280775	3683.920118
983.577749	3749.455118
983.874686	3783.385962
984.171587	3738.209467
984.468451	3714.748713
984.765279	3662.398269
985.062070	3576.698654
985.358824	3552.462337
985.655543	3473.742781
985.952224	3404.717751
986.248869	3321.732604
986.545478	3258.718180
986.842050	3158.864556
987.138586	3075.297737
987.435086	3043.499689
987.731549	2968.657944
988.027975	2954.697825
988.324366	2915.531938
988.620719	2900.214586
988.917037	2886.060577
989.213318	2873.069911
989.509563	2849.027485
989.805772	2830.413994
990.101944	2840.690192
990.398080	2841.271864
990.694180	2813.933299
990.990244	2834.291805
991.286271	2829.444541
991.582262	2835.067367
991.878217	2838.169615
992.174136	2862.987604
992.470019	2832.352899
992.765865	2846.894689
993.061676	2835.455148
993.357450	2877.141612
993.653188	2869.192101
993.948890	2905.449630
994.244556	2894.397870
994.540186	2904.286287
994.835780	2931.430962
995.131337	2973.892988
995.426859	3034.580725
995.722345	3063.858195
996.017795	3121.443683
996.313208	3205.786065
996.608586	3264.728787
996.903928	3294.394038
997.199234	3314.364763
997.494504	3335.692722
997.789738	3319.405917
998.084936	3313.589201
998.380099	3300.598536
998.675225	3241.074142
998.970316	3187.754246
999.265371	3159.252337
999.560390	3116.402530
999.855373	3056.878136
1000.150320	3018.100030
1000.445232	2964.198462
1000.740108	2932.788195
1001.034948	2920.379201
1001.329752	2903.122944
1001.624521	2882.570547
1001.919254	2851.160281
1002.213951	2873.457692
1002.508613	2838.169615
1002.803239	2833.516243
1003.097829	2835.261257
1003.392384	2803.463210
1003.686903	2811.994393
1003.981386	2827.893417
1004.275834	2801.718195
1004.570246	2795.319808
1004.864623	2801.330414
1005.158964	2802.299867
1005.453270	2766.430118
1005.747540	2769.144586
1006.041775	2773.797959
1006.335974	2790.860325
1006.630138	2789.115311
1006.924266	2784.655828
1007.218359	2754.990577
1007.512416	2761.195074
1007.806438	2776.124645
1008.100425	2760.225621
1008.394376	2776.900207
1008.688292	2757.511154
1008.982172	2766.817899
1009.276017	2781.553580
1009.569827	2763.327870
1009.863602	2766.042337
1010.157341	2781.165799
1010.451045	2763.133979
1010.744714	2776.124645
1011.038347	2760.807293
1011.331945	2760.225621
1011.625508	2754.408905
1011.919036	2781.941361
1012.212528	2768.562914
1012.505986	2764.491213
1012.799408	2731.723713
1013.092795	2743.163254
1013.386147	2757.317263
1013.679464	2770.695710
1013.972745	2749.173861
1014.265992	2754.602796
1014.559204	2775.349083
1014.852380	2762.940089
1015.145521	2740.254896
1015.438628	2768.562914
1015.731699	2755.378358
1016.024736	2756.153920
1016.317737	2771.277382
1016.610703	2798.034275
1016.903635	2762.940089
1017.196531	2751.112766
1017.489393	2726.876450
1017.782219	2775.349083
1018.075011	2763.909541
1018.367768	2788.921420
1018.660490	2779.614675
1018.953177	2779.614675
1019.245829	2779.614675
