Dividing Wavelength (nm)	Counts (n)	Slit_number_2_of_a_total_of_40	
326.493990	2286.357160
326.888308	2286.357160
327.282561	2286.357160
327.676750	2234.782278
328.070874	2243.313462
328.464933	2234.782278
328.858929	2225.669423
329.252859	2261.539172
329.646726	2265.610873
330.040528	2277.632086
330.434265	2295.082234
330.827938	2333.278669
331.221547	2327.074172
331.615091	2353.831065
332.008571	2364.107263
332.401986	2405.793728
332.795338	2421.304970
333.188625	2426.346124
333.581847	2465.124231
333.975006	2500.412308
334.368100	2480.829364
334.761129	2535.118713
335.154095	2531.240902
335.546996	2592.898092
335.939833	2672.393210
336.332606	2688.680015
336.725315	2696.435636
337.117960	2730.754260
337.510540	2720.671953
337.903056	2743.744926
338.295508	2750.531095
338.687896	2778.257441
339.080220	2743.938817
339.472480	2755.184467
339.864676	2757.123373
340.256807	2790.084763
340.648875	2771.471272
341.040879	2775.930754
341.432818	2792.605340
341.824694	2792.799231
342.216506	2802.687648
342.608253	2784.849719
342.999937	2778.451331
343.391557	2778.839112
343.783113	2784.655828
344.174605	2761.970636
344.566033	2780.971908
344.957397	2790.666435
345.348697	2755.378358
345.739934	2793.574793
346.131106	2778.451331
346.522215	2795.319808
346.913260	2739.091553
347.304241	2762.552308
347.695159	2760.613402
348.086012	2756.153920
348.476802	2743.163254
348.867528	2763.133979
349.258191	2763.909541
349.648789	2752.857781
350.039324	2756.347811
350.429796	2766.236228
350.820203	2756.929482
351.210548	2747.622737
351.600828	2761.582855
351.991045	2750.143314
352.381198	2771.471272
352.771288	2746.653284
353.161314	2765.654556
353.551276	2731.142041
353.941175	2752.276109
354.331010	2754.796686
354.720782	2752.857781
355.110490	2751.500547
355.500135	2770.695710
355.889717	2754.215015
356.279235	2749.755533
356.668689	2754.215015
357.058080	2761.970636
357.447408	2769.920148
357.836672	2773.991849
358.225873	2741.418240
358.615010	2738.509882
359.004084	2750.337204
359.393095	2778.063550
359.782043	2785.043609
360.170927	2733.274837
360.559748	2755.184467
360.948505	2735.795414
361.337199	2774.185740
361.725830	2765.072885
362.114398	2763.521760
362.502903	2775.736864
362.891344	2756.153920
363.279722	2784.849719
363.668037	2749.561642
364.056289	2771.665163
364.444478	2767.205680
364.832603	2747.041065
365.220665	2773.410178
365.608665	2754.602796
365.996601	2778.257441
366.384474	2783.298595
366.772284	2755.378358
367.160031	2780.196346
367.547715	2775.542973
367.935336	2764.491213
368.322893	2758.868388
368.710388	2768.562914
369.097820	2772.828506
369.485189	2760.807293
369.872495	2765.654556
370.259738	2760.225621
370.646918	2791.635888
371.034035	2787.176405
371.421090	2790.278654
371.808081	2793.380902
372.195010	2783.880266
372.581875	2782.135251
372.968678	2786.982515
373.355418	2780.390237
373.742096	2774.573521
374.128710	2783.880266
374.515262	2792.799231
374.901751	2811.412722
375.288177	2815.484423
375.674540	2830.607885
376.060841	2829.832322
376.447079	2854.456420
376.833254	2876.753831
377.219367	2872.488240
377.605417	2885.091124
377.991404	2918.246405
378.377329	2896.336775
378.763191	2923.869231
379.148991	2921.154763
379.534727	2938.604911
379.920402	2976.219675
380.306013	3002.976568
380.691563	3013.446657
381.077049	3022.171731
381.462474	3034.774615
381.847835	3060.949837
382.233134	3101.472959
382.618371	3123.770370
383.003545	3180.774186
383.388657	3180.386405
383.773706	3199.193787
384.158693	3218.195059
384.543618	3237.971893
384.928480	3277.137781
385.313280	3323.865399
385.698017	3329.294334
386.082692	3372.338033
386.467305	3406.462766
386.851856	3407.044438
387.236344	3497.203536
387.620770	3507.867515
388.005133	3536.369423
388.389435	3579.413121
388.773674	3603.843328
389.157851	3668.602766
389.541965	3701.370266
389.926018	3722.892115
390.310008	3776.212012
390.693936	3817.316805
391.077802	3864.626095
391.461606	3879.555666
391.845348	3914.262071
392.229027	3967.775858
392.612645	4028.269704
392.996200	4056.189941
393.379694	4123.857737
393.763125	4196.566686
394.146494	4258.999438
394.529801	4250.468254
394.913047	4363.118654
395.296230	4386.579408
395.679351	4417.408003
396.062410	4498.648136
396.445408	4505.240414
396.828343	4551.968033
397.211217	4600.634556
397.594028	4607.032944
397.976778	4625.064763
398.359466	4709.019364
398.742092	4685.946391
399.124656	4745.470784
399.507158	4783.279438
399.889598	4860.835651
400.271977	4884.684186
400.654294	4931.993476
401.036549	4986.088935
401.418742	5045.613328
401.800874	5165.243787
402.182944	5182.887825
402.564952	5314.733388
402.946898	5257.535680
403.328783	5347.500888
403.710606	5405.086376
404.092367	5505.327781
404.474067	5635.622219
404.855705	5592.772411
405.237282	5621.855991
405.618797	5786.662944
406.000250	5832.615000
406.381642	6034.648935
406.762972	6049.772396
407.144240	6027.668876
407.525447	6138.574260
407.906593	6085.448254
408.287677	6194.996405
408.668700	6331.883121
409.049661	6314.626864
409.430560	6408.275991
409.811399	6386.560251
410.192176	6543.805473
410.572891	6519.375266
410.953545	6720.827530
411.334138	6634.740133
411.714669	6841.621331
412.095139	6583.165251
412.475547	6841.815222
412.855894	6788.301435
413.236180	6946.128328
413.616405	6797.026509
413.996568	6994.019290
414.376670	6971.140207
414.756711	6947.097781
415.136691	7097.944615
415.516609	7156.305666
415.896466	7165.612411
416.276262	7308.315843
416.655997	7442.681982
417.035670	7390.719320
417.415283	7838.800340
417.794834	8012.526257
418.174324	7913.254305
418.553753	7937.296731
418.933121	8157.362485
419.312428	8052.467707
419.691674	8065.846154
420.070859	8164.148654
420.449983	8139.718447
420.829045	8339.037914
421.208047	8219.795237
421.586988	8470.107914
421.965867	8669.233491
422.344686	8761.525385
422.723444	8862.348462
423.102141	8460.801169
423.480777	8902.483802
423.859352	8807.283550
424.237866	9302.867751
424.616319	9264.089645
424.994712	9523.515178
425.373044	9519.249586
425.751314	9785.461287
426.129524	9482.022604
426.507673	9999.322544
426.885762	9898.693358
427.263789	10012.894882
427.641756	10082.113802
428.019662	10189.723047
428.397508	10136.209260
428.775292	10463.302589
429.153016	10504.213491
429.530679	10548.808314
429.908282	10628.497322
430.285824	10437.902929
430.663305	10847.981405
431.040726	10655.835888
431.418086	10626.364527
431.795385	10912.546953
432.172624	11182.248683
432.549802	11088.211775
432.926920	11079.680592
433.303977	11042.647500
433.680974	11245.069216
434.057910	11323.207101
434.434786	11435.857500
434.811601	11345.116731
435.188355	11811.617352
435.565050	11757.715784
435.941683	11723.009379
436.318257	12233.717041
436.694770	12267.647885
437.071222	12620.140873
437.447614	12295.568121
437.823946	12394.840074
438.200218	12320.386109
438.576429	12341.326287
438.952580	12318.641095
439.328670	12520.287249
439.704700	12698.472648
440.080670	12487.325858
440.456580	12842.145533
440.832429	13031.576583
441.208218	12497.214275
441.583947	12865.994068
441.959616	12853.003402
442.335224	13054.843447
442.710773	13184.362322
443.086261	13472.483654
443.461689	13286.154852
443.837057	13323.963506
444.212365	13659.975799
444.587612	13730.551953
444.962800	13439.134482
445.337927	13841.069556
445.712995	13267.541361
446.088002	14208.879896
446.462949	14407.423802
446.837837	14450.855281
447.212664	14260.648669
447.587431	15187.445414
447.962139	16217.585814
448.336786	18562.885695
448.711374	19450.516553
449.085901	18075.057115
449.460369	17590.136893
449.834776	16780.062249
450.209124	17438.514497
450.583412	17578.309571
450.957640	18910.337530
451.331808	18485.135592
451.705917	17656.835237
452.079965	17340.211997
452.453954	17319.077929
452.827883	17193.630754
453.201752	17153.301524
453.575562	17468.567530
453.949311	18333.319305
454.323001	18340.299364
454.696632	17996.531450
455.070202	19011.742278
455.443713	19118.769852
455.817164	19724.096095
456.190556	20105.090991
456.563888	20106.060444
456.937160	20731.163521
457.310373	20009.309068
457.683526	20366.649320
458.056619	20318.952249
458.429653	20071.935710
458.802628	20238.681568
459.175542	20364.322633
459.548398	20983.802885
459.921194	22139.584349
460.293930	22173.902973
460.666607	23546.260163
461.039224	24856.766272
461.411782	26069.163772
461.784280	25966.983462
462.156719	26270.034364
462.529099	26092.042855
462.901419	25419.048817
463.273680	24440.289408
463.645882	24287.115888
464.018024	24000.351790
464.390106	24129.288994
464.762130	25188.512973
465.134094	26485.640636
465.505999	29394.774186
465.877845	33895.361228
466.249631	37186.071346
466.621358	38020.382308
466.993026	37834.441287
467.364634	36609.053121
467.736184	34578.437574
468.107674	33615.771080
468.479105	32895.855533
468.850477	32571.864453
469.221790	31487.628595
469.593043	30104.025754
469.964238	29629.575621
470.335373	29379.844615
470.706449	29696.467855
471.077467	29513.047411
471.448425	32196.686272
471.819324	36636.391686
472.190164	38851.784911
472.560945	37569.199038
472.931667	34513.290355
473.302330	32938.317559
473.672934	31639.832663
474.043479	31864.551790
474.413965	31107.603151
474.784393	30956.950207
475.154761	31617.535251
475.525070	31655.925577
475.895321	31402.316760
476.265513	31873.082973
476.635645	32551.893728
477.005719	32744.233136
477.375734	33170.598417
477.745691	33629.537308
478.115588	34751.775710
478.485427	35815.846953
478.855207	37882.913920
479.224928	40145.422544
479.594591	42996.582825
479.964194	44234.573876
480.333739	45052.016361
480.703226	45200.536509
481.072653	45236.406257
481.442022	45738.388846
481.811333	46796.643373
482.180584	46358.450769
482.549777	46337.316701
482.918912	45793.259867
483.287988	45658.312056
483.657005	45120.847500
484.025964	44746.057101
484.394864	45159.237825
484.763706	44813.531006
485.132489	44491.672722
485.501213	44279.362589
485.869879	44581.444038
486.238487	44112.228950
486.607036	44501.367249
486.975527	44340.438107
487.343959	44441.842855
487.712333	44916.680769
488.080648	45155.166124
488.448905	45766.502973
488.817104	45771.738018
489.185244	46279.731213
489.553326	46916.661612
489.921350	48630.653920
490.289315	51993.297426
490.657222	54071.803935
491.025070	55821.084320
491.392861	55894.762722
491.760593	55581.629512
492.128267	54736.460680
492.495883	53508.939719
492.863440	52294.215533
493.230939	50961.605902
493.598380	49851.388713
493.965763	49566.175740
494.333088	48737.487604
494.700354	48326.439675
495.067563	48006.908077
495.434713	48186.256820
495.801805	48192.073536
496.168839	48028.429926
496.535815	47796.536849
496.902733	48106.373920
497.269593	47887.665399
497.636395	47779.862263
498.003139	48588.967456
498.369825	48207.972559
498.736453	48638.603432
499.103023	48293.090503
499.469535	48346.798180
499.835989	48576.558462
500.202385	48529.830843
500.568723	48708.791805
500.935003	48948.828284
501.301226	48537.780355
501.667390	49624.924571
502.033497	50433.060311
502.399546	50012.511746
502.765537	49546.011124
503.131470	50196.901642
503.497345	50579.447663
503.863163	49406.409941
504.228923	50177.706479
504.594625	50698.302559
504.960269	50300.051405
505.325856	51148.128595
505.691385	50461.368328
506.056856	50658.167219
506.422270	51249.727234
506.787625	51214.633047
507.152924	51310.608861
507.518164	51724.371257
507.883347	50892.968654
508.248472	51442.260533
508.613540	51913.802308
508.978550	52557.324985
509.343503	52357.811627
509.708398	52645.932959
510.073236	53186.499763
510.438016	53229.737352
510.802738	52933.666509
511.167403	53507.776376
511.532010	53825.369068
511.896561	54308.544275
512.261053	55426.710976
512.625488	55040.868817
512.989866	54957.883669
513.354186	54888.470858
513.718449	54977.466612
514.082655	55705.913343
514.446803	55472.663033
514.810894	55880.414822
515.174927	55857.923521
515.538904	55825.931583
515.902822	56578.808521
516.266684	55912.988432
516.630488	56624.178905
516.994235	56508.426257
517.357925	56972.600192
517.721558	57165.715163
518.085133	57500.564112
518.448651	57673.902249
518.812112	57572.109719
519.175516	57668.473314
519.538863	57997.117766
519.902152	57921.306568
520.265385	58364.540325
520.628560	58619.312485
520.991678	58373.071509
521.354739	58545.827973
521.717743	58835.694320
522.080690	58779.272175
522.443580	59237.823284
522.806413	59326.237367
523.169189	59326.431257
523.531908	59569.182204
523.894569	59544.751997
524.257174	59657.208506
524.619722	59968.402811
524.982213	59887.356568
525.344647	59882.315414
525.707025	59961.422751
526.069345	60258.850828
526.431608	60242.564024
526.793815	60591.760873
527.155964	60273.392618
527.518057	60311.201272
527.880093	60204.561479
528.242072	60599.904275
528.603995	60358.898343
528.965860	60480.079926
529.327669	60593.893669
529.689421	60448.281879
530.051117	60546.196598
530.412755	60596.608136
530.774337	60626.661169
531.135862	60546.002707
531.497331	60688.512249
531.858743	60620.262781
532.220098	60914.006938
532.581396	60721.861420
532.942638	60549.686627
533.303824	60790.886450
533.664953	60716.238595
534.026025	60512.653536
534.387040	60936.498240
534.747999	60792.825355
535.108902	60822.684497
535.469748	60668.929305
535.830537	60831.603462
536.191270	60902.761287
536.551947	60604.169867
536.912567	60899.852929
537.273131	60992.144822
537.633638	60460.884763
537.994089	60815.704438
538.354483	60485.121080
538.714821	60881.433328
539.075103	61167.421864
539.435328	60969.459630
539.795497	60943.672189
540.155609	60921.762559
540.515665	61168.003536
540.875665	60916.333624
541.235609	61224.425680
541.595496	61121.275917
541.955328	61637.024734
542.315102	61297.716302
542.674821	60929.712071
543.034483	61163.931834
543.394090	61074.548299
543.753640	61028.790133
544.113134	61681.619556
544.472571	60999.318772
544.831953	61926.891080
545.191278	61347.352278
545.550548	61167.809645
545.909761	61391.753210
546.268918	61615.308994
546.628019	61801.443905
546.987064	61529.415488
547.346053	61095.100695
547.704986	61713.805385
548.063863	61321.370947
548.422684	61474.738358
548.781449	61424.132929
549.140158	61691.701864
549.498811	61482.300089
549.857408	61120.112574
550.215949	61757.042973
550.574434	61704.692530
550.932864	61527.088802
551.291237	62096.545296
551.649555	61760.339112
552.007817	61914.094305
552.366022	61660.097707
552.724173	61879.969571
553.082267	62088.208003
553.440305	62353.256361
553.798288	61859.804956
554.156215	62031.979749
554.514086	62162.274186
554.871902	62106.821494
555.229661	62174.877071
555.587365	62010.264009
555.945014	62091.116361
556.302606	62004.447293
556.660143	62294.895311
557.017625	62251.076050
557.375050	62267.168964
557.732421	62390.677234
558.089735	62384.278846
558.446994	62353.644142
558.804197	62713.504970
559.161345	62731.342899
559.518437	62119.812160
559.875474	62499.255932
560.232455	62401.728994
560.589381	62641.765473
560.946251	62470.947914
561.303065	63043.894438
561.659825	62842.442175
562.016528	62546.565222
562.373177	62465.325089
562.729770	62804.051849
563.086307	62477.734083
563.442789	62768.375991
563.799216	62900.415444
564.155587	62634.785414
564.511904	62858.341198
564.868164	62843.799408
565.224370	63037.689941
565.580520	62882.771405
565.936615	63030.709882
566.292654	62926.202885
566.648638	63088.877041
567.004567	63043.700547
567.360441	63045.639453
567.716260	63027.607633
568.072023	63230.998802
568.427732	63220.528713
568.783385	63020.045902
569.138982	63308.167234
569.494525	63296.339911
569.850013	63218.977589
570.205445	63138.706908
570.560823	63198.037411
570.916145	63089.652604
571.271412	63113.307249
571.626625	63016.361982
571.981782	63031.679334
572.336884	62904.874926
572.691931	63192.220695
573.046923	62860.667885
573.401860	62690.819778
573.756743	62746.660251
574.111570	62839.146036
574.466342	62699.157071
574.821059	62898.476538
575.175722	62571.770991
575.530330	62567.893180
575.884882	62421.699719
576.239380	62463.580074
576.593823	62360.624201
576.948211	62310.018772
577.302544	62013.560148
577.656823	62098.290311
578.011047	62227.809186
578.365216	62037.602574
578.719330	61880.163462
579.073389	61773.135888
579.427394	61879.387899
579.781344	61813.077337
580.135239	61570.326391
580.489080	61576.530888
580.842866	61342.892796
581.196597	61563.540222
581.550273	61514.679808
581.903895	61309.349734
582.257463	61737.460030
582.610975	61257.774852
582.964434	61415.601746
583.317837	61280.266154
583.671186	61063.884320
584.024481	61213.373920
584.377721	60959.958994
584.730906	61196.311553
585.084037	61281.429497
585.437113	61017.738373
585.790135	61096.264038
586.143103	60900.434601
586.496016	60797.866509
586.848874	60844.400237
587.201679	60867.473210
587.554428	60419.198299
587.907124	60629.763417
588.259765	60379.256849
588.612352	60673.001006
588.964884	60216.582692
589.317362	60379.838521
589.669786	60411.248787
590.022155	60143.679852
590.374470	60624.528373
590.726731	60101.217825
591.078937	59806.891997
591.431090	59803.789749
591.783188	59735.346391
592.135232	59398.170754
592.487222	59617.848728
592.839157	59619.012071
593.191038	59343.881405
593.542866	59198.463506
593.894639	58691.439763
594.246358	58901.035429
594.598022	58977.234408
594.949633	58552.420251
595.301190	58602.250118
595.652692	58394.787249
596.004141	58688.143624
596.355535	57900.754172
596.706876	57735.171657
597.058162	57660.717692
597.409395	58072.347293
597.760573	58135.555607
598.111698	57689.607382
598.462768	57701.046923
598.813785	57888.345178
599.164748	57286.896746
599.515657	57704.924734
599.866511	57178.511938
600.217312	57532.362160
600.568060	56640.659601
600.918753	57284.763950
601.269392	57294.652367
601.619978	56913.269689
601.970510	57092.812322
602.320988	57398.577692
602.671412	57595.182692
603.021783	57257.037604
603.372100	56983.845843
603.722363	57129.651524
604.072572	57101.731287
604.422728	57239.005784
604.772830	56967.752929
605.122878	56968.916272
605.472872	57017.388905
605.822813	57265.568787
606.172701	57039.104645
606.522534	57194.992633
606.872314	57405.169970
607.222041	57226.596790
607.571714	57450.152574
607.921333	56912.494127
608.270899	57136.437692
608.620411	57351.462293
608.969870	57171.531879
609.319276	57179.287500
609.668627	57239.005784
610.017926	57452.673151
610.367171	57780.154260
610.716362	57747.580651
611.065500	57583.549260
611.414585	57698.332456
611.763616	57873.609497
612.112594	57793.532707
612.461518	57998.087219
612.810389	58121.013817
613.159207	57894.549675
613.507971	58068.857263
613.856682	58329.446139
614.205340	58255.379956
614.553945	58713.349393
614.902496	58305.209822
615.250994	58688.919186
615.599439	58523.918343
615.947830	58742.239083
616.296169	58620.475828
616.644454	58698.225932
616.992686	58753.484734
617.340864	59126.724009
617.688990	58823.479216
618.037063	59192.452899
618.385082	59188.575089
618.733048	59377.036686
619.080961	59307.817766
619.428821	59258.569571
619.776628	59400.691331
620.124382	59248.875044
620.472083	59334.962441
620.819731	59399.915769
621.167326	59055.953964
621.514868	59082.323077
621.862357	58808.161864
622.209793	58656.345577
622.557176	58474.670148
622.904506	58306.179275
623.251783	57992.658284
623.599007	57676.422825
623.946179	57438.131361
624.293297	57464.112692
624.640363	56767.076228
624.987376	56740.901006
625.334336	56365.335044
625.681243	56046.966790
626.028097	55785.408462
626.374899	55650.072870
626.721647	55444.161124
627.068343	55347.603639
627.414987	54989.100044
627.761577	54501.271464
628.108115	54915.809423
628.454600	54196.087766
628.801032	54214.119586
629.147412	54169.524763
629.493739	54084.019038
629.840014	53732.883284
630.186236	53812.960074
630.532405	53284.608373
630.878521	53475.396657
631.224585	53393.962633
631.570597	52817.332189
631.916556	52908.266849
632.262462	52938.901553
632.608316	52800.851494
632.954117	52701.773432
633.299866	52594.939749
633.645562	52550.344926
633.991206	51945.600355
634.336797	51252.247811
634.682336	51402.125192
635.027823	50954.819734
635.373257	50584.101036
635.718639	50248.670414
636.063968	50026.277973
636.409245	49445.963609
636.754470	49291.626746
637.099642	48984.698033
637.444762	48358.043831
637.789829	48476.510947
638.134845	47917.718432
638.479808	47701.530488
638.824719	47461.300118
639.169577	46977.543240
639.514383	46832.707012
639.859137	46515.889882
640.203839	46683.799083
640.548489	46112.209793
640.893086	46182.204275
641.237632	45737.031612
641.582125	45633.881849
641.926566	45697.284053
642.270955	45500.097382
642.615292	45467.135991
642.959576	45257.346435
643.303809	45158.268373
643.647990	45310.666331
643.992118	45148.767737
644.336195	44992.879749
644.680219	44921.528033
645.024192	45212.945503
645.368112	45466.360429
645.711981	45181.923018
646.055797	46039.888624
646.399562	45930.534364
646.743274	46807.889024
647.086935	47185.975562
647.430544	47012.831317
647.774101	47493.098166
648.117606	47642.975547
648.461059	48277.191479
648.804460	47867.694675
649.147810	47205.364615
649.491108	47134.012899
649.834354	46533.146139
650.177548	45797.137678
650.520690	45220.313343
650.863781	45206.741006
651.206820	44897.291716
651.549807	44320.467382
651.892742	43619.940888
652.235626	43329.880651
652.578458	42994.837811
652.921238	42352.478476
653.263967	42536.480592
653.606644	42048.652012
653.949269	41873.181080
654.291843	41390.393654
654.634365	41822.575651
654.976836	41314.000784
655.319255	41184.094127
655.661622	41050.891331
656.003938	40796.506953
656.346203	40691.612175
656.688416	40702.663935
657.030577	40486.475991
657.372687	40221.039852
657.714746	40475.036450
658.056753	40468.638062
658.398708	39965.879911
658.740612	39911.590562
659.082465	40171.016095
659.424266	39832.289334
659.766016	39976.156109
660.107715	39782.847249
660.449362	39991.861243
660.790958	39783.041139
661.132503	39863.699601
661.473996	39791.572322
661.815438	39824.339822
662.156829	40199.905784
662.498168	39753.569778
662.839456	39769.081021
663.180693	39847.800577
663.521879	40042.660562
663.863013	39941.643595
664.204097	39732.241820
664.545129	40357.538787
664.886110	40325.352959
665.227040	40380.999541
665.567918	40350.752618
665.908746	40564.032204
666.249522	40662.140814
666.590248	40616.964320
666.930922	40697.622781
667.271545	40722.052988
667.612118	40874.644837
667.952639	40685.601568
668.293109	40768.780607
668.633528	40581.676243
668.973896	40494.037722
669.314213	40518.080148
669.654480	40284.054275
669.994695	40286.768743
670.334859	40031.027130
670.674973	40040.139985
671.015035	40095.786568
671.355047	40004.851908
671.695008	40079.693654
672.034918	39758.223151
672.374777	39892.977071
672.714585	39598.845133
673.054342	39983.717840
673.394049	39558.709793
673.733705	39947.848092
674.073310	39660.308432
674.412864	39696.759852
674.752368	39345.430207
675.091820	39818.135325
675.431223	39278.150192
675.770574	39067.391183
676.109875	38902.196450
676.449125	38566.184157
676.788324	38469.820562
677.127473	37911.028047
677.466571	37885.046716
677.805619	37373.757382
678.144616	37670.022115
678.483562	37301.823994
678.822458	36842.691213
679.161303	36912.685695
679.500098	36724.030207
679.838842	36585.204586
680.177535	36526.455754
680.516179	36829.894438
680.854771	36785.105725
681.193314	37229.502825
681.531805	38112.868092
681.870247	38864.000015
682.208638	40069.805237
682.546978	41102.660104
682.885268	41584.478077
683.223508	41181.379660
683.561697	41052.636346
683.899836	40870.379246
684.237925	40266.604127
684.575963	40012.607530
684.913951	39382.269408
685.251889	39481.541361
685.589776	39315.571065
685.927614	39248.291050
686.265401	39215.135769
686.603137	39192.838358
686.940824	39601.559601
687.278460	40094.429334
687.616046	40147.555340
687.953582	40795.149719
688.291068	40834.509497
688.628504	41451.663062
688.965889	41513.126361
689.303224	41355.881139
689.640510	41245.557426
689.977745	40696.653328
690.314930	40013.964763
690.652065	39514.114970
690.989150	38846.937648
691.326185	37742.731065
691.663170	36933.625873
692.000105	36175.126109
692.336990	35357.877515
692.673825	34708.732012
693.010610	34200.351036
693.347345	33357.702781
693.684030	32531.147441
694.020665	32129.212367
694.357251	31460.871701
694.693786	31273.767337
695.030272	30952.878506
695.366707	30222.298979
695.703093	29833.160680
696.039429	29858.172559
696.375716	29455.461923
696.711952	29277.470414
697.048139	29067.293077
697.384276	28926.916331
697.720363	29092.111065
698.056400	28703.748328
698.392388	28653.336790
698.728326	28695.217145
699.064214	28506.561657
699.400053	28268.270192
699.735842	27993.333417
700.071581	27668.954556
700.407270	27366.485325
700.742910	27275.938447
701.078501	26848.797604
701.414042	26580.259216
701.749533	26229.511243
702.084974	25839.015710
702.420366	26114.728047
702.755709	25551.863831
703.091002	25246.292352
703.426246	25198.983062
703.761440	25065.780266
704.096584	24783.669541
704.431679	24681.101450
704.766725	24490.894837
705.101721	24392.010666
705.436668	24516.682278
705.771565	24036.609320
706.106413	24489.925385
706.441212	24415.859201
706.775961	24459.872352
707.110661	24625.454867
707.445311	24869.756938
707.779913	24683.815917
708.114465	24805.773062
708.448967	25240.087855
708.783421	25951.860000
709.117825	26177.548580
709.452180	26350.305044
709.786485	26713.849793
710.120742	27707.344882
710.454949	27631.727574
710.789107	28209.521361
711.123216	29019.208225
711.457275	29345.525991
711.791286	30212.022781
712.125247	30452.834822
712.459159	30242.463595
712.793023	31258.062204
713.126837	30134.854349
713.460602	30611.049497
713.794318	30396.412678
714.127985	30028.602337
714.461602	29082.416538
714.795171	29066.905296
715.128691	27771.716538
715.462162	27142.929541
715.795584	26688.837914
716.128957	26437.555784
716.462281	25957.676716
716.795556	25536.352589
717.128782	24984.540133
717.461960	24309.025518
717.795088	24196.762899
718.128167	23617.224098
718.461198	23029.348003
718.794180	22851.162604
719.127113	22452.329778
719.459997	22207.252145
719.792833	21833.043417
720.125619	21690.533876
720.458357	21333.969186
720.791046	21007.651420
721.123686	20762.767678
721.456278	20482.401967
721.788821	20354.046435
722.121315	20087.446953
722.453761	20141.154630
722.786158	20040.913225
723.118506	20043.627692
723.450805	19687.256893
723.783056	20024.238639
724.115259	19825.113062
724.447412	19692.879719
724.779518	19980.031598
725.111574	20046.342160
725.443582	20243.141050
725.775542	20135.337914
726.107453	20673.578033
726.439315	20511.097766
726.771129	20854.671790
727.102895	21279.485947
727.434612	21586.608550
727.766281	21781.080754
728.097901	22302.840178
728.429473	22456.789260
728.760996	22610.544453
729.092471	22705.744704
729.423897	22640.985266
729.755276	22422.470636
730.086606	22459.503728
730.417887	22781.555902
730.749120	23345.971243
731.080305	23666.472293
731.411442	24208.396331
731.742530	24487.598698
732.073570	24597.146849
732.404562	24996.367456
732.735506	25077.219808
733.066401	25149.540976
733.397249	24838.540562
733.728048	24235.734896
734.058798	23266.282234
734.389501	22371.865207
734.720156	21707.984024
735.050762	20898.878831
735.381320	20387.007825
735.711831	19977.511021
736.042293	19305.874216
736.372707	19222.889068
736.703073	18851.782589
737.033391	18969.280251
737.363661	18868.844956
737.693883	18895.020178
738.024056	18969.086361
738.354182	19209.898402
738.684260	19456.527160
739.014290	19706.064275
739.344272	19906.547086
739.674207	20486.667559
740.004093	20624.523728
740.333931	20719.917870
740.663722	20800.382441
740.993464	21012.886464
741.323159	20872.703609
741.652806	20623.554275
741.982405	20445.368876
742.311956	20144.256879
742.641460	20077.752426
742.970915	19718.667160
743.300323	19182.172056
743.629683	18979.750340
743.958996	18631.910725
744.288260	18344.952737
744.617477	17819.509393
744.946647	17777.822929
745.275768	17344.283698
745.604842	17088.735976
745.933869	16806.625251
746.262847	16715.690592
746.591778	16678.463609
746.920662	16486.899763
747.249498	16374.443254
747.578286	16491.940917
747.907027	16553.404216
748.235720	16759.509852
748.564365	16916.367293
748.892963	16914.816169
749.221514	16978.993935
749.550017	16928.582396
749.878473	16956.114852
750.206881	16707.741080
750.535242	16567.364334
750.863555	16438.814911
751.191821	16318.215000
751.520039	16237.362648
751.848210	16146.234098
752.176334	16169.307071
752.504411	16025.440296
752.832440	15881.185740
753.160421	15962.619763
753.488356	15892.237500
753.816243	15737.900636
754.144082	15522.488254
754.471875	15465.678328
754.799620	15379.203151
755.127318	15343.333402
755.454969	15264.419956
755.782572	15215.365651
756.110129	15245.418683
756.437638	15144.207825
756.765100	15074.601124
757.092515	15032.332988
757.419882	15041.251953
757.747203	15120.747071
758.074477	15150.800104
758.401703	15037.374142
758.728882	15225.254068
759.056014	15295.248550
759.383099	15372.998654
759.710138	15463.545533
760.037129	15665.191686
760.364073	15816.620192
760.690970	15792.771657
761.017820	15804.405089
761.344623	15958.548062
761.671379	16147.785222
761.998088	16406.435192
762.324751	17332.456376
762.651366	19261.667175
762.977935	23111.363698
763.304456	27505.310947
763.630931	30980.410962
763.957359	32090.628151
764.283740	30819.675710
764.610074	28817.562071
764.936362	25971.830725
765.262602	23598.416716
765.588796	21157.141021
765.914943	19278.923432
766.241044	17629.302781
766.567097	16341.094083
766.893104	15365.436923
767.219064	14731.608772
767.544978	13944.025429
767.870845	13464.728033
768.196665	13160.707678
768.522438	12732.985163
768.848165	12509.817160
769.173846	12238.370414
769.499479	12068.328417
769.825066	11820.924098
770.150607	11568.284734
770.476101	11515.158728
770.801548	11350.933447
771.126949	11069.986065
771.452303	10989.909275
771.777611	10794.661509
772.102872	10700.624601
772.428087	10584.290281
772.753256	10432.086213
773.078378	10291.321686
773.403453	10099.563950
773.728482	9992.342485
774.053465	9856.425222
774.378401	9722.059083
774.703291	9544.455355
775.028135	9447.510089
775.352932	9425.600459
775.677683	9265.059098
776.002388	9102.384941
776.327046	9124.876243
776.651658	9036.268269
776.976224	8901.902130
777.300743	8840.051050
777.625216	8748.728609
777.949643	8735.350163
778.274024	8711.695518
778.598359	8628.128698
778.922647	8596.718432
779.246889	8579.656065
779.571086	8511.600488
779.895236	8529.438417
780.219339	8507.528787
780.543397	8507.334896
780.867409	8562.787589
781.191374	8593.228402
781.515294	8554.450296
781.839167	8634.527086
782.162995	8581.594970
782.486776	8597.106213
782.810511	8561.818136
783.134201	8481.353565
783.457844	8459.056154
783.781441	8363.080340
784.104993	8367.345932
784.428498	8271.370118
784.751958	8251.981065
785.075372	8198.079497
785.398739	8158.719719
785.722061	8203.702322
786.045337	8141.851243
786.368568	8308.984882
786.691752	8214.754083
787.014891	8416.400237
787.337983	8594.973417
787.661030	9063.800725
787.984031	9659.044660
788.306987	10220.939423
788.629897	10607.751036
788.952760	10790.977589
789.275579	10820.836731
789.598351	10495.876198
789.921078	10193.988639
790.243759	9831.801124
790.566395	9492.686583
790.888984	9159.388757
791.211529	8893.564837
791.534027	8625.995902
791.856480	8412.522426
792.178888	8290.759172
792.501249	8151.933550
792.823566	7961.920828
793.145836	7870.986169
793.468062	7851.403225
793.790241	7719.169882
794.112375	7754.264068
794.434464	7821.156302
794.756507	7816.502929
795.078505	7877.384556
795.400457	8124.982766
795.722364	8392.357811
796.044226	8724.880074
796.366042	9056.820666
796.687812	9081.444763
797.009538	9272.233047
797.331218	9216.392574
797.652852	9165.399364
797.974442	9053.718417
798.295986	8963.559320
798.617484	8818.723092
798.938938	8622.505873
799.260346	8563.757041
799.581709	8363.662012
799.903026	8288.626376
800.224299	8148.831302
800.545526	7973.360370
800.866708	7909.376494
801.187845	7820.574630
801.508936	7651.114305
801.829983	7586.354867
802.150984	7428.334083
802.471940	7408.169467
802.792851	7303.662470
803.113717	7303.080799
803.434538	7238.903033
803.755314	7188.103713
804.076045	7132.457130
804.396731	7069.248817
804.717372	7092.903462
805.037967	7067.309911
805.358518	7096.587382
805.679024	7150.488950
805.999485	7140.794423
806.319901	7162.510163
806.640272	7200.706598
806.960598	7231.147411
807.280879	7240.066376
807.601115	7314.326450
807.921306	7272.252204
808.241453	7290.284024
808.561554	7333.521612
808.881611	7334.684956
809.201623	7279.813935
809.521590	7246.464763
809.841513	7261.006553
810.161390	7322.275962
810.481223	7174.337485
810.801011	7169.878003
811.120755	7122.956494
811.440453	7064.595444
811.760107	7033.960740
812.079716	6986.845340
812.399281	6915.299734
812.718801	6957.955651
813.038276	6867.602663
813.357707	6796.832618
813.677093	6885.828373
813.996434	6728.583151
814.315731	6785.586967
814.634983	6793.730370
814.954191	6777.443565
815.273354	6841.233550
815.592473	6870.704911
815.911547	6948.455015
816.230577	7027.174571
816.549562	7157.662899
816.868502	7293.192382
817.187399	7402.740533
817.506250	7550.291228
817.825058	7609.621731
818.143821	7811.655666
818.462539	7967.155873
818.781213	8210.100710
819.099843	8574.421021
819.418429	9280.958121
819.736970	9991.373033
820.055466	11053.311479
820.373919	12241.860444
820.692327	13765.258358
821.010691	15782.689349
821.329011	20061.659512
821.647286	28259.545118
821.965517	41361.697855
822.283704	53748.006746
822.601847	61262.816006
822.919945	62056.409956
823.237999	60318.181331
823.556010	56338.190370
823.873976	50307.419246
824.191897	43583.489467
824.509775	37886.210059
824.827609	32210.840281
825.145398	28089.309231
825.463144	25237.761169
825.780845	23820.227485
826.098502	23323.673831
826.416116	25043.482855
826.733685	28398.758521
827.051210	31579.338817
827.368692	32862.506361
827.686129	31514.385488
828.003522	28012.722470
828.320872	23961.767574
828.638177	20533.782959
828.955439	17938.752071
829.272656	15652.007130
829.589830	13881.592678
829.906960	12272.689038
830.224046	11081.037825
830.541088	10087.736627
830.858086	9353.473180
831.175041	8811.355251
831.491952	8511.794379
831.808819	8296.769778
832.125642	8334.772322
832.442421	8690.561450
832.759157	9485.124852
833.075849	11056.025947
833.392497	13676.456494
833.709101	16710.067766
834.025662	18470.012130
834.342179	18692.210680
834.658653	17239.970592
834.975083	15380.172604
835.291469	13574.857855
835.607811	11958.392485
835.924110	10920.690355
836.240366	9972.759541
836.556578	8970.927160
836.872746	8244.613225
837.188871	7626.490207
837.504952	7052.186450
837.820990	6653.741405
838.136984	6358.252234
838.452935	6193.057500
838.768842	6035.230607
839.084706	6032.128358
839.400526	6431.542855
839.716303	7394.209349
840.032037	8844.510533
840.347727	9882.212663
840.663373	9964.810030
840.978977	9113.436701
841.294537	8186.058284
841.610054	7417.088432
841.925527	6869.735459
842.240957	6436.390118
842.556344	6105.031198
842.871687	5777.356198
843.186987	5429.516583
843.502244	5201.113536
843.817458	4969.996021
844.132629	4738.296834
844.447756	4645.811050
844.762840	4593.654497
845.077881	4460.257811
845.392879	4420.704142
845.707833	4330.545044
846.022745	4316.972707
846.337613	4290.603595
846.652438	4214.404615
846.967221	4180.667663
847.281960	4143.828462
847.596656	4118.041021
847.911309	4099.621420
848.225919	4076.936228
848.540485	4073.058417
848.855009	4055.996050
849.169490	4021.483536
849.483928	4025.555237
849.798323	3990.461050
850.112675	3955.754645
850.426984	3986.195459
850.741251	3974.562027
851.055474	3955.366864
851.369654	3932.681672
851.683792	3924.732160
851.997887	3939.273950
852.311938	3932.487781
852.625947	3942.182308
852.939914	3948.774586
853.253837	3953.427959
853.567718	3911.159822
853.881555	3937.916716
854.195350	3943.733432
854.509103	3957.693550
854.822812	3951.295163
855.136479	3930.161095
855.450103	3948.968476
855.763685	3924.732160
856.077224	3905.924778
856.390720	3934.814467
856.704173	3935.396139
857.017584	3937.916716
857.330953	3956.530207
857.644278	3991.624393
857.957561	3966.806405
858.270802	3966.030843
858.584000	3998.022781
858.897155	3972.429231
859.210268	3982.899320
859.523339	3980.766524
859.836367	3947.999024
860.149352	3935.783920
860.462295	3935.008358
860.775195	3955.172973
861.088054	3917.558210
861.400869	3928.803861
861.713642	3907.282012
862.026373	3899.332500
862.339062	3929.773314
862.651708	3937.528935
862.964312	3954.979083
863.276873	3970.878107
863.589392	3987.164911
863.901869	4005.002840
864.214303	4069.956169
864.526696	4068.017263
864.839045	4119.786036
865.151353	4166.707544
865.463619	4188.811065
865.775842	4188.035503
866.088023	4207.036775
866.400162	4231.854763
866.712258	4236.314246
867.024313	4210.526805
867.336325	4231.660873
867.648296	4231.466982
867.960224	4217.700754
868.272110	4255.703299
868.583954	4221.772456
868.895755	4240.192056
869.207515	4295.838639
869.519233	4270.826760
869.830909	4298.940888
870.142542	4285.950222
870.454134	4289.440251
870.765684	4339.851790
871.077191	4372.231509
871.388657	4404.805118
871.700081	4455.022766
872.011463	4442.419882
872.322803	4469.176775
872.634101	4503.883180
872.945357	4519.782204
873.256571	4607.808506
873.567744	4609.941302
873.878874	4637.279867
874.189963	4688.660858
874.501010	4700.682071
874.812015	4686.334172
875.122979	4747.409689
875.433900	4754.389749
875.744780	4733.837352
876.055618	4790.259497
876.366415	4779.401627
876.677169	4797.627337
876.987882	4840.671036
877.298554	4874.214098
877.609183	4901.164882
877.919771	4995.783462
878.230317	5069.074083
878.540822	5177.846672
878.851285	5429.904364
879.161707	5658.307411
879.472087	6090.683299
879.782425	6707.449083
880.092722	7861.485533
880.402977	9663.116361
880.713191	12357.613092
881.023363	15966.497574
881.333494	19306.261997
881.643583	21862.320888
881.953631	22927.555473
882.263637	22791.832101
882.573602	22001.534290
882.883526	20877.744763
883.193408	19520.511036
883.503248	18011.654911
883.813048	16542.546346
884.122806	15155.259586
884.432522	13779.218476
884.742197	12415.004689
885.051831	11299.552456
885.361424	10204.458728
885.670975	9237.720533
885.980485	8471.465148
886.289954	7798.083328
886.599382	7322.857633
886.908768	6834.641272
887.218113	6469.739290
887.527417	6176.964586
887.836680	5839.013388
888.145901	5603.048609
888.455082	5444.833935
888.764221	5292.629867
889.073319	5111.342219
889.382376	4982.792796
889.691392	4973.486050
890.000366	4891.664246
890.309300	4840.864926
890.618193	4821.669763
890.927044	4823.026997
891.235855	4834.078757
891.544625	4835.048210
891.853353	4840.089364
892.162041	4892.633698
892.470687	4999.661272
892.779293	5128.210695
893.087858	5315.315059
893.396381	5683.900962
893.704864	6079.049867
894.013306	6755.921716
894.321707	7674.381169
894.630068	8629.292041
894.938387	9394.577973
895.246665	9678.433713
895.554903	9445.377293
895.863100	8989.346760
896.171256	8528.856746
896.479371	8068.366731
896.787446	7574.915325
897.095480	7156.693447
897.403473	6826.497870
897.711425	6475.749896
898.019336	6228.927249
898.327207	5964.072781
898.635038	5763.008299
898.942827	5511.726169
899.250576	5269.556893
899.558284	5119.291731
899.865952	4995.977352
900.173579	4829.425385
900.481165	4742.368536
900.788711	4641.545459
901.096216	4549.253565
901.403681	4466.850089
901.711105	4464.135621
902.018489	4394.528920
902.325832	4395.498373
902.633135	4412.366849
902.940397	4557.203077
903.247619	4826.129246
903.554800	5391.320148
903.861941	6554.663343
904.169041	8125.176657
904.476101	9475.430325
904.783121	10123.024704
905.090100	10052.254660
905.397039	9422.885991
905.703938	8754.157544
906.010796	8079.612382
906.317614	7552.617914
906.624391	7007.009956
906.931129	6587.043062
907.237826	6194.220843
907.544483	5836.298920
907.851099	5498.347722
908.157675	5155.937041
908.464211	4814.689704
908.770707	4533.354541
909.077163	4303.400370
909.383578	4130.256124
909.689954	3959.632456
909.996289	3883.627367
910.302584	3833.991391
910.608839	3757.404630
910.915054	3720.371538
911.221229	3738.791139
911.527363	3711.646464
911.833458	3711.840355
912.139513	3716.105947
912.445527	3704.278624
912.751502	3759.343536
913.057436	3837.287530
913.363331	3915.037633
913.669186	4013.727914
913.975000	4164.962530
914.280775	4398.406731
914.586510	4734.031243
914.892205	5164.080444
915.197859	5828.349408
915.503475	6692.325621
915.809050	7612.142308
916.114585	8560.460902
916.420081	9200.105769
916.725536	9468.062485
917.030952	9382.168979
917.336328	9170.246627
917.641665	8879.216938
917.946961	8520.325562
918.252218	8124.982766
918.557435	7720.527115
918.862612	7337.981095
919.167750	7024.847885
919.472848	6617.871657
919.777906	6268.868698
920.082925	5928.396923
920.387904	5605.181405
920.692843	5306.202204
920.997743	5021.764793
921.302603	4799.566243
921.607423	4631.657041
921.912204	4497.097012
922.216946	4356.526376
922.521647	4261.132234
922.826310	4139.950651
923.130932	4038.545902
923.435516	3963.704157
923.740059	3887.699068
924.044564	3802.775015
924.349028	3744.026183
924.653454	3698.655799
924.957840	3648.244260
925.262186	3615.088979
925.566493	3521.245962
925.870761	3485.182322
926.174989	3471.803876
926.479178	3428.954068
926.783328	3385.328698
927.087438	3371.756361
927.391509	3343.060562
927.695541	3322.702056
927.999533	3305.833580
928.303486	3265.892130
928.607400	3235.839098
928.911275	3212.766124
929.215110	3205.398284
929.518906	3176.896376
929.822663	3169.140754
930.126381	3175.733033
930.430060	3160.803462
930.733699	3173.018565
931.037299	3197.642663
931.340861	3187.560355
931.644383	3191.050385
931.947866	3203.071598
932.251309	3197.254882
932.554714	3210.439438
932.858080	3184.458107
933.161407	3178.447500
933.464694	3205.010503
933.767943	3166.038506
934.071153	3168.171302
934.374323	3165.456834
934.677455	3150.139482
934.980548	3146.649453
935.283602	3134.628240
935.586617	3140.057175
935.889593	3168.752973
936.192530	3118.729216
936.495428	3152.660059
936.798287	3148.782249
937.101108	3159.640118
937.403890	3149.751701
937.706632	3190.274822
938.009336	3299.047411
938.312002	3321.344822
938.614628	3372.338033
938.917216	3430.117411
939.219765	3489.060133
939.522275	3515.429246
939.824747	3520.276509
940.127179	3537.920547
940.429573	3567.198018
940.731929	3557.115710
941.034246	3530.164926
941.336524	3515.817027
941.638763	3519.888728
941.940964	3531.522160
942.243126	3494.876849
942.545250	3511.551435
942.847335	3465.017707
943.149381	3427.984615
943.451389	3416.351183
943.753359	3369.041893
944.055290	3359.735148
944.357182	3338.601080
944.659036	3330.651568
944.960851	3298.465740
945.262628	3282.178935
945.564367	3271.902737
945.866067	3257.748728
946.167729	3268.412707
946.469352	3251.544231
946.770937	3271.127175
947.072484	3266.667692
947.373992	3269.963831
947.675462	3250.574778
947.976893	3203.459379
948.278286	3223.430104
948.579641	3205.398284
948.880958	3211.021109
949.182236	3185.621450
949.483476	3205.786065
949.784678	3163.517929
950.085841	3189.499260
950.386967	3167.007959
950.688054	3211.796672
950.989103	3227.501805
951.290114	3239.329127
951.591087	3256.779275
951.892021	3264.341006
952.192917	3287.220089
952.493776	3290.516228
952.794596	3332.978254
953.095378	3350.428402
953.396122	3328.712663
953.696828	3339.958314
953.997496	3339.958314
954.298126	3323.865399
954.598718	3337.437737
954.899272	3295.169601
955.199788	3287.995651
955.500266	3266.279911
955.800706	3209.276095
956.101108	3192.019837
956.401472	3175.539142
956.701798	3144.322766
957.002087	3099.340163
957.302337	3088.288402
957.602550	3055.520902
957.902724	3044.469142
958.202861	3029.151790
958.502960	3006.660488
958.803022	2981.648609
959.103045	2968.657944
959.403031	2931.430962
959.702979	2934.533210
960.002889	2898.275680
960.302762	2900.796257
960.602596	2905.837411
960.902393	2858.334231
961.202153	2907.194645
961.501875	2861.436479
961.801559	2850.966391
962.101205	2856.007544
962.400814	2855.231982
962.700385	2854.456420
962.999918	2858.915902
963.299414	2854.068639
963.598873	2835.649038
963.898293	2824.015607
964.197677	2820.137796
964.497022	2840.108521
964.796331	2847.088580
965.095601	2821.688920
965.394835	2843.016879
965.694030	2826.730074
965.993189	2830.995666
966.292309	2809.861598
966.591393	2812.576065
966.890439	2845.731346
967.189447	2838.363506
967.488419	2811.606612
967.787353	2828.862870
968.086249	2814.127189
968.385108	2813.933299
968.683930	2812.382175
968.982714	2820.137796
969.281462	2822.076701
969.580172	2812.576065
969.878844	2841.853536
970.177480	2839.720740
970.476078	2841.077973
970.774639	2834.679586
971.073162	2856.007544
971.371649	2857.946450
971.670098	2856.201435
971.968510	2884.703343
972.266885	2876.559941
972.565223	2882.958328
972.863524	2865.314290
973.161788	2872.294349
973.460014	2887.611701
973.758204	2878.498846
974.056356	2890.520059
974.354471	2874.233254
974.652550	2881.988876
974.950591	2905.061849
975.248595	2892.846746
975.546563	2884.703343
975.844493	2881.019423
976.142386	2872.682130
976.440243	2873.263802
976.738062	2876.172160
977.035845	2868.804320
977.333590	2879.274408
977.631299	2873.263802
977.928971	2859.109793
978.226606	2841.659645
978.524204	2829.444541
978.821765	2837.587944
979.119290	2868.610429
979.416777	2822.076701
979.714228	2850.384719
980.011642	2843.016879
980.309020	2852.323624
980.606360	2853.099186
980.903664	2885.478905
981.200931	2881.019423
981.498162	2904.092396
981.795356	2941.513269
982.092513	3008.599393
982.389633	3095.850133
982.686717	3163.324038
982.983764	3232.542959
983.280775	3348.101716
983.577749	3381.256997
983.874686	3391.920976
984.171587	3387.267604
984.468451	3363.031287
984.765279	3338.213299
985.062070	3252.125902
985.358824	3248.829763
985.655543	3198.418225
985.952224	3151.302825
986.248869	3102.830192
986.545478	3029.151790
986.842050	2990.761464
987.138586	2937.635459
987.435086	2923.093669
987.731549	2881.407204
988.027975	2862.987604
988.324366	2828.475089
988.620719	2810.831050
988.917037	2816.453876
989.213318	2816.259985
989.509563	2794.738136
989.805772	2796.677041
990.101944	2779.033003
990.398080	2790.666435
990.694180	2768.950695
990.990244	2796.483151
991.286271	2762.164527
991.582262	2776.124645
991.878217	2757.123373
992.174136	2771.471272
992.470019	2765.848447
992.765865	2767.981243
993.061676	2770.695710
993.357450	2782.910814
993.653188	2779.033003
993.948890	2795.125917
994.244556	2832.159009
994.540186	2790.472544
994.835780	2842.629098
995.131337	2863.957056
995.426859	2902.735163
995.722345	2910.296893
996.017795	2973.505207
996.313208	3007.823831
996.608586	3034.968506
996.903928	3070.062692
997.199234	3071.613817
997.494504	3083.053358
997.789738	3089.451746
998.084936	3065.797101
998.380099	3046.020266
998.675225	3021.783950
998.970316	3027.794556
999.265371	2982.230281
999.560390	2950.044453
999.855373	2913.205251
1000.150320	2892.846746
1000.445232	2871.324896
1000.740108	2830.995666
1001.034948	2824.597278
1001.329752	2816.841657
1001.624521	2802.687648
1001.919254	2788.921420
1002.213951	2772.634615
1002.508613	2788.533639
1002.803239	2772.440725
1003.097829	2757.898935
1003.392384	2788.339749
1003.686903	2769.532367
1003.981386	2752.663891
1004.275834	2759.643950
1004.570246	2769.726257
1004.864623	2730.754260
1005.158964	2752.470000
1005.453270	2749.173861
1005.747540	2759.837840
1006.041775	2737.540429
1006.335974	2721.447515
1006.630138	2721.447515
1006.924266	2716.600251
1007.218359	2729.397027
1007.512416	2732.111494
1007.806438	2726.100888
1008.100425	2737.152648
1008.394376	2734.825962
1008.688292	2713.498003
1008.982172	2729.978698
1009.276017	2733.468728
1009.569827	2742.581583
1009.863602	2738.122101
1010.157341	2728.815355
1010.451045	2718.733047
1010.744714	2742.969364
1011.038347	2722.610858
1011.331945	2718.733047
1011.625508	2717.957485
1011.919036	2734.050399
1012.212528	2694.496731
1012.505986	2743.938817
1012.799408	2715.243018
1013.092795	2733.662618
1013.386147	2735.213743
1013.679464	2731.142041
1013.972745	2719.120828
1014.265992	2689.649467
1014.559204	2711.946879
1014.852380	2727.070340
1015.145521	2686.935000
1015.438628	2694.302840
1015.731699	2736.183195
1016.024736	2721.641405
1016.317737	2733.274837
1016.610703	2707.681287
1016.903635	2724.161982
1017.196531	2724.161982
1017.489393	2726.682559
1017.782219	2729.009246
1018.075011	2720.284172
1018.367768	2729.203136
1018.660490	2732.305385
1018.953177	2732.305385
1019.245829	2732.305385
