Dividing Wavelength (nm)	Counts (n)	Slit_number_25_of_a_total_of_40	
326.493990	2033.097346
326.888308	2033.097346
327.282561	2033.097346
327.676750	2021.023783
328.070874	2019.057733
328.464933	2028.333456
328.858929	2031.358148
329.252859	2040.684283
329.646726	2063.218240
330.040528	2069.973387
330.434265	2090.768146
330.827938	2112.722371
331.221547	2137.751700
331.615091	2149.447177
332.008571	2172.611279
332.401986	2192.851512
332.795338	2207.218800
333.188625	2232.550598
333.581847	2259.344331
333.975006	2265.141658
334.368100	2281.096910
334.761129	2302.547019
335.154095	2321.526963
335.546996	2341.162258
335.939833	2356.915863
336.332606	2360.948787
336.725315	2377.710623
337.117960	2381.869575
337.510540	2400.748696
337.903056	2409.923596
338.295508	2408.512073
338.687896	2418.241500
339.080220	2420.484813
339.472480	2429.836154
339.864676	2424.366502
340.256807	2438.154058
340.648875	2433.617019
341.040879	2432.407142
341.432818	2432.608788
341.824694	2434.020312
342.216506	2429.735331
342.608253	2432.457554
342.999937	2440.019285
343.391557	2432.608788
343.783113	2437.725560
344.174605	2433.692637
344.566033	2435.658687
344.957397	2432.558377
345.348697	2431.298088
345.739934	2424.089238
346.131106	2416.300656
346.522215	2422.576892
346.913260	2418.317117
347.304241	2415.317631
347.695159	2422.501275
348.086012	2411.183885
348.476802	2417.409710
348.867528	2415.594894
349.258191	2410.226065
349.648789	2407.529048
350.039324	2403.874212
350.429796	2398.530588
350.820203	2401.656104
351.210548	2413.553227
351.600828	2408.058369
351.991045	2412.393762
352.381198	2409.192629
352.771288	2410.856210
353.161314	2408.184398
353.551276	2409.091806
353.941175	2399.866494
354.331010	2408.486867
354.720782	2401.025960
355.110490	2410.427712
355.500135	2405.361352
355.889717	2411.209090
356.279235	2407.881929
356.668689	2405.663821
357.058080	2396.186452
357.447408	2405.386558
357.836672	2404.025446
358.225873	2412.797054
358.615010	2405.260529
359.004084	2406.243554
359.393095	2418.266706
359.782043	2414.359812
360.170927	2409.520304
360.559748	2413.502815
360.948505	2420.031110
361.337199	2412.973494
361.725830	2414.838721
362.114398	2418.695204
362.502903	2409.117012
362.891344	2411.637588
363.279722	2416.174627
363.668037	2414.939544
364.056289	2423.433888
364.444478	2417.586150
364.832603	2424.316090
365.220665	2424.240473
365.608665	2423.484300
365.996601	2416.149421
366.384474	2413.780079
366.772284	2418.266706
367.160031	2421.089752
367.547715	2420.812488
367.935336	2431.726587
368.322893	2419.980698
368.710388	2417.031623
369.097820	2420.031110
369.485189	2418.518763
369.872495	2415.090779
370.259738	2428.752306
370.646918	2429.810948
371.034035	2428.197779
371.421090	2417.611356
371.808081	2427.466812
372.195010	2425.727613
372.581875	2423.383477
372.968678	2428.777512
373.355418	2435.835127
373.742096	2423.786769
374.128710	2420.913312
374.515262	2436.944181
374.901751	2431.121648
375.288177	2430.063006
375.674540	2432.608788
376.060841	2427.693663
376.447079	2429.483273
376.833254	2427.063519
377.219367	2430.441092
377.605417	2434.070723
377.991404	2426.458581
378.377329	2432.734817
378.763191	2438.758996
379.148991	2438.658173
379.534727	2439.968873
379.920402	2430.995619
380.306013	2431.776998
380.691563	2432.810435
381.077049	2436.465271
381.462474	2441.682865
381.847835	2447.757456
382.233134	2442.388627
382.618371	2444.657146
383.003545	2453.781635
383.388657	2447.807867
383.773706	2463.838737
384.158693	2467.846454
384.543618	2481.911273
384.928480	2483.398413
385.313280	2499.152019
385.698017	2513.141221
386.082692	2533.078985
386.467305	2546.438042
386.851856	2568.089798
387.236344	2599.370158
387.620770	2612.930862
388.005133	2655.957110
388.389435	2691.472038
388.773674	2730.566187
389.157851	2784.178858
389.541965	2821.911894
389.926018	2868.088863
390.310008	2939.723660
390.693936	3000.015860
391.077802	3059.929973
391.461606	3132.446971
391.845348	3199.091025
392.229027	3270.725821
392.612645	3373.489742
392.996200	3449.132256
393.379694	3545.241854
393.763125	3661.238804
394.146494	3736.276379
394.529801	3834.730113
394.913047	3965.069146
395.296230	4007.314015
395.679351	4060.851069
396.062410	4213.245150
396.445408	4213.396385
396.828343	4321.428312
397.211217	4417.386675
397.594028	4419.251902
397.976778	4541.651117
398.359466	4644.465450
398.742092	4677.661448
399.124656	4768.578658
399.507158	4885.356987
399.889598	4928.635292
400.271977	5038.381212
400.654294	5075.156429
401.036549	5192.010375
401.418742	5232.263988
401.800874	5371.727510
402.182944	5424.281538
402.564952	5584.791877
402.946898	5517.063975
403.328783	5531.406058
403.710606	5621.365448
404.092367	5718.004367
404.474067	5864.575915
404.855705	5768.894815
405.237282	5695.848496
405.618797	5870.247213
406.000250	5922.322333
406.381642	6026.522983
406.762972	5955.593948
407.144240	5840.327965
407.525447	5882.043513
407.906593	5779.002329
408.287677	5836.874775
408.668700	5806.199354
409.049661	5726.297065
409.430560	5703.233787
409.811399	5601.377273
410.192176	5573.096400
410.572891	5504.813971
410.953545	5574.407100
411.334138	5313.678623
411.714669	5394.790788
412.095139	5098.849852
412.475547	5109.310246
412.855894	4980.105473
413.236180	4952.757213
413.616405	4775.207775
413.996568	4727.215990
414.376670	4616.058548
414.756711	4474.351713
415.136691	4440.298719
415.516609	4368.285837
415.896466	4272.781177
416.276262	4208.708112
416.655997	4171.680837
417.035670	4086.334102
417.415283	4069.799117
417.794834	3977.369562
418.174324	3848.769727
418.553753	3733.932242
418.933121	3697.938404
419.312428	3601.450719
419.691674	3492.007269
420.070859	3455.584933
420.449983	3344.881194
420.829045	3320.204746
421.208047	3228.405335
421.586988	3189.084335
421.965867	3127.304994
422.344686	3076.338929
422.723444	3046.570915
423.102141	2942.219031
423.480777	2938.967487
423.859352	2874.113042
424.237866	2867.332690
424.616319	2812.560554
424.994712	2798.747792
425.373044	2763.636156
425.751314	2732.582648
426.129524	2698.353213
426.507673	2685.548683
426.885762	2664.829540
427.263789	2650.991573
427.641756	2636.019346
428.019662	2612.073865
428.397508	2610.788371
428.775292	2601.714294
429.153016	2582.381469
429.530679	2573.786302
429.908282	2561.082594
430.285824	2553.117571
430.663305	2533.507483
431.040726	2536.406146
431.418086	2525.592871
431.795385	2528.945238
432.172624	2527.332069
432.549802	2514.099040
432.926920	2513.090810
433.303977	2509.637619
433.680974	2513.620131
434.057910	2509.864471
434.434786	2495.446771
434.811601	2499.857781
435.188355	2503.285765
435.565050	2507.898421
435.941683	2497.463233
436.318257	2493.884013
436.694770	2493.178252
437.071222	2492.774960
437.447614	2491.338231
437.823946	2483.826912
438.200218	2487.305308
438.576429	2484.356233
438.952580	2483.726088
439.328670	2486.876810
439.704700	2488.313538
440.080670	2487.028044
440.456580	2484.431850
440.832429	2479.743577
441.208218	2483.146356
441.583947	2478.785758
441.959616	2476.643267
442.335224	2471.828965
442.710773	2478.710140
443.086261	2474.349542
443.461689	2479.264667
443.837057	2475.156127
444.212365	2473.668987
444.587612	2475.635037
444.962800	2468.148923
445.337927	2482.364977
445.712995	2465.703963
446.088002	2479.063021
446.462949	2470.392237
446.837837	2478.206025
447.212664	2475.811477
447.587431	2481.583598
447.962139	2477.046560
448.336786	2489.044506
448.711374	2489.296563
449.085901	2480.650985
449.460369	2475.206538
449.834776	2474.551188
450.209124	2476.542444
450.583412	2475.332567
450.957640	2472.660756
451.331808	2476.592856
451.705917	2484.507467
452.079965	2478.962198
452.453954	2477.853144
452.827883	2480.701396
453.201752	2478.886581
453.575562	2474.223513
453.949311	2476.315592
454.323001	2476.189563
454.696632	2467.317133
455.070202	2476.618062
455.443713	2472.509521
455.817164	2482.364977
456.190556	2479.844400
456.563888	2477.147383
456.937160	2476.214769
457.310373	2479.113433
457.683526	2469.131948
458.056619	2482.390183
458.429653	2475.534213
458.802628	2475.685448
459.175542	2476.189563
459.548398	2475.761065
459.921194	2491.943169
460.293930	2482.566623
460.666607	2481.961685
461.039224	2486.574340
461.411782	2490.052737
461.784280	2483.675677
462.156719	2484.835142
462.529099	2486.725575
462.901419	2485.893785
463.273680	2481.155100
463.645882	2483.070738
464.018024	2482.087713
464.390106	2476.668473
464.762130	2490.027531
465.134094	2483.675677
465.505999	2494.690598
465.877845	2504.293996
466.249631	2494.488952
466.621358	2498.647904
466.993026	2495.270331
467.364634	2503.487412
467.736184	2487.784217
468.107674	2485.364463
468.479105	2489.649444
468.850477	2489.372181
469.221790	2488.389156
469.593043	2483.700883
469.964238	2486.902015
470.335373	2482.440594
470.706449	2483.776500
471.077467	2488.464773
471.448425	2489.825885
471.819324	2489.800679
472.190164	2495.950887
472.560945	2487.154073
472.931667	2496.278562
473.302330	2479.113433
473.672934	2488.237921
474.043479	2491.943169
474.413965	2484.860348
474.784393	2481.785244
475.154761	2488.061481
475.525070	2487.985863
475.895321	2490.405617
476.265513	2482.037302
476.635645	2487.834629
477.005719	2488.943683
477.375734	2487.456542
477.745691	2489.573827
478.115588	2490.934938
478.485427	2490.077942
478.855207	2487.935452
479.224928	2498.295023
479.594591	2492.623725
479.964194	2505.125787
480.333739	2488.288333
480.703226	2500.261073
481.072653	2504.520848
481.442022	2504.092350
481.811333	2492.875783
482.180584	2491.338231
482.549777	2486.549135
482.918912	2493.253869
483.287988	2494.816627
483.657005	2488.868065
484.025964	2510.444204
484.394864	2497.866525
484.763706	2499.303254
485.132489	2495.572800
485.501213	2493.027017
485.869879	2504.772906
486.238487	2501.647390
486.607036	2495.976092
486.975527	2500.840806
487.343959	2499.252842
487.712333	2501.143275
488.080648	2495.774446
488.448905	2513.443690
488.817104	2496.606237
489.185244	2493.455515
489.553326	2504.218379
489.921350	2502.554798
490.289315	2502.605210
490.657222	2505.050169
491.025070	2505.529079
491.392861	2502.580004
491.760593	2517.451408
492.128267	2503.739469
492.495883	2504.571260
492.863440	2510.545027
493.230939	2497.034735
493.598380	2502.428769
493.965763	2496.959117
494.333088	2495.446771
494.700354	2490.758498
495.067563	2500.563542
495.434713	2505.629902
495.801805	2505.428256
496.168839	2495.245125
496.535815	2498.975579
496.902733	2499.101608
497.269593	2497.992554
497.636395	2493.808396
498.003139	2487.305308
498.369825	2490.960144
498.736453	2493.531133
499.103023	2494.917450
499.469535	2502.101094
499.835989	2495.471977
500.202385	2494.236894
500.568723	2484.356233
500.935003	2494.967862
501.301226	2494.665392
501.667390	2503.361383
502.033497	2494.993067
502.399546	2495.900475
502.765537	2491.313025
503.131470	2504.420025
503.497345	2496.379385
503.863163	2490.430823
504.228923	2497.261587
504.594625	2500.714777
504.960269	2489.246152
505.325856	2492.522902
505.691385	2488.489979
506.056856	2499.152019
506.422270	2487.028044
506.787625	2487.532160
507.152924	2498.143788
507.518164	2497.034735
507.883347	2495.295537
508.248472	2496.505413
508.613540	2493.455515
508.978550	2493.153046
509.343503	2498.874756
509.708398	2498.042965
510.073236	2497.110352
510.438016	2497.664879
510.802738	2499.807369
511.167403	2507.419512
511.532010	2496.202944
511.896561	2500.235867
512.261053	2494.867038
512.625488	2501.823831
512.989866	2498.723521
513.354186	2499.000785
513.718449	2491.565083
514.082655	2497.311998
514.446803	2485.893785
514.810894	2499.756958
515.174927	2506.512104
515.538904	2484.507467
515.902822	2502.983296
516.266684	2487.431337
516.630488	2489.321769
516.994235	2483.600060
517.357925	2492.043992
517.721558	2491.237408
518.085133	2497.715290
518.448651	2487.859835
518.812112	2487.809423
519.175516	2482.037302
519.538863	2483.121150
519.902152	2493.984837
520.265385	2488.968888
520.628560	2488.540390
520.991678	2489.926708
521.354739	2492.850577
521.717743	2496.757471
522.080690	2486.952427
522.443580	2493.505927
522.806413	2499.278048
523.169189	2491.514671
523.531908	2490.758498
523.894569	2490.733292
524.257174	2494.690598
524.619722	2490.103148
524.982213	2490.657675
525.344647	2490.808910
525.707025	2487.053250
526.069345	2495.270331
526.431608	2487.809423
526.793815	2493.808396
527.155964	2495.119096
527.518057	2493.405104
527.880093	2492.472490
528.242072	2486.826398
528.603995	2493.480721
528.965860	2484.608290
529.327669	2491.842346
529.689421	2491.741523
530.051117	2489.220946
530.412755	2495.270331
530.774337	2481.709627
531.135862	2494.791421
531.497331	2482.995121
531.858743	2491.060967
532.220098	2488.363950
532.581396	2489.170535
532.942638	2490.103148
533.303824	2488.868065
533.664953	2482.541417
534.026025	2486.322283
534.387040	2479.466313
534.747999	2489.876296
535.108902	2484.028558
535.469748	2487.708600
535.830537	2495.043479
536.191270	2485.616521
536.551947	2491.313025
536.912567	2472.181846
537.273131	2489.800679
537.633638	2489.044506
537.994089	2496.001298
538.354483	2488.868065
538.714821	2486.498723
539.075103	2486.927221
539.435328	2490.808910
539.795497	2490.002325
540.155609	2485.969402
540.515665	2485.767756
540.875665	2485.490492
541.235609	2488.616008
541.595496	2497.564056
541.955328	2488.716831
542.315102	2489.397387
542.674821	2490.556852
543.034483	2491.010556
543.394090	2479.920017
543.753640	2489.750267
544.113134	2482.339771
544.472571	2484.305821
544.831953	2491.060967
545.191278	2487.406131
545.550548	2484.532673
545.909761	2491.363437
546.268918	2498.118583
546.628019	2488.893271
546.987064	2484.633496
547.346053	2474.475571
547.704986	2480.474544
548.063863	2481.659215
548.422684	2480.499750
548.781449	2480.272898
549.140158	2483.247179
549.498811	2482.264154
549.857408	2481.810450
550.215949	2478.155613
550.574434	2480.046046
550.932864	2487.229690
551.291237	2483.322796
551.649555	2477.878350
552.007817	2484.482262
552.366022	2479.743577
552.724173	2482.717858
553.082267	2486.221460
553.440305	2481.281129
553.798288	2486.297077
554.156215	2482.440594
554.514086	2481.331540
554.871902	2478.306848
555.229661	2483.121150
555.587365	2481.709627
555.945014	2481.961685
556.302606	2487.683394
556.660143	2480.046046
557.017625	2492.522902
557.375050	2485.238435
557.732421	2483.448825
558.089735	2477.727115
558.446994	2480.701396
558.804197	2488.641213
559.161345	2480.272898
559.518437	2486.347488
559.875474	2482.541417
560.232455	2487.960658
560.589381	2486.347488
560.946251	2483.297590
561.303065	2485.011583
561.659825	2480.903042
562.016528	2484.885554
562.373177	2483.221973
562.729770	2479.315079
563.086307	2486.019813
563.442789	2477.953967
563.799216	2492.220433
564.155587	2487.179279
564.511904	2483.927735
564.868164	2482.793475
565.224370	2488.137098
565.580520	2477.601087
565.936615	2480.978660
566.292654	2482.566623
566.648638	2477.424646
567.004567	2480.474544
567.360441	2485.540904
567.716260	2471.224027
568.072023	2481.432363
568.427732	2489.170535
568.783385	2478.332054
569.138982	2483.801706
569.494525	2493.455515
569.850013	2486.120637
570.205445	2482.440594
570.560823	2486.120637
570.916145	2479.617548
571.271412	2477.550675
571.626625	2484.381438
571.981782	2480.751808
572.336884	2477.953967
572.691931	2475.055304
573.046923	2491.842346
573.401860	2479.920017
573.756743	2489.573827
574.111570	2490.708087
574.466342	2487.683394
574.821059	2483.221973
575.175722	2480.600573
575.530330	2483.675677
575.884882	2472.232258
576.239380	2482.516212
576.593823	2488.716831
576.948211	2481.558392
577.302544	2488.313538
577.656823	2469.585652
578.011047	2484.532673
578.365216	2483.650471
578.719330	2486.448312
579.073389	2482.415388
579.427394	2484.709113
579.781344	2482.289360
580.135239	2479.693165
580.489080	2476.618062
580.842866	2486.700369
581.196597	2481.810450
581.550273	2479.239462
581.903895	2476.290387
582.257463	2483.121150
582.610975	2471.476085
582.964434	2487.028044
583.317837	2478.105202
583.671186	2484.280615
584.024481	2483.221973
584.377721	2489.019300
584.730906	2486.649958
585.084037	2478.079996
585.437113	2478.962198
585.790135	2482.112919
586.143103	2474.021867
586.496016	2478.962198
586.848874	2470.266208
587.201679	2480.046046
587.554428	2481.381952
587.907124	2470.770323
588.259765	2485.364463
588.612352	2477.550675
588.964884	2476.113946
589.317362	2483.423619
589.669786	2478.206025
590.022155	2484.633496
590.374470	2480.953454
590.726731	2485.188023
591.078937	2469.888121
591.431090	2477.273412
591.783188	2477.752321
592.135232	2476.794502
592.487222	2480.197281
592.839157	2482.314565
593.191038	2477.147383
593.542866	2482.919504
593.894639	2484.709113
594.246358	2478.836169
594.598022	2481.709627
594.949633	2475.282156
595.301190	2481.356746
595.652692	2485.540904
596.004141	2479.012610
596.355535	2472.433904
596.706876	2477.223000
597.058162	2467.065075
597.409395	2469.711681
597.760573	2471.375262
598.111698	2470.417442
598.462768	2476.340798
598.813785	2474.072279
599.164748	2480.953454
599.515657	2472.207052
599.866511	2479.441108
600.217312	2472.736373
600.568060	2472.156640
600.918753	2489.523415
601.269392	2480.701396
601.619978	2481.835656
601.970510	2477.500263
602.320988	2479.945223
602.671412	2477.374235
603.021783	2468.653038
603.372100	2472.585138
603.722363	2484.230204
604.072572	2477.827938
604.422728	2480.751808
604.772830	2483.776500
605.122878	2479.037815
605.472872	2477.374235
605.822813	2477.349029
606.172701	2482.995121
606.522534	2474.576394
606.872314	2476.517238
607.222041	2474.702423
607.571714	2474.878863
607.921333	2476.819708
608.270899	2474.652012
608.620411	2476.718885
608.969870	2470.971969
609.319276	2476.416415
609.668627	2480.625779
610.017926	2482.717858
610.367171	2482.087713
610.716362	2477.853144
611.065500	2474.097485
611.414585	2486.549135
611.763616	2481.255923
612.112594	2484.280615
612.461518	2474.500777
612.810389	2480.600573
613.159207	2477.475058
613.507971	2477.449852
613.856682	2473.114460
614.205340	2471.753348
614.553945	2483.650471
614.902496	2475.181333
615.250994	2490.632469
615.599439	2475.861888
615.947830	2485.742550
616.296169	2472.711167
616.644454	2477.021354
616.992686	2477.525469
617.340864	2479.869606
617.688990	2475.710654
618.037063	2484.961171
618.385082	2477.777527
618.733048	2484.129381
619.080961	2479.516725
619.428821	2481.381952
619.776628	2480.701396
620.124382	2478.987404
620.472083	2481.255923
620.819731	2485.238435
621.167326	2472.711167
621.514868	2472.307875
621.862357	2476.391210
622.209793	2481.155100
622.557176	2471.123204
622.904506	2475.483802
623.251783	2478.054790
623.599007	2479.516725
623.946179	2480.323310
624.293297	2475.307362
624.640363	2477.878350
624.987376	2467.191104
625.334336	2467.191104
625.681243	2472.509521
626.028097	2465.401494
626.374899	2472.081023
626.721647	2472.282669
627.068343	2484.658702
627.414987	2475.004892
627.761577	2463.838737
628.108115	2481.129894
628.454600	2471.980200
628.801032	2474.677217
629.147412	2482.793475
629.493739	2475.836683
629.840014	2473.064048
630.186236	2475.836683
630.532405	2468.753862
630.878521	2486.574340
631.224585	2472.156640
631.570597	2472.938019
631.916556	2470.644294
632.262462	2473.467340
632.608316	2475.080510
632.954117	2481.003865
633.299866	2478.357260
633.645562	2471.097998
633.991206	2471.224027
634.336797	2474.979687
634.682336	2477.122177
635.027823	2473.290900
635.373257	2464.544498
635.718639	2477.575881
636.063968	2472.736373
636.409245	2475.256950
636.754470	2467.443162
637.099642	2472.459110
637.444762	2469.661269
637.789829	2470.467854
638.134845	2474.374748
638.479808	2469.005919
638.824719	2471.274438
639.169577	2469.762092
639.514383	2474.248719
639.859137	2476.265181
640.203839	2466.409725
640.548489	2476.139152
640.893086	2473.341312
641.237632	2470.568677
641.582125	2470.719912
641.926566	2467.644808
642.270955	2463.233798
642.615292	2463.006946
642.959576	2466.233285
643.303809	2468.249746
643.647990	2469.409212
643.992118	2462.124744
644.336195	2477.878350
644.680219	2480.524956
645.024192	2468.905096
645.368112	2478.684935
645.711981	2467.745631
646.055797	2468.098512
646.399562	2468.955508
646.743274	2473.265694
647.086935	2479.037815
647.430544	2477.727115
647.774101	2462.477625
648.117606	2477.550675
648.461059	2470.921558
648.804460	2476.643267
649.147810	2474.122690
649.491108	2470.266208
649.834354	2474.778040
650.177548	2468.552215
650.520690	2467.443162
650.863781	2471.702937
651.206820	2460.385546
651.549807	2479.113433
651.892742	2464.317646
652.235626	2476.492033
652.578458	2464.040383
652.921238	2478.029585
653.263967	2474.223513
653.606644	2475.912300
653.949269	2466.888635
654.291843	2467.468367
654.634365	2471.425673
654.976836	2472.736373
655.319255	2477.122177
655.661622	2462.780094
656.003938	2471.576908
656.346203	2466.535754
656.688416	2472.030612
657.030577	2475.408185
657.372687	2471.526496
657.714746	2476.189563
658.056753	2475.357773
658.398708	2479.390696
658.740612	2470.266208
659.082465	2476.693679
659.424266	2471.551702
659.766016	2465.451906
660.107715	2474.954481
660.449362	2469.358800
660.790958	2472.736373
661.132503	2474.878863
661.473996	2471.425673
661.815438	2472.030612
662.156829	2465.477112
662.498168	2473.038842
662.839456	2475.987917
663.180693	2475.030098
663.521879	2476.870119
663.863013	2476.870119
664.204097	2470.644294
664.545129	2466.082050
664.886110	2476.265181
665.227040	2474.173102
665.567918	2473.290900
665.908746	2469.510035
666.249522	2467.569190
666.590248	2472.912813
666.930922	2475.534213
667.271545	2468.224540
667.612118	2475.483802
667.952639	2471.299644
668.293109	2461.116513
668.633528	2471.350056
668.973896	2472.383492
669.314213	2468.905096
669.654480	2470.341825
669.994695	2476.819708
670.334859	2468.980713
670.674973	2467.922071
671.015035	2465.981227
671.355047	2470.493060
671.695008	2461.091308
672.034918	2465.880404
672.374777	2469.862915
672.714585	2473.542958
673.054342	2469.459623
673.394049	2472.585138
673.733705	2467.443162
674.073310	2475.130921
674.412864	2472.055817
674.752368	2472.383492
675.091820	2473.290900
675.431223	2467.947277
675.770574	2468.905096
676.109875	2471.526496
676.449125	2465.552729
676.788324	2471.047587
677.127473	2473.593369
677.466571	2461.595423
677.805619	2477.096971
678.144616	2462.351596
678.483562	2475.660242
678.822458	2470.467854
679.161303	2470.694706
679.500098	2469.157154
679.838842	2472.610344
680.177535	2472.433904
680.516179	2474.853658
680.854771	2474.904069
681.193314	2478.281642
681.531805	2468.627833
681.870247	2483.196767
682.208638	2472.383492
682.546978	2478.206025
682.885268	2477.147383
683.223508	2469.257977
683.561697	2478.634523
683.899836	2474.324337
684.237925	2472.761579
684.575963	2462.502831
684.913951	2477.399440
685.251889	2478.483288
685.589776	2472.635550
685.927614	2474.702423
686.265401	2468.073306
686.603137	2477.953967
686.940824	2474.954481
687.278460	2479.264667
687.616046	2473.719398
687.953582	2471.627319
688.291068	2475.635037
688.628504	2469.409212
688.965889	2467.619602
689.303224	2466.913840
689.640510	2470.165385
689.977745	2467.342338
690.314930	2472.333081
690.652065	2476.416415
690.989150	2466.157667
691.326185	2469.610858
691.663170	2466.712194
692.000105	2467.644808
692.336990	2466.283696
692.673825	2466.157667
693.010610	2472.484315
693.347345	2467.972483
693.684030	2467.770837
694.020665	2469.535240
694.357251	2457.764146
694.693786	2471.224027
695.030272	2469.762092
695.366707	2469.762092
695.703093	2471.929788
696.039429	2466.661783
696.375716	2470.291413
696.711952	2467.947277
697.048139	2468.350569
697.384276	2470.341825
697.720363	2465.451906
698.056400	2474.147896
698.392388	2468.627833
698.728326	2460.536781
699.064214	2474.425160
699.400053	2464.242029
699.735842	2465.426700
700.071581	2472.181846
700.407270	2473.341312
700.742910	2478.054790
701.078501	2465.325877
701.414042	2468.627833
701.749533	2469.787298
702.084974	2469.182360
702.420366	2464.645321
702.755709	2463.863942
703.091002	2475.912300
703.426246	2470.442648
703.761440	2470.493060
704.096584	2471.728142
704.431679	2468.829479
704.766725	2467.695219
705.101721	2465.502317
705.436668	2470.971969
705.771565	2467.342338
706.106413	2467.367544
706.441212	2474.878863
706.775961	2464.972996
707.110661	2466.283696
707.445311	2464.746144
707.779913	2468.779067
708.114465	2470.896352
708.448967	2467.493573
708.783421	2465.401494
709.117825	2468.350569
709.452180	2475.130921
709.786485	2477.979173
710.120742	2462.729683
710.454949	2460.965279
710.789107	2465.527523
711.123216	2460.309929
711.457275	2476.013123
711.791286	2468.148923
712.125247	2473.921044
712.459159	2468.930302
712.793023	2473.618575
713.126837	2465.275465
713.460602	2477.525469
713.794318	2465.956021
714.127985	2467.140692
714.461602	2463.889148
714.795171	2471.526496
715.128691	2464.998202
715.462162	2458.696760
715.795584	2461.771863
716.128957	2462.402008
716.462281	2466.813017
716.795556	2473.265694
717.128782	2463.485856
717.461960	2464.544498
717.795088	2463.006946
718.128167	2464.720938
718.461198	2467.796042
718.794180	2473.769810
719.127113	2466.082050
719.459997	2467.140692
719.792833	2466.560960
720.125619	2470.745117
720.458357	2471.854171
720.791046	2461.066102
721.123686	2464.821762
721.456278	2470.820735
721.788821	2466.913840
722.121315	2471.148410
722.453761	2473.215283
722.786158	2463.914354
723.118506	2461.318160
723.450805	2470.845940
723.783056	2460.183900
724.115259	2468.653038
724.447412	2470.039356
724.779518	2471.072792
725.111574	2461.923098
725.443582	2469.283183
725.775542	2468.476598
726.107453	2472.106229
726.439315	2460.032665
726.771129	2470.467854
727.102895	2459.982254
727.434612	2466.712194
727.766281	2462.376802
728.097901	2468.552215
728.429473	2467.065075
728.760996	2463.637090
729.092471	2470.417442
729.423897	2468.678244
729.755276	2457.940587
730.086606	2463.132975
730.417887	2469.610858
730.749120	2464.418469
731.080305	2471.879377
731.411442	2466.107256
731.742530	2473.391723
732.073570	2463.057358
732.404562	2472.055817
732.735506	2470.417442
733.066401	2465.300671
733.397249	2473.139665
733.728048	2472.156640
734.058798	2463.788325
734.389501	2462.628860
734.720156	2473.164871
735.050762	2465.804787
735.381320	2462.502831
735.711831	2460.940073
736.042293	2466.939046
736.372707	2466.434931
736.703073	2474.047073
737.033391	2467.896865
737.363661	2465.502317
737.693883	2468.224540
738.024056	2463.485856
738.354182	2464.846967
738.684260	2457.789352
739.014290	2462.855712
739.344272	2464.015177
739.674207	2469.610858
740.004093	2469.106742
740.333931	2466.510548
740.663722	2464.594910
740.993464	2462.074333
741.323159	2475.509008
741.652806	2472.509521
741.982405	2463.964765
742.311956	2470.971969
742.641460	2464.242029
742.970915	2472.358287
743.300323	2457.134002
743.629683	2463.611885
743.958996	2467.947277
744.288260	2456.201388
744.617477	2466.964252
744.946647	2465.855198
745.275768	2463.838737
745.604842	2453.025462
745.933869	2466.132462
746.262847	2455.520833
746.591778	2466.611371
746.920662	2468.879890
747.249498	2468.249746
747.578286	2468.073306
747.907027	2466.157667
748.235720	2464.393263
748.564365	2468.980713
748.892963	2460.083077
749.221514	2471.097998
749.550017	2464.216823
749.878473	2463.662296
750.206881	2473.316106
750.535242	2462.981740
750.863555	2464.947790
751.191821	2464.846967
751.520039	2465.199848
751.848210	2461.671040
752.176334	2467.115487
752.504411	2471.400467
752.832440	2457.335648
753.160421	2469.535240
753.488356	2472.030612
753.816243	2469.384006
754.144082	2460.360340
754.471875	2465.502317
754.799620	2466.031638
755.127318	2469.056331
755.454969	2469.938533
755.782572	2459.427727
756.110129	2463.233798
756.437638	2466.384519
756.765100	2464.998202
757.092515	2465.023408
757.419882	2467.644808
757.747203	2458.444702
758.074477	2476.239975
758.401703	2455.898919
758.728882	2469.661269
759.056014	2470.971969
759.383099	2464.418469
759.710138	2457.663323
760.037129	2460.536781
760.364073	2462.603654
760.690970	2468.829479
761.017820	2465.628346
761.344623	2464.821762
761.671379	2463.082563
761.998088	2473.668987
762.324751	2457.839763
762.651366	2465.275465
762.977935	2469.913327
763.304456	2479.264667
763.630931	2482.188537
763.957359	2472.207052
764.283740	2476.794502
764.610074	2464.771350
764.936362	2464.821762
765.262602	2464.796556
765.588796	2469.005919
765.914943	2464.746144
766.241044	2466.056844
766.567097	2463.057358
766.893104	2461.091308
767.219064	2467.947277
767.544978	2467.896865
767.870845	2467.518779
768.196665	2468.854685
768.522438	2466.031638
768.848165	2462.250773
769.173846	2471.702937
769.499479	2467.821248
769.825066	2462.880917
770.150607	2468.728656
770.476101	2467.191104
770.801548	2463.737913
771.126949	2458.545525
771.452303	2465.124231
771.777611	2458.343879
772.102872	2466.157667
772.428087	2460.032665
772.753256	2461.998715
773.078378	2461.570217
773.403453	2464.872173
773.728482	2457.159208
774.053465	2455.067129
774.378401	2463.233798
774.703291	2464.720938
775.028135	2460.612398
775.352932	2469.358800
775.677683	2463.914354
776.002388	2461.267748
776.327046	2457.386060
776.651658	2460.158694
776.976224	2463.334621
777.300743	2462.603654
777.625216	2467.266721
777.949643	2462.855712
778.274024	2465.426700
778.598359	2464.519292
778.922647	2465.678758
779.246889	2459.074846
779.571086	2454.840277
779.895236	2466.913840
780.219339	2458.217850
780.543397	2465.477112
780.867409	2462.301185
781.191374	2454.184927
781.515294	2463.737913
781.839167	2464.821762
782.162995	2458.570731
782.486776	2457.184413
782.810511	2466.636577
783.134201	2463.611885
783.457844	2456.377829
783.781441	2465.956021
784.104993	2456.957562
784.428498	2463.435444
784.751958	2456.755915
785.075372	2456.176183
785.398739	2463.813531
785.722061	2461.973510
786.045337	2467.090281
786.368568	2457.260031
786.691752	2460.435958
787.014891	2455.924125
787.337983	2457.260031
787.661030	2460.536781
787.984031	2457.990998
788.306987	2464.116000
788.629897	2459.906637
788.952760	2465.376288
789.275579	2462.956535
789.598351	2467.493573
789.921078	2456.554269
790.243759	2464.922585
790.566395	2464.468881
790.888984	2455.571244
791.211529	2464.267235
791.534027	2460.839250
791.856480	2465.804787
792.178888	2445.640171
792.501249	2453.806840
792.823566	2466.258490
793.145836	2466.006433
793.468062	2467.543985
793.790241	2461.620629
794.112375	2463.385033
794.434464	2461.192131
794.756507	2466.384519
795.078505	2463.158181
795.400457	2461.696246
795.722364	2462.326390
796.044226	2466.409725
796.366042	2458.822788
796.687812	2462.175156
797.009538	2461.192131
797.331218	2464.166412
797.652852	2459.730196
797.974442	2461.973510
798.295986	2468.148923
798.617484	2460.083077
798.938938	2462.402008
799.260346	2465.552729
799.581709	2466.308902
799.903026	2469.812504
800.224299	2462.553242
800.545526	2462.628860
800.866708	2449.496654
801.187845	2461.545012
801.508936	2458.217850
801.829983	2460.662810
802.150984	2469.787298
802.471940	2461.545012
802.792851	2460.461163
803.113717	2465.956021
803.434538	2460.183900
803.755314	2460.587192
804.076045	2462.880917
804.396731	2468.148923
804.717372	2464.645321
805.037967	2457.789352
805.358518	2458.016204
805.679024	2453.277519
805.999485	2463.737913
806.319901	2455.420010
806.640272	2460.007460
806.960598	2465.477112
807.280879	2466.964252
807.601115	2460.536781
807.921306	2454.386573
808.241453	2453.680812
808.561554	2462.880917
808.881611	2461.771863
809.201623	2457.486883
809.521590	2461.393777
809.841513	2463.813531
810.161390	2452.370112
810.481223	2457.814558
810.801011	2455.319187
811.120755	2458.570731
811.440453	2464.922585
811.760107	2460.561987
812.079716	2455.293981
812.399281	2461.645835
812.718801	2460.309929
813.038276	2461.645835
813.357707	2465.451906
813.677093	2458.646348
813.996434	2452.193671
814.315731	2457.764146
814.634983	2456.176183
814.954191	2450.202415
815.273354	2456.024948
815.592473	2456.226594
815.911547	2462.376802
816.230577	2463.788325
816.549562	2454.361367
816.868502	2469.787298
817.187399	2468.274952
817.506250	2458.721965
817.825058	2462.679271
818.143821	2463.259004
818.462539	2462.200362
818.781213	2461.595423
819.099843	2465.225054
819.418429	2466.082050
819.736970	2454.033692
820.055466	2469.963738
820.373919	2470.543471
820.692327	2471.123204
821.010691	2471.148410
821.329011	2474.878863
821.647286	2490.178765
821.965517	2492.170021
822.283704	2499.983810
822.601847	2515.031654
822.919945	2501.596979
823.237999	2499.756958
823.556010	2495.724035
823.873976	2485.994608
824.191897	2477.172588
824.509775	2476.492033
824.827609	2478.281642
825.145398	2468.123717
825.463144	2477.021354
825.780845	2476.088740
826.098502	2484.331027
826.416116	2477.525469
826.733685	2480.701396
827.051210	2476.366004
827.368692	2481.583598
827.686129	2476.870119
828.003522	2471.702937
828.320872	2470.820735
828.638177	2468.501804
828.955439	2467.241515
829.272656	2457.007973
829.589830	2466.233285
829.906960	2470.921558
830.224046	2462.376802
830.541088	2466.384519
830.858086	2461.822275
831.175041	2465.829992
831.491952	2465.502317
831.808819	2463.410238
832.125642	2466.510548
832.442421	2461.519806
832.759157	2462.880917
833.075849	2473.719398
833.392497	2455.243569
833.709101	2475.382979
834.025662	2472.081023
834.342179	2472.963225
834.658653	2467.493573
834.975083	2473.668987
835.291469	2467.569190
835.607811	2468.854685
835.924110	2467.670013
836.240366	2454.436985
836.556578	2457.007973
836.872746	2454.840277
837.188871	2462.931329
837.504952	2457.007973
837.820990	2464.242029
838.136984	2464.090794
838.452935	2453.000256
838.768842	2453.201902
839.084706	2458.243056
839.400526	2457.612912
839.716303	2455.520833
840.032037	2459.679785
840.347727	2460.057871
840.663373	2459.982254
840.978977	2457.134002
841.294537	2466.056844
841.610054	2464.645321
841.925527	2458.343879
842.240957	2465.124231
842.556344	2458.369085
842.871687	2460.536781
843.186987	2457.184413
843.502244	2453.075873
843.817458	2459.251287
844.132629	2455.117540
844.447756	2449.899946
844.762840	2460.461163
845.077881	2459.730196
845.392879	2455.067129
845.707833	2455.142746
846.022745	2456.907150
846.337613	2457.990998
846.652438	2461.696246
846.967221	2459.301698
847.281960	2461.066102
847.596656	2450.933383
847.911309	2456.075360
848.225919	2457.814558
848.540485	2451.487910
848.855009	2454.184927
849.169490	2450.429267
849.483928	2458.646348
849.798323	2461.872687
850.112675	2451.084617
850.426984	2458.016204
850.741251	2456.428240
851.055474	2463.006946
851.369654	2458.167438
851.683792	2455.092335
851.997887	2459.704990
852.311938	2456.680298
852.625947	2456.629887
852.939914	2445.665377
853.253837	2461.645835
853.567718	2453.731223
853.881555	2454.058898
854.195350	2455.495627
854.509103	2464.342852
854.822812	2459.427727
855.136479	2460.158694
855.450103	2458.369085
855.763685	2457.335648
856.077224	2458.142233
856.390720	2457.209619
856.704173	2456.831533
857.017584	2455.243569
857.330953	2463.838737
857.644278	2449.093362
857.957561	2461.519806
858.270802	2462.351596
858.584000	2457.436471
858.897155	2461.418983
859.210268	2460.461163
859.523339	2450.025975
859.836367	2462.931329
860.149352	2455.167952
860.462295	2462.175156
860.775195	2454.058898
861.088054	2467.745631
861.400869	2458.243056
861.713642	2455.924125
862.026373	2457.990998
862.339062	2454.310956
862.651708	2457.134002
862.964312	2458.318673
863.276873	2460.940073
863.589392	2458.873200
863.901869	2452.092848
864.214303	2452.244083
864.526696	2451.034206
864.839045	2460.864456
865.151353	2456.881944
865.463619	2452.849021
865.775842	2456.604681
866.088023	2454.310956
866.400162	2454.386573
866.712258	2464.065588
867.024313	2459.377315
867.336325	2459.276492
867.648296	2453.882458
867.960224	2455.621656
868.272110	2447.177723
868.583954	2465.225054
868.895755	2458.646348
869.207515	2458.419496
869.519233	2454.134515
869.830909	2458.847994
870.142542	2464.342852
870.454134	2463.637090
870.765684	2458.847994
871.077191	2461.166925
871.388657	2452.596963
871.700081	2449.547065
872.011463	2451.765173
872.322803	2451.261058
872.634101	2453.000256
872.945357	2455.697273
873.256571	2458.696760
873.567744	2462.250773
873.878874	2452.949844
874.189963	2462.704477
874.501010	2454.336162
874.812015	2463.536267
875.122979	2467.039869
875.433900	2461.897892
875.744780	2456.100565
876.055618	2457.612912
876.366415	2461.897892
876.677169	2456.907150
876.987882	2457.789352
877.298554	2461.671040
877.609183	2456.503858
877.919771	2457.310442
878.230317	2453.378342
878.540822	2470.089767
878.851285	2459.452933
879.161707	2456.176183
879.472087	2461.519806
879.782425	2462.603654
880.092722	2470.543471
880.402977	2474.475571
880.713191	2480.524956
881.023363	2470.946763
881.333494	2484.734319
881.643583	2475.962712
881.953631	2497.639673
882.263637	2473.240488
882.573602	2481.533187
882.883526	2478.130408
883.193408	2474.904069
883.503248	2471.224027
883.813048	2474.021867
884.122806	2474.626806
884.432522	2457.814558
884.742197	2470.493060
885.051831	2466.762606
885.361424	2466.611371
885.670975	2460.814044
885.980485	2466.460137
886.289954	2459.175669
886.599382	2454.865483
886.908768	2455.999742
887.218113	2458.016204
887.527417	2451.185440
887.836680	2458.520319
888.145901	2459.301698
888.455082	2450.227621
888.764221	2452.244083
889.073319	2461.948304
889.382376	2458.243056
889.691392	2458.923612
890.000366	2462.654065
890.309300	2455.319187
890.618193	2456.226594
890.927044	2455.369598
891.235855	2448.185954
891.544625	2455.546038
891.853353	2459.629373
892.162041	2461.166925
892.470687	2465.124231
892.779293	2460.688015
893.087858	2463.939560
893.396381	2462.704477
893.704864	2456.377829
894.013306	2459.528550
894.321707	2464.720938
894.630068	2468.199335
894.938387	2463.838737
895.246665	2456.856738
895.554903	2458.041410
895.863100	2464.242029
896.171256	2459.629373
896.479371	2466.208079
896.787446	2469.157154
897.095480	2455.999742
897.403473	2457.789352
897.711425	2455.218363
898.019336	2474.122690
898.327207	2457.688529
898.635038	2457.990998
898.942827	2454.714248
899.250576	2458.268262
899.558284	2460.637604
899.865952	2461.998715
900.173579	2456.755915
900.481165	2463.788325
900.788711	2458.293467
901.096216	2463.914354
901.403681	2453.353137
901.711105	2455.319187
902.018489	2461.545012
902.325832	2453.857252
902.633135	2453.327931
902.940397	2459.125258
903.247619	2449.849535
903.554800	2468.073306
903.861941	2454.739454
904.169041	2464.720938
904.476101	2464.695733
904.783121	2475.685448
905.090100	2469.106742
905.397039	2464.821762
905.703938	2455.697273
906.010796	2454.512602
906.317614	2465.603140
906.624391	2462.628860
906.931129	2464.670527
907.237826	2455.672067
907.544483	2456.629887
907.851099	2448.639658
908.157675	2456.604681
908.464211	2457.814558
908.770707	2460.083077
909.077163	2462.553242
909.383578	2461.973510
909.689954	2453.126285
909.996289	2454.260544
910.302584	2457.537294
910.608839	2453.781635
910.915054	2455.898919
911.221229	2450.454473
911.527363	2452.092848
911.833458	2465.376288
912.139513	2462.023921
912.445527	2462.275979
912.751502	2445.539348
913.057436	2458.142233
913.363331	2456.478652
913.669186	2465.754375
913.975000	2456.201388
914.280775	2455.142746
914.586510	2458.217850
914.892205	2456.277006
915.197859	2465.451906
915.503475	2454.487396
915.809050	2467.594396
916.114585	2460.662810
916.420081	2464.468881
916.725536	2462.023921
917.030952	2465.729169
917.336328	2464.166412
917.641665	2459.200875
917.946961	2467.417956
918.252218	2450.832560
918.557435	2462.049127
918.862612	2461.923098
919.167750	2466.586165
919.472848	2467.821248
919.777906	2459.982254
920.082925	2462.402008
920.387904	2461.242542
920.692843	2464.746144
920.997743	2454.563013
921.302603	2460.713221
921.607423	2455.823302
921.912204	2453.605194
922.216946	2454.789865
922.521647	2459.049640
922.826310	2451.966819
923.130932	2459.024435
923.435516	2451.941613
923.740059	2455.924125
924.044564	2449.547065
924.349028	2459.679785
924.653454	2453.605194
924.957840	2460.158694
925.262186	2461.217337
925.566493	2445.463731
925.870761	2458.091821
926.174989	2454.563013
926.479178	2454.159721
926.783328	2448.236365
927.087438	2451.185440
927.391509	2451.336675
927.695541	2465.451906
927.999533	2456.176183
928.303486	2462.654065
928.607400	2449.698300
928.911275	2453.302725
929.215110	2454.336162
929.518906	2444.027002
929.822663	2459.528550
930.126381	2453.781635
930.430060	2453.706017
930.733699	2453.176696
931.037299	2456.277006
931.340861	2446.522373
931.644383	2454.411779
931.947866	2458.495113
932.251309	2454.361367
932.554714	2449.698300
932.858080	2443.648915
933.161407	2445.740994
933.464694	2467.569190
933.767943	2452.773404
934.071153	2457.764146
934.374323	2454.058898
934.677455	2456.150977
934.980548	2449.925152
935.283602	2459.049640
935.586617	2460.486369
935.889593	2459.175669
936.192530	2459.704990
936.495428	2466.762606
936.798287	2449.849535
937.101108	2455.142746
937.403890	2458.621142
937.706632	2460.158694
938.009336	2454.663837
938.312002	2460.259517
938.614628	2456.957562
938.917216	2468.527010
939.219765	2453.252313
939.522275	2463.233798
939.824747	2458.016204
940.127179	2451.588733
940.429573	2459.931842
940.731929	2449.219390
941.034246	2454.184927
941.336524	2454.386573
941.638763	2454.815071
941.940964	2456.554269
942.243126	2450.101592
942.545250	2457.335648
942.847335	2456.302212
943.149381	2446.295521
943.451389	2460.486369
943.753359	2452.697787
944.055290	2453.302725
944.357182	2455.924125
944.659036	2450.681325
944.960851	2451.336675
945.262628	2460.309929
945.564367	2451.714762
945.866067	2458.117027
946.167729	2454.210133
946.469352	2454.361367
946.770937	2452.168465
947.072484	2451.034206
947.373992	2452.798610
947.675462	2459.704990
947.976893	2457.007973
948.278286	2450.404062
948.579641	2457.814558
948.880958	2448.790892
949.182236	2459.982254
949.483476	2455.546038
949.784678	2457.890175
950.085841	2454.764660
950.386967	2451.235852
950.688054	2456.302212
950.989103	2450.681325
951.290114	2456.705504
951.591087	2447.228135
951.892021	2451.765173
952.192917	2455.067129
952.493776	2460.713221
952.794596	2457.864969
953.095378	2446.799637
953.396122	2452.067642
953.696828	2457.965792
953.997496	2457.360854
954.298126	2452.949844
954.598718	2460.158694
954.899272	2463.132975
955.199788	2457.386060
955.500266	2462.250773
955.800706	2456.352623
956.101108	2448.337188
956.401472	2454.008487
956.701798	2456.680298
957.002087	2467.770837
957.302337	2453.151490
957.602550	2455.344392
957.902724	2447.253340
958.202861	2454.689042
958.502960	2446.295521
958.803022	2450.630913
959.103045	2452.395317
959.403031	2456.201388
959.702979	2461.545012
960.002889	2458.495113
960.302762	2451.261058
960.602596	2459.654579
960.902393	2448.059925
961.202153	2457.890175
961.501875	2449.824329
961.801559	2443.043977
962.101205	2451.336675
962.400814	2452.445729
962.700385	2452.596963
962.999918	2444.934410
963.299414	2447.454987
963.598873	2448.564040
963.898293	2454.638631
964.197677	2455.016717
964.497022	2449.597477
964.796331	2465.149437
965.095601	2450.882971
965.394835	2447.833073
965.694030	2451.790379
965.993189	2442.060952
966.292309	2445.085644
966.591393	2453.680812
966.890439	2457.764146
967.189447	2456.428240
967.488419	2449.647888
967.787353	2450.227621
968.086249	2449.950358
968.385108	2451.739967
968.683930	2448.488423
968.982714	2451.109823
969.281462	2447.555810
969.580172	2456.554269
969.878844	2457.108796
970.177480	2455.949331
970.476078	2460.309929
970.774639	2453.781635
971.073162	2449.622683
971.371649	2461.620629
971.670098	2459.478138
971.968510	2453.126285
972.266885	2446.724019
972.565223	2457.310442
972.863524	2452.849021
973.161788	2449.975563
973.460014	2451.538321
973.758204	2445.010027
974.056356	2460.889662
974.354471	2455.218363
974.652550	2456.478652
974.950591	2455.369598
975.248595	2461.822275
975.546563	2457.612912
975.844493	2450.605708
976.142386	2449.244596
976.440243	2451.059412
976.738062	2449.925152
977.035845	2448.614452
977.333590	2453.832046
977.631299	2452.193671
977.928971	2456.655092
978.226606	2451.765173
978.524204	2451.336675
978.821765	2449.673094
979.119290	2456.705504
979.416777	2453.101079
979.714228	2457.890175
980.011642	2447.253340
980.309020	2459.150463
980.606360	2445.438525
980.903664	2455.243569
981.200931	2449.925152
981.498162	2461.923098
981.795356	2446.925665
982.092513	2455.016717
982.389633	2445.993052
982.686717	2445.388113
982.983764	2449.093362
983.280775	2454.411779
983.577749	2452.798610
983.874686	2449.446242
984.171587	2451.815585
984.468451	2447.606221
984.765279	2459.478138
985.062070	2463.662296
985.358824	2454.411779
985.655543	2454.588219
985.952224	2452.672581
986.248869	2459.578962
986.545478	2450.177210
986.842050	2446.925665
987.138586	2460.083077
987.435086	2452.748198
987.731549	2447.883485
988.027975	2450.404062
988.324366	2454.084104
988.620719	2454.134515
988.917037	2460.486369
989.213318	2449.521860
989.509563	2445.539348
989.805772	2454.890688
990.101944	2452.722992
990.398080	2456.403035
990.694180	2456.629887
990.990244	2452.017231
991.286271	2453.479165
991.582262	2452.319700
991.878217	2454.890688
992.174136	2455.747685
992.470019	2449.345419
992.765865	2455.319187
993.061676	2442.363421
993.357450	2459.276492
993.653188	2447.530604
993.948890	2450.051181
994.244556	2456.251800
994.540186	2454.436985
994.835780	2454.865483
995.131337	2446.219904
995.426859	2452.521346
995.722345	2453.453960
996.017795	2456.075360
996.313208	2446.875254
996.608586	2450.429267
996.903928	2465.703963
997.199234	2442.313010
997.494504	2450.504885
997.789738	2447.429781
998.084936	2456.629887
998.380099	2450.807354
998.675225	2453.529577
998.970316	2462.452419
999.265371	2456.176183
999.560390	2450.378856
999.855373	2447.581015
1000.150320	2453.151490
1000.445232	2447.757456
1000.740108	2454.436985
1001.034948	2448.891715
1001.329752	2457.486883
1001.624521	2457.108796
1001.919254	2451.109823
1002.213951	2460.839250
1002.508613	2450.278033
1002.803239	2448.387600
1003.097829	2444.657146
1003.392384	2457.562500
1003.686903	2447.253340
1003.981386	2458.041410
1004.275834	2450.025975
1004.570246	2454.537808
1004.864623	2457.814558
1005.158964	2456.655092
1005.453270	2452.798610
1005.747540	2447.354163
1006.041775	2449.925152
1006.335974	2443.396858
1006.630138	2452.722992
1006.924266	2452.118054
1007.218359	2449.345419
1007.512416	2452.596963
1007.806438	2447.379369
1008.100425	2456.201388
1008.394376	2449.547065
1008.688292	2460.259517
1008.982172	2454.210133
1009.276017	2447.328958
1009.569827	2459.982254
1009.863602	2447.858279
1010.157341	2446.446756
1010.451045	2451.336675
1010.744714	2457.940587
1011.038347	2464.796556
1011.331945	2455.772890
1011.625508	2447.555810
1011.919036	2452.949844
1012.212528	2454.663837
1012.505986	2457.839763
1012.799408	2456.226594
1013.092795	2454.462190
1013.386147	2457.486883
1013.679464	2440.926692
1013.972745	2449.017744
1014.265992	2452.218877
1014.559204	2457.562500
1014.852380	2455.117540
1015.145521	2446.547579
1015.438628	2457.688529
1015.731699	2446.976077
1016.024736	2456.831533
1016.317737	2452.067642
1016.610703	2449.975563
1016.903635	2466.056844
1017.196531	2446.875254
1017.489393	2459.881431
1017.782219	2453.579988
1018.075011	2455.344392
1018.367768	2445.060438
1018.660490	2452.470935
1018.953177	2452.470935
1019.245829	2452.470935
