Dividing Wavelength (nm)	Counts (n)	Slit_number_16_of_a_total_of_40	
326.493990	2166.519885
326.888308	2166.519885
327.282561	2166.519885
327.676750	2128.207115
328.070874	2135.516788
328.464933	2126.274673
328.858929	2143.414596
329.252859	2153.160827
329.646726	2169.208500
330.040528	2192.229769
330.434265	2202.900212
330.827938	2217.351519
331.221547	2242.809346
331.615091	2262.217788
332.008571	2284.566904
332.401986	2303.303192
332.795338	2330.357385
333.188625	2326.240442
333.581847	2350.185923
333.975006	2364.385173
334.368100	2385.137923
334.761129	2413.872500
335.154095	2423.786769
335.546996	2444.371481
335.939833	2480.499750
336.332606	2480.583769
336.725315	2492.766558
337.117960	2502.848865
337.510540	2501.336519
337.903056	2516.880077
338.295508	2534.104019
338.687896	2533.263827
339.080220	2527.802577
339.472480	2553.932558
339.864676	2530.491192
340.256807	2536.372538
340.648875	2547.799154
341.040879	2549.143462
341.432818	2558.133519
341.824694	2555.024808
342.216506	2558.721654
342.608253	2549.227481
342.999937	2578.466173
343.391557	2548.975423
343.783113	2558.133519
344.174605	2551.243942
344.566033	2539.481250
344.957397	2551.327962
345.348697	2539.229192
345.739934	2551.832077
346.131106	2539.985365
346.522215	2534.440096
346.913260	2533.011769
347.304241	2521.753192
347.695159	2524.609846
348.086012	2520.240846
348.476802	2531.247365
348.867528	2523.265538
349.258191	2517.300173
349.648789	2525.113962
350.039324	2525.702096
350.429796	2533.179808
350.820203	2524.273769
351.210548	2496.883500
351.600828	2518.812519
351.991045	2527.970615
352.381198	2534.692154
352.771288	2524.609846
353.161314	2516.796058
353.551276	2536.624596
353.941175	2523.517596
354.331010	2520.156827
354.720782	2526.542288
355.110490	2531.247365
355.500135	2526.290231
355.889717	2527.886596
356.279235	2513.099212
356.668689	2506.629731
357.058080	2517.468212
357.447408	2525.954154
357.836672	2526.206212
358.225873	2509.234327
358.615010	2543.010058
359.004084	2531.247365
359.393095	2518.728500
359.782043	2528.894827
360.170927	2520.660942
360.559748	2524.273769
360.948505	2542.085846
361.337199	2523.517596
361.725830	2533.935981
362.114398	2530.407173
362.502903	2545.866712
362.891344	2518.728500
363.279722	2513.687346
363.668037	2527.466500
364.056289	2532.759712
364.444478	2529.482962
364.832603	2536.204500
365.220665	2532.003538
365.608665	2523.601615
365.996601	2540.993596
366.384474	2537.296750
366.772284	2542.421923
367.160031	2530.911288
367.547715	2535.028231
367.935336	2536.624596
368.322893	2535.700385
368.710388	2542.253885
369.097820	2550.319731
369.485189	2547.715135
369.872495	2549.647577
370.259738	2523.685635
370.646918	2546.034750
371.034035	2530.827269
371.421090	2548.891404
371.808081	2534.776173
372.195010	2511.754904
372.581875	2540.153404
372.968678	2527.298462
373.355418	2541.749769
373.742096	2535.616365
374.128710	2546.790923
374.515262	2548.219250
374.901751	2542.673981
375.288177	2534.356077
375.674540	2543.262115
376.060841	2537.632827
376.447079	2543.514173
376.833254	2535.280288
377.219367	2535.532346
377.605417	2545.194558
377.991404	2540.825558
378.377329	2542.758000
378.763191	2532.255596
379.148991	2548.303269
379.534727	2533.683923
379.920402	2554.184615
380.306013	2541.245654
380.691563	2529.903058
381.077049	2551.327962
381.462474	2526.878365
381.847835	2548.891404
382.233134	2536.876654
382.618371	2557.545385
383.003545	2548.723365
383.388657	2553.512462
383.773706	2531.331385
384.158693	2547.883173
384.543618	2543.262115
384.928480	2542.001827
385.313280	2532.591673
385.698017	2533.935981
386.082692	2534.524115
386.467305	2534.020000
386.851856	2550.151692
387.236344	2543.094077
387.620770	2553.260404
388.005133	2548.303269
388.389435	2543.178096
388.773674	2547.799154
389.157851	2547.042981
389.541965	2539.565269
389.926018	2543.850250
390.310008	2548.471308
390.693936	2547.799154
391.077802	2561.662327
391.461606	2537.212731
391.845348	2557.713423
392.229027	2554.352654
392.612645	2536.540577
392.996200	2552.672269
393.379694	2555.444904
393.763125	2571.324538
394.146494	2552.252173
394.529801	2564.182904
394.913047	2538.136942
395.296230	2556.957250
395.679351	2556.537154
396.062410	2548.555327
396.445408	2543.094077
396.828343	2564.518981
397.211217	2551.580019
397.594028	2550.235712
397.976778	2543.850250
398.359466	2563.510750
398.742092	2546.538865
399.124656	2558.721654
399.507158	2554.856769
399.889598	2550.991885
400.271977	2554.352654
400.654294	2559.813904
401.036549	2557.713423
401.418742	2539.229192
401.800874	2553.428442
402.182944	2556.873231
402.564952	2553.932558
402.946898	2559.729885
403.328783	2546.370827
403.710606	2557.041269
404.092367	2552.084135
404.474067	2559.729885
404.855705	2544.858481
405.237282	2569.560135
405.618797	2559.057731
406.000250	2569.224058
406.381642	2567.627692
406.762972	2551.159923
407.144240	2568.467885
407.525447	2559.813904
407.906593	2565.527212
408.287677	2560.318019
408.668700	2573.677077
409.049661	2559.981942
409.430560	2553.176385
409.811399	2548.135231
410.192176	2560.234000
410.572891	2558.385577
410.953545	2562.166442
411.334138	2562.502519
411.714669	2557.293327
412.095139	2565.359173
412.475547	2568.551904
412.855894	2558.973712
413.236180	2550.067673
413.616405	2569.140038
413.996568	2564.603000
414.376670	2557.545385
414.756711	2554.604712
415.136691	2566.787500
415.516609	2538.641058
415.896466	2564.182904
416.276262	2562.838596
416.655997	2577.625981
417.035670	2562.334481
417.415283	2572.668846
417.794834	2564.182904
418.174324	2547.295038
418.553753	2554.436673
418.933121	2570.820423
419.312428	2564.182904
419.691674	2571.072481
420.070859	2562.670558
420.449983	2568.803962
420.829045	2561.578308
421.208047	2567.795731
421.586988	2570.148269
421.965867	2570.064250
422.344686	2567.039558
422.723444	2563.006635
423.102141	2571.240519
423.480777	2569.140038
423.859352	2559.813904
424.237866	2569.644154
424.616319	2575.945596
424.994712	2567.123577
425.373044	2577.373923
425.751314	2578.634212
426.129524	2573.172962
426.507673	2568.215827
426.885762	2565.023096
427.263789	2572.752865
427.641756	2575.273442
428.019662	2575.189423
428.397508	2568.047788
428.775292	2562.334481
429.153016	2581.154788
429.530679	2592.413365
429.908282	2573.509038
430.285824	2578.298135
430.663305	2586.027904
431.040726	2584.179481
431.418086	2579.894500
431.795385	2590.228865
432.172624	2588.464462
432.549802	2606.696635
432.926920	2600.647250
433.303977	2576.281673
433.680974	2591.825231
434.057910	2613.838269
434.434786	2602.411654
434.811601	2604.176058
435.188355	2611.989846
435.565050	2614.090327
435.941683	2617.535115
436.318257	2635.599250
436.694770	2634.170923
437.071222	2652.823192
437.447614	2643.833135
437.823946	2658.872577
438.200218	2644.169212
438.576429	2675.004269
438.952580	2666.434308
439.328670	2681.305712
439.704700	2693.404481
440.080670	2713.317038
440.456580	2715.921635
440.832429	2739.110942
441.208218	2734.994000
441.583947	2760.619865
441.959616	2785.153481
442.335224	2779.944288
442.710773	2790.362673
443.086261	2825.818788
443.461689	2841.866462
443.837057	2870.012904
444.212365	2894.378481
444.587612	2927.482058
444.962800	2930.338712
445.337927	2970.583923
445.712995	2984.867192
446.088002	3038.807538
446.462949	3075.355904
446.837837	3107.955365
447.212664	3151.057231
447.587431	3220.289077
447.962139	3364.886173
448.336786	3542.250769
448.711374	3609.970269
449.085901	3541.746654
449.460369	3556.702077
449.834776	3568.464769
450.209124	3721.715846
450.583412	3790.359558
450.957640	3914.287923
451.331808	3882.528654
451.705917	3902.105135
452.079965	3944.030731
452.453954	4013.094538
452.827883	4065.774596
453.201752	4118.454654
453.575562	4217.009212
453.949311	4348.079212
454.323001	4436.635481
454.696632	4498.137558
455.070202	4664.327596
455.443713	4768.595462
455.817164	4899.917519
456.190556	5067.871962
456.563888	5128.197769
456.937160	5297.748577
457.310373	5220.702942
457.683526	5319.257500
458.056619	5392.522269
458.429653	5445.118308
458.802628	5597.781250
459.175542	5680.708231
459.548398	5894.957269
459.921194	6129.707000
460.293930	6271.531462
460.666607	6632.814154
461.039224	6926.545385
461.411782	7206.329423
461.784280	7218.344173
462.156719	7334.374731
462.529099	7394.616519
462.901419	7304.631923
463.273680	7208.513923
463.645882	7283.038981
464.018024	7329.501615
464.390106	7471.074019
464.762130	7834.289154
465.134094	8270.096904
465.505999	9000.896173
465.877845	9942.835769
466.249631	10617.174115
466.621358	10760.258865
466.993026	10643.472135
467.364634	10505.092462
467.736184	10163.974385
468.107674	9985.433519
468.479105	9893.432462
468.850477	9837.811731
469.221790	9658.178615
469.593043	9356.381538
469.964238	9231.276904
470.335373	9177.420577
470.706449	9369.068442
471.077467	9486.191250
471.448425	10289.331077
471.819324	11178.422577
472.190164	11425.439115
472.560945	10800.420058
472.931667	10090.289519
473.302330	9749.003404
473.672934	9516.858269
474.043479	9537.190923
474.413965	9352.264596
474.784393	9195.064615
475.154761	9316.640442
475.525070	9293.535154
475.895321	9159.692519
476.265513	9210.188077
476.635645	9315.044077
477.005719	9198.089308
477.375734	9200.525865
477.745691	9223.799192
478.115588	9335.292712
478.485427	9486.611346
478.855207	9850.498635
479.224928	10202.119115
479.594591	10486.776269
479.964194	10419.140788
480.333739	10443.506365
480.703226	10259.672288
481.072653	10131.290904
481.442022	10078.190750
481.811333	10073.653712
482.180584	9772.024673
482.549777	9513.497500
482.918912	9279.083846
483.287988	9090.460673
483.657005	8815.549750
484.025964	8581.640212
484.394864	8425.028365
484.763706	8169.693923
485.132489	7933.011750
485.501213	7758.587827
485.869879	7585.592231
486.238487	7365.209788
486.607036	7223.721404
486.975527	7001.238481
487.343959	6901.087558
487.712333	6749.432846
488.080648	6639.703731
488.448905	6497.963288
488.817104	6333.957750
489.185244	6271.195385
489.553326	6146.846923
489.921350	6245.821577
490.289315	6422.261962
490.657222	6386.721827
491.025070	6324.547596
491.392861	6120.800962
491.760593	5918.230596
492.128267	5632.397173
492.495883	5365.468077
492.863440	5175.500596
493.230939	4944.699769
493.598380	4769.939769
493.965763	4633.156462
494.333088	4505.951346
494.700354	4372.360769
495.067563	4284.056558
495.434713	4190.039038
495.801805	4093.837019
496.168839	4010.489942
496.535815	3905.549923
496.902733	3841.443250
497.269593	3767.926423
497.636395	3702.139365
498.003139	3648.535096
498.369825	3588.965462
498.736453	3537.629712
499.103023	3461.676327
499.469535	3432.521654
499.835989	3366.650577
500.202385	3336.739731
500.568723	3272.885115
500.935003	3226.842577
501.301226	3213.819596
501.667390	3169.037346
502.033497	3162.399827
502.399546	3106.022923
502.765537	3075.776000
503.131470	3046.789365
503.497345	3009.064731
503.863163	2984.783173
504.228923	2969.239615
504.594625	2938.488577
504.960269	2916.643577
505.325856	2903.788635
505.691385	2898.915519
506.056856	2867.576346
506.422270	2853.965231
506.787625	2836.489231
507.152924	2812.627769
507.518164	2811.619538
507.883347	2798.092442
508.248472	2800.781058
508.613540	2773.810885
508.978550	2770.786192
509.343503	2767.677481
509.708398	2750.789615
510.073236	2740.959365
510.438016	2742.807788
510.802738	2736.338308
511.167403	2735.666154
511.532010	2710.628423
511.896561	2711.888712
512.261053	2727.516288
512.625488	2707.603731
512.989866	2703.990904
513.354186	2709.872250
513.718449	2696.261135
514.082655	2688.447346
514.446803	2678.281019
514.810894	2685.506673
515.174927	2687.103038
515.538904	2668.282731
515.902822	2673.743981
516.266684	2674.584173
516.630488	2671.643500
516.994235	2659.628750
517.357925	2663.409615
517.721558	2662.737462
518.085133	2651.058788
518.448651	2634.843077
518.812112	2659.208654
519.175516	2648.202135
519.538863	2628.037519
519.902152	2645.513519
520.265385	2641.312558
520.628560	2646.269692
520.991678	2651.142808
521.354739	2639.716192
521.717743	2629.045750
522.080690	2636.103365
522.443580	2629.801923
522.806413	2647.109885
523.169189	2636.355423
523.531908	2636.439442
523.894569	2629.465846
524.257174	2617.955212
524.619722	2626.105077
524.982213	2635.515231
525.344647	2614.930519
525.707025	2613.334154
526.069345	2607.956923
526.431608	2606.612615
526.793815	2614.174346
527.155964	2625.769000
527.518057	2604.512135
527.880093	2632.574558
528.242072	2618.207269
528.603995	2622.492250
528.965860	2628.709673
529.327669	2609.553288
529.689421	2618.963442
530.051117	2605.688404
530.412755	2605.100269
530.774337	2613.922288
531.135862	2609.721327
531.497331	2600.983327
531.858743	2625.096846
532.220098	2624.172635
532.581396	2607.536827
532.942638	2604.764192
533.303824	2605.940462
533.664953	2614.006308
534.026025	2608.965154
534.387040	2598.798827
534.747999	2601.235385
535.108902	2585.943885
535.469748	2607.704865
535.830537	2601.823519
536.191270	2615.518654
536.551947	2611.821808
536.912567	2582.415077
537.273131	2599.134904
537.633638	2594.177769
537.994089	2607.284769
538.354483	2594.429827
538.714821	2605.940462
539.075103	2610.645538
539.435328	2621.147942
539.795497	2600.815288
540.155609	2620.391769
540.515665	2603.924000
540.875665	2604.596154
541.235609	2603.671942
541.595496	2591.741212
541.955328	2601.571462
542.315102	2607.704865
542.674821	2592.833462
543.034483	2604.260077
543.394090	2617.367077
543.753640	2593.925712
544.113134	2613.838269
544.472571	2601.991558
544.831953	2605.016250
545.191278	2602.159596
545.550548	2589.808769
545.909761	2606.780654
546.268918	2599.218923
546.628019	2593.505615
546.987064	2596.026192
547.346053	2588.296423
547.704986	2600.479212
548.063863	2592.497385
548.422684	2592.749442
548.781449	2599.302942
549.140158	2596.950404
549.498811	2594.261788
549.857408	2610.477500
550.215949	2603.587923
550.574434	2595.101981
550.932864	2609.973385
551.291237	2606.192519
551.649555	2594.261788
552.007817	2607.116731
552.366022	2603.335865
552.724173	2597.034423
553.082267	2608.208981
553.440305	2588.212404
553.798288	2595.942173
554.156215	2587.036135
554.514086	2584.431538
554.871902	2606.444577
555.229661	2588.800538
555.587365	2581.994981
555.945014	2613.334154
556.302606	2593.925712
556.660143	2590.144846
557.017625	2613.418173
557.375050	2591.489154
557.732421	2599.975096
558.089735	2604.512135
558.446994	2605.772423
558.804197	2601.235385
559.161345	2608.208981
559.518437	2605.100269
559.875474	2595.690115
560.232455	2606.612615
560.589381	2590.396904
560.946251	2589.556712
561.303065	2605.268308
561.659825	2587.540250
562.016528	2590.985038
562.373177	2597.622558
562.729770	2601.655481
563.086307	2603.335865
563.442789	2598.966865
563.799216	2603.251846
564.155587	2606.360558
564.511904	2595.942173
564.868164	2586.363981
565.224370	2591.741212
565.580520	2598.126673
565.936615	2607.284769
566.292654	2598.378731
566.648638	2605.184288
567.004567	2604.428115
567.360441	2596.026192
567.716260	2591.993269
568.072023	2596.950404
568.427732	2602.495673
568.783385	2587.876327
569.138982	2597.874615
569.494525	2593.673654
569.850013	2591.573173
570.205445	2596.278250
570.560823	2578.886269
570.916145	2595.270019
571.271412	2598.714808
571.626625	2607.872904
571.981782	2589.136615
572.336884	2597.370500
572.691931	2584.347519
573.046923	2596.698346
573.401860	2588.128385
573.756743	2590.060827
574.111570	2600.647250
574.466342	2593.673654
574.821059	2613.334154
575.175722	2598.042654
575.530330	2598.630788
575.884882	2608.713096
576.239380	2592.077288
576.593823	2597.790596
576.948211	2607.368788
577.302544	2600.815288
577.656823	2579.054308
578.011047	2582.835173
578.365216	2589.808769
578.719330	2598.378731
579.073389	2589.052596
579.427394	2586.027904
579.781344	2588.884558
580.135239	2588.128385
580.489080	2589.808769
580.842866	2604.764192
581.196597	2607.956923
581.550273	2600.563231
581.903895	2593.757673
582.257463	2594.009731
582.610975	2597.622558
582.964434	2602.999788
583.317837	2597.118442
583.671186	2597.790596
584.024481	2604.344096
584.377721	2588.800538
584.730906	2609.469269
585.084037	2597.538538
585.437113	2610.561519
585.790135	2591.321115
586.143103	2613.418173
586.496016	2588.968577
586.848874	2587.456231
587.201679	2598.462750
587.554428	2612.073865
587.907124	2584.683596
588.259765	2601.487442
588.612352	2592.749442
588.964884	2581.070769
589.317362	2592.497385
589.669786	2598.462750
590.022155	2583.759385
590.374470	2597.958635
590.726731	2598.714808
591.078937	2597.790596
591.431090	2609.133192
591.783188	2596.866385
592.135232	2596.950404
592.487222	2591.909250
592.839157	2569.896212
593.191038	2597.454519
593.542866	2581.742923
593.894639	2587.036135
594.246358	2593.253558
594.598022	2581.910962
594.949633	2604.428115
595.301190	2599.470981
595.652692	2584.011442
596.004141	2586.448000
596.355535	2600.395192
596.706876	2595.942173
597.058162	2589.052596
597.409395	2582.919192
597.760573	2585.439769
598.111698	2592.917481
598.462768	2586.868096
598.813785	2591.405135
599.164748	2593.085519
599.515657	2594.345808
599.866511	2583.591346
600.217312	2588.212404
600.568060	2594.933942
600.918753	2592.161308
601.269392	2584.347519
601.619978	2600.563231
601.970510	2579.054308
602.320988	2584.599577
602.671412	2596.614327
603.021783	2593.673654
603.372100	2588.380442
603.722363	2580.902731
604.072572	2591.237096
604.422728	2598.042654
604.772830	2596.950404
605.122878	2580.230577
605.472872	2596.614327
605.822813	2587.960346
606.172701	2577.121865
606.522534	2597.790596
606.872314	2592.833462
607.222041	2595.101981
607.571714	2580.482635
607.921333	2581.910962
608.270899	2590.901019
608.620411	2582.919192
608.969870	2588.800538
609.319276	2593.589635
609.668627	2596.194231
610.017926	2587.540250
610.367171	2593.253558
610.716362	2592.497385
611.065500	2593.589635
611.414585	2590.396904
611.763616	2585.019673
612.112594	2592.413365
612.461518	2610.225442
612.810389	2591.069058
613.159207	2587.204173
613.507971	2583.339288
613.856682	2599.470981
614.205340	2585.943885
614.553945	2580.902731
614.902496	2598.042654
615.250994	2603.251846
615.599439	2594.177769
615.947830	2602.579692
616.296169	2607.872904
616.644454	2599.386962
616.992686	2595.186000
617.340864	2589.640731
617.688990	2591.741212
618.037063	2586.952115
618.385082	2580.062538
618.733048	2603.587923
619.080961	2601.067346
619.428821	2588.716519
619.776628	2594.345808
620.124382	2625.096846
620.472083	2604.092038
620.819731	2586.616038
621.167326	2599.555000
621.514868	2588.128385
621.862357	2602.831750
622.209793	2607.200750
622.557176	2601.823519
622.904506	2597.706577
623.251783	2595.690115
623.599007	2613.334154
623.946179	2599.470981
624.293297	2588.632500
624.640363	2577.541962
624.987376	2584.347519
625.334336	2588.212404
625.681243	2586.279962
626.028097	2597.706577
626.374899	2598.798827
626.721647	2585.607808
627.068343	2590.396904
627.414987	2591.657192
627.761577	2585.943885
628.108115	2600.143135
628.454600	2581.574885
628.801032	2596.026192
629.147412	2592.833462
629.493739	2590.060827
629.840014	2581.994981
630.186236	2589.388673
630.532405	2588.212404
630.878521	2583.843404
631.224585	2590.228865
631.570597	2585.187712
631.916556	2579.390385
632.262462	2598.546769
632.608316	2607.116731
632.954117	2584.179481
633.299866	2597.034423
633.645562	2587.540250
633.991206	2578.886269
634.336797	2596.698346
634.682336	2598.462750
635.027823	2594.093750
635.373257	2596.530308
635.718639	2598.210692
636.063968	2593.673654
636.409245	2593.337577
636.754470	2575.273442
637.099642	2590.396904
637.444762	2591.573173
637.789829	2574.265212
638.134845	2603.083808
638.479808	2585.439769
638.824719	2591.657192
639.169577	2606.276538
639.514383	2591.909250
639.859137	2591.909250
640.203839	2582.499096
640.548489	2591.237096
640.893086	2590.985038
641.237632	2582.163019
641.582125	2603.503904
641.926566	2593.169538
642.270955	2600.227154
642.615292	2596.614327
642.959576	2594.345808
643.303809	2586.363981
643.647990	2581.322827
643.992118	2591.489154
644.336195	2591.069058
644.680219	2593.925712
645.024192	2596.110212
645.368112	2576.029615
645.711981	2597.118442
646.055797	2586.195942
646.399562	2588.380442
646.743274	2581.910962
647.086935	2601.319404
647.430544	2594.933942
647.774101	2595.942173
648.117606	2610.309462
648.461059	2585.691827
648.804460	2595.186000
649.147810	2584.431538
649.491108	2594.345808
649.834354	2584.179481
650.177548	2596.026192
650.520690	2583.087231
650.863781	2583.171250
651.206820	2593.673654
651.549807	2600.227154
651.892742	2600.395192
652.235626	2604.596154
652.578458	2593.085519
652.921238	2586.532019
653.263967	2589.808769
653.606644	2584.767615
653.949269	2594.261788
654.291843	2585.691827
654.634365	2591.657192
654.976836	2571.660615
655.319255	2579.810481
655.661622	2584.011442
656.003938	2588.968577
656.346203	2575.945596
656.688416	2587.456231
657.030577	2600.983327
657.372687	2589.052596
657.714746	2575.861577
658.056753	2594.345808
658.398708	2591.993269
658.740612	2588.296423
659.082465	2569.812192
659.424266	2593.253558
659.766016	2582.583115
660.107715	2580.482635
660.449362	2598.630788
660.790958	2581.742923
661.132503	2594.765904
661.473996	2578.214115
661.815438	2583.843404
662.156829	2581.406846
662.498168	2579.306365
662.839456	2582.415077
663.180693	2595.942173
663.521879	2602.243615
663.863013	2586.616038
664.204097	2598.798827
664.545129	2585.187712
664.886110	2585.607808
665.227040	2581.574885
665.567918	2598.462750
665.908746	2593.085519
666.249522	2590.817000
666.590248	2599.218923
666.930922	2601.487442
667.271545	2596.194231
667.612118	2587.708288
667.952639	2590.985038
668.293109	2590.985038
668.633528	2584.431538
668.973896	2602.831750
669.314213	2584.179481
669.654480	2587.036135
669.994695	2593.757673
670.334859	2583.507327
670.674973	2590.228865
671.015035	2588.884558
671.355047	2574.349231
671.695008	2586.616038
672.034918	2599.470981
672.374777	2589.640731
672.714585	2594.933942
673.054342	2598.714808
673.394049	2593.421596
673.733705	2588.296423
674.073310	2580.482635
674.412864	2604.260077
674.752368	2593.841692
675.091820	2586.868096
675.431223	2585.523788
675.770574	2592.161308
676.109875	2585.523788
676.449125	2588.212404
676.788324	2574.265212
677.127473	2609.553288
677.466571	2589.808769
677.805619	2594.681885
678.144616	2582.583115
678.483562	2580.902731
678.822458	2587.540250
679.161303	2600.311173
679.500098	2583.255269
679.838842	2587.960346
680.177535	2588.548481
680.516179	2588.716519
680.854771	2584.011442
681.193314	2590.228865
681.531805	2567.039558
681.870247	2583.339288
682.208638	2597.370500
682.546978	2596.698346
682.885268	2581.658904
683.223508	2589.472692
683.561697	2583.423308
683.899836	2585.775846
684.237925	2580.314596
684.575963	2593.673654
684.913951	2583.675365
685.251889	2596.278250
685.589776	2585.187712
685.927614	2598.882846
686.265401	2593.589635
686.603137	2590.228865
686.940824	2577.373923
687.278460	2576.449712
687.616046	2592.665423
687.953582	2579.810481
688.291068	2588.884558
688.628504	2605.268308
688.965889	2581.238808
689.303224	2584.095462
689.640510	2593.085519
689.977745	2587.540250
690.314930	2578.886269
690.652065	2584.431538
690.989150	2584.263500
691.326185	2582.331058
691.663170	2595.942173
692.000105	2580.734692
692.336990	2588.380442
692.673825	2576.869808
693.010610	2589.556712
693.347345	2582.499096
693.684030	2590.985038
694.020665	2569.308077
694.357251	2586.952115
694.693786	2583.927423
695.030272	2599.134904
695.366707	2589.724750
695.703093	2578.214115
696.039429	2586.616038
696.375716	2586.195942
696.711952	2596.446288
697.048139	2579.306365
697.384276	2579.810481
697.720363	2596.194231
698.056400	2589.892788
698.392388	2599.302942
698.728326	2585.355750
699.064214	2587.540250
699.400053	2591.321115
699.735842	2580.062538
700.071581	2592.749442
700.407270	2592.917481
700.742910	2566.787500
701.078501	2589.472692
701.414042	2582.667135
701.749533	2583.675365
702.084974	2587.960346
702.420366	2585.859865
702.755709	2580.146558
703.091002	2582.247038
703.426246	2585.355750
703.761440	2582.919192
704.096584	2567.375635
704.431679	2585.187712
704.766725	2589.976808
705.101721	2585.691827
705.436668	2589.808769
705.771565	2600.395192
706.106413	2586.027904
706.441212	2578.550192
706.775961	2587.876327
707.110661	2603.503904
707.445311	2585.775846
707.779913	2589.892788
708.114465	2592.665423
708.448967	2590.732981
708.783421	2587.288192
709.117825	2590.228865
709.452180	2589.976808
709.786485	2580.398615
710.120742	2584.599577
710.454949	2578.046077
710.789107	2582.079000
711.123216	2610.897596
711.457275	2601.991558
711.791286	2578.382154
712.125247	2580.902731
712.459159	2574.349231
712.793023	2594.933942
713.126837	2590.312885
713.460602	2576.869808
713.794318	2556.537154
714.127985	2585.187712
714.461602	2594.513846
714.795171	2589.136615
715.128691	2584.935654
715.462162	2597.118442
715.795584	2580.818712
716.128957	2599.807058
716.462281	2590.564942
716.795556	2593.589635
717.128782	2579.054308
717.461960	2576.281673
717.795088	2579.726462
718.128167	2580.230577
718.461198	2580.146558
718.794180	2577.289904
719.127113	2588.296423
719.459997	2569.896212
719.792833	2580.986750
720.125619	2582.331058
720.458357	2582.919192
720.791046	2583.927423
721.123686	2591.237096
721.456278	2582.835173
721.788821	2586.952115
722.121315	2579.558423
722.453761	2591.573173
722.786158	2582.163019
723.118506	2582.331058
723.450805	2590.732981
723.783056	2573.509038
724.115259	2584.263500
724.447412	2580.314596
724.779518	2587.288192
725.111574	2574.937365
725.443582	2573.172962
725.775542	2574.349231
726.107453	2575.441481
726.439315	2579.726462
726.771129	2611.485731
727.102895	2589.136615
727.434612	2587.540250
727.766281	2576.785788
728.097901	2593.757673
728.429473	2583.423308
728.760996	2576.953827
729.092471	2572.836885
729.423897	2586.027904
729.755276	2586.784077
730.086606	2590.564942
730.417887	2586.700058
730.749120	2581.070769
731.080305	2587.036135
731.411442	2586.868096
731.742530	2581.238808
732.073570	2591.321115
732.404562	2590.396904
732.735506	2583.675365
733.066401	2561.242231
733.397249	2586.111923
733.728048	2583.087231
734.058798	2573.004923
734.389501	2590.901019
734.720156	2589.892788
735.050762	2584.851635
735.381320	2579.306365
735.711831	2595.942173
736.042293	2579.894500
736.372707	2581.826942
736.703073	2578.298135
737.033391	2578.970288
737.363661	2593.085519
737.693883	2584.263500
738.024056	2569.308077
738.354182	2585.439769
738.684260	2583.087231
739.014290	2572.164731
739.344272	2582.667135
739.674207	2590.144846
740.004093	2579.642442
740.333931	2574.517269
740.663722	2588.380442
740.993464	2583.171250
741.323159	2573.509038
741.652806	2585.859865
741.982405	2588.380442
742.311956	2585.523788
742.641460	2575.525500
742.970915	2587.960346
743.300323	2586.027904
743.629683	2581.574885
743.958996	2579.558423
744.288260	2576.281673
744.617477	2559.225769
744.946647	2570.400327
745.275768	2567.375635
745.604842	2579.474404
745.933869	2574.181192
746.262847	2561.410269
746.591778	2577.289904
746.920662	2586.784077
747.249498	2580.314596
747.578286	2565.359173
747.907027	2589.556712
748.235720	2571.996692
748.564365	2580.398615
748.892963	2600.899308
749.221514	2584.599577
749.550017	2577.794019
749.878473	2583.675365
750.206881	2579.642442
750.535242	2572.500808
750.863555	2574.349231
751.191821	2582.247038
751.520039	2580.062538
751.848210	2595.354038
752.176334	2582.163019
752.504411	2568.467885
752.832440	2570.232288
753.160421	2582.163019
753.488356	2569.224058
753.816243	2565.107115
754.144082	2584.095462
754.471875	2564.518981
754.799620	2581.574885
755.127318	2577.625981
755.454969	2581.154788
755.782572	2580.650673
756.110129	2560.486058
756.437638	2570.988462
756.765100	2575.273442
757.092515	2580.146558
757.419882	2575.777558
757.747203	2582.331058
758.074477	2589.724750
758.401703	2577.457942
758.728882	2579.726462
759.056014	2575.693538
759.383099	2587.204173
759.710138	2581.910962
760.037129	2572.416788
760.364073	2591.657192
760.690970	2592.581404
761.017820	2584.683596
761.344623	2585.355750
761.671379	2597.034423
761.998088	2573.509038
762.324751	2583.843404
762.651366	2573.172962
762.977935	2602.831750
763.304456	2584.767615
763.630931	2581.154788
763.957359	2587.960346
764.283740	2570.988462
764.610074	2573.593058
764.936362	2586.616038
765.262602	2577.541962
765.588796	2589.808769
765.914943	2582.835173
766.241044	2576.617750
766.567097	2574.685308
766.893104	2579.894500
767.219064	2579.474404
767.544978	2577.962058
767.870845	2576.785788
768.196665	2584.599577
768.522438	2586.027904
768.848165	2567.039558
769.173846	2600.311173
769.499479	2588.464462
769.825066	2584.599577
770.150607	2587.204173
770.476101	2584.515558
770.801548	2559.813904
771.126949	2577.625981
771.452303	2558.721654
771.777611	2566.619462
772.102872	2563.090654
772.428087	2556.705192
772.753256	2570.904442
773.078378	2569.392096
773.403453	2574.937365
773.728482	2574.013154
774.053465	2582.667135
774.378401	2576.533731
774.703291	2582.835173
775.028135	2578.298135
775.352932	2588.884558
775.677683	2565.443192
776.002388	2577.373923
776.327046	2573.425019
776.651658	2571.072481
776.976224	2573.425019
777.300743	2573.509038
777.625216	2588.716519
777.949643	2568.887981
778.274024	2572.500808
778.598359	2568.551904
778.922647	2577.794019
779.246889	2567.039558
779.571086	2574.181192
779.895236	2569.728173
780.219339	2571.576596
780.543397	2557.629404
780.867409	2574.265212
781.191374	2572.836885
781.515294	2583.003212
781.839167	2582.835173
782.162995	2573.845115
782.486776	2569.896212
782.810511	2574.601288
783.134201	2573.929135
783.457844	2569.308077
783.781441	2572.920904
784.104993	2576.449712
784.428498	2570.568365
784.751958	2583.255269
785.075372	2576.197654
785.398739	2565.611231
785.722061	2562.754577
786.045337	2579.222346
786.368568	2574.265212
786.691752	2566.703481
787.014891	2585.775846
787.337983	2564.098885
787.661030	2583.171250
787.984031	2581.238808
788.306987	2554.268635
788.629897	2579.390385
788.952760	2600.059115
789.275579	2562.250462
789.598351	2575.693538
789.921078	2583.087231
790.243759	2574.265212
790.566395	2567.039558
790.888984	2585.439769
791.211529	2569.308077
791.534027	2575.609519
791.856480	2554.436673
792.178888	2580.650673
792.501249	2571.744635
792.823566	2574.685308
793.145836	2579.222346
793.468062	2575.609519
793.790241	2574.769327
794.112375	2583.087231
794.434464	2575.609519
794.756507	2576.869808
795.078505	2563.594769
795.400457	2576.281673
795.722364	2578.298135
796.044226	2579.222346
796.366042	2577.794019
796.687812	2569.140038
797.009538	2574.349231
797.331218	2573.929135
797.652852	2572.248750
797.974442	2569.308077
798.295986	2577.457942
798.617484	2572.500808
798.938938	2584.011442
799.260346	2574.937365
799.581709	2575.525500
799.903026	2585.523788
800.224299	2576.113635
800.545526	2571.492577
800.866708	2571.744635
801.187845	2578.886269
801.508936	2580.230577
801.829983	2577.962058
802.150984	2568.299846
802.471940	2581.070769
802.792851	2588.044365
803.113717	2566.787500
803.434538	2577.878038
803.755314	2575.273442
804.076045	2578.886269
804.396731	2565.611231
804.717372	2572.584827
805.037967	2574.181192
805.358518	2583.927423
805.679024	2593.589635
805.999485	2581.154788
806.319901	2579.054308
806.640272	2584.263500
806.960598	2584.095462
807.280879	2575.861577
807.601115	2577.878038
807.921306	2577.037846
808.241453	2561.326250
808.561554	2588.632500
808.881611	2576.533731
809.201623	2569.644154
809.521590	2561.914385
809.841513	2566.619462
810.161390	2568.972000
810.481223	2581.238808
810.801011	2569.812192
811.120755	2572.164731
811.440453	2573.172962
811.760107	2571.828654
812.079716	2580.398615
812.399281	2572.836885
812.718801	2564.266923
813.038276	2563.846827
813.357707	2577.878038
813.677093	2572.248750
813.996434	2563.678788
814.315731	2579.054308
814.634983	2581.238808
814.954191	2579.558423
815.273354	2573.929135
815.592473	2574.013154
815.911547	2577.710000
816.230577	2601.823519
816.549562	2561.242231
816.868502	2585.103692
817.187399	2568.803962
817.506250	2561.410269
817.825058	2571.492577
818.143821	2577.878038
818.462539	2575.357462
818.781213	2588.632500
819.099843	2564.603000
819.418429	2570.988462
819.736970	2560.234000
820.055466	2574.433250
820.373919	2583.927423
820.692327	2567.207596
821.010691	2593.337577
821.329011	2588.128385
821.647286	2585.187712
821.965517	2590.564942
822.283704	2595.101981
822.601847	2605.940462
822.919945	2613.502192
823.237999	2614.846500
823.556010	2602.579692
823.873976	2602.747731
824.191897	2587.372212
824.509775	2586.111923
824.827609	2600.059115
825.145398	2587.456231
825.463144	2591.657192
825.780845	2587.960346
826.098502	2572.164731
826.416116	2577.373923
826.733685	2592.665423
827.051210	2607.200750
827.368692	2607.956923
827.686129	2585.523788
828.003522	2590.901019
828.320872	2585.775846
828.638177	2577.205885
828.955439	2575.105404
829.272656	2590.732981
829.589830	2585.523788
829.906960	2569.896212
830.224046	2578.970288
830.541088	2593.001500
830.858086	2575.861577
831.175041	2575.105404
831.491952	2570.148269
831.808819	2579.054308
832.125642	2557.965481
832.442421	2587.120154
832.759157	2585.439769
833.075849	2579.894500
833.392497	2576.533731
833.709101	2556.537154
834.025662	2570.064250
834.342179	2585.103692
834.658653	2577.625981
834.975083	2568.803962
835.291469	2593.169538
835.607811	2579.474404
835.924110	2566.283385
836.240366	2581.322827
836.556578	2586.027904
836.872746	2575.693538
837.188871	2566.787500
837.504952	2564.855058
837.820990	2548.555327
838.136984	2572.164731
838.452935	2591.153077
838.768842	2574.517269
839.084706	2560.402038
839.400526	2563.258692
839.716303	2556.201077
840.032037	2565.191135
840.347727	2570.988462
840.663373	2589.472692
840.978977	2572.248750
841.294537	2576.533731
841.610054	2570.232288
841.925527	2574.937365
842.240957	2558.721654
842.556344	2583.255269
842.871687	2558.721654
843.186987	2578.634212
843.502244	2578.046077
843.817458	2587.288192
844.132629	2585.019673
844.447756	2577.205885
844.762840	2568.047788
845.077881	2575.525500
845.392879	2569.224058
845.707833	2569.056019
846.022745	2581.406846
846.337613	2569.140038
846.652438	2575.189423
846.967221	2565.359173
847.281960	2571.324538
847.596656	2569.812192
847.911309	2567.459654
848.225919	2575.525500
848.540485	2563.174673
848.855009	2575.189423
849.169490	2576.869808
849.483928	2580.146558
849.798323	2581.490865
850.112675	2570.232288
850.426984	2568.803962
850.741251	2569.308077
851.055474	2570.484346
851.369654	2575.189423
851.683792	2568.047788
851.997887	2554.268635
852.311938	2567.207596
852.625947	2569.644154
852.939914	2570.820423
853.253837	2566.535442
853.567718	2570.904442
853.881555	2587.204173
854.195350	2573.004923
854.509103	2574.853346
854.822812	2559.981942
855.136479	2557.545385
855.450103	2560.990173
855.763685	2570.316308
856.077224	2553.848538
856.390720	2565.779269
856.704173	2568.047788
857.017584	2556.117058
857.330953	2564.855058
857.644278	2554.268635
857.957561	2592.749442
858.270802	2572.836885
858.584000	2576.785788
858.897155	2572.920904
859.210268	2567.207596
859.523339	2567.039558
859.836367	2577.121865
860.149352	2552.504231
860.462295	2575.273442
860.775195	2572.920904
861.088054	2577.962058
861.400869	2581.826942
861.713642	2573.845115
862.026373	2568.131808
862.339062	2560.318019
862.651708	2569.392096
862.964312	2561.242231
863.276873	2564.014865
863.589392	2576.617750
863.901869	2574.937365
864.214303	2585.859865
864.526696	2563.594769
864.839045	2576.869808
865.151353	2581.994981
865.463619	2577.878038
865.775842	2568.131808
866.088023	2575.105404
866.400162	2576.197654
866.712258	2568.635923
867.024313	2563.510750
867.336325	2573.509038
867.648296	2575.357462
867.960224	2561.830365
868.272110	2583.423308
868.583954	2571.576596
868.895755	2560.990173
869.207515	2571.660615
869.519233	2580.146558
869.830909	2579.894500
870.142542	2567.627692
870.454134	2576.533731
870.765684	2575.105404
871.077191	2575.525500
871.388657	2575.777558
871.700081	2565.863288
872.011463	2576.365692
872.322803	2574.853346
872.634101	2568.635923
872.945357	2572.836885
873.256571	2570.988462
873.567744	2559.897923
873.878874	2575.189423
874.189963	2580.734692
874.501010	2563.762808
874.812015	2562.418500
875.122979	2562.922615
875.433900	2566.703481
875.744780	2557.713423
876.055618	2590.648962
876.366415	2569.308077
876.677169	2562.502519
876.987882	2570.652385
877.298554	2584.683596
877.609183	2573.761096
877.919771	2554.016577
878.230317	2560.486058
878.540822	2578.718231
878.851285	2567.123577
879.161707	2571.240519
879.472087	2564.350942
879.782425	2575.861577
880.092722	2575.189423
880.402977	2571.828654
880.713191	2591.321115
881.023363	2593.505615
881.333494	2593.169538
881.643583	2597.034423
881.953631	2590.648962
882.263637	2582.835173
882.573602	2578.046077
882.883526	2584.935654
883.193408	2573.929135
883.503248	2575.777558
883.813048	2584.095462
884.122806	2564.350942
884.432522	2580.734692
884.742197	2584.431538
885.051831	2588.800538
885.361424	2589.052596
885.670975	2574.181192
885.980485	2584.599577
886.289954	2569.392096
886.599382	2582.751154
886.908768	2570.232288
887.218113	2580.146558
887.527417	2571.996692
887.836680	2561.410269
888.145901	2568.972000
888.455082	2558.889692
888.764221	2570.988462
889.073319	2578.802250
889.382376	2584.263500
889.691392	2568.972000
890.000366	2581.070769
890.309300	2578.634212
890.618193	2569.140038
890.927044	2565.947308
891.235855	2564.350942
891.544625	2566.619462
891.853353	2577.794019
892.162041	2568.215827
892.470687	2554.184615
892.779293	2559.729885
893.087858	2579.390385
893.396381	2575.357462
893.704864	2570.736404
894.013306	2577.541962
894.321707	2570.484346
894.630068	2571.912673
894.938387	2558.469596
895.246665	2572.164731
895.554903	2569.308077
895.863100	2559.477827
896.171256	2574.517269
896.479371	2584.935654
896.787446	2567.879750
897.095480	2566.535442
897.403473	2584.935654
897.711425	2566.619462
898.019336	2569.980231
898.327207	2561.074192
898.635038	2559.645865
898.942827	2576.533731
899.250576	2554.688731
899.558284	2581.490865
899.865952	2565.023096
900.173579	2579.054308
900.481165	2574.433250
900.788711	2571.996692
901.096216	2563.930846
901.403681	2566.451423
901.711105	2579.306365
902.018489	2564.939077
902.325832	2574.265212
902.633135	2563.426731
902.940397	2562.250462
903.247619	2563.258692
903.554800	2569.980231
903.861941	2565.191135
904.169041	2568.803962
904.476101	2591.573173
904.783121	2579.138327
905.090100	2580.062538
905.397039	2570.568365
905.703938	2569.476115
906.010796	2569.476115
906.317614	2577.878038
906.624391	2588.380442
906.931129	2567.123577
907.237826	2577.205885
907.544483	2566.535442
907.851099	2567.459654
908.157675	2564.518981
908.464211	2583.843404
908.770707	2578.382154
909.077163	2567.543673
909.383578	2560.822135
909.689954	2588.296423
909.996289	2557.629404
910.302584	2555.192846
910.608839	2562.670558
910.915054	2569.812192
911.221229	2565.359173
911.527363	2559.729885
911.833458	2570.316308
912.139513	2561.746346
912.445527	2571.912673
912.751502	2560.570077
913.057436	2567.543673
913.363331	2569.056019
913.669186	2573.509038
913.975000	2568.467885
914.280775	2574.517269
914.586510	2578.718231
914.892205	2575.441481
915.197859	2560.402038
915.503475	2577.541962
915.809050	2582.079000
916.114585	2594.513846
916.420081	2579.390385
916.725536	2580.902731
917.030952	2578.634212
917.336328	2575.273442
917.641665	2572.080712
917.946961	2576.449712
918.252218	2581.658904
918.557435	2576.869808
918.862612	2576.113635
919.167750	2573.256981
919.472848	2550.823846
919.777906	2559.645865
920.082925	2582.751154
920.387904	2576.365692
920.692843	2555.949019
920.997743	2571.408558
921.302603	2556.873231
921.607423	2562.502519
921.912204	2552.672269
922.216946	2576.365692
922.521647	2550.235712
922.826310	2571.660615
923.130932	2571.156500
923.435516	2571.828654
923.740059	2581.994981
924.044564	2555.780981
924.349028	2573.593058
924.653454	2570.652385
924.957840	2579.558423
925.262186	2571.744635
925.566493	2566.451423
925.870761	2576.029615
926.174989	2580.062538
926.479178	2578.046077
926.783328	2576.281673
927.087438	2571.660615
927.391509	2570.316308
927.695541	2580.986750
927.999533	2565.443192
928.303486	2551.159923
928.607400	2564.518981
928.911275	2564.434962
929.215110	2579.390385
929.518906	2561.914385
929.822663	2554.016577
930.126381	2573.425019
930.430060	2576.785788
930.733699	2563.006635
931.037299	2559.141750
931.340861	2557.293327
931.644383	2583.675365
931.947866	2547.295038
932.251309	2563.258692
932.554714	2571.156500
932.858080	2550.907865
933.161407	2571.660615
933.464694	2569.728173
933.767943	2561.242231
934.071153	2566.955538
934.374323	2556.201077
934.677455	2568.635923
934.980548	2571.660615
935.283602	2564.266923
935.586617	2553.344423
935.889593	2573.341000
936.192530	2558.301558
936.495428	2566.451423
936.798287	2561.326250
937.101108	2572.080712
937.403890	2565.695250
937.706632	2565.779269
938.009336	2563.762808
938.312002	2562.418500
938.614628	2565.191135
938.917216	2564.687019
939.219765	2559.141750
939.522275	2564.687019
939.824747	2575.189423
940.127179	2562.334481
940.429573	2561.998404
940.731929	2559.897923
941.034246	2570.064250
941.336524	2568.131808
941.638763	2557.881462
941.940964	2585.775846
942.243126	2564.266923
942.545250	2568.635923
942.847335	2545.698673
943.149381	2579.894500
943.451389	2555.612942
943.753359	2562.418500
944.055290	2557.797442
944.357182	2564.014865
944.659036	2567.375635
944.960851	2559.645865
945.262628	2570.904442
945.564367	2576.113635
945.866067	2567.879750
946.167729	2574.181192
946.469352	2560.318019
946.770937	2575.693538
947.072484	2590.312885
947.373992	2554.184615
947.675462	2558.889692
947.976893	2570.904442
948.278286	2559.729885
948.579641	2569.728173
948.880958	2573.341000
949.182236	2558.217538
949.483476	2562.838596
949.784678	2580.734692
950.085841	2555.780981
950.386967	2556.957250
950.688054	2568.383865
950.989103	2579.558423
951.290114	2574.097173
951.591087	2582.079000
951.892021	2559.225769
952.192917	2553.176385
952.493776	2562.754577
952.794596	2562.334481
953.095378	2564.434962
953.396122	2560.654096
953.696828	2566.619462
953.997496	2562.670558
954.298126	2560.738115
954.598718	2573.256981
954.899272	2569.476115
955.199788	2560.318019
955.500266	2560.149981
955.800706	2572.164731
956.101108	2564.603000
956.401472	2579.222346
956.701798	2563.006635
957.002087	2562.586538
957.302337	2556.789212
957.602550	2568.047788
957.902724	2574.685308
958.202861	2567.711712
958.502960	2564.098885
958.803022	2588.884558
959.103045	2555.696962
959.403031	2567.207596
959.702979	2579.390385
960.002889	2564.182904
960.302762	2564.182904
960.602596	2572.752865
960.902393	2582.331058
961.202153	2569.896212
961.501875	2554.100596
961.801559	2566.199365
962.101205	2562.754577
962.400814	2568.131808
962.700385	2575.609519
962.999918	2559.981942
963.299414	2554.436673
963.598873	2553.680500
963.898293	2549.899635
964.197677	2579.558423
964.497022	2558.553615
964.796331	2573.677077
965.095601	2570.400327
965.394835	2554.772750
965.694030	2558.973712
965.993189	2568.383865
966.292309	2567.711712
966.591393	2556.117058
966.890439	2580.902731
967.189447	2572.248750
967.488419	2556.201077
967.787353	2568.131808
968.086249	2565.275154
968.385108	2567.627692
968.683930	2572.920904
968.982714	2574.601288
969.281462	2585.103692
969.580172	2563.678788
969.878844	2562.670558
970.177480	2556.621173
970.476078	2571.324538
970.774639	2559.981942
971.073162	2560.570077
971.371649	2578.130096
971.670098	2553.764519
971.968510	2567.711712
972.266885	2573.256981
972.565223	2562.082423
972.863524	2566.619462
973.161788	2569.140038
973.460014	2554.268635
973.758204	2567.627692
974.056356	2563.510750
974.354471	2570.820423
974.652550	2561.158212
974.950591	2571.156500
975.248595	2566.031327
975.546563	2577.625981
975.844493	2580.734692
976.142386	2559.393808
976.440243	2571.324538
976.738062	2564.350942
977.035845	2567.879750
977.333590	2545.446615
977.631299	2572.584827
977.928971	2557.125288
978.226606	2571.828654
978.524204	2554.940788
978.821765	2562.250462
979.119290	2565.695250
979.416777	2570.400327
979.714228	2573.256981
980.011642	2570.904442
980.309020	2567.459654
980.606360	2563.006635
980.903664	2562.502519
981.200931	2571.240519
981.498162	2558.637635
981.795356	2568.551904
982.092513	2563.762808
982.389633	2580.398615
982.686717	2569.728173
982.983764	2578.466173
983.280775	2557.797442
983.577749	2557.125288
983.874686	2575.189423
984.171587	2574.853346
984.468451	2568.467885
984.765279	2579.558423
985.062070	2564.266923
985.358824	2555.444904
985.655543	2566.367404
985.952224	2570.484346
986.248869	2559.645865
986.545478	2555.192846
986.842050	2564.182904
987.138586	2571.324538
987.435086	2569.476115
987.731549	2546.874942
988.027975	2574.349231
988.324366	2553.176385
988.620719	2572.416788
988.917037	2555.612942
989.213318	2571.156500
989.509563	2564.182904
989.805772	2552.420212
990.101944	2575.693538
990.398080	2569.224058
990.694180	2567.879750
990.990244	2572.416788
991.286271	2569.644154
991.582262	2555.528923
991.878217	2570.568365
992.174136	2568.215827
992.470019	2571.156500
992.765865	2553.176385
993.061676	2558.973712
993.357450	2569.056019
993.653188	2570.064250
993.948890	2562.922615
994.244556	2562.754577
994.540186	2573.172962
994.835780	2566.787500
995.131337	2552.168154
995.426859	2573.256981
995.722345	2559.561846
996.017795	2567.963769
996.313208	2557.209308
996.608586	2562.082423
996.903928	2559.057731
997.199234	2566.283385
997.494504	2586.700058
997.789738	2564.182904
998.084936	2572.080712
998.380099	2561.410269
998.675225	2567.543673
998.970316	2560.065962
999.265371	2555.276865
999.560390	2583.927423
999.855373	2566.535442
1000.150320	2569.896212
1000.445232	2568.887981
1000.740108	2551.243942
1001.034948	2571.912673
1001.329752	2568.972000
1001.624521	2586.616038
1001.919254	2580.146558
1002.213951	2554.184615
1002.508613	2566.115346
1002.803239	2563.174673
1003.097829	2579.726462
1003.392384	2557.209308
1003.686903	2562.754577
1003.981386	2568.719942
1004.275834	2560.654096
1004.570246	2551.748058
1004.864623	2554.940788
1005.158964	2563.930846
1005.453270	2561.662327
1005.747540	2554.604712
1006.041775	2561.830365
1006.335974	2573.593058
1006.630138	2556.537154
1006.924266	2555.612942
1007.218359	2561.746346
1007.512416	2563.594769
1007.806438	2571.408558
1008.100425	2560.990173
1008.394376	2556.873231
1008.688292	2555.360885
1008.982172	2569.476115
1009.276017	2560.906154
1009.569827	2568.803962
1009.863602	2576.365692
1010.157341	2568.551904
1010.451045	2567.039558
1010.744714	2564.855058
1011.038347	2573.593058
1011.331945	2558.385577
1011.625508	2561.158212
1011.919036	2547.799154
1012.212528	2570.316308
1012.505986	2560.318019
1012.799408	2574.853346
1013.092795	2571.072481
1013.386147	2574.517269
1013.679464	2564.014865
1013.972745	2563.426731
1014.265992	2552.336192
1014.559204	2561.494288
1014.852380	2560.402038
1015.145521	2577.121865
1015.438628	2563.678788
1015.731699	2548.639346
1016.024736	2557.881462
1016.317737	2553.008346
1016.610703	2561.662327
1016.903635	2561.326250
1017.196531	2562.838596
1017.489393	2571.660615
1017.782219	2575.273442
1018.075011	2557.881462
1018.367768	2567.039558
1018.660490	2566.451423
1018.953177	2566.451423
1019.245829	2566.451423
