Dividing Wavelength (nm)	Counts (n)	Slit_number_13_of_a_total_of_40	
326.493990	2134.844635
326.888308	2134.844635
327.282561	2134.844635
327.676750	2121.401558
328.070874	2142.574404
328.464933	2140.053827
328.858929	2146.859385
329.252859	2158.370019
329.646726	2183.407750
330.040528	2176.098077
330.434265	2201.807962
330.827938	2220.712288
331.221547	2252.891654
331.615091	2273.056269
332.008571	2288.599827
332.401986	2296.413615
332.795338	2321.535365
333.188625	2345.564865
333.581847	2372.451019
333.975006	2379.844712
334.368100	2393.287788
334.761129	2433.533000
335.154095	2424.710981
335.546996	2455.209962
335.939833	2458.822788
336.332606	2483.776500
336.725315	2485.961000
337.117960	2507.217865
337.510540	2510.242558
337.903056	2515.199692
338.295508	2542.758000
338.687896	2531.163346
339.080220	2537.296750
339.472480	2544.270346
339.864676	2558.385577
340.256807	2545.782692
340.648875	2536.540577
341.040879	2559.897923
341.432818	2555.949019
341.824694	2554.856769
342.216506	2540.153404
342.608253	2556.369115
342.999937	2544.270346
343.391557	2554.268635
343.783113	2544.942500
344.174605	2553.260404
344.566033	2547.715135
344.957397	2555.780981
345.348697	2551.327962
345.739934	2546.622885
346.131106	2550.907865
346.522215	2541.749769
346.913260	2568.719942
347.304241	2525.197981
347.695159	2542.673981
348.086012	2530.995308
348.476802	2536.540577
348.867528	2539.313212
349.258191	2525.618077
349.648789	2535.196269
350.039324	2516.459981
350.429796	2527.802577
350.820203	2532.591673
351.210548	2516.796058
351.600828	2527.130423
351.991045	2519.064577
352.381198	2529.987077
352.771288	2524.693865
353.161314	2529.482962
353.551276	2524.021712
353.941175	2529.566981
354.331010	2520.828981
354.720782	2518.896538
355.110490	2513.519308
355.500135	2524.693865
355.889717	2544.102308
356.279235	2523.013481
356.668689	2525.870135
357.058080	2523.517596
357.447408	2511.670885
357.836672	2543.430154
358.225873	2524.273769
358.615010	2526.962385
359.004084	2535.196269
359.393095	2533.263827
359.782043	2542.758000
360.170927	2519.232615
360.559748	2540.657519
360.948505	2516.796058
361.337199	2528.222673
361.725830	2538.052923
362.114398	2529.230904
362.502903	2528.474731
362.891344	2522.509365
363.279722	2528.894827
363.668037	2546.874942
364.056289	2545.446615
364.444478	2538.557038
364.832603	2552.084135
365.220665	2540.573500
365.608665	2533.767942
365.996601	2537.128712
366.384474	2540.489481
366.772284	2540.657519
367.160031	2536.204500
367.547715	2543.766231
367.935336	2529.735019
368.322893	2531.835500
368.710388	2534.356077
369.097820	2539.901346
369.485189	2529.398942
369.872495	2546.034750
370.259738	2545.362596
370.646918	2520.744962
371.034035	2545.026519
371.421090	2545.698673
371.808081	2537.548808
372.195010	2536.456558
372.581875	2534.776173
372.968678	2540.993596
373.355418	2555.024808
373.742096	2533.683923
374.128710	2546.034750
374.515262	2541.581731
374.901751	2540.993596
375.288177	2536.036462
375.674540	2536.120481
376.060841	2552.420212
376.447079	2541.917808
376.833254	2543.094077
377.219367	2539.901346
377.605417	2537.800865
377.991404	2541.497712
378.377329	2548.051212
378.763191	2544.354365
379.148991	2536.288519
379.534727	2544.102308
379.920402	2545.950731
380.306013	2551.832077
380.691563	2548.807385
381.077049	2530.155115
381.462474	2542.169865
381.847835	2548.555327
382.233134	2545.362596
382.618371	2555.024808
383.003545	2550.991885
383.388657	2552.084135
383.773706	2559.645865
384.158693	2534.440096
384.543618	2554.352654
384.928480	2550.655808
385.313280	2543.346135
385.698017	2536.792635
386.082692	2546.370827
386.467305	2556.453135
386.851856	2544.690442
387.236344	2555.696962
387.620770	2548.975423
388.005133	2535.616365
388.389435	2559.309788
388.773674	2537.128712
389.157851	2543.766231
389.541965	2553.176385
389.926018	2556.285096
390.310008	2567.375635
390.693936	2544.018288
391.077802	2549.899635
391.461606	2562.166442
391.845348	2559.897923
392.229027	2560.654096
392.612645	2550.403750
392.996200	2547.042981
393.379694	2548.891404
393.763125	2555.360885
394.146494	2549.395519
394.529801	2565.023096
394.913047	2545.278577
395.296230	2547.295038
395.679351	2556.453135
396.062410	2562.166442
396.445408	2555.024808
396.828343	2548.891404
397.211217	2549.059442
397.594028	2557.629404
397.976778	2544.690442
398.359466	2558.889692
398.742092	2533.935981
399.124656	2559.477827
399.507158	2560.570077
399.889598	2557.209308
400.271977	2555.444904
400.654294	2546.790923
401.036549	2556.537154
401.418742	2531.247365
401.800874	2559.897923
402.182944	2565.695250
402.564952	2581.574885
402.946898	2558.721654
403.328783	2563.426731
403.710606	2546.874942
404.092367	2561.746346
404.474067	2556.789212
404.855705	2548.303269
405.237282	2565.779269
405.618797	2571.828654
406.000250	2561.326250
406.381642	2565.779269
406.762972	2549.563558
407.144240	2560.065962
407.525447	2549.815615
407.906593	2550.823846
408.287677	2556.117058
408.668700	2560.570077
409.049661	2549.479538
409.430560	2554.520692
409.811399	2567.627692
410.192176	2558.049500
410.572891	2547.547096
410.953545	2579.810481
411.334138	2559.729885
411.714669	2553.596481
412.095139	2556.453135
412.475547	2564.098885
412.855894	2554.268635
413.236180	2550.403750
413.616405	2565.779269
413.996568	2559.813904
414.376670	2553.092365
414.756711	2575.693538
415.136691	2569.896212
415.516609	2563.846827
415.896466	2566.955538
416.276262	2570.736404
416.655997	2574.433250
417.035670	2556.369115
417.415283	2573.509038
417.794834	2560.654096
418.174324	2572.500808
418.553753	2559.729885
418.933121	2580.146558
419.312428	2560.318019
419.691674	2556.537154
420.070859	2571.492577
420.449983	2565.947308
420.829045	2561.410269
421.208047	2557.713423
421.586988	2568.803962
421.965867	2555.024808
422.344686	2564.098885
422.723444	2574.013154
423.102141	2572.500808
423.480777	2570.316308
423.859352	2576.533731
424.237866	2571.660615
424.616319	2565.443192
424.994712	2576.029615
425.373044	2567.123577
425.751314	2567.543673
426.129524	2559.225769
426.507673	2559.393808
426.885762	2566.787500
427.263789	2565.779269
427.641756	2560.990173
428.019662	2562.922615
428.397508	2571.576596
428.775292	2572.752865
429.153016	2571.828654
429.530679	2571.660615
429.908282	2584.431538
430.285824	2562.922615
430.663305	2561.578308
431.040726	2562.922615
431.418086	2573.677077
431.795385	2574.685308
432.172624	2564.266923
432.549802	2566.955538
432.926920	2566.955538
433.303977	2575.861577
433.680974	2580.062538
434.057910	2579.306365
434.434786	2565.947308
434.811601	2583.927423
435.188355	2573.088942
435.565050	2575.357462
435.941683	2568.887981
436.318257	2579.726462
436.694770	2566.703481
437.071222	2580.230577
437.447614	2576.533731
437.823946	2579.306365
438.200218	2587.876327
438.576429	2572.500808
438.952580	2568.131808
439.328670	2581.910962
439.704700	2578.718231
440.080670	2575.357462
440.456580	2588.464462
440.832429	2589.472692
441.208218	2594.849923
441.583947	2577.205885
441.959616	2577.205885
442.335224	2605.184288
442.710773	2583.927423
443.086261	2584.599577
443.461689	2577.541962
443.837057	2580.734692
444.212365	2580.986750
444.587612	2580.314596
444.962800	2577.121865
445.337927	2591.909250
445.712995	2592.665423
446.088002	2573.341000
446.462949	2590.564942
446.837837	2584.095462
447.212664	2587.876327
447.587431	2587.708288
447.962139	2586.784077
448.336786	2601.067346
448.711374	2594.345808
449.085901	2593.841692
449.460369	2587.288192
449.834776	2572.500808
450.209124	2597.706577
450.583412	2588.716519
450.957640	2596.530308
451.331808	2592.665423
451.705917	2588.380442
452.079965	2581.910962
452.453954	2594.597865
452.827883	2610.729558
453.201752	2600.143135
453.575562	2594.177769
453.949311	2601.487442
454.323001	2592.077288
454.696632	2593.505615
455.070202	2593.169538
455.443713	2613.250135
455.817164	2608.797115
456.190556	2595.354038
456.563888	2600.983327
456.937160	2613.922288
457.310373	2619.215500
457.683526	2630.474077
458.056619	2600.227154
458.429653	2606.948692
458.802628	2615.266596
459.175542	2624.256654
459.548398	2622.408231
459.921194	2645.933615
460.293930	2627.281346
460.666607	2646.017635
461.039224	2662.905500
461.411782	2646.353712
461.784280	2651.394865
462.156719	2671.139385
462.529099	2674.332115
462.901419	2692.984385
463.273680	2672.063596
463.645882	2681.893846
464.018024	2688.279308
464.390106	2685.086577
464.762130	2716.509769
465.134094	2737.430558
465.505999	2774.483038
465.877845	2822.626058
466.249631	2840.774212
466.621358	2845.899385
466.993026	2862.787250
467.364634	2862.535192
467.736184	2853.629154
468.107674	2862.955288
468.479105	2868.080462
468.850477	2885.136365
469.221790	2896.647000
469.593043	2917.903865
469.964238	2907.737538
470.335373	2942.689538
470.706449	2953.023904
471.077467	2977.725558
471.448425	3085.270173
471.819324	3188.697846
472.190164	3235.580577
472.560945	3217.348404
472.931667	3208.022269
473.302330	3202.729058
473.672934	3228.354923
474.043479	3273.641288
474.413965	3290.361115
474.784393	3316.407077
475.154761	3392.192423
475.525070	3438.318981
475.895321	3477.219885
476.265513	3548.300154
476.635645	3635.680154
477.005719	3688.360212
477.375734	3784.142135
477.745691	3847.828712
478.115588	3962.094865
478.485427	4092.408692
478.855207	4290.694077
479.224928	4498.977750
479.594591	4734.063558
479.964194	4846.145212
480.333739	4957.554712
480.703226	5029.055077
481.072653	5176.256769
481.442022	5339.674173
481.811333	5522.668058
482.180584	5592.404019
482.549777	5638.782635
482.918912	5746.915385
483.287988	5857.400673
483.657005	5984.101673
484.025964	6034.765269
484.394864	6198.434731
484.763706	6316.145673
485.132489	6381.512635
485.501213	6486.704712
485.869879	6673.899558
486.238487	6742.543269
486.607036	6912.514173
486.975527	7038.879096
487.343959	7209.354115
487.712333	7348.237904
488.080648	7513.587750
488.448905	7760.856346
488.817104	7896.211327
489.185244	8116.677788
489.553326	8411.669308
489.921350	8922.422212
490.289315	9599.449173
490.657222	10027.863231
491.025070	10418.300596
491.392861	10556.680269
491.760593	10596.505385
492.128267	10544.413462
492.495883	10512.402135
492.863440	10449.807808
493.230939	10380.828019
493.598380	10377.635288
493.965763	10498.034846
494.333088	10461.654519
494.700354	10506.268731
495.067563	10632.633654
495.434713	10784.204346
495.801805	10968.710577
496.168839	11031.893038
496.535815	11137.253154
496.902733	11312.853346
497.269593	11362.256654
497.636395	11488.789615
498.003139	11696.485154
498.369825	11796.804115
498.736453	11968.035308
499.103023	12003.323385
499.469535	12123.554904
499.835989	12240.929769
500.202385	12327.721635
500.568723	12431.065288
500.935003	12564.235769
501.301226	12571.545442
501.667390	12897.456038
502.033497	13095.237308
502.399546	13051.547308
502.765537	13040.036673
503.131470	13164.469154
503.497345	13411.569712
503.863163	13098.766115
504.228923	13338.052885
504.594625	13524.575577
504.960269	13407.452769
505.325856	13653.293038
505.691385	13496.849231
506.056856	13591.959000
506.422270	13724.541346
506.787625	13677.826654
507.152924	13732.271115
507.518164	13799.738558
507.883347	13591.118808
508.248472	13655.225481
508.613540	13822.003654
508.978550	13865.861692
509.343503	13792.933000
509.708398	13831.497827
510.073236	13992.226615
510.438016	13940.050673
510.802738	13778.061596
511.167403	13869.558538
511.532010	13890.647365
511.896561	13967.945058
512.261053	14106.156692
512.625488	13933.497173
512.989866	13797.133962
513.354186	13689.085231
513.718449	13582.044731
514.082655	13714.795115
514.446803	13485.590654
514.810894	13555.998769
515.174927	13442.404769
515.538904	13290.582019
515.902822	13383.759346
516.266684	13050.287019
516.630488	12990.969442
516.994235	12905.689923
517.357925	12875.190942
517.721558	12761.764981
518.085133	12696.145962
518.448651	12572.385635
518.812112	12366.622538
519.175516	12200.432500
519.538863	12111.540154
519.902152	11970.723923
520.265385	11918.632000
520.628560	11751.769808
520.991678	11605.660365
521.354739	11409.979577
521.717743	11329.405135
522.080690	11105.493885
522.443580	11088.522000
522.806413	10940.144038
523.169189	10729.759885
523.531908	10615.409712
523.894569	10380.407923
524.257174	10227.240865
524.619722	10107.177385
524.982213	9896.625192
525.344647	9751.271923
525.707025	9593.147731
526.069345	9481.570192
526.431608	9290.510462
526.793815	9162.213096
527.155964	8919.649577
527.518057	8764.129981
527.880093	8612.307231
528.242072	8483.085654
528.603995	8259.930577
528.965860	8103.906865
529.327669	7954.940769
529.689421	7766.485635
530.051117	7598.783250
530.412755	7489.138154
530.774337	7328.745442
531.135862	7174.234077
531.497331	7038.374981
531.858743	6879.158538
532.220098	6786.821404
532.581396	6620.631365
532.942638	6452.004769
533.303824	6353.114135
533.664953	6222.968346
534.026025	6032.916846
534.387040	5973.767308
534.747999	5864.290250
535.108902	5761.534731
535.469748	5595.764788
535.830537	5500.486981
536.191270	5393.530500
536.551947	5285.397750
536.912567	5179.365481
537.273131	5109.041385
537.633638	4977.215212
537.994089	4906.050923
538.354483	4794.137308
538.714821	4730.618769
539.075103	4675.754212
539.435328	4578.123865
539.795497	4493.936596
540.155609	4415.126558
540.515665	4366.983538
540.875665	4251.373077
541.235609	4209.867577
541.595496	4140.719750
541.955328	4092.240654
542.315102	4031.326712
542.674821	3933.528327
543.034483	3881.856500
543.394090	3840.939135
543.753640	3774.816000
544.113134	3743.392808
544.472571	3678.698000
544.831953	3646.770692
545.191278	3587.117038
545.550548	3558.214423
545.909761	3508.054942
546.268918	3463.440731
546.628019	3429.749019
546.987064	3395.469173
547.346053	3341.696865
547.704986	3326.069288
548.063863	3283.639577
548.422684	3281.034981
548.781449	3222.389558
549.140158	3204.577481
549.498811	3174.162519
549.857408	3152.401538
550.215949	3132.320942
550.574434	3114.256808
550.932864	3087.202615
551.291237	3091.739654
551.649555	3044.940942
552.007817	3029.901500
552.366022	2997.386058
552.724173	3005.703962
553.082267	2987.555808
553.440305	2955.964577
553.798288	2957.728981
554.156215	2951.091462
554.514086	2930.170673
554.871902	2919.164154
555.229661	2900.931981
555.587365	2887.236846
555.945014	2874.381904
556.302606	2878.666885
556.660143	2858.670308
557.017625	2841.278327
557.375050	2843.882923
557.732421	2828.003288
558.089735	2826.070846
558.446994	2825.986827
558.804197	2802.545462
559.161345	2791.034827
559.518437	2791.034827
559.875474	2789.270423
560.232455	2794.899712
560.589381	2791.706981
560.946251	2774.315000
561.303065	2772.214519
561.659825	2755.242635
562.016528	2751.461769
562.373177	2753.058135
562.729770	2735.582135
563.086307	2741.631519
563.442789	2739.783096
563.799216	2727.684327
564.155587	2725.835904
564.511904	2718.862308
564.868164	2720.206615
565.224370	2726.592077
565.580520	2718.442212
565.936615	2701.302288
566.292654	2705.167173
566.648638	2705.167173
567.004567	2688.363327
567.360441	2698.025538
567.716260	2694.160654
568.072023	2684.582462
568.427732	2688.279308
568.783385	2663.913731
569.138982	2678.028962
569.494525	2673.323885
569.850013	2685.422654
570.205445	2670.635269
570.560823	2675.172308
570.916145	2677.440827
571.271412	2660.721000
571.626625	2663.913731
571.981782	2670.971346
572.336884	2660.805019
572.691931	2678.112981
573.046923	2649.882519
573.401860	2650.722712
573.756743	2659.124635
574.111570	2657.444250
574.466342	2662.065308
574.821059	2635.683269
575.175722	2652.907212
575.530330	2649.378404
575.884882	2635.263173
576.239380	2640.892462
576.593823	2641.732654
576.948211	2636.355423
577.302544	2626.273115
577.656823	2625.769000
578.011047	2638.035808
578.365216	2631.818385
578.719330	2622.492250
579.073389	2635.851308
579.427394	2634.170923
579.781344	2622.324212
580.135239	2621.147942
580.489080	2632.910635
580.842866	2622.156173
581.196597	2638.035808
581.550273	2629.129769
581.903895	2621.568038
582.257463	2619.299519
582.610975	2633.246712
582.964434	2616.190808
583.317837	2618.627365
583.671186	2620.475788
584.024481	2625.853019
584.377721	2622.324212
584.730906	2615.098558
585.084037	2616.190808
585.437113	2621.400000
585.790135	2615.350615
586.143103	2624.256654
586.496016	2610.561519
586.848874	2619.887654
587.201679	2611.317692
587.554428	2619.215500
587.907124	2610.897596
588.259765	2610.057404
588.612352	2612.325923
588.964884	2595.942173
589.317362	2621.652058
589.669786	2614.426404
590.022155	2631.566327
590.374470	2608.545058
590.726731	2617.871192
591.078937	2603.587923
591.431090	2605.268308
591.783188	2612.073865
592.135232	2617.367077
592.487222	2615.350615
592.839157	2608.545058
593.191038	2607.200750
593.542866	2609.049173
593.894639	2597.370500
594.246358	2598.630788
594.598022	2611.149654
594.949633	2597.370500
595.301190	2609.385250
595.652692	2612.241904
596.004141	2617.619135
596.355535	2601.403423
596.706876	2607.284769
597.058162	2596.362269
597.409395	2607.200750
597.760573	2604.932231
598.111698	2602.411654
598.462768	2611.065635
598.813785	2581.322827
599.164748	2603.335865
599.515657	2603.167827
599.866511	2603.587923
600.217312	2595.017962
600.568060	2593.841692
600.918753	2613.922288
601.269392	2590.060827
601.619978	2597.790596
601.970510	2607.620846
602.320988	2602.495673
602.671412	2615.686692
603.021783	2613.334154
603.372100	2597.454519
603.722363	2606.360558
604.072572	2606.360558
604.422728	2611.401712
604.772830	2600.647250
605.122878	2598.798827
605.472872	2610.645538
605.822813	2612.662000
606.172701	2603.251846
606.522534	2610.897596
606.872314	2592.749442
607.222041	2616.526885
607.571714	2610.897596
607.921333	2604.008019
608.270899	2595.606096
608.620411	2599.470981
608.969870	2605.856442
609.319276	2605.352327
609.668627	2596.446288
610.017926	2606.948692
610.367171	2589.388673
610.716362	2594.009731
611.065500	2615.854731
611.414585	2593.757673
611.763616	2606.528596
612.112594	2586.111923
612.461518	2584.263500
612.810389	2589.808769
613.159207	2598.294712
613.507971	2607.200750
613.856682	2606.360558
614.205340	2600.647250
614.553945	2613.418173
614.902496	2611.317692
615.250994	2589.640731
615.599439	2598.714808
615.947830	2598.630788
616.296169	2608.797115
616.644454	2604.764192
616.992686	2617.871192
617.340864	2587.792308
617.688990	2606.024481
618.037063	2603.755962
618.385082	2584.683596
618.733048	2600.227154
619.080961	2603.755962
619.428821	2593.589635
619.776628	2601.739500
620.124382	2591.069058
620.472083	2604.344096
620.819731	2600.815288
621.167326	2600.311173
621.514868	2598.966865
621.862357	2597.874615
622.209793	2601.571462
622.557176	2614.426404
622.904506	2596.446288
623.251783	2606.696635
623.599007	2590.396904
623.946179	2607.116731
624.293297	2598.210692
624.640363	2585.523788
624.987376	2592.329346
625.334336	2603.335865
625.681243	2605.436346
626.028097	2584.179481
626.374899	2590.396904
626.721647	2597.202462
627.068343	2597.202462
627.414987	2590.648962
627.761577	2592.749442
628.108115	2587.120154
628.454600	2607.704865
628.801032	2570.484346
629.147412	2577.541962
629.493739	2595.774135
629.840014	2603.671942
630.186236	2582.079000
630.532405	2591.237096
630.878521	2600.815288
631.224585	2600.395192
631.570597	2594.261788
631.916556	2586.195942
632.262462	2588.968577
632.608316	2594.009731
632.954117	2604.008019
633.299866	2593.421596
633.645562	2592.917481
633.991206	2601.403423
634.336797	2595.017962
634.682336	2596.446288
635.027823	2581.658904
635.373257	2588.044365
635.718639	2583.759385
636.063968	2582.835173
636.409245	2602.327635
636.754470	2584.263500
637.099642	2604.932231
637.444762	2579.810481
637.789829	2599.555000
638.134845	2582.247038
638.479808	2608.965154
638.824719	2582.583115
639.169577	2607.452808
639.514383	2603.587923
639.859137	2602.747731
640.203839	2582.163019
640.548489	2584.431538
640.893086	2587.708288
641.237632	2597.790596
641.582125	2590.396904
641.926566	2599.639019
642.270955	2579.054308
642.615292	2604.008019
642.959576	2599.975096
643.303809	2587.372212
643.647990	2595.017962
643.992118	2587.624269
644.336195	2593.001500
644.680219	2592.917481
645.024192	2597.370500
645.368112	2585.943885
645.711981	2580.062538
646.055797	2595.101981
646.399562	2587.456231
646.743274	2593.001500
647.086935	2604.260077
647.430544	2596.026192
647.774101	2582.499096
648.117606	2590.817000
648.461059	2596.446288
648.804460	2602.747731
649.147810	2601.151365
649.491108	2581.070769
649.834354	2605.520365
650.177548	2597.874615
650.520690	2584.599577
650.863781	2589.556712
651.206820	2593.253558
651.549807	2589.388673
651.892742	2590.901019
652.235626	2576.113635
652.578458	2599.218923
652.921238	2593.337577
653.263967	2590.901019
653.606644	2584.179481
653.949269	2595.690115
654.291843	2578.886269
654.634365	2609.049173
654.976836	2594.009731
655.319255	2588.380442
655.661622	2587.120154
656.003938	2591.573173
656.346203	2603.671942
656.688416	2585.355750
657.030577	2578.802250
657.372687	2595.270019
657.714746	2599.639019
658.056753	2597.538538
658.398708	2596.698346
658.740612	2588.380442
659.082465	2570.736404
659.424266	2584.935654
659.766016	2579.894500
660.107715	2573.256981
660.449362	2598.630788
660.790958	2586.111923
661.132503	2584.683596
661.473996	2585.271731
661.815438	2589.220635
662.156829	2578.718231
662.498168	2582.415077
662.839456	2595.942173
663.180693	2591.069058
663.521879	2601.487442
663.863013	2591.825231
664.204097	2590.228865
664.545129	2593.841692
664.886110	2589.304654
665.227040	2593.001500
665.567918	2599.807058
665.908746	2580.986750
666.249522	2592.161308
666.590248	2593.925712
666.930922	2591.321115
667.271545	2602.495673
667.612118	2586.784077
667.952639	2594.765904
668.293109	2576.365692
668.633528	2580.230577
668.973896	2587.876327
669.314213	2595.101981
669.654480	2592.581404
669.994695	2595.354038
670.334859	2600.227154
670.674973	2606.192519
671.015035	2587.540250
671.355047	2587.876327
671.695008	2593.673654
672.034918	2575.777558
672.374777	2600.059115
672.714585	2599.470981
673.054342	2594.429827
673.394049	2593.085519
673.733705	2585.103692
674.073310	2587.624269
674.412864	2585.523788
674.752368	2583.507327
675.091820	2570.400327
675.431223	2599.134904
675.770574	2591.573173
676.109875	2582.079000
676.449125	2602.411654
676.788324	2589.220635
677.127473	2590.901019
677.466571	2590.228865
677.805619	2587.204173
678.144616	2584.767615
678.483562	2587.204173
678.822458	2574.769327
679.161303	2591.909250
679.500098	2590.817000
679.838842	2590.564942
680.177535	2584.851635
680.516179	2596.362269
680.854771	2589.388673
681.193314	2580.314596
681.531805	2585.019673
681.870247	2577.373923
682.208638	2593.757673
682.546978	2582.499096
682.885268	2576.533731
683.223508	2597.874615
683.561697	2585.691827
683.899836	2584.683596
684.237925	2576.197654
684.575963	2591.237096
684.913951	2582.163019
685.251889	2593.337577
685.589776	2583.843404
685.927614	2599.386962
686.265401	2594.681885
686.603137	2586.195942
686.940824	2582.835173
687.278460	2588.128385
687.616046	2585.103692
687.953582	2600.899308
688.291068	2587.120154
688.628504	2593.841692
688.965889	2596.782365
689.303224	2594.765904
689.640510	2587.456231
689.977745	2592.329346
690.314930	2593.505615
690.652065	2586.868096
690.989150	2594.345808
691.326185	2585.691827
691.663170	2607.788885
692.000105	2592.665423
692.336990	2590.312885
692.673825	2577.710000
693.010610	2581.070769
693.347345	2571.240519
693.684030	2586.952115
694.020665	2581.070769
694.357251	2574.097173
694.693786	2584.095462
695.030272	2593.421596
695.366707	2589.556712
695.703093	2592.161308
696.039429	2594.681885
696.375716	2595.942173
696.711952	2585.355750
697.048139	2588.296423
697.384276	2603.839981
697.720363	2592.581404
698.056400	2567.039558
698.392388	2581.910962
698.728326	2570.400327
699.064214	2568.887981
699.400053	2573.341000
699.735842	2602.159596
700.071581	2584.095462
700.407270	2571.828654
700.742910	2583.843404
701.078501	2586.111923
701.414042	2589.472692
701.749533	2585.271731
702.084974	2595.858154
702.420366	2593.757673
702.755709	2597.370500
703.091002	2580.734692
703.426246	2570.736404
703.761440	2598.714808
704.096584	2578.130096
704.431679	2581.406846
704.766725	2579.390385
705.101721	2591.657192
705.436668	2589.892788
705.771565	2585.691827
706.106413	2579.222346
706.441212	2582.919192
706.775961	2577.205885
707.110661	2591.321115
707.445311	2583.675365
707.779913	2578.718231
708.114465	2587.288192
708.448967	2579.054308
708.783421	2587.456231
709.117825	2586.363981
709.452180	2583.759385
709.786485	2575.945596
710.120742	2592.497385
710.454949	2592.161308
710.789107	2582.415077
711.123216	2572.164731
711.457275	2578.298135
711.791286	2584.851635
712.125247	2576.197654
712.459159	2587.372212
712.793023	2584.515558
713.126837	2584.683596
713.460602	2584.095462
713.794318	2590.564942
714.127985	2602.495673
714.461602	2594.513846
714.795171	2585.355750
715.128691	2588.128385
715.462162	2579.390385
715.795584	2605.016250
716.128957	2588.632500
716.462281	2579.642442
716.795556	2584.095462
717.128782	2595.438058
717.461960	2575.609519
717.795088	2587.288192
718.128167	2578.130096
718.461198	2585.439769
718.794180	2580.314596
719.127113	2583.171250
719.459997	2578.886269
719.792833	2580.902731
720.125619	2587.288192
720.458357	2585.355750
720.791046	2587.204173
721.123686	2591.153077
721.456278	2586.448000
721.788821	2585.943885
722.121315	2584.263500
722.453761	2587.036135
722.786158	2553.848538
723.118506	2587.960346
723.450805	2572.164731
723.783056	2575.441481
724.115259	2583.339288
724.447412	2582.667135
724.779518	2590.817000
725.111574	2576.197654
725.443582	2585.607808
725.775542	2574.433250
726.107453	2577.625981
726.439315	2593.001500
726.771129	2614.006308
727.102895	2599.302942
727.434612	2584.011442
727.766281	2587.372212
728.097901	2585.019673
728.429473	2574.517269
728.760996	2592.245327
729.092471	2579.474404
729.423897	2568.972000
729.755276	2587.372212
730.086606	2582.583115
730.417887	2593.841692
730.749120	2576.617750
731.080305	2588.380442
731.411442	2573.425019
731.742530	2595.606096
732.073570	2596.782365
732.404562	2581.154788
732.735506	2581.490865
733.066401	2576.281673
733.397249	2574.265212
733.728048	2586.448000
734.058798	2577.962058
734.389501	2563.930846
734.720156	2571.912673
735.050762	2591.069058
735.381320	2578.886269
735.711831	2581.658904
736.042293	2590.985038
736.372707	2595.017962
736.703073	2594.681885
737.033391	2583.927423
737.363661	2572.584827
737.693883	2585.439769
738.024056	2585.943885
738.354182	2584.515558
738.684260	2595.606096
739.014290	2580.398615
739.344272	2580.734692
739.674207	2585.439769
740.004093	2574.853346
740.333931	2580.734692
740.663722	2586.279962
740.993464	2570.568365
741.323159	2593.337577
741.652806	2577.121865
741.982405	2578.130096
742.311956	2584.599577
742.641460	2579.726462
742.970915	2569.308077
743.300323	2577.625981
743.629683	2575.525500
743.958996	2575.273442
744.288260	2592.161308
744.617477	2587.540250
744.946647	2575.189423
745.275768	2576.533731
745.604842	2581.742923
745.933869	2576.785788
746.262847	2597.202462
746.591778	2592.077288
746.920662	2575.273442
747.249498	2580.566654
747.578286	2584.767615
747.907027	2585.943885
748.235720	2569.896212
748.564365	2583.591346
748.892963	2588.212404
749.221514	2573.004923
749.550017	2582.919192
749.878473	2580.482635
750.206881	2579.978519
750.535242	2588.380442
750.863555	2598.378731
751.191821	2579.642442
751.520039	2595.101981
751.848210	2585.355750
752.176334	2572.080712
752.504411	2574.853346
752.832440	2582.163019
753.160421	2576.785788
753.488356	2584.599577
753.816243	2594.261788
754.144082	2565.611231
754.471875	2566.451423
754.799620	2582.331058
755.127318	2586.532019
755.454969	2566.199365
755.782572	2579.726462
756.110129	2585.859865
756.437638	2576.113635
756.765100	2592.329346
757.092515	2571.828654
757.419882	2597.958635
757.747203	2589.556712
758.074477	2576.113635
758.401703	2557.545385
758.728882	2570.820423
759.056014	2569.224058
759.383099	2587.456231
759.710138	2586.363981
760.037129	2586.952115
760.364073	2598.042654
760.690970	2576.701769
761.017820	2578.718231
761.344623	2586.868096
761.671379	2574.013154
761.998088	2583.423308
762.324751	2566.871519
762.651366	2572.752865
762.977935	2590.228865
763.304456	2587.288192
763.630931	2585.775846
763.957359	2588.128385
764.283740	2594.093750
764.610074	2596.530308
764.936362	2587.204173
765.262602	2588.548481
765.588796	2576.785788
765.914943	2587.708288
766.241044	2574.685308
766.567097	2577.373923
766.893104	2576.281673
767.219064	2589.220635
767.544978	2578.886269
767.870845	2581.826942
768.196665	2562.586538
768.522438	2579.306365
768.848165	2584.263500
769.173846	2586.111923
769.499479	2575.693538
769.825066	2587.036135
770.150607	2578.130096
770.476101	2586.868096
770.801548	2575.609519
771.126949	2572.584827
771.452303	2590.228865
771.777611	2580.062538
772.102872	2572.584827
772.428087	2568.635923
772.753256	2562.334481
773.078378	2570.484346
773.403453	2585.355750
773.728482	2570.400327
774.053465	2575.525500
774.378401	2579.978519
774.703291	2585.775846
775.028135	2591.657192
775.352932	2572.584827
775.677683	2588.884558
776.002388	2577.121865
776.327046	2576.197654
776.651658	2577.289904
776.976224	2581.490865
777.300743	2574.601288
777.625216	2589.892788
777.949643	2574.517269
778.274024	2579.558423
778.598359	2593.841692
778.922647	2578.130096
779.246889	2566.283385
779.571086	2569.560135
779.895236	2573.425019
780.219339	2585.187712
780.543397	2578.298135
780.867409	2563.594769
781.191374	2590.144846
781.515294	2587.456231
781.839167	2578.130096
782.162995	2580.902731
782.486776	2559.225769
782.810511	2572.080712
783.134201	2558.133519
783.457844	2556.117058
783.781441	2591.489154
784.104993	2584.935654
784.428498	2580.146558
784.751958	2584.431538
785.075372	2576.113635
785.398739	2588.548481
785.722061	2586.532019
786.045337	2575.105404
786.368568	2571.660615
786.691752	2594.429827
787.014891	2560.906154
787.337983	2578.298135
787.661030	2570.484346
787.984031	2573.593058
788.306987	2584.851635
788.629897	2598.462750
788.952760	2590.732981
789.275579	2574.517269
789.598351	2576.533731
789.921078	2578.886269
790.243759	2586.868096
790.566395	2579.474404
790.888984	2594.429827
791.211529	2577.457942
791.534027	2572.836885
791.856480	2579.558423
792.178888	2589.556712
792.501249	2572.164731
792.823566	2567.543673
793.145836	2576.365692
793.468062	2579.978519
793.790241	2574.349231
794.112375	2584.515558
794.434464	2565.695250
794.756507	2576.617750
795.078505	2574.769327
795.400457	2568.972000
795.722364	2574.433250
796.044226	2574.517269
796.366042	2589.556712
796.687812	2593.589635
797.009538	2590.732981
797.331218	2558.805673
797.652852	2564.350942
797.974442	2578.298135
798.295986	2583.759385
798.617484	2585.355750
798.938938	2578.298135
799.260346	2584.935654
799.581709	2577.541962
799.903026	2584.683596
800.224299	2566.199365
800.545526	2579.306365
800.866708	2576.953827
801.187845	2558.805673
801.508936	2578.046077
801.829983	2588.380442
802.150984	2581.406846
802.471940	2586.195942
802.792851	2565.947308
803.113717	2582.667135
803.434538	2590.228865
803.755314	2577.373923
804.076045	2573.593058
804.396731	2576.197654
804.717372	2565.779269
805.037967	2569.476115
805.358518	2573.256981
805.679024	2569.140038
805.999485	2581.910962
806.319901	2565.779269
806.640272	2572.248750
806.960598	2564.266923
807.280879	2568.383865
807.601115	2586.532019
807.921306	2571.492577
808.241453	2579.894500
808.561554	2576.281673
808.881611	2566.283385
809.201623	2571.744635
809.521590	2566.199365
809.841513	2579.810481
810.161390	2566.535442
810.481223	2571.156500
810.801011	2570.484346
811.120755	2569.644154
811.440453	2558.805673
811.760107	2576.197654
812.079716	2576.953827
812.399281	2576.617750
812.718801	2569.980231
813.038276	2580.062538
813.357707	2583.843404
813.677093	2580.650673
813.996434	2576.365692
814.315731	2580.314596
814.634983	2576.533731
814.954191	2581.910962
815.273354	2572.416788
815.592473	2577.205885
815.911547	2585.103692
816.230577	2588.044365
816.549562	2584.095462
816.868502	2581.154788
817.187399	2571.660615
817.506250	2587.036135
817.825058	2576.617750
818.143821	2583.171250
818.462539	2594.933942
818.781213	2585.439769
819.099843	2576.617750
819.418429	2581.070769
819.736970	2580.734692
820.055466	2584.851635
820.373919	2588.632500
820.692327	2590.060827
821.010691	2583.927423
821.329011	2598.882846
821.647286	2600.311173
821.965517	2604.932231
822.283704	2609.805346
822.601847	2617.199038
822.919945	2620.727846
823.237999	2611.485731
823.556010	2601.235385
823.873976	2597.958635
824.191897	2606.864673
824.509775	2588.884558
824.827609	2599.555000
825.145398	2591.573173
825.463144	2597.370500
825.780845	2596.614327
826.098502	2577.541962
826.416116	2592.245327
826.733685	2603.419885
827.051210	2591.153077
827.368692	2600.731269
827.686129	2596.782365
828.003522	2593.085519
828.320872	2587.624269
828.638177	2593.337577
828.955439	2593.337577
829.272656	2583.759385
829.589830	2582.499096
829.906960	2582.751154
830.224046	2577.037846
830.541088	2572.668846
830.858086	2572.584827
831.175041	2578.634212
831.491952	2553.092365
831.808819	2587.036135
832.125642	2582.079000
832.442421	2570.736404
832.759157	2588.380442
833.075849	2578.466173
833.392497	2585.355750
833.709101	2591.741212
834.025662	2594.681885
834.342179	2588.716519
834.658653	2575.441481
834.975083	2583.003212
835.291469	2611.821808
835.607811	2580.314596
835.924110	2594.765904
836.240366	2576.365692
836.556578	2579.642442
836.872746	2580.398615
837.188871	2581.910962
837.504952	2571.072481
837.820990	2583.339288
838.136984	2577.289904
838.452935	2575.105404
838.768842	2576.029615
839.084706	2577.794019
839.400526	2552.840308
839.716303	2585.271731
840.032037	2574.769327
840.347727	2588.464462
840.663373	2573.677077
840.978977	2581.994981
841.294537	2591.657192
841.610054	2593.841692
841.925527	2564.518981
842.240957	2570.400327
842.556344	2578.214115
842.871687	2579.054308
843.186987	2580.230577
843.502244	2566.955538
843.817458	2565.191135
844.132629	2571.996692
844.447756	2569.476115
844.762840	2576.785788
845.077881	2572.584827
845.392879	2561.242231
845.707833	2585.019673
846.022745	2565.275154
846.337613	2570.064250
846.652438	2590.480923
846.967221	2566.787500
847.281960	2573.004923
847.596656	2586.952115
847.911309	2566.955538
848.225919	2572.500808
848.540485	2566.619462
848.855009	2566.787500
849.169490	2578.634212
849.483928	2585.103692
849.798323	2569.392096
850.112675	2594.261788
850.426984	2573.509038
850.741251	2577.794019
851.055474	2578.886269
851.369654	2580.398615
851.683792	2581.574885
851.997887	2584.347519
852.311938	2578.550192
852.625947	2584.263500
852.939914	2585.187712
853.253837	2584.683596
853.567718	2572.416788
853.881555	2576.197654
854.195350	2575.945596
854.509103	2588.464462
854.822812	2569.812192
855.136479	2571.828654
855.450103	2576.029615
855.763685	2576.197654
856.077224	2559.813904
856.390720	2571.996692
856.704173	2573.425019
857.017584	2580.230577
857.330953	2574.013154
857.644278	2580.062538
857.957561	2588.716519
858.270802	2583.591346
858.584000	2561.494288
858.897155	2588.716519
859.210268	2580.398615
859.523339	2569.644154
859.836367	2587.792308
860.149352	2574.769327
860.462295	2573.088942
860.775195	2587.372212
861.088054	2584.095462
861.400869	2581.154788
861.713642	2570.148269
862.026373	2576.953827
862.339062	2575.861577
862.651708	2555.528923
862.964312	2579.978519
863.276873	2554.184615
863.589392	2573.761096
863.901869	2568.551904
864.214303	2573.845115
864.526696	2564.350942
864.839045	2573.761096
865.151353	2567.291615
865.463619	2579.306365
865.775842	2578.382154
866.088023	2568.635923
866.400162	2578.130096
866.712258	2567.207596
867.024313	2572.920904
867.336325	2580.986750
867.648296	2569.056019
867.960224	2561.158212
868.272110	2567.459654
868.583954	2583.171250
868.895755	2572.584827
869.207515	2578.298135
869.519233	2574.181192
869.830909	2584.599577
870.142542	2581.574885
870.454134	2574.937365
870.765684	2582.247038
871.077191	2574.853346
871.388657	2577.710000
871.700081	2578.382154
872.011463	2571.660615
872.322803	2567.795731
872.634101	2574.769327
872.945357	2569.812192
873.256571	2566.451423
873.567744	2584.011442
873.878874	2580.818712
874.189963	2565.275154
874.501010	2584.767615
874.812015	2578.886269
875.122979	2582.835173
875.433900	2557.377346
875.744780	2569.308077
876.055618	2570.904442
876.366415	2575.273442
876.677169	2566.199365
876.987882	2569.896212
877.298554	2564.518981
877.609183	2560.570077
877.919771	2581.406846
878.230317	2567.543673
878.540822	2553.848538
878.851285	2578.382154
879.161707	2573.172962
879.472087	2571.072481
879.782425	2568.972000
880.092722	2583.255269
880.402977	2578.886269
880.713191	2584.011442
881.023363	2584.431538
881.333494	2593.085519
881.643583	2605.352327
881.953631	2584.515558
882.263637	2598.546769
882.573602	2598.378731
882.883526	2583.759385
883.193408	2590.228865
883.503248	2598.294712
883.813048	2594.513846
884.122806	2566.115346
884.432522	2603.671942
884.742197	2571.576596
885.051831	2574.181192
885.361424	2582.919192
885.670975	2594.345808
885.980485	2559.981942
886.289954	2577.794019
886.599382	2579.390385
886.908768	2583.591346
887.218113	2566.871519
887.527417	2564.182904
887.836680	2564.266923
888.145901	2575.105404
888.455082	2571.156500
888.764221	2556.789212
889.073319	2572.080712
889.382376	2589.892788
889.691392	2576.617750
890.000366	2559.477827
890.309300	2579.642442
890.618193	2560.570077
890.927044	2566.535442
891.235855	2584.599577
891.544625	2574.097173
891.853353	2572.836885
892.162041	2571.744635
892.470687	2565.863288
892.779293	2573.256981
893.087858	2581.826942
893.396381	2580.566654
893.704864	2577.962058
894.013306	2578.214115
894.321707	2576.617750
894.630068	2587.120154
894.938387	2586.616038
895.246665	2581.658904
895.554903	2588.380442
895.863100	2575.021385
896.171256	2581.322827
896.479371	2589.976808
896.787446	2565.443192
897.095480	2575.021385
897.403473	2570.904442
897.711425	2578.046077
898.019336	2580.146558
898.327207	2568.887981
898.635038	2567.039558
898.942827	2566.367404
899.250576	2567.795731
899.558284	2583.171250
899.865952	2561.746346
900.173579	2562.502519
900.481165	2588.296423
900.788711	2572.416788
901.096216	2568.887981
901.403681	2568.551904
901.711105	2576.869808
902.018489	2575.189423
902.325832	2561.662327
902.633135	2576.365692
902.940397	2565.947308
903.247619	2566.367404
903.554800	2574.013154
903.861941	2564.518981
904.169041	2593.925712
904.476101	2578.550192
904.783121	2590.060827
905.090100	2585.103692
905.397039	2571.240519
905.703938	2576.029615
906.010796	2581.490865
906.317614	2576.701769
906.624391	2563.510750
906.931129	2573.088942
907.237826	2583.003212
907.544483	2562.166442
907.851099	2570.820423
908.157675	2580.986750
908.464211	2575.609519
908.770707	2578.466173
909.077163	2569.140038
909.383578	2567.291615
909.689954	2573.677077
909.996289	2558.049500
910.302584	2577.710000
910.608839	2574.769327
910.915054	2570.652385
911.221229	2560.906154
911.527363	2577.878038
911.833458	2566.871519
912.139513	2572.080712
912.445527	2567.207596
912.751502	2579.306365
913.057436	2562.166442
913.363331	2573.761096
913.669186	2579.222346
913.975000	2575.273442
914.280775	2578.382154
914.586510	2576.449712
914.892205	2574.013154
915.197859	2588.296423
915.503475	2590.901019
915.809050	2571.408558
916.114585	2584.011442
916.420081	2581.154788
916.725536	2580.062538
917.030952	2576.197654
917.336328	2590.732981
917.641665	2587.792308
917.946961	2576.365692
918.252218	2597.118442
918.557435	2563.678788
918.862612	2570.064250
919.167750	2581.658904
919.472848	2562.250462
919.777906	2584.767615
920.082925	2583.423308
920.387904	2573.256981
920.692843	2582.751154
920.997743	2569.224058
921.302603	2573.425019
921.607423	2575.777558
921.912204	2585.943885
922.216946	2565.107115
922.521647	2576.617750
922.826310	2553.596481
923.130932	2589.976808
923.435516	2587.036135
923.740059	2561.326250
924.044564	2563.930846
924.349028	2570.988462
924.653454	2571.156500
924.957840	2582.415077
925.262186	2581.154788
925.566493	2559.477827
925.870761	2580.734692
926.174989	2569.392096
926.479178	2583.171250
926.783328	2583.675365
927.087438	2568.383865
927.391509	2564.098885
927.695541	2581.322827
927.999533	2565.107115
928.303486	2585.019673
928.607400	2561.830365
928.911275	2558.973712
929.215110	2579.894500
929.518906	2569.560135
929.822663	2578.550192
930.126381	2556.537154
930.430060	2580.398615
930.733699	2567.795731
931.037299	2568.047788
931.340861	2565.527212
931.644383	2586.279962
931.947866	2567.375635
932.251309	2573.425019
932.554714	2584.599577
932.858080	2566.619462
933.161407	2564.771038
933.464694	2565.023096
933.767943	2572.668846
934.071153	2569.392096
934.374323	2564.434962
934.677455	2562.334481
934.980548	2568.719942
935.283602	2579.054308
935.586617	2567.207596
935.889593	2566.367404
936.192530	2572.836885
936.495428	2566.703481
936.798287	2566.451423
937.101108	2568.551904
937.403890	2571.156500
937.706632	2583.171250
938.009336	2556.285096
938.312002	2574.181192
938.614628	2576.701769
938.917216	2576.365692
939.219765	2569.476115
939.522275	2565.191135
939.824747	2569.560135
940.127179	2568.047788
940.429573	2566.955538
940.731929	2571.744635
941.034246	2572.584827
941.336524	2588.548481
941.638763	2560.234000
941.940964	2561.242231
942.243126	2574.853346
942.545250	2570.820423
942.847335	2575.525500
943.149381	2584.767615
943.451389	2559.813904
943.753359	2567.375635
944.055290	2562.166442
944.357182	2567.879750
944.659036	2562.082423
944.960851	2563.762808
945.262628	2577.121865
945.564367	2575.441481
945.866067	2573.509038
946.167729	2559.477827
946.469352	2585.019673
946.770937	2571.408558
947.072484	2574.601288
947.373992	2556.033038
947.675462	2566.115346
947.976893	2568.383865
948.278286	2570.736404
948.579641	2560.486058
948.880958	2566.703481
949.182236	2569.140038
949.483476	2579.054308
949.784678	2571.492577
950.085841	2573.088942
950.386967	2565.527212
950.688054	2566.367404
950.989103	2577.205885
951.290114	2582.499096
951.591087	2555.108827
951.892021	2574.181192
952.192917	2572.248750
952.493776	2558.553615
952.794596	2556.201077
953.095378	2566.451423
953.396122	2570.736404
953.696828	2566.115346
953.997496	2570.232288
954.298126	2579.138327
954.598718	2563.426731
954.899272	2567.543673
955.199788	2570.568365
955.500266	2568.635923
955.800706	2565.359173
956.101108	2567.375635
956.401472	2570.568365
956.701798	2568.215827
957.002087	2569.728173
957.302337	2570.064250
957.602550	2559.141750
957.902724	2567.123577
958.202861	2576.197654
958.502960	2572.836885
958.803022	2556.201077
959.103045	2564.014865
959.403031	2550.991885
959.702979	2563.006635
960.002889	2574.937365
960.302762	2565.443192
960.602596	2562.838596
960.902393	2567.291615
961.202153	2568.635923
961.501875	2581.238808
961.801559	2558.049500
962.101205	2578.046077
962.400814	2564.939077
962.700385	2575.189423
962.999918	2547.547096
963.299414	2566.283385
963.598873	2582.247038
963.898293	2579.390385
964.197677	2570.148269
964.497022	2571.744635
964.796331	2581.658904
965.095601	2559.309788
965.394835	2582.751154
965.694030	2563.846827
965.993189	2572.500808
966.292309	2565.191135
966.591393	2562.922615
966.890439	2566.787500
967.189447	2577.373923
967.488419	2574.097173
967.787353	2570.484346
968.086249	2556.117058
968.385108	2562.250462
968.683930	2551.832077
968.982714	2572.836885
969.281462	2569.308077
969.580172	2556.957250
969.878844	2569.644154
970.177480	2561.746346
970.476078	2575.777558
970.774639	2574.517269
971.073162	2580.986750
971.371649	2570.904442
971.670098	2579.642442
971.968510	2561.830365
972.266885	2562.586538
972.565223	2558.973712
972.863524	2563.342712
973.161788	2570.568365
973.460014	2587.624269
973.758204	2570.232288
974.056356	2592.077288
974.354471	2564.266923
974.652550	2575.273442
974.950591	2562.670558
975.248595	2571.996692
975.546563	2573.929135
975.844493	2565.107115
976.142386	2569.896212
976.440243	2571.996692
976.738062	2570.988462
977.035845	2567.291615
977.333590	2556.705192
977.631299	2567.543673
977.928971	2569.308077
978.226606	2561.158212
978.524204	2568.972000
978.821765	2567.879750
979.119290	2573.845115
979.416777	2563.090654
979.714228	2571.912673
980.011642	2551.075904
980.309020	2544.606423
980.606360	2566.619462
980.903664	2574.517269
981.200931	2565.611231
981.498162	2578.886269
981.795356	2558.889692
982.092513	2568.803962
982.389633	2566.367404
982.686717	2582.331058
982.983764	2567.039558
983.280775	2569.980231
983.577749	2571.744635
983.874686	2571.492577
984.171587	2568.383865
984.468451	2560.402038
984.765279	2554.772750
985.062070	2573.929135
985.358824	2565.023096
985.655543	2573.929135
985.952224	2576.197654
986.248869	2580.230577
986.545478	2574.433250
986.842050	2576.533731
987.138586	2578.970288
987.435086	2567.375635
987.731549	2588.800538
988.027975	2578.046077
988.324366	2567.627692
988.620719	2573.004923
988.917037	2578.130096
989.213318	2560.486058
989.509563	2566.031327
989.805772	2568.215827
990.101944	2559.729885
990.398080	2567.879750
990.694180	2556.621173
990.990244	2578.466173
991.286271	2557.629404
991.582262	2574.517269
991.878217	2568.719942
992.174136	2568.299846
992.470019	2566.367404
992.765865	2550.403750
993.061676	2564.771038
993.357450	2569.476115
993.653188	2574.265212
993.948890	2569.980231
994.244556	2560.234000
994.540186	2580.314596
994.835780	2564.182904
995.131337	2567.291615
995.426859	2555.780981
995.722345	2587.708288
996.017795	2567.375635
996.313208	2570.652385
996.608586	2572.080712
996.903928	2571.156500
997.199234	2564.603000
997.494504	2575.273442
997.789738	2571.156500
998.084936	2563.678788
998.380099	2562.418500
998.675225	2563.174673
998.970316	2562.838596
999.265371	2563.258692
999.560390	2570.316308
999.855373	2570.400327
1000.150320	2562.250462
1000.445232	2555.024808
1000.740108	2568.299846
1001.034948	2564.603000
1001.329752	2571.912673
1001.624521	2569.812192
1001.919254	2574.853346
1002.213951	2569.140038
1002.508613	2568.719942
1002.803239	2572.248750
1003.097829	2554.184615
1003.392384	2555.276865
1003.686903	2568.803962
1003.981386	2567.459654
1004.275834	2560.065962
1004.570246	2558.133519
1004.864623	2557.461365
1005.158964	2567.543673
1005.453270	2563.762808
1005.747540	2567.459654
1006.041775	2556.957250
1006.335974	2556.537154
1006.630138	2561.242231
1006.924266	2570.316308
1007.218359	2573.425019
1007.512416	2550.991885
1007.806438	2553.092365
1008.100425	2570.988462
1008.394376	2547.967192
1008.688292	2569.056019
1008.982172	2577.962058
1009.276017	2576.785788
1009.569827	2569.812192
1009.863602	2575.693538
1010.157341	2574.937365
1010.451045	2565.611231
1010.744714	2555.108827
1011.038347	2566.199365
1011.331945	2571.240519
1011.625508	2562.670558
1011.919036	2552.084135
1012.212528	2582.835173
1012.505986	2569.140038
1012.799408	2579.894500
1013.092795	2558.889692
1013.386147	2556.285096
1013.679464	2570.232288
1013.972745	2582.247038
1014.265992	2572.416788
1014.559204	2570.736404
1014.852380	2567.291615
1015.145521	2562.082423
1015.438628	2544.858481
1015.731699	2560.822135
1016.024736	2564.518981
1016.317737	2547.715135
1016.610703	2558.385577
1016.903635	2554.688731
1017.196531	2552.756288
1017.489393	2564.098885
1017.782219	2580.650673
1018.075011	2567.459654
1018.367768	2556.705192
1018.660490	2555.528923
1018.953177	2555.528923
1019.245829	2555.528923
