Dividing Wavelength (nm)	Counts (n)	Slit_number_21_of_a_total_of_40	
326.493990	2045.548996
326.888308	2045.548996
327.282561	2045.548996
327.676750	2015.957423
328.070874	2006.958963
328.464933	2020.822137
328.858929	2037.079858
329.252859	2046.431198
329.646726	2057.294885
330.040528	2080.106106
330.434265	2078.291290
330.827938	2109.218769
331.221547	2127.064454
331.615091	2150.682260
332.008571	2164.898313
332.401986	2197.060875
332.795338	2211.478575
333.188625	2230.030021
333.581847	2249.967785
333.975006	2272.703388
334.368100	2289.918929
334.761129	2305.370065
335.154095	2322.661223
335.546996	2331.760506
335.939833	2355.680781
336.332606	2367.477081
336.725315	2364.023890
337.117960	2377.861858
337.510540	2404.176681
337.903056	2400.647873
338.295508	2409.192629
338.687896	2421.593867
339.080220	2415.720923
339.472480	2429.130392
339.864676	2432.331525
340.256807	2427.920515
340.648875	2441.456013
341.040879	2442.968360
341.432818	2435.129365
341.824694	2430.642738
342.216506	2440.195725
342.608253	2442.615479
342.999937	2437.801177
343.391557	2440.472988
343.783113	2430.642738
344.174605	2432.457554
344.566033	2433.163315
344.957397	2437.246650
345.348697	2428.021338
345.739934	2428.777512
346.131106	2428.323808
346.522215	2422.753333
346.913260	2427.643252
347.304241	2426.786256
347.695159	2417.686973
348.086012	2417.964237
348.476802	2414.158165
348.867528	2406.949315
349.258191	2418.065060
349.648789	2413.855696
350.039324	2408.512073
350.429796	2412.418967
350.820203	2406.092319
351.210548	2402.588717
351.600828	2404.176681
351.991045	2407.579460
352.381198	2409.293452
352.771288	2411.688000
353.161314	2392.077912
353.551276	2397.976062
353.941175	2410.074831
354.331010	2412.797054
354.720782	2412.040881
355.110490	2404.302710
355.500135	2409.495098
355.889717	2409.091806
356.279235	2406.167937
356.668689	2410.377300
357.058080	2409.999213
357.447408	2410.478123
357.836672	2403.571742
358.225873	2405.789850
358.615010	2413.351581
359.004084	2411.234296
359.393095	2402.613923
359.782043	2407.579460
360.170927	2423.912798
360.559748	2406.016702
360.948505	2411.637588
361.337199	2416.325862
361.725830	2413.880902
362.114398	2414.536252
362.502903	2412.948288
362.891344	2409.621127
363.279722	2411.940058
363.668037	2415.242013
364.056289	2416.199833
364.444478	2422.551687
364.832603	2404.227092
365.220665	2413.225552
365.608665	2418.342323
365.996601	2423.055802
366.384474	2411.536765
366.772284	2419.779052
367.160031	2422.173600
367.547715	2418.493558
367.935336	2420.106727
368.322893	2421.593867
368.710388	2419.375760
369.097820	2422.602098
369.485189	2423.005390
369.872495	2418.317117
370.259738	2429.281627
370.646918	2419.325348
371.034035	2425.651996
371.421090	2421.240987
371.808081	2420.787283
372.195010	2423.459094
372.581875	2424.618560
372.968678	2433.743048
373.355418	2418.165883
373.742096	2438.053235
374.128710	2423.257448
374.515262	2423.106213
374.901751	2415.897363
375.288177	2428.802717
375.674540	2418.115471
376.060841	2424.442119
376.447079	2434.448810
376.833254	2430.466298
377.219367	2429.256421
377.605417	2430.920002
377.991404	2426.559404
378.377329	2429.836154
378.763191	2435.608275
379.148991	2429.029569
379.534727	2431.323294
379.920402	2427.038313
380.306013	2428.222985
380.691563	2423.862387
381.077049	2435.885538
381.462474	2430.340269
381.847835	2433.062492
382.233134	2431.978644
382.618371	2435.986362
383.003545	2435.532658
383.388657	2435.053748
383.773706	2435.381423
384.158693	2432.709612
384.543618	2435.255394
384.928480	2432.507965
385.313280	2436.792946
385.698017	2431.625763
386.082692	2435.078954
386.467305	2429.760537
386.851856	2431.575352
387.236344	2433.717842
387.620770	2426.761050
388.005133	2428.601071
388.389435	2436.843358
388.773674	2437.095415
389.157851	2441.229162
389.541965	2437.372679
389.926018	2440.321754
390.310008	2448.261571
390.693936	2440.750252
391.077802	2438.758996
391.461606	2444.556323
391.845348	2441.632454
392.229027	2438.557350
392.612645	2442.237392
392.996200	2443.245623
393.379694	2443.296035
393.763125	2442.489450
394.146494	2443.648915
394.529801	2449.748712
394.913047	2444.430294
395.296230	2446.925665
395.679351	2448.740481
396.062410	2447.656633
396.445408	2448.438012
396.828343	2455.898919
397.211217	2452.773404
397.594028	2452.849021
397.976778	2447.404575
398.359466	2456.100565
398.742092	2444.480706
399.124656	2447.833073
399.507158	2468.199335
399.889598	2463.889148
400.271977	2460.561987
400.654294	2457.814558
401.036549	2460.133488
401.418742	2466.888635
401.800874	2470.921558
402.182944	2483.927735
402.564952	2483.776500
402.946898	2492.951400
403.328783	2498.723521
403.710606	2517.854700
404.092367	2516.090296
404.474067	2538.019315
404.855705	2548.252858
405.237282	2569.072823
405.618797	2588.808940
406.000250	2615.325410
406.381642	2649.000317
406.762972	2671.962773
407.144240	2689.858869
407.525447	2736.262690
407.906593	2758.569796
408.287677	2821.029692
408.668700	2870.760675
409.049661	2913.887746
409.430560	2967.853298
409.811399	3026.179448
410.192176	3096.327104
410.572891	3164.029800
410.953545	3261.172835
411.334138	3291.470169
411.714669	3422.767021
412.095139	3435.445523
412.475547	3566.112231
412.855894	3625.723875
413.236180	3748.854058
413.616405	3809.297492
413.996568	3942.005867
414.376670	4036.779560
414.756711	4106.801187
415.136691	4258.590329
415.516609	4381.846540
415.896466	4502.657792
416.276262	4652.934588
416.655997	4834.113658
417.035670	4962.965550
417.415283	5213.208427
417.794834	5346.975444
418.174324	5376.793869
418.553753	5437.943065
418.933121	5687.707033
419.312428	5726.372683
419.691674	5793.898938
420.070859	6003.686556
420.449983	5991.764227
420.829045	6244.678915
421.208047	6239.335292
421.586988	6467.749973
421.965867	6620.194465
422.344686	6700.449635
422.723444	6958.934798
423.102141	6588.409990
423.480777	7036.745008
423.859352	6916.664723
424.237866	7350.582040
424.616319	7308.841287
424.994712	7564.226140
425.373044	7516.108327
425.751314	7836.776123
426.129524	7512.352667
426.507673	7902.210300
426.885762	7838.590938
427.263789	7899.236019
427.641756	7970.694375
428.019662	7982.011765
428.397508	7988.918146
428.775292	8049.739667
429.153016	8032.927419
429.530679	7993.934094
429.908282	7962.804969
430.285824	7821.451015
430.663305	8028.995319
431.040726	7837.406267
431.418086	7717.174748
431.795385	7839.145465
432.172624	7901.882625
432.549802	7685.289450
432.926920	7669.334198
433.303977	7523.140737
433.680974	7525.056375
434.057910	7532.013167
434.434786	7419.671054
434.811601	7294.398381
435.188355	7483.693708
435.565050	7287.063502
435.941683	7135.173537
436.318257	7251.447750
436.694770	7108.631862
437.071222	7122.394212
437.447614	6809.590615
437.823946	6663.624006
438.200218	6587.502583
438.576429	6412.246869
438.952580	6348.551890
439.328670	6213.398556
439.704700	6164.448952
440.080670	5964.794054
440.456580	5956.072858
440.832429	5856.484863
441.208218	5563.291356
441.583947	5501.310369
441.959616	5419.366413
442.335224	5337.926573
442.710773	5216.258325
443.086261	5168.770656
443.461689	4969.645079
443.837057	4881.172829
444.212365	4853.698540
444.587612	4729.156835
444.962800	4564.689190
445.337927	4489.878467
445.712995	4278.880973
446.088002	4341.214840
446.462949	4261.766256
446.837837	4168.530115
447.212664	4056.061973
447.587431	4148.567146
447.962139	4257.430863
448.336786	4340.357844
448.711374	4169.613963
449.085901	3839.040300
449.460369	3722.261971
449.834776	3629.126654
450.209124	3652.618431
450.583412	3566.036613
450.957640	3529.437837
451.331808	3403.434196
451.705917	3281.765948
452.079965	3218.171792
452.453954	3171.591531
452.827883	3112.484002
453.201752	3065.928946
453.575562	3011.534896
453.949311	3003.922754
454.323001	2959.661423
454.696632	2922.659354
455.070202	2910.459762
455.443713	2881.851213
455.817164	2861.686598
456.190556	2838.698937
456.563888	2811.728763
456.937160	2781.985956
457.310373	2758.443767
457.683526	2732.910323
458.056619	2717.660833
458.429653	2702.008050
458.802628	2681.288908
459.175542	2671.836744
459.548398	2679.222035
459.921194	2664.148985
460.293930	2660.544560
460.666607	2662.586227
461.039224	2677.508042
461.411782	2665.358862
461.784280	2644.992600
462.156719	2635.691671
462.529099	2616.459669
462.901419	2605.117073
463.273680	2595.387646
463.645882	2575.752352
464.018024	2578.373752
464.390106	2579.079513
464.762130	2580.415419
465.134094	2583.389700
465.505999	2605.217896
465.877845	2613.107302
466.249631	2619.635596
466.621358	2605.142279
466.993026	2591.354723
467.364634	2590.648962
467.736184	2572.399985
468.107674	2561.863973
468.479105	2556.318704
468.850477	2558.738458
469.221790	2540.489481
469.593043	2539.153575
469.964238	2533.078985
470.335373	2533.557894
470.706449	2522.845442
471.077467	2527.684950
471.448425	2543.035263
471.819324	2541.825387
472.190164	2533.356248
472.560945	2525.038344
472.931667	2516.115502
473.302330	2517.527025
473.672934	2508.251302
474.043479	2508.604183
474.413965	2508.377331
474.784393	2504.319202
475.154761	2505.932371
475.525070	2506.310458
475.895321	2498.824344
476.265513	2503.033708
476.635645	2500.009015
477.005719	2500.009015
477.375734	2505.050169
477.745691	2503.764675
478.115588	2495.875269
478.485427	2508.553771
478.855207	2504.672083
479.224928	2505.302227
479.594591	2508.629388
479.964194	2506.386075
480.333739	2508.049656
480.703226	2505.705519
481.072653	2505.050169
481.442022	2512.259019
481.811333	2503.184942
482.180584	2497.639673
482.549777	2510.217352
482.918912	2504.041938
483.287988	2506.612927
483.657005	2505.453462
484.025964	2504.949346
484.394864	2505.226610
484.763706	2500.210662
485.132489	2502.101094
485.501213	2490.934938
485.869879	2493.027017
486.238487	2499.555312
486.607036	2498.118583
486.975527	2495.572800
487.343959	2500.462719
487.712333	2508.755417
488.080648	2496.026504
488.448905	2507.091837
488.817104	2495.219919
489.185244	2503.310971
489.553326	2502.453975
489.921350	2495.421565
490.289315	2511.654081
490.657222	2513.998217
491.025070	2507.772392
491.392861	2505.705519
491.760593	2503.815087
492.128267	2503.184942
492.495883	2510.166940
492.863440	2503.084119
493.230939	2508.654594
493.598380	2493.934425
493.965763	2499.076402
494.333088	2502.605210
494.700354	2498.370640
495.067563	2494.186483
495.434713	2497.841319
495.801805	2498.849550
496.168839	2496.328973
496.535815	2500.739983
496.902733	2497.513644
497.269593	2496.656648
497.636395	2493.808396
498.003139	2503.789881
498.369825	2499.983810
498.736453	2496.581031
499.103023	2498.748727
499.469535	2494.413335
499.835989	2496.379385
500.202385	2491.539877
500.568723	2492.069198
500.935003	2496.959117
501.301226	2492.371667
501.667390	2496.933912
502.033497	2493.732779
502.399546	2495.925681
502.765537	2494.614981
503.131470	2509.032681
503.497345	2504.772906
503.863163	2496.858294
504.228923	2498.723521
504.594625	2493.732779
504.960269	2500.487925
505.325856	2490.103148
505.691385	2491.867552
506.056856	2497.110352
506.422270	2490.380412
506.787625	2494.665392
507.152924	2495.018273
507.518164	2491.917963
507.883347	2497.992554
508.248472	2490.481235
508.613540	2500.639160
508.978550	2499.227637
509.343503	2492.674137
509.708398	2498.320229
510.073236	2494.060454
510.438016	2490.355206
510.802738	2493.304281
511.167403	2497.311998
511.532010	2500.790394
511.896561	2498.824344
512.261053	2497.362410
512.625488	2503.285765
512.989866	2498.194200
513.354186	2502.277535
513.718449	2494.514158
514.082655	2502.832062
514.446803	2501.042452
514.810894	2502.201917
515.174927	2496.757471
515.538904	2497.059940
515.902822	2502.630415
516.266684	2501.370127
516.630488	2503.840292
516.994235	2502.958090
517.357925	2510.822290
517.721558	2504.546054
518.085133	2501.496156
518.448651	2502.075888
518.812112	2512.939575
519.175516	2505.226610
519.538863	2501.067658
519.902152	2508.251302
520.265385	2511.149965
520.628560	2507.999244
520.991678	2506.285252
521.354739	2510.116529
521.717743	2508.377331
522.080690	2509.083092
522.443580	2508.906652
522.806413	2512.838752
523.169189	2506.789367
523.531908	2508.982269
523.894569	2517.022910
524.257174	2501.344921
524.619722	2508.906652
524.982213	2505.932371
525.344647	2510.318175
525.707025	2508.982269
526.069345	2506.209635
526.431608	2512.939575
526.793815	2509.562002
527.155964	2515.182888
527.518057	2510.998731
527.880093	2508.175685
528.242072	2507.444717
528.603995	2505.478667
528.965860	2504.999758
529.327669	2502.504387
529.689421	2506.688544
530.051117	2503.361383
530.412755	2508.780623
530.774337	2496.404590
531.135862	2505.176198
531.497331	2507.747187
531.858743	2501.521362
532.220098	2505.806342
532.581396	2501.748213
532.942638	2499.101608
533.303824	2504.546054
533.664953	2498.723521
534.026025	2504.823317
534.387040	2501.269304
534.747999	2508.452948
535.108902	2499.051196
535.469748	2499.630929
535.830537	2501.546567
536.191270	2500.084633
536.551947	2499.782163
536.912567	2496.933912
537.273131	2499.303254
537.633638	2500.966835
537.994089	2504.420025
538.354483	2501.748213
538.714821	2491.993581
539.075103	2500.462719
539.435328	2502.201917
539.795497	2495.749240
540.155609	2496.051710
540.515665	2500.261073
540.875665	2500.714777
541.235609	2495.270331
541.595496	2497.790908
541.955328	2495.698829
542.315102	2496.883500
542.674821	2492.346462
543.034483	2493.984837
543.394090	2500.689571
543.753640	2503.033708
544.113134	2499.126813
544.472571	2501.723008
544.831953	2492.774960
545.191278	2497.765702
545.550548	2495.950887
545.909761	2498.572287
546.268918	2491.111379
546.628019	2495.572800
546.987064	2492.321256
547.346053	2498.849550
547.704986	2502.403563
548.063863	2500.840806
548.422684	2491.514671
548.781449	2498.118583
549.140158	2500.135044
549.498811	2496.833088
549.857408	2497.463233
550.215949	2502.025477
550.574434	2492.598519
550.932864	2508.326919
551.291237	2492.371667
551.649555	2501.118069
552.007817	2497.942142
552.366022	2494.488952
552.724173	2501.849037
553.082267	2501.067658
553.440305	2494.186483
553.798288	2497.589262
554.156215	2494.211688
554.514086	2486.624752
554.871902	2492.648931
555.229661	2487.431337
555.587365	2488.893271
555.945014	2490.934938
556.302606	2489.599033
556.660143	2496.127327
557.017625	2493.556338
557.375050	2501.496156
557.732421	2497.740496
558.089735	2491.313025
558.446994	2493.606750
558.804197	2498.471463
559.161345	2491.464260
559.518437	2499.756958
559.875474	2497.387615
560.232455	2498.799138
560.589381	2497.211175
560.946251	2500.664365
561.303065	2495.724035
561.659825	2494.741010
562.016528	2498.547081
562.373177	2491.691112
562.729770	2492.497696
563.086307	2493.077429
563.442789	2495.471977
563.799216	2494.413335
564.155587	2492.447285
564.511904	2490.909733
564.868164	2494.715804
565.224370	2492.346462
565.580520	2499.454488
565.936615	2497.160763
566.292654	2504.470437
566.648638	2494.186483
567.004567	2493.858808
567.360441	2494.867038
567.716260	2495.396360
568.072023	2495.245125
568.427732	2493.783190
568.783385	2498.597492
569.138982	2498.395846
569.494525	2492.043992
569.850013	2492.497696
570.205445	2495.824858
570.560823	2492.724548
570.916145	2495.396360
571.271412	2486.599546
571.626625	2494.917450
571.981782	2498.723521
572.336884	2494.236894
572.691931	2496.177738
573.046923	2491.590288
573.401860	2490.304794
573.756743	2491.161790
574.111570	2501.193687
574.466342	2491.716317
574.821059	2496.354179
575.175722	2491.262613
575.530330	2493.253869
575.884882	2491.867552
576.239380	2495.648417
576.593823	2491.161790
576.948211	2493.984837
577.302544	2493.833602
577.656823	2502.327946
578.011047	2495.976092
578.365216	2491.665906
578.719330	2496.505413
579.073389	2497.185969
579.427394	2490.304794
579.781344	2494.413335
580.135239	2495.093890
580.489080	2496.026504
580.842866	2493.531133
581.196597	2498.799138
581.550273	2487.935452
581.903895	2489.397387
582.257463	2498.547081
582.610975	2489.825885
582.964434	2491.287819
583.317837	2493.027017
583.671186	2492.447285
584.024481	2488.414362
584.377721	2487.733806
584.730906	2481.205512
585.084037	2494.413335
585.437113	2496.354179
585.790135	2491.514671
586.143103	2490.178765
586.496016	2493.279075
586.848874	2497.337204
587.201679	2489.926708
587.554428	2487.632983
587.907124	2486.826398
588.259765	2495.043479
588.612352	2491.565083
588.964884	2489.699856
589.317362	2489.094917
589.669786	2490.985350
590.022155	2487.305308
590.374470	2484.809937
590.726731	2485.566110
591.078937	2477.147383
591.431090	2487.557365
591.783188	2487.456542
592.135232	2495.673623
592.487222	2487.406131
592.839157	2473.038842
593.191038	2494.867038
593.542866	2494.892244
593.894639	2490.531646
594.246358	2484.583085
594.598022	2479.365490
594.949633	2494.917450
595.301190	2483.927735
595.652692	2485.566110
596.004141	2488.792448
596.355535	2487.103662
596.706876	2487.204485
597.058162	2492.749754
597.409395	2490.052737
597.760573	2490.758498
598.111698	2481.659215
598.462768	2495.497183
598.813785	2477.853144
599.164748	2484.709113
599.515657	2483.700883
599.866511	2488.893271
600.217312	2487.355719
600.568060	2481.608804
600.918753	2488.918477
601.269392	2486.271871
601.619978	2479.390696
601.970510	2475.761065
602.320988	2486.397900
602.671412	2481.810450
603.021783	2484.835142
603.372100	2487.053250
603.722363	2481.381952
604.072572	2485.641727
604.422728	2487.784217
604.772830	2499.580517
605.122878	2487.885040
605.472872	2484.204998
605.822813	2487.154073
606.172701	2479.844400
606.522534	2478.936992
606.872314	2489.094917
607.222041	2478.332054
607.571714	2492.346462
607.921333	2485.616521
608.270899	2482.692652
608.620411	2490.556852
608.969870	2487.733806
609.319276	2479.138638
609.668627	2486.549135
610.017926	2483.146356
610.367171	2487.859835
610.716362	2483.423619
611.065500	2483.070738
611.414585	2484.961171
611.763616	2486.095431
612.112594	2486.423106
612.461518	2487.355719
612.810389	2488.338744
613.159207	2480.701396
613.507971	2479.869606
613.856682	2488.439567
614.205340	2480.928248
614.553945	2487.632983
614.902496	2479.945223
615.250994	2482.062508
615.599439	2479.541931
615.947830	2483.045533
616.296169	2481.634010
616.644454	2485.944196
616.992686	2484.658702
617.340864	2476.239975
617.688990	2481.810450
618.037063	2485.238435
618.385082	2485.440081
618.733048	2476.996148
619.080961	2492.220433
619.428821	2491.136585
619.776628	2482.793475
620.124382	2485.868579
620.472083	2484.709113
620.819731	2480.272898
621.167326	2490.052737
621.514868	2482.969915
621.862357	2484.053763
622.209793	2482.465800
622.557176	2490.002325
622.904506	2482.995121
623.251783	2487.229690
623.599007	2481.281129
623.946179	2482.390183
624.293297	2480.701396
624.640363	2489.069712
624.987376	2485.792962
625.334336	2478.029585
625.681243	2489.145329
626.028097	2480.172075
626.374899	2479.113433
626.721647	2483.499237
627.068343	2488.363950
627.414987	2485.036788
627.761577	2486.801192
628.108115	2487.330513
628.454600	2474.500777
628.801032	2478.432877
629.147412	2478.760552
629.493739	2480.600573
629.840014	2474.072279
630.186236	2482.390183
630.532405	2485.188023
630.878521	2478.206025
631.224585	2481.457569
631.570597	2477.727115
631.916556	2480.726602
632.262462	2477.349029
632.608316	2479.617548
632.954117	2477.223000
633.299866	2478.861375
633.645562	2488.237921
633.991206	2478.810963
634.336797	2476.970942
634.682336	2477.248206
635.027823	2482.944710
635.373257	2479.617548
635.718639	2484.507467
636.063968	2481.306335
636.409245	2484.331027
636.754470	2478.836169
637.099642	2478.231231
637.444762	2478.659729
637.789829	2479.793988
638.134845	2477.626292
638.479808	2483.776500
638.824719	2487.481748
639.169577	2473.542958
639.514383	2482.617035
639.859137	2474.273925
640.203839	2480.020840
640.548489	2475.231744
640.893086	2480.499750
641.237632	2476.315592
641.582125	2477.449852
641.926566	2475.836683
642.270955	2472.081023
642.615292	2478.634523
642.959576	2481.482775
643.303809	2479.743577
643.647990	2477.248206
643.992118	2476.643267
644.336195	2478.155613
644.680219	2462.553242
645.024192	2473.618575
645.368112	2484.078969
645.711981	2477.475058
646.055797	2480.575367
646.399562	2478.357260
646.743274	2476.517238
647.086935	2470.921558
647.430544	2481.860862
647.774101	2479.214256
648.117606	2473.467340
648.461059	2475.130921
648.804460	2480.827425
649.147810	2481.911273
649.491108	2475.030098
649.834354	2479.844400
650.177548	2474.878863
650.520690	2479.945223
650.863781	2476.466827
651.206820	2476.744090
651.549807	2476.970942
651.892742	2475.887094
652.235626	2480.625779
652.578458	2483.121150
652.921238	2473.467340
653.263967	2477.979173
653.606644	2473.492546
653.949269	2474.374748
654.291843	2471.677731
654.634365	2479.466313
654.976836	2477.046560
655.319255	2473.265694
655.661622	2484.204998
656.003938	2475.584625
656.346203	2475.509008
656.688416	2472.459110
657.030577	2472.232258
657.372687	2470.392237
657.714746	2479.970429
658.056753	2469.535240
658.398708	2475.105715
658.740612	2480.600573
659.082465	2475.307362
659.424266	2475.130921
659.766016	2473.492546
660.107715	2474.147896
660.449362	2471.728142
660.790958	2466.157667
661.132503	2470.921558
661.473996	2467.090281
661.815438	2473.895838
662.156829	2478.105202
662.498168	2474.198308
662.839456	2483.902529
663.180693	2473.391723
663.521879	2477.223000
663.863013	2469.988944
664.204097	2481.155100
664.545129	2469.484829
664.886110	2472.912813
665.227040	2466.334108
665.567918	2472.156640
665.908746	2477.449852
666.249522	2482.188537
666.590248	2465.804787
666.930922	2483.095944
667.271545	2476.013123
667.612118	2482.112919
667.952639	2470.392237
668.293109	2472.610344
668.633528	2479.743577
668.973896	2479.037815
669.314213	2470.442648
669.654480	2475.685448
669.994695	2471.576908
670.334859	2480.978660
670.674973	2469.736887
671.015035	2471.425673
671.355047	2467.947277
671.695008	2476.970942
672.034918	2458.847994
672.374777	2478.987404
672.714585	2469.257977
673.054342	2473.996662
673.394049	2480.701396
673.733705	2477.147383
674.073310	2483.121150
674.412864	2475.408185
674.752368	2474.778040
675.091820	2474.677217
675.431223	2473.139665
675.770574	2475.231744
676.109875	2471.576908
676.449125	2464.846967
676.788324	2468.249746
677.127473	2472.761579
677.466571	2468.653038
677.805619	2472.938019
678.144616	2474.500777
678.483562	2473.290900
678.822458	2461.923098
679.161303	2471.551702
679.500098	2470.039356
679.838842	2474.853658
680.177535	2476.718885
680.516179	2465.804787
680.854771	2477.172588
681.193314	2469.031125
681.531805	2475.307362
681.870247	2478.382465
682.208638	2469.157154
682.546978	2474.929275
682.885268	2478.079996
683.223508	2474.349542
683.561697	2477.046560
683.899836	2470.694706
684.237925	2477.399440
684.575963	2478.609317
684.913951	2472.660756
685.251889	2475.962712
685.589776	2477.953967
685.927614	2474.097485
686.265401	2474.021867
686.603137	2477.147383
686.940824	2473.316106
687.278460	2471.350056
687.616046	2462.830506
687.953582	2481.860862
688.291068	2469.862915
688.628504	2476.643267
688.965889	2478.659729
689.303224	2478.483288
689.640510	2484.709113
689.977745	2472.862402
690.314930	2471.526496
690.652065	2472.030612
690.989150	2476.466827
691.326185	2478.911787
691.663170	2476.895325
692.000105	2471.879377
692.336990	2469.661269
692.673825	2466.510548
693.010610	2477.172588
693.347345	2469.686475
693.684030	2476.643267
694.020665	2466.485342
694.357251	2474.475571
694.693786	2473.795015
695.030272	2470.971969
695.366707	2469.686475
695.703093	2464.443675
696.039429	2469.963738
696.375716	2463.032152
696.711952	2473.795015
697.048139	2474.601600
697.384276	2461.545012
697.720363	2472.383492
698.056400	2470.442648
698.392388	2464.393263
698.728326	2472.459110
699.064214	2462.981740
699.400053	2462.099538
699.735842	2475.735860
700.071581	2469.106742
700.407270	2469.510035
700.742910	2472.711167
701.078501	2468.703450
701.414042	2463.662296
701.749533	2470.215796
702.084974	2473.618575
702.420366	2467.342338
702.755709	2472.232258
703.091002	2470.644294
703.426246	2467.392750
703.761440	2467.241515
704.096584	2469.182360
704.431679	2469.358800
704.766725	2471.299644
705.101721	2465.829992
705.436668	2473.114460
705.771565	2459.553756
706.106413	2472.711167
706.441212	2461.797069
706.775961	2466.762606
707.110661	2468.703450
707.445311	2464.746144
707.779913	2469.812504
708.114465	2464.065588
708.448967	2467.543985
708.783421	2469.862915
709.117825	2462.981740
709.452180	2465.956021
709.786485	2470.114973
710.120742	2466.182873
710.454949	2461.797069
710.789107	2467.997688
711.123216	2467.291927
711.457275	2470.215796
711.791286	2466.838223
712.125247	2473.114460
712.459159	2474.727629
712.793023	2470.241002
713.126837	2469.661269
713.460602	2465.603140
713.794318	2465.603140
714.127985	2469.812504
714.461602	2464.090794
714.795171	2463.939560
715.128691	2467.518779
715.462162	2468.451392
715.795584	2461.923098
716.128957	2464.720938
716.462281	2469.081537
716.795556	2456.478652
717.128782	2466.737400
717.461960	2461.519806
717.795088	2465.905610
718.128167	2464.620115
718.461198	2469.812504
718.794180	2463.057358
719.127113	2471.929788
719.459997	2468.627833
719.792833	2472.559933
720.125619	2463.788325
720.458357	2465.905610
720.791046	2471.980200
721.123686	2463.309415
721.456278	2465.628346
721.788821	2470.770323
722.121315	2466.939046
722.453761	2464.141206
722.786158	2467.619602
723.118506	2468.199335
723.450805	2466.712194
723.783056	2472.055817
724.115259	2470.114973
724.447412	2460.385546
724.779518	2473.139665
725.111574	2468.653038
725.443582	2472.484315
725.775542	2470.341825
726.107453	2463.334621
726.439315	2465.023408
726.771129	2467.871660
727.102895	2467.922071
727.434612	2470.039356
727.766281	2459.175669
728.097901	2468.930302
728.429473	2458.192644
728.760996	2467.821248
729.092471	2461.494600
729.423897	2466.434931
729.755276	2460.410752
730.086606	2462.023921
730.417887	2466.737400
730.749120	2467.241515
731.080305	2470.770323
731.411442	2468.199335
731.742530	2470.694706
732.073570	2463.435444
732.404562	2466.989458
732.735506	2461.595423
733.066401	2463.637090
733.397249	2475.130921
733.728048	2466.031638
734.058798	2470.467854
734.389501	2474.450365
734.720156	2468.022894
735.050762	2474.324337
735.381320	2466.989458
735.711831	2461.292954
736.042293	2466.813017
736.372707	2466.056844
736.703073	2462.931329
737.033391	2470.417442
737.363661	2460.763633
737.693883	2466.082050
738.024056	2460.612398
738.354182	2466.964252
738.684260	2464.569704
739.014290	2462.981740
739.344272	2464.695733
739.674207	2466.132462
740.004093	2464.292440
740.333931	2473.190077
740.663722	2471.249233
740.993464	2474.803246
741.323159	2466.460137
741.652806	2462.830506
741.982405	2465.351083
742.311956	2468.577421
742.641460	2469.207565
742.970915	2467.216310
743.300323	2466.586165
743.629683	2466.813017
743.958996	2461.973510
744.288260	2457.890175
744.617477	2464.267235
744.946647	2465.754375
745.275768	2456.982767
745.604842	2467.241515
745.933869	2468.098512
746.262847	2470.064562
746.591778	2457.461677
746.920662	2472.938019
747.249498	2462.855712
747.578286	2466.712194
747.907027	2476.492033
748.235720	2460.158694
748.564365	2463.536267
748.892963	2469.610858
749.221514	2470.140179
749.550017	2464.468881
749.878473	2467.468367
750.206881	2470.215796
750.535242	2457.839763
750.863555	2463.284210
751.191821	2463.863942
751.520039	2471.148410
751.848210	2464.897379
752.176334	2461.444188
752.504411	2469.510035
752.832440	2469.106742
753.160421	2468.123717
753.488356	2468.022894
753.816243	2460.587192
754.144082	2456.755915
754.471875	2457.411265
754.799620	2462.275979
755.127318	2460.763633
755.454969	2463.536267
755.782572	2468.148923
756.110129	2467.468367
756.437638	2467.191104
756.765100	2464.191617
757.092515	2469.384006
757.419882	2474.021867
757.747203	2465.048613
758.074477	2461.897892
758.401703	2464.065588
758.728882	2459.780608
759.056014	2454.033692
759.383099	2466.586165
759.710138	2459.957048
760.037129	2463.536267
760.364073	2463.385033
760.690970	2465.149437
761.017820	2468.199335
761.344623	2462.628860
761.671379	2463.939560
761.998088	2462.477625
762.324751	2455.420010
762.651366	2461.620629
762.977935	2473.164871
763.304456	2469.106742
763.630931	2471.602113
763.957359	2469.938533
764.283740	2470.669500
764.610074	2461.469394
764.936362	2462.452419
765.262602	2462.427213
765.588796	2469.484829
765.914943	2461.418983
766.241044	2468.451392
766.567097	2465.577935
766.893104	2469.283183
767.219064	2461.671040
767.544978	2467.216310
767.870845	2451.815585
768.196665	2469.636063
768.522438	2458.318673
768.848165	2463.813531
769.173846	2461.822275
769.499479	2467.947277
769.825066	2467.191104
770.150607	2469.560446
770.476101	2459.957048
770.801548	2460.990485
771.126949	2462.603654
771.452303	2464.418469
771.777611	2466.888635
772.102872	2455.621656
772.428087	2468.123717
772.753256	2466.334108
773.078378	2464.443675
773.403453	2452.092848
773.728482	2465.048613
774.053465	2468.501804
774.378401	2473.316106
774.703291	2464.897379
775.028135	2472.761579
775.352932	2460.637604
775.677683	2465.250260
776.002388	2470.770323
776.327046	2455.898919
776.651658	2458.268262
776.976224	2456.856738
777.300743	2462.931329
777.625216	2457.486883
777.949643	2460.688015
778.274024	2456.403035
778.598359	2464.897379
778.922647	2462.099538
779.246889	2470.946763
779.571086	2463.334621
779.895236	2457.512088
780.219339	2464.569704
780.543397	2466.888635
780.867409	2465.552729
781.191374	2461.267748
781.515294	2465.073819
781.839167	2463.259004
782.162995	2456.277006
782.486776	2458.696760
782.810511	2457.108796
783.134201	2462.981740
783.457844	2453.126285
783.781441	2467.518779
784.104993	2451.160235
784.428498	2462.880917
784.751958	2467.922071
785.075372	2467.039869
785.398739	2455.369598
785.722061	2467.140692
786.045337	2456.755915
786.368568	2462.326390
786.691752	2450.706531
787.014891	2467.543985
787.337983	2457.688529
787.661030	2471.148410
787.984031	2453.252313
788.306987	2467.367544
788.629897	2456.554269
788.952760	2467.922071
789.275579	2457.007973
789.598351	2457.436471
789.921078	2455.848508
790.243759	2461.998715
790.566395	2466.056844
790.888984	2460.057871
791.211529	2457.789352
791.534027	2469.232771
791.856480	2459.780608
792.178888	2458.822788
792.501249	2456.201388
792.823566	2460.864456
793.145836	2466.182873
793.468062	2462.754888
793.790241	2457.360854
794.112375	2464.519292
794.434464	2458.570731
794.756507	2458.495113
795.078505	2455.571244
795.400457	2462.956535
795.722364	2460.108283
796.044226	2461.595423
796.366042	2460.914867
796.687812	2462.528037
797.009538	2460.259517
797.331218	2469.106742
797.652852	2466.838223
797.974442	2464.141206
798.295986	2452.596963
798.617484	2470.316619
798.938938	2464.594910
799.260346	2457.537294
799.581709	2453.101079
799.903026	2459.755402
800.224299	2460.889662
800.545526	2459.780608
800.866708	2456.680298
801.187845	2471.123204
801.508936	2457.007973
801.829983	2473.517752
802.150984	2461.620629
802.471940	2466.434931
802.792851	2461.595423
803.113717	2460.662810
803.434538	2455.772890
803.755314	2459.074846
804.076045	2457.134002
804.396731	2462.981740
804.717372	2461.267748
805.037967	2464.922585
805.358518	2464.443675
805.679024	2460.637604
805.999485	2456.806327
806.319901	2461.242542
806.640272	2465.603140
806.960598	2459.982254
807.280879	2458.898406
807.601115	2460.360340
807.921306	2457.310442
808.241453	2456.503858
808.561554	2462.553242
808.881611	2446.018258
809.201623	2454.159721
809.521590	2456.201388
809.841513	2459.251287
810.161390	2461.292954
810.481223	2461.267748
810.801011	2457.058385
811.120755	2468.602627
811.440453	2460.385546
811.760107	2465.401494
812.079716	2460.209106
812.399281	2463.158181
812.718801	2453.101079
813.038276	2468.350569
813.357707	2465.451906
813.677093	2459.100052
813.996434	2460.083077
814.315731	2464.342852
814.634983	2460.032665
814.954191	2462.805300
815.273354	2459.856225
815.592473	2464.846967
815.911547	2459.024435
816.230577	2469.081537
816.549562	2470.871146
816.868502	2468.123717
817.187399	2454.512602
817.506250	2462.225567
817.825058	2462.074333
818.143821	2464.569704
818.462539	2465.855198
818.781213	2456.680298
819.099843	2459.200875
819.418429	2457.108796
819.736970	2461.343365
820.055466	2463.989971
820.373919	2464.594910
820.692327	2461.393777
821.010691	2460.940073
821.329011	2474.500777
821.647286	2482.793475
821.965517	2486.952427
822.283704	2495.068685
822.601847	2489.649444
822.919945	2497.085146
823.237999	2484.078969
823.556010	2481.684421
823.873976	2481.634010
824.191897	2468.804273
824.509775	2470.039356
824.827609	2468.955508
825.145398	2464.443675
825.463144	2471.980200
825.780845	2466.485342
826.098502	2469.131948
826.416116	2476.038329
826.733685	2462.275979
827.051210	2474.954481
827.368692	2469.938533
827.686129	2475.811477
828.003522	2470.896352
828.320872	2472.610344
828.638177	2471.198821
828.955439	2464.519292
829.272656	2460.738427
829.589830	2465.577935
829.906960	2470.367031
830.224046	2465.174642
830.541088	2458.469908
830.858086	2456.176183
831.175041	2458.369085
831.491952	2458.873200
831.808819	2457.134002
832.125642	2454.815071
832.442421	2461.469394
832.759157	2464.418469
833.075849	2462.906123
833.392497	2456.680298
833.709101	2474.979687
834.025662	2470.745117
834.342179	2468.854685
834.658653	2460.965279
834.975083	2468.577421
835.291469	2464.015177
835.607811	2461.570217
835.924110	2458.343879
836.240366	2457.940587
836.556578	2466.712194
836.872746	2457.864969
837.188871	2455.394804
837.504952	2450.504885
837.820990	2461.620629
838.136984	2456.100565
838.452935	2455.092335
838.768842	2452.571758
839.084706	2452.395317
839.400526	2467.317133
839.716303	2460.360340
840.032037	2456.327417
840.347727	2453.479165
840.663373	2461.923098
840.978977	2454.714248
841.294537	2452.949844
841.610054	2453.932869
841.925527	2458.621142
842.240957	2452.319700
842.556344	2457.209619
842.871687	2464.015177
843.186987	2462.780094
843.502244	2459.982254
843.817458	2459.553756
844.132629	2461.822275
844.447756	2455.218363
844.762840	2458.293467
845.077881	2454.084104
845.392879	2461.242542
845.707833	2457.587706
846.022745	2453.958075
846.337613	2455.470421
846.652438	2455.974537
846.967221	2460.940073
847.281960	2463.536267
847.596656	2458.217850
847.911309	2455.848508
848.225919	2452.344906
848.540485	2458.394290
848.855009	2455.873713
849.169490	2457.688529
849.483928	2461.040896
849.798323	2464.166412
850.112675	2457.083590
850.426984	2449.143773
850.741251	2464.695733
851.055474	2458.016204
851.369654	2456.176183
851.683792	2459.730196
851.997887	2461.217337
852.311938	2458.142233
852.625947	2461.948304
852.939914	2461.519806
853.253837	2457.789352
853.567718	2455.898919
853.881555	2455.319187
854.195350	2456.655092
854.509103	2454.815071
854.822812	2453.882458
855.136479	2461.141719
855.450103	2458.243056
855.763685	2454.462190
856.077224	2450.152004
856.390720	2454.714248
856.704173	2441.657660
857.017584	2458.974023
857.330953	2462.402008
857.644278	2452.294494
857.957561	2458.091821
858.270802	2453.302725
858.584000	2462.729683
858.897155	2452.899433
859.210268	2452.269288
859.523339	2463.460650
859.836367	2463.561473
860.149352	2456.957562
860.462295	2459.578962
860.775195	2458.318673
861.088054	2462.830506
861.400869	2458.394290
861.713642	2450.731737
862.026373	2451.714762
862.339062	2455.646862
862.651708	2461.267748
862.964312	2449.446242
863.276873	2464.670527
863.589392	2451.664350
863.901869	2452.672581
864.214303	2452.748198
864.526696	2460.486369
864.839045	2463.385033
865.151353	2463.284210
865.463619	2459.679785
865.775842	2459.780608
866.088023	2457.083590
866.400162	2454.058898
866.712258	2456.781121
867.024313	2455.949331
867.336325	2459.024435
867.648296	2458.268262
867.960224	2458.394290
868.272110	2460.965279
868.583954	2451.739967
868.895755	2463.183387
869.207515	2460.410752
869.519233	2462.704477
869.830909	2460.032665
870.142542	2460.536781
870.454134	2458.293467
870.765684	2453.277519
871.077191	2467.569190
871.388657	2449.295008
871.700081	2465.250260
872.011463	2459.074846
872.322803	2443.850562
872.634101	2460.763633
872.945357	2457.461677
873.256571	2459.402521
873.567744	2447.807867
873.878874	2458.343879
874.189963	2453.504371
874.501010	2455.722479
874.812015	2456.277006
875.122979	2457.486883
875.433900	2460.612398
875.744780	2455.999742
876.055618	2454.336162
876.366415	2458.444702
876.677169	2462.023921
876.987882	2455.823302
877.298554	2461.771863
877.609183	2450.303238
877.919771	2456.529063
878.230317	2455.520833
878.540822	2459.150463
878.851285	2459.301698
879.161707	2452.622169
879.472087	2458.721965
879.782425	2458.419496
880.092722	2461.217337
880.402977	2459.931842
880.713191	2462.124744
881.023363	2466.787812
881.333494	2466.686988
881.643583	2469.762092
881.953631	2472.988431
882.263637	2469.711681
882.573602	2465.451906
882.883526	2477.449852
883.193408	2469.459623
883.503248	2470.795529
883.813048	2466.107256
884.122806	2464.821762
884.432522	2461.418983
884.742197	2464.670527
885.051831	2463.511062
885.361424	2461.671040
885.670975	2456.352623
885.980485	2455.672067
886.289954	2459.402521
886.599382	2458.898406
886.908768	2458.797583
887.218113	2456.302212
887.527417	2454.462190
887.836680	2451.639144
888.145901	2445.362908
888.455082	2464.040383
888.764221	2453.731223
889.073319	2451.765173
889.382376	2456.680298
889.691392	2453.605194
890.000366	2458.621142
890.309300	2449.093362
890.618193	2461.746658
890.927044	2464.368058
891.235855	2460.133488
891.544625	2466.560960
891.853353	2457.108796
892.162041	2452.319700
892.470687	2460.738427
892.779293	2458.545525
893.087858	2452.420523
893.396381	2454.966306
893.704864	2462.956535
894.013306	2458.243056
894.321707	2464.922585
894.630068	2456.100565
894.938387	2461.746658
895.246665	2467.291927
895.554903	2454.714248
895.863100	2459.528550
896.171256	2461.998715
896.479371	2462.225567
896.787446	2465.527523
897.095480	2463.586679
897.403473	2452.849021
897.711425	2455.041923
898.019336	2455.495627
898.327207	2459.301698
898.635038	2453.731223
898.942827	2463.863942
899.250576	2453.302725
899.558284	2454.008487
899.865952	2454.336162
900.173579	2462.880917
900.481165	2451.538321
900.788711	2454.462190
901.096216	2456.428240
901.403681	2460.940073
901.711105	2443.119594
902.018489	2454.436985
902.325832	2457.033179
902.633135	2449.597477
902.940397	2456.705504
903.247619	2453.630400
903.554800	2465.124231
903.861941	2462.931329
904.169041	2463.763119
904.476101	2467.644808
904.783121	2459.805813
905.090100	2459.326904
905.397039	2463.158181
905.703938	2458.016204
906.010796	2465.073819
906.317614	2462.628860
906.624391	2454.941100
906.931129	2462.402008
907.237826	2451.613938
907.544483	2461.923098
907.851099	2453.126285
908.157675	2453.756429
908.464211	2447.026488
908.770707	2471.148410
909.077163	2459.352110
909.383578	2463.586679
909.689954	2459.074846
909.996289	2452.143260
910.302584	2453.126285
910.608839	2453.353137
910.915054	2446.572785
911.221229	2459.427727
911.527363	2452.017231
911.833458	2453.680812
912.139513	2458.570731
912.445527	2458.898406
912.751502	2458.117027
913.057436	2448.866510
913.363331	2458.772377
913.669186	2455.344392
913.975000	2459.402521
914.280775	2460.108283
914.586510	2458.419496
914.892205	2461.066102
915.197859	2456.075360
915.503475	2458.444702
915.809050	2459.982254
916.114585	2461.620629
916.420081	2466.863429
916.725536	2450.756942
917.030952	2464.342852
917.336328	2456.932356
917.641665	2465.956021
917.946961	2450.756942
918.252218	2461.570217
918.557435	2451.462704
918.862612	2459.125258
919.167750	2458.192644
919.472848	2457.360854
919.777906	2461.116513
920.082925	2458.948817
920.387904	2456.957562
920.692843	2453.126285
920.997743	2454.714248
921.302603	2451.916408
921.607423	2452.370112
921.912204	2456.705504
922.216946	2457.990998
922.521647	2453.907663
922.826310	2450.202415
923.130932	2458.369085
923.435516	2460.788838
923.740059	2461.292954
924.044564	2453.983281
924.349028	2449.824329
924.653454	2460.561987
924.957840	2458.167438
925.262186	2447.202929
925.566493	2451.714762
925.870761	2452.773404
926.174989	2454.235338
926.479178	2449.622683
926.783328	2458.721965
927.087438	2460.990485
927.391509	2461.318160
927.695541	2460.183900
927.999533	2452.521346
928.303486	2453.832046
928.607400	2455.420010
928.911275	2454.058898
929.215110	2452.143260
929.518906	2452.722992
929.822663	2456.781121
930.126381	2453.554783
930.430060	2455.394804
930.733699	2448.387600
931.037299	2447.858279
931.340861	2457.285237
931.644383	2451.865996
931.947866	2454.537808
932.251309	2454.512602
932.554714	2455.193158
932.858080	2445.740994
933.161407	2451.992025
933.464694	2454.184927
933.767943	2447.076900
934.071153	2459.074846
934.374323	2459.175669
934.677455	2455.646862
934.980548	2453.958075
935.283602	2450.479679
935.586617	2451.387087
935.889593	2455.823302
936.192530	2454.966306
936.495428	2463.259004
936.798287	2451.059412
937.101108	2447.782662
937.403890	2450.227621
937.706632	2463.863942
938.009336	2449.773917
938.312002	2457.260031
938.614628	2461.267748
938.917216	2456.201388
939.219765	2452.218877
939.522275	2454.361367
939.824747	2456.352623
940.127179	2463.309415
940.429573	2453.958075
940.731929	2466.308902
941.034246	2454.134515
941.336524	2450.303238
941.638763	2460.561987
941.940964	2462.023921
942.243126	2462.124744
942.545250	2447.530604
942.847335	2457.260031
943.149381	2457.537294
943.451389	2448.261571
943.753359	2456.579475
944.055290	2448.916921
944.357182	2459.629373
944.659036	2450.580502
944.960851	2456.428240
945.262628	2464.544498
945.564367	2448.211160
945.866067	2455.747685
946.167729	2448.185954
946.469352	2447.681838
946.770937	2450.404062
947.072484	2453.378342
947.373992	2457.638117
947.675462	2462.402008
947.976893	2453.554783
948.278286	2455.949331
948.579641	2448.311983
948.880958	2447.606221
949.182236	2450.479679
949.483476	2445.388113
949.784678	2453.579988
950.085841	2453.554783
950.386967	2461.771863
950.688054	2448.589246
950.989103	2453.907663
951.290114	2449.194185
951.591087	2458.520319
951.892021	2453.151490
952.192917	2451.361881
952.493776	2453.050667
952.794596	2455.823302
953.095378	2450.278033
953.396122	2453.983281
953.696828	2448.236365
953.997496	2455.319187
954.298126	2453.378342
954.598718	2449.320213
954.899272	2448.967333
955.199788	2450.983794
955.500266	2455.041923
955.800706	2452.949844
956.101108	2460.940073
956.401472	2453.958075
956.701798	2450.958588
957.002087	2461.797069
957.302337	2449.244596
957.602550	2456.554269
957.902724	2455.823302
958.202861	2451.664350
958.502960	2450.353650
958.803022	2451.916408
959.103045	2459.100052
959.403031	2457.108796
959.702979	2455.218363
960.002889	2456.478652
960.302762	2453.101079
960.602596	2463.561473
960.902393	2449.547065
961.202153	2458.394290
961.501875	2450.605708
961.801559	2452.697787
962.101205	2449.622683
962.400814	2458.873200
962.700385	2455.722479
962.999918	2445.942640
963.299414	2450.378856
963.598873	2454.739454
963.898293	2449.118567
964.197677	2450.000769
964.497022	2460.561987
964.796331	2457.512088
965.095601	2456.907150
965.394835	2452.899433
965.694030	2448.463217
965.993189	2455.495627
966.292309	2453.504371
966.591393	2457.411265
966.890439	2453.958075
967.189447	2449.118567
967.488419	2454.260544
967.787353	2453.932869
968.086249	2460.940073
968.385108	2446.799637
968.683930	2457.814558
968.982714	2448.135542
969.281462	2458.318673
969.580172	2450.706531
969.878844	2448.059925
970.177480	2460.662810
970.476078	2449.950358
970.774639	2457.789352
971.073162	2448.311983
971.371649	2457.990998
971.670098	2448.438012
971.968510	2447.379369
972.266885	2451.034206
972.565223	2452.218877
972.863524	2466.384519
973.161788	2450.227621
973.460014	2448.664863
973.758204	2454.638631
974.056356	2452.143260
974.354471	2460.612398
974.652550	2446.194698
974.950591	2453.075873
975.248595	2451.059412
975.546563	2452.722992
975.844493	2448.614452
976.142386	2457.108796
976.440243	2454.915894
976.738062	2448.261571
977.035845	2451.714762
977.333590	2442.086158
977.631299	2445.917435
977.928971	2446.799637
978.226606	2448.967333
978.524204	2449.421037
978.821765	2440.523400
979.119290	2451.765173
979.416777	2462.805300
979.714228	2456.403035
980.011642	2448.009513
980.309020	2450.555296
980.606360	2455.243569
980.903664	2454.991512
981.200931	2453.756429
981.498162	2452.849021
981.795356	2455.924125
982.092513	2452.899433
982.389633	2459.654579
982.686717	2449.597477
982.983764	2455.470421
983.280775	2453.227108
983.577749	2444.505912
983.874686	2451.538321
984.171587	2455.974537
984.468451	2447.253340
984.765279	2449.168979
985.062070	2454.109310
985.358824	2450.025975
985.655543	2451.034206
985.952224	2451.487910
986.248869	2453.227108
986.545478	2448.463217
986.842050	2450.404062
987.138586	2446.421550
987.435086	2455.268775
987.731549	2450.227621
988.027975	2454.764660
988.324366	2457.940587
988.620719	2444.959615
988.917037	2446.925665
989.213318	2452.899433
989.509563	2460.133488
989.805772	2454.815071
990.101944	2448.337188
990.398080	2456.907150
990.694180	2456.226594
990.990244	2448.715275
991.286271	2441.178750
991.582262	2459.881431
991.878217	2454.638631
992.174136	2457.915381
992.470019	2456.352623
992.765865	2443.825356
993.061676	2449.143773
993.357450	2445.488937
993.653188	2444.052208
993.948890	2449.899946
994.244556	2455.520833
994.540186	2453.655606
994.835780	2453.882458
995.131337	2455.672067
995.426859	2446.497167
995.722345	2450.353650
996.017795	2456.655092
996.313208	2454.764660
996.608586	2449.673094
996.903928	2447.429781
997.199234	2457.612912
997.494504	2445.488937
997.789738	2454.084104
998.084936	2453.101079
998.380099	2449.320213
998.675225	2451.613938
998.970316	2443.749738
999.265371	2447.354163
999.560390	2446.371138
999.855373	2451.084617
1000.150320	2455.621656
1000.445232	2449.647888
1000.740108	2448.236365
1001.034948	2449.219390
1001.329752	2451.613938
1001.624521	2459.578962
1001.919254	2445.917435
1002.213951	2449.547065
1002.508613	2445.488937
1002.803239	2445.766200
1003.097829	2452.143260
1003.392384	2453.479165
1003.686903	2455.369598
1003.981386	2450.303238
1004.275834	2457.360854
1004.570246	2447.757456
1004.864623	2452.118054
1005.158964	2456.201388
1005.453270	2449.370625
1005.747540	2453.983281
1006.041775	2449.799123
1006.335974	2448.816098
1006.630138	2457.310442
1006.924266	2450.756942
1007.218359	2448.614452
1007.512416	2448.387600
1007.806438	2445.060438
1008.100425	2439.263112
1008.394376	2451.790379
1008.688292	2448.690069
1008.982172	2453.554783
1009.276017	2451.109823
1009.569827	2442.817125
1009.863602	2457.940587
1010.157341	2452.244083
1010.451045	2454.915894
1010.744714	2451.361881
1011.038347	2452.218877
1011.331945	2457.411265
1011.625508	2455.445215
1011.919036	2439.615992
1012.212528	2450.353650
1012.505986	2459.074846
1012.799408	2453.277519
1013.092795	2454.941100
1013.386147	2458.167438
1013.679464	2459.578962
1013.972745	2458.873200
1014.265992	2456.302212
1014.559204	2455.167952
1014.852380	2443.321240
1015.145521	2448.589246
1015.438628	2455.974537
1015.731699	2449.521860
1016.024736	2450.983794
1016.317737	2447.681838
1016.610703	2449.975563
1016.903635	2450.353650
1017.196531	2453.605194
1017.489393	2449.471448
1017.782219	2456.730710
1018.075011	2446.976077
1018.367768	2447.228135
1018.660490	2450.353650
1018.953177	2450.353650
1019.245829	2450.353650
