Dividing Wavelength (nm)	Counts (n)	Slit_number_5_of_a_total_of_40	
326.493990	2068.133365
326.888308	2068.133365
327.282561	2068.133365
327.676750	2027.047962
328.070874	2026.795904
328.464933	2013.940962
328.858929	2012.680673
329.252859	2049.481096
329.646726	2069.393654
330.040528	2082.752712
330.434265	2085.021231
330.827938	2119.301077
331.221547	2150.808288
331.615091	2143.498615
332.008571	2189.877231
332.401986	2203.992462
332.795338	2236.507904
333.188625	2254.404000
333.581847	2251.379308
333.975006	2295.237346
334.368100	2289.944135
334.761129	2331.029538
335.154095	2325.736327
335.546996	2400.093346
335.939833	2386.734288
336.332606	2412.444173
336.725315	2413.200346
337.117960	2420.257962
337.510540	2442.186981
337.903056	2463.107769
338.295508	2472.181846
338.687896	2467.644808
339.080220	2481.507981
339.472480	2485.288846
339.864676	2486.297077
340.256807	2484.280615
340.648875	2480.751808
341.040879	2488.565596
341.432818	2488.565596
341.824694	2492.850577
342.216506	2466.636577
342.608253	2476.466827
342.999937	2475.458596
343.391557	2492.346462
343.783113	2500.160250
344.174605	2494.614981
344.566033	2460.335135
344.957397	2482.264154
345.348697	2472.181846
345.739934	2472.938019
346.131106	2457.058385
346.522215	2484.784731
346.913260	2489.321769
347.304241	2472.433904
347.695159	2461.847481
348.086012	2465.124231
348.476802	2458.066615
348.867528	2443.699327
349.258191	2412.192115
349.648789	2463.359827
350.039324	2425.551173
350.429796	2454.033692
350.820203	2451.261058
351.210548	2458.570731
351.600828	2479.995635
351.991045	2468.653038
352.381198	2449.496654
352.771288	2454.537808
353.161314	2448.740481
353.551276	2423.534712
353.941175	2444.707558
354.331010	2439.414346
354.720782	2456.050154
355.110490	2434.877308
355.500135	2460.335135
355.889717	2414.964750
356.279235	2430.088212
356.668689	2428.827923
357.058080	2455.798096
357.447408	2460.083077
357.836672	2461.595423
358.225873	2443.195212
358.615010	2461.595423
359.004084	2486.297077
359.393095	2429.836154
359.782043	2453.781635
360.170927	2444.707558
360.559748	2441.682865
360.948505	2451.513115
361.337199	2486.045019
361.725830	2441.682865
362.114398	2477.475058
362.502903	2436.641712
362.891344	2451.765173
363.279722	2463.863942
363.668037	2455.293981
364.056289	2466.888635
364.444478	2455.293981
364.832603	2455.293981
365.220665	2457.814558
365.608665	2468.653038
365.996601	2450.252827
366.384474	2444.959615
366.772284	2459.578962
367.160031	2472.181846
367.547715	2473.190077
367.935336	2442.691096
368.322893	2446.219904
368.710388	2454.789865
369.097820	2482.516212
369.485189	2454.285750
369.872495	2455.041923
370.259738	2467.644808
370.646918	2455.798096
371.034035	2474.198308
371.421090	2476.214769
371.808081	2461.091308
372.195010	2493.354692
372.581875	2468.653038
372.968678	2492.346462
373.355418	2473.190077
373.742096	2454.537808
374.128710	2445.211673
374.515262	2456.050154
374.901751	2458.318673
375.288177	2487.305308
375.674540	2475.962712
376.060841	2477.223000
376.447079	2459.831019
376.833254	2460.335135
377.219367	2477.475058
377.605417	2483.272385
377.991404	2472.685962
378.377329	2484.028558
378.763191	2478.483288
379.148991	2473.190077
379.534727	2481.760038
379.920402	2455.041923
380.306013	2476.970942
380.691563	2441.934923
381.077049	2438.910231
381.462474	2475.710654
381.847835	2452.017231
382.233134	2480.751808
382.618371	2463.863942
383.003545	2478.735346
383.388657	2477.475058
383.773706	2462.351596
384.158693	2464.872173
384.543618	2493.102635
384.928480	2476.466827
385.313280	2477.727115
385.698017	2474.450365
386.082692	2456.302212
386.467305	2477.979173
386.851856	2463.107769
387.236344	2485.036788
387.620770	2447.984308
388.005133	2477.979173
388.389435	2493.606750
388.773674	2473.442135
389.157851	2464.620115
389.541965	2480.247692
389.926018	2464.872173
390.310008	2498.395846
390.693936	2464.620115
391.077802	2479.995635
391.461606	2474.702423
391.845348	2446.219904
392.229027	2513.519308
392.612645	2466.888635
392.996200	2487.305308
393.379694	2470.165385
393.763125	2475.458596
394.146494	2483.272385
394.529801	2520.072808
394.913047	2457.310442
395.296230	2484.028558
395.679351	2472.685962
396.062410	2485.036788
396.445408	2494.614981
396.828343	2466.636577
397.211217	2503.184942
397.594028	2488.565596
397.976778	2484.028558
398.359466	2472.685962
398.742092	2520.576923
399.124656	2460.083077
399.507158	2487.809423
399.889598	2462.099538
400.271977	2474.450365
400.654294	2483.524442
401.036549	2479.995635
401.418742	2482.012096
401.800874	2494.867038
402.182944	2460.083077
402.564952	2470.165385
402.946898	2494.867038
403.328783	2480.247692
403.710606	2502.176712
404.092367	2511.502846
404.474067	2503.437000
404.855705	2506.461692
405.237282	2510.494615
405.618797	2501.420538
406.000250	2510.494615
406.381642	2451.765173
406.762972	2499.656135
407.144240	2482.012096
407.525447	2477.979173
407.906593	2455.546038
408.287677	2495.875269
408.668700	2524.861904
409.049661	2490.077942
409.430560	2517.300173
409.811399	2472.181846
410.192176	2508.730212
410.572891	2475.962712
410.953545	2485.036788
411.334138	2475.710654
411.714669	2490.330000
412.095139	2478.483288
412.475547	2485.288846
412.855894	2497.387615
413.236180	2483.020327
413.616405	2488.817654
413.996568	2483.272385
414.376670	2490.834115
414.756711	2497.639673
415.136691	2501.168481
415.516609	2474.450365
415.896466	2469.661269
416.276262	2474.954481
416.655997	2491.590288
417.035670	2481.255923
417.415283	2503.689058
417.794834	2470.921558
418.174324	2494.110865
418.553753	2477.223000
418.933121	2474.198308
419.312428	2472.938019
419.691674	2498.647904
420.070859	2505.705519
420.449983	2476.214769
420.829045	2497.891731
421.208047	2493.858808
421.586988	2494.362923
421.965867	2477.223000
422.344686	2485.792962
422.723444	2491.590288
423.102141	2481.507981
423.480777	2512.259019
423.859352	2521.837212
424.237866	2508.730212
424.616319	2503.437000
424.994712	2504.445231
425.373044	2475.710654
425.751314	2471.173615
426.129524	2500.412308
426.507673	2485.540904
426.885762	2495.623212
427.263789	2501.672596
427.641756	2476.214769
428.019662	2462.351596
428.397508	2508.730212
428.775292	2496.631442
429.153016	2470.417442
429.530679	2519.820750
429.908282	2485.288846
430.285824	2503.437000
430.663305	2493.858808
431.040726	2506.209635
431.418086	2503.689058
431.795385	2496.127327
432.172624	2486.801192
432.549802	2495.875269
432.926920	2498.143788
433.303977	2512.763135
433.680974	2495.119096
434.057910	2502.428769
434.434786	2509.990500
434.811601	2519.316635
435.188355	2495.119096
435.565050	2471.929788
435.941683	2494.110865
436.318257	2498.899962
436.694770	2501.924654
437.071222	2468.400981
437.447614	2501.420538
437.823946	2506.965808
438.200218	2516.291942
438.576429	2513.267250
438.952580	2499.656135
439.328670	2516.796058
439.704700	2496.127327
440.080670	2502.176712
440.456580	2501.168481
440.832429	2513.267250
441.208218	2499.908192
441.583947	2499.152019
441.959616	2510.242558
442.335224	2489.573827
442.710773	2486.549135
443.086261	2482.768269
443.461689	2488.565596
443.837057	2485.036788
444.212365	2496.379385
444.587612	2449.244596
444.962800	2502.176712
445.337927	2505.453462
445.712995	2482.768269
446.088002	2473.694192
446.462949	2494.362923
446.837837	2507.217865
447.212664	2489.069712
447.587431	2471.173615
447.962139	2479.743577
448.336786	2487.305308
448.711374	2487.809423
449.085901	2513.519308
449.460369	2491.086173
449.834776	2494.867038
450.209124	2485.792962
450.583412	2503.184942
450.957640	2515.535769
451.331808	2479.995635
451.705917	2523.097500
452.079965	2514.023423
452.453954	2489.825885
452.827883	2497.387615
453.201752	2491.842346
453.575562	2499.404077
453.949311	2491.590288
454.323001	2521.837212
454.696632	2507.974038
455.070202	2503.689058
455.443713	2510.746673
455.817164	2489.321769
456.190556	2522.845442
456.563888	2506.209635
456.937160	2508.478154
457.310373	2491.842346
457.683526	2522.341327
458.056619	2499.908192
458.429653	2498.395846
458.802628	2508.982269
459.175542	2532.171577
459.548398	2499.152019
459.921194	2486.045019
460.293930	2507.469923
460.666607	2522.845442
461.039224	2498.395846
461.411782	2496.379385
461.784280	2481.255923
462.156719	2498.143788
462.529099	2504.193173
462.901419	2514.527538
463.273680	2498.899962
463.645882	2491.338231
464.018024	2515.031654
464.390106	2484.784731
464.762130	2506.461692
465.134094	2492.346462
465.505999	2510.242558
465.877845	2465.628346
466.249631	2494.362923
466.621358	2500.916423
466.993026	2518.812519
467.364634	2532.675692
467.736184	2493.606750
468.107674	2487.053250
468.479105	2516.039885
468.850477	2518.560462
469.221790	2508.730212
469.593043	2511.502846
469.964238	2520.828981
470.335373	2505.201404
470.706449	2514.275481
471.077467	2506.965808
471.448425	2514.779596
471.819324	2486.549135
472.190164	2500.916423
472.560945	2504.949346
472.931667	2492.850577
473.302330	2518.056346
473.672934	2519.820750
474.043479	2510.998731
474.413965	2496.883500
474.784393	2522.341327
475.154761	2514.779596
475.525070	2483.776500
475.895321	2528.390712
476.265513	2491.842346
476.635645	2516.039885
477.005719	2512.763135
477.375734	2510.998731
477.745691	2517.552231
478.115588	2494.110865
478.485427	2519.568692
478.855207	2515.283712
479.224928	2513.771365
479.594591	2504.445231
479.964194	2514.527538
480.333739	2526.626308
480.703226	2524.357788
481.072653	2524.357788
481.442022	2485.288846
481.811333	2488.061481
482.180584	2521.081038
482.549777	2542.758000
482.918912	2516.039885
483.287988	2505.705519
483.657005	2516.039885
484.025964	2511.502846
484.394864	2487.053250
484.763706	2535.196269
485.132489	2520.072808
485.501213	2524.105731
485.869879	2512.511077
486.238487	2505.453462
486.607036	2522.089269
486.975527	2531.919519
487.343959	2523.097500
487.712333	2507.469923
488.080648	2517.804288
488.448905	2511.754904
488.817104	2519.316635
489.185244	2520.324865
489.553326	2539.733308
489.921350	2545.782692
490.289315	2526.878365
490.657222	2504.949346
491.025070	2521.333096
491.392861	2511.754904
491.760593	2493.354692
492.128267	2513.015192
492.495883	2508.478154
492.863440	2503.437000
493.230939	2515.031654
493.598380	2499.152019
493.965763	2504.949346
494.333088	2507.974038
494.700354	2526.626308
495.067563	2540.993596
495.434713	2496.883500
495.801805	2510.494615
496.168839	2484.784731
496.535815	2490.582058
496.902733	2519.316635
497.269593	2509.486385
497.636395	2554.604712
498.003139	2529.903058
498.369825	2521.585154
498.736453	2515.535769
499.103023	2512.763135
499.469535	2495.875269
499.835989	2547.295038
500.202385	2531.919519
500.568723	2514.779596
500.935003	2507.469923
501.301226	2510.494615
501.667390	2529.398942
502.033497	2531.163346
502.399546	2501.420538
502.765537	2516.796058
503.131470	2532.927750
503.497345	2526.122192
503.863163	2505.453462
504.228923	2520.828981
504.594625	2548.051212
504.960269	2520.828981
505.325856	2530.155115
505.691385	2536.708615
506.056856	2489.321769
506.422270	2514.023423
506.787625	2530.407173
507.152924	2522.593385
507.518164	2528.138654
507.883347	2526.626308
508.248472	2550.319731
508.613540	2511.754904
508.978550	2541.749769
509.343503	2513.267250
509.708398	2520.576923
510.073236	2530.155115
510.438016	2565.947308
510.802738	2514.023423
511.167403	2513.267250
511.532010	2538.725077
511.896561	2554.604712
512.261053	2556.369115
512.625488	2536.960673
512.989866	2552.084135
513.354186	2539.985365
513.718449	2545.530635
514.082655	2556.621173
514.446803	2549.815615
514.810894	2567.207596
515.174927	2540.237423
515.538904	2549.815615
515.902822	2591.405135
516.266684	2555.865000
516.630488	2571.744635
516.994235	2588.128385
517.357925	2567.711712
517.721558	2570.736404
518.085133	2559.393808
518.448651	2580.314596
518.812112	2590.648962
519.175516	2575.273442
519.538863	2578.550192
519.902152	2568.215827
520.265385	2557.629404
520.628560	2558.133519
520.991678	2575.021385
521.354739	2573.761096
521.717743	2586.111923
522.080690	2591.153077
522.443580	2586.363981
522.806413	2607.788885
523.169189	2578.298135
523.531908	2584.095462
523.894569	2626.945269
524.257174	2613.334154
524.619722	2611.065635
524.982213	2608.545058
525.344647	2604.512135
525.707025	2588.128385
526.069345	2585.103692
526.431608	2587.120154
526.793815	2615.098558
527.155964	2604.008019
527.518057	2601.991558
527.880093	2591.405135
528.242072	2601.235385
528.603995	2628.205558
528.965860	2620.643827
529.327669	2596.194231
529.689421	2610.057404
530.051117	2598.210692
530.412755	2596.698346
530.774337	2636.019346
531.135862	2593.421596
531.497331	2623.164404
531.858743	2632.994654
532.220098	2621.652058
532.581396	2616.106788
532.942638	2638.287865
533.303824	2626.189096
533.664953	2633.750827
534.026025	2623.668519
534.387040	2632.238481
534.747999	2629.717904
535.108902	2620.643827
535.469748	2639.296096
535.830537	2636.019346
536.191270	2600.479212
536.551947	2623.416462
536.912567	2610.309462
537.273131	2625.937038
537.633638	2620.391769
537.994089	2638.287865
538.354483	2650.134577
538.714821	2633.750827
539.075103	2639.296096
539.435328	2639.296096
539.795497	2646.101654
540.155609	2632.994654
540.515665	2670.299192
540.875665	2651.898981
541.235609	2642.572846
541.595496	2639.044038
541.955328	2622.912346
542.315102	2640.556385
542.674821	2662.233346
543.034483	2644.085192
543.394090	2653.159269
543.753640	2635.767288
544.113134	2661.225115
544.472571	2635.767288
544.831953	2646.101654
545.191278	2667.022442
545.550548	2631.986423
545.909761	2640.304327
546.268918	2632.994654
546.628019	2635.263173
546.987064	2666.266269
547.346053	2628.709673
547.704986	2652.907212
548.063863	2656.940135
548.422684	2646.353712
548.781449	2624.676750
549.140158	2626.441154
549.498811	2630.978192
549.857408	2653.411327
550.215949	2637.027577
550.574434	2660.721000
550.932864	2646.101654
551.291237	2655.679846
551.649555	2652.907212
552.007817	2639.044038
552.366022	2664.501865
552.724173	2646.353712
553.082267	2641.816673
553.440305	2655.931904
553.798288	2637.279635
554.156215	2627.701442
554.514086	2644.337250
554.871902	2638.287865
555.229661	2644.337250
555.587365	2630.474077
555.945014	2631.230250
556.302606	2664.753923
556.660143	2643.581077
557.017625	2645.849596
557.375050	2635.767288
557.732421	2649.630462
558.089735	2645.597538
558.446994	2655.175731
558.804197	2648.874288
559.161345	2645.597538
559.518437	2635.263173
559.875474	2634.507000
560.232455	2639.296096
560.589381	2622.912346
560.946251	2640.304327
561.303065	2659.712769
561.659825	2645.093423
562.016528	2673.828000
562.373177	2657.192192
562.729770	2645.093423
563.086307	2671.307423
563.442789	2631.230250
563.799216	2665.258038
564.155587	2672.567712
564.511904	2645.597538
564.868164	2671.307423
565.224370	2655.931904
565.580520	2650.638692
565.936615	2668.534788
566.292654	2636.775519
566.648638	2686.682942
567.004567	2675.340346
567.360441	2647.361942
567.716260	2669.038904
568.072023	2659.460712
568.427732	2651.394865
568.783385	2667.022442
569.138982	2662.485404
569.494525	2669.795077
569.850013	2668.030673
570.205445	2659.208654
570.560823	2689.455577
570.916145	2710.124308
571.271412	2685.170596
571.626625	2668.786846
571.981782	2687.691173
572.336884	2697.773481
572.691931	2678.869154
573.046923	2682.397962
573.401860	2699.033769
573.756743	2680.129442
574.111570	2677.356808
574.466342	2700.798173
574.821059	2696.261135
575.175722	2712.140769
575.530330	2696.513192
575.884882	2704.326981
576.239380	2716.677808
576.593823	2731.297154
576.948211	2735.834192
577.302544	2704.326981
577.656823	2724.743654
578.011047	2720.458673
578.365216	2734.321846
578.719330	2735.078019
579.073389	2718.442212
579.427394	2716.173692
579.781344	2765.324942
580.135239	2765.072885
580.489080	2757.007038
580.842866	2752.722058
581.196597	2780.448404
581.550273	2752.217942
581.903895	2773.138731
582.257463	2788.010135
582.610975	2805.402115
582.964434	2816.996769
583.317837	2809.182981
583.671186	2818.509115
584.024481	2821.029692
584.377721	2843.714885
584.730906	2845.983404
585.084037	2857.578058
585.437113	2833.128462
585.790135	2849.512212
586.143103	2866.148019
586.496016	2885.304404
586.848874	2878.498846
587.201679	2901.184038
587.554428	2899.671692
587.907124	2939.244750
588.259765	2896.142885
588.612352	2951.595577
588.964884	2949.831173
589.317362	2939.748865
589.669786	2972.516365
590.022155	2977.305462
590.374470	2989.656288
590.726731	3011.081192
591.078937	3027.212885
591.431090	3037.799308
591.783188	3032.254038
592.135232	3065.777712
592.487222	3090.479365
592.839157	3055.191288
593.191038	3074.599731
593.542866	3092.243769
593.894639	3109.383692
594.246358	3114.676904
594.598022	3152.485558
594.949633	3165.088442
595.301190	3182.732481
595.652692	3217.516442
596.004141	3200.124462
596.355535	3211.719115
596.706876	3226.842577
597.058162	3244.234558
597.409395	3269.944442
597.760573	3300.695481
598.111698	3293.889923
598.462768	3312.794250
598.813785	3347.830269
599.164748	3312.794250
599.515657	3404.795308
599.866511	3372.279865
600.217312	3412.609096
600.568060	3408.072058
600.918753	3448.905404
601.269392	3500.829288
601.619978	3526.539173
601.970510	3509.399250
602.320988	3568.380750
602.671412	3625.849904
603.021783	3614.003192
603.372100	3640.721308
603.722363	3659.625635
604.072572	3714.070096
604.422728	3700.458981
604.772830	3775.572173
605.122878	3777.084519
605.472872	3814.389058
605.822813	3871.354096
606.172701	3885.721385
606.522534	3923.782096
606.872314	3979.234788
607.222041	3970.664827
607.571714	4033.679250
607.921333	4037.460115
608.270899	4059.389135
608.620411	4101.986885
608.969870	4178.108308
609.319276	4196.760577
609.668627	4261.287346
610.017926	4323.293538
610.367171	4354.044577
610.716362	4414.286365
611.065500	4433.946865
611.414585	4499.733923
611.763616	4592.743212
612.112594	4620.469558
612.461518	4672.645500
612.810389	4723.561154
613.159207	4779.013846
613.507971	4836.483000
613.856682	4903.782404
614.205340	4952.933654
614.553945	5024.518038
614.902496	5049.471750
615.250994	5110.721769
615.599439	5194.656981
615.947830	5282.121000
616.296169	5350.428635
616.644454	5402.604577
616.992686	5489.060365
617.340864	5593.664308
617.688990	5629.960615
618.037063	5774.137615
618.385082	5819.255942
618.733048	5889.327981
619.080961	5977.296115
619.428821	6080.639769
619.776628	6117.944308
620.124382	6167.851731
620.472083	6231.118212
620.819731	6310.768442
621.167326	6419.405308
621.514868	6411.591519
621.862357	6429.991731
622.209793	6503.592577
622.557176	6486.452654
622.904506	6597.358038
623.251783	6623.824096
623.599007	6610.717096
623.946179	6621.807635
624.293297	6687.342635
624.640363	6626.344673
624.987376	6742.291212
625.334336	6742.543269
625.681243	6790.686288
626.028097	6859.245981
626.374899	6889.492904
626.721647	6915.958962
627.068343	6995.861250
627.414987	7044.760442
627.761577	7031.905500
628.108115	7209.606173
628.454600	7193.978596
628.801032	7211.370577
629.147412	7281.946731
629.493739	7377.476596
629.840014	7362.605192
630.186236	7510.563058
630.532405	7595.002385
630.878521	7618.947865
631.224585	7699.606327
631.570597	7754.554904
631.916556	7850.588885
632.262462	7933.767923
632.608316	7997.790577
632.954117	8066.602327
633.299866	8138.942885
633.645562	8163.140423
633.991206	8193.135288
634.336797	8119.534442
634.682336	8189.354423
635.027823	8221.617808
635.373257	8224.642500
635.718639	8225.650731
636.063968	8296.226885
636.409245	8287.656923
636.754470	8318.660019
637.099642	8363.274231
637.444762	8382.934731
637.789829	8343.865788
638.134845	8417.970750
638.479808	8445.192981
638.824719	8512.996500
639.169577	8474.431673
639.514383	8525.347327
639.859137	8574.246519
640.203839	8643.814442
640.548489	8611.046942
640.893086	8666.247577
641.237632	8717.163231
641.582125	8802.358731
641.926566	8868.649904
642.270955	8889.570692
642.615292	9000.728135
642.959576	8982.579981
643.303809	9038.284731
643.647990	9118.943192
643.992118	9177.924692
644.336195	9263.372250
644.680219	9387.636692
645.024192	9468.799269
645.368112	9621.546231
645.711981	9616.253019
646.055797	9898.557635
646.399562	9902.590558
646.743274	10198.254231
647.086935	10377.719308
647.430544	10408.218288
647.774101	10592.472462
648.117606	10713.964269
648.461059	10923.424212
648.804460	10953.167019
649.147810	10784.792481
649.491108	10850.831596
649.834354	10795.630962
650.177548	10702.621673
650.520690	10723.542462
650.863781	10777.482808
651.206820	10738.413865
651.549807	10759.082596
651.892742	10614.905596
652.235626	10602.050654
652.578458	10612.637077
652.921238	10627.508481
653.263967	10705.142250
653.606644	10595.749212
653.949269	10698.084635
654.291843	10692.539365
654.634365	10851.335712
654.976836	10820.836731
655.319255	10941.824423
655.661622	10972.575462
656.003938	11034.581654
656.346203	10997.025058
656.688416	11015.677327
657.030577	11096.083731
657.372687	11104.401635
657.714746	11218.583769
658.056753	11305.039558
658.398708	11324.952115
658.740612	11357.719615
659.082465	11449.216558
659.424266	11467.364712
659.766016	11552.560212
660.107715	11605.996442
660.449362	11699.005731
660.790958	11670.019096
661.132503	11832.344250
661.473996	11833.604538
661.815438	11945.014038
662.156829	12155.734269
662.498168	12079.864904
662.839456	12148.928712
663.180693	12248.743558
663.521879	12400.734346
663.863013	12425.183942
664.204097	12416.109865
664.545129	12714.798231
664.886110	12813.100731
665.227040	12816.881596
665.567918	12958.538019
665.908746	13091.120365
666.249522	13204.294269
666.590248	13329.819000
666.930922	13369.392058
667.271545	13420.307712
667.612118	13619.181231
667.952639	13483.322135
668.293109	13710.930231
668.633528	13682.195654
668.973896	13714.459038
669.314213	13803.939519
669.654480	13822.591788
669.994695	13826.624712
670.334859	13899.217327
670.674973	13988.445750
671.015035	14051.460173
671.355047	14128.841885
671.695008	14200.426269
672.034918	14173.708154
672.374777	14253.106327
672.714585	14243.780192
673.054342	14366.028173
673.394049	14340.822404
673.733705	14500.122865
674.073310	14487.519981
674.412864	14651.609538
674.752368	14614.052942
675.091820	14821.496423
675.431223	14669.757692
675.770574	14673.034442
676.109875	14627.916115
676.449125	14701.264904
676.788324	14737.561212
677.127473	14501.635212
677.466571	14656.902750
677.805619	14458.533346
678.144616	14548.770000
678.483562	14618.842038
678.822458	14603.466519
679.161303	14590.863635
679.500098	14539.443865
679.838842	14571.203135
680.177535	14689.922308
680.516179	14749.659981
680.854771	14933.914154
681.193314	15182.190981
681.531805	15554.984308
681.870247	15951.471058
682.208638	16423.575115
682.546978	16825.607135
682.885268	16916.599962
683.223508	16877.783077
683.561697	16847.032038
683.899836	16771.162673
684.237925	16639.336500
684.575963	16594.722288
684.913951	16492.638923
685.251889	16440.967096
685.589776	16606.316942
685.927614	16577.582365
686.265401	16629.002135
686.603137	16630.010365
686.940824	16906.769712
687.278460	17088.503308
687.616046	17205.206019
687.953582	17446.929346
688.291068	17416.934481
688.628504	17705.288481
688.965889	17915.504596
689.303224	17818.210327
689.640510	17763.261750
689.977745	17561.615596
690.314930	17323.169019
690.652065	17171.682346
690.989150	16889.629788
691.326185	16579.598827
691.663170	16370.643000
692.000105	16054.310596
692.336990	15847.623288
692.673825	15637.407173
693.010610	15413.832000
693.347345	15187.232135
693.684030	14908.708385
694.020665	14811.414115
694.357251	14577.504577
694.693786	14527.849212
695.030272	14497.854346
695.366707	14182.530173
695.703093	14065.575404
696.039429	14094.057923
696.375716	13983.404596
696.711952	14038.101115
697.048139	13909.551692
697.384276	13753.275923
697.720363	13991.722500
698.056400	13926.439558
698.392388	13827.380885
698.728326	13801.166885
699.064214	13823.852077
699.400053	13801.671000
699.735842	13785.539308
700.071581	13617.416827
700.407270	13472.735712
700.742910	13467.946615
701.078501	13457.612250
701.414042	13287.473308
701.749533	13169.258250
702.084974	13058.856981
702.420366	13197.740769
702.755709	12956.521558
703.091002	12746.557500
703.426246	12881.156308
703.761440	12946.691308
704.096584	12674.216942
704.431679	12695.137731
704.766725	12635.400058
705.101721	12693.121269
705.436668	12731.181981
705.771565	12473.326962
706.106413	12797.977269
706.441212	12828.980365
706.775961	12849.397038
707.110661	12941.146038
707.445311	13096.665635
707.779913	13038.188250
708.114465	13194.211962
708.448967	13285.960962
708.783421	13772.684365
709.117825	13893.167942
709.452180	13925.683385
709.786485	14121.280154
710.120742	14532.134192
710.454949	14512.221635
710.789107	14762.514923
711.123216	15187.736250
711.457275	15225.544904
711.791286	15581.198308
712.125247	15651.522404
712.459159	15675.215827
712.793023	16017.006058
713.126837	15500.287788
713.460602	15780.323885
713.794318	15704.706577
714.127985	15596.321769
714.461602	15083.132308
714.795171	15265.117962
715.128691	14693.199058
715.462162	14395.518923
715.795584	14242.015788
716.128957	14150.014731
716.462281	13967.777019
716.795556	13835.950846
717.128782	13678.918904
717.461960	13376.953788
717.795088	13366.871481
718.128167	13079.273654
718.461198	12841.079135
718.794180	12702.699462
719.127113	12528.275538
719.459997	12536.341385
719.792833	12232.359808
720.125619	12249.751788
720.458357	12111.876231
720.791046	11928.126173
721.123686	11859.062365
721.456278	11743.115827
721.788821	11647.081846
722.121315	11590.620923
722.453761	11555.584904
722.786158	11621.371962
723.118506	11549.535519
723.450805	11525.337981
723.783056	11507.189827
724.115259	11508.702173
724.447412	11479.463481
724.779518	11616.834923
725.111574	11569.196019
725.443582	11703.290712
725.775542	11710.096269
726.107453	11989.628250
726.439315	11808.902885
726.771129	12065.245558
727.102895	12313.018269
727.434612	12443.332096
727.766281	12495.003923
728.097901	12741.768404
728.429473	12873.090462
728.760996	12979.206750
729.092471	12972.653250
729.423897	12879.896019
729.755276	12853.934077
730.086606	12858.975231
730.417887	13159.175942
730.749120	13474.500115
731.080305	13600.276904
731.411442	13904.510538
731.742530	13979.119615
732.073570	14106.912865
732.404562	14387.957192
732.735506	14375.354308
733.066401	14428.790538
733.397249	14142.453000
733.728048	13875.019788
734.058798	13364.855019
734.389501	12982.231442
734.720156	12714.546173
735.050762	12341.500788
735.381320	12046.089173
735.711831	11743.115827
736.042293	11534.916173
736.372707	11497.863692
736.703073	11321.675365
737.033391	11385.698019
737.363661	11298.990173
737.693883	11349.653769
738.024056	11401.577654
738.354182	11460.307096
738.684260	11631.202212
739.014290	11764.036615
739.344272	11889.561346
739.674207	12011.053154
740.004093	12144.643731
740.333931	12213.959596
740.663722	12298.398923
740.993464	12351.583096
741.323159	12294.618058
741.652806	12093.980135
741.982405	12026.176615
742.311956	11894.098385
742.641460	11859.314423
742.970915	11646.577731
743.300323	11393.511808
743.629683	11357.971673
743.958996	11152.040538
744.288260	11030.044615
744.617477	10805.461212
744.946647	10766.644327
745.275768	10580.121635
745.604842	10483.583538
745.933869	10280.172981
746.262847	10249.169885
746.591778	10226.736750
746.920662	10156.664712
747.249498	10142.801538
747.578286	10151.623558
747.907027	10160.445577
748.235720	10319.998096
748.564365	10396.875692
748.892963	10364.864365
749.221514	10372.426096
749.550017	10303.866404
749.878473	10341.170942
750.206881	10142.801538
750.535242	10125.157500
750.863555	10058.866327
751.191821	10011.227423
751.520039	9968.377615
751.848210	9904.354962
752.176334	9965.604981
752.504411	9850.162558
752.832440	9821.427981
753.160421	9794.457808
753.488356	9762.950596
753.816243	9666.160442
754.144082	9603.902192
754.471875	9523.747846
754.799620	9480.898038
755.127318	9483.670673
755.454969	9446.870250
755.782572	9333.444288
756.110129	9444.853788
756.437638	9358.902115
756.765100	9322.857865
757.092515	9337.729269
757.419882	9263.372250
757.747203	9304.709712
758.074477	9353.860962
758.401703	9250.013192
758.728882	9399.231346
759.056014	9437.292058
759.383099	9532.569865
759.710138	9493.248865
760.037129	9616.253019
760.364073	9696.911481
760.690970	9642.214962
761.017820	9620.033885
761.344623	9687.585346
761.671379	9844.617288
761.998088	10110.286096
762.324751	10656.747173
762.651366	11941.233173
762.977935	14233.445827
763.304456	16436.682115
763.630931	18023.889404
763.957359	18206.631231
764.283740	17284.352135
764.610074	15975.668596
764.936362	14573.471654
765.262602	13344.942462
765.588796	11986.603558
765.914943	11112.971596
766.241044	10288.238827
766.567097	9706.993788
766.893104	9221.026558
767.219064	8847.225000
767.544978	8553.325731
767.870845	8276.314327
768.196665	8087.775173
768.522438	7956.705173
768.848165	7762.116635
769.173846	7684.482865
769.499479	7512.579519
769.825066	7385.290385
770.150607	7265.815038
770.476101	7242.877788
770.801548	7119.117462
771.126949	6982.754250
771.452303	6932.342712
771.777611	6862.018615
772.102872	6780.351923
772.428087	6720.110135
772.753256	6621.555577
773.078378	6550.727365
773.403453	6443.350788
773.728482	6324.631615
774.053465	6267.162462
774.378401	6234.647019
774.703291	6164.574981
775.028135	6055.938115
775.352932	6046.107865
775.677683	5970.994673
776.002388	5933.942192
776.327046	5920.331077
776.651658	5836.647923
776.976224	5752.712712
777.300743	5756.745635
777.625216	5692.470923
777.949643	5672.306308
778.274024	5660.963712
778.598359	5615.845385
778.922647	5614.837154
779.246889	5582.825827
779.571086	5563.417385
779.895236	5568.962654
780.219339	5519.811404
780.543397	5512.501731
780.867409	5583.077885
781.191374	5597.445173
781.515294	5554.847423
781.839167	5627.187981
782.162995	5577.532615
782.486776	5553.335077
782.810511	5542.748654
783.134201	5488.304192
783.457844	5458.309327
783.781441	5440.161173
784.104993	5455.284635
784.428498	5389.245519
784.751958	5360.258885
785.075372	5318.165250
785.398739	5303.293846
785.722061	5311.359692
786.045337	5299.260923
786.368568	5390.001692
786.691752	5334.549000
787.014891	5438.396769
787.337983	5568.458538
787.661030	5840.176731
787.984031	6120.464885
788.306987	6424.950577
788.629897	6604.415654
788.952760	6679.276788
789.275579	6617.774712
789.598351	6461.246885
789.921078	6180.202558
790.243759	6054.425769
790.566395	5911.509058
790.888984	5694.235327
791.211529	5577.784673
791.534027	5442.429692
791.856480	5342.866904
792.178888	5256.915231
792.501249	5191.128173
792.823566	5149.538654
793.145836	5070.140481
793.468062	5016.956308
793.790241	5050.227923
794.112375	5015.948077
794.434464	5036.616808
794.756507	5036.616808
795.078505	5111.730000
795.400457	5223.139500
795.722364	5365.804154
796.044226	5521.827865
796.366042	5643.319673
796.687812	5697.512077
797.009538	5792.789885
797.331218	5714.904058
797.652852	5661.467827
797.974442	5630.464731
798.295986	5553.083019
798.617484	5479.482173
798.938938	5386.472885
799.260346	5320.685827
799.581709	5257.671404
799.903026	5201.714596
800.224299	5122.064365
800.545526	5022.249519
800.866708	4965.536538
801.187845	4965.284481
801.508936	4890.423346
801.829983	4815.814269
802.150984	4772.964462
802.471940	4773.972692
802.792851	4720.032346
803.113717	4674.914019
803.434538	4674.914019
803.755314	4647.439731
804.076045	4623.998365
804.396731	4589.466462
804.717372	4575.099173
805.037967	4626.266885
805.358518	4613.664000
805.679024	4635.845077
805.999485	4618.201038
806.319901	4643.406808
806.640272	4639.373885
806.960598	4695.582750
807.280879	4689.281308
807.601115	4699.363615
807.921306	4691.549827
808.241453	4698.859500
808.561554	4701.128019
808.881611	4646.935615
809.201623	4658.278212
809.521590	4686.760731
809.841513	4629.291577
810.161390	4654.245288
810.481223	4608.874904
810.801011	4603.581692
811.120755	4644.919154
811.440453	4534.265827
811.760107	4518.638250
812.079716	4490.911904
812.399281	4447.810038
812.718801	4457.136173
813.038276	4475.536385
813.357707	4427.141308
813.677093	4432.686577
813.996434	4356.817212
814.315731	4396.894385
814.634983	4378.746231
814.954191	4400.927308
815.273354	4407.984923
815.592473	4467.218481
815.911547	4504.018904
816.230577	4508.051827
816.549562	4564.008635
816.868502	4598.036423
817.187399	4661.554962
817.506250	4713.730904
817.825058	4724.569385
818.143821	4855.891442
818.462539	4876.812231
818.781213	5061.570519
819.099843	5202.218712
819.418429	5599.965750
819.736970	5951.082115
820.055466	6418.649135
820.373919	7070.722385
820.692327	7760.604288
821.010691	8842.940019
821.329011	11250.847154
821.647286	16001.126423
821.965517	23195.609135
822.283704	29733.733615
822.601847	34342.608519
822.919945	33918.143365
823.237999	31335.056135
823.556010	27593.763808
823.873976	23967.409788
824.191897	20349.373673
824.509775	17615.808000
824.827609	15056.918308
825.145398	13367.879712
825.463144	12216.984288
825.780845	11802.097327
826.098502	11896.618962
826.416116	12947.951596
826.733685	14658.919212
827.051210	16049.521500
827.368692	16188.909404
827.686129	15099.516058
828.003522	13416.526846
828.320872	11465.600308
828.638177	10050.296365
828.955439	8877.976038
829.272656	7933.767923
829.589830	7152.137019
829.906960	6519.724269
830.224046	6016.365058
830.541088	5595.428712
830.858086	5290.186846
831.175041	5097.614769
831.491952	4981.668231
831.808819	4935.037558
832.125642	4965.032423
832.442421	5191.632288
832.759157	5623.155058
833.075849	6499.307596
833.392497	7768.418077
833.709101	9103.819731
834.025662	9650.280808
834.342179	9450.651115
834.658653	8739.344308
834.975083	7756.823423
835.291469	7032.157558
835.607811	6333.705692
835.924110	5902.687038
836.240366	5470.660154
836.556578	5043.674423
836.872746	4788.592038
837.188871	4475.788442
837.504952	4318.756500
837.820990	4135.258500
838.136984	4018.555788
838.452935	3935.880865
838.768842	3894.543404
839.084706	3910.423038
839.400526	4174.831558
839.716303	4723.561154
840.032037	5388.741404
840.347727	5750.192135
840.663373	5571.231173
840.978977	5155.335981
841.294537	4756.832769
841.610054	4423.108385
841.925527	4196.256462
842.240957	4005.448788
842.556344	3866.060885
842.871687	3725.412692
843.186987	3582.495981
843.502244	3473.355000
843.817458	3388.159500
844.132629	3361.189327
844.447756	3306.996923
844.762840	3224.322000
845.077881	3213.231462
845.392879	3184.748942
845.707833	3159.543173
846.022745	3145.427942
846.337613	3146.688231
846.652438	3102.074019
846.967221	3076.868250
847.281960	3060.988615
847.596656	3086.446442
847.911309	3079.640885
848.225919	3030.489635
848.540485	3067.290058
848.855009	3004.275635
849.169490	3033.010212
849.483928	3034.270500
849.798323	2995.957731
850.112675	2992.428923
850.426984	2991.924808
850.741251	2991.924808
851.055474	2993.437154
851.369654	2984.867192
851.683792	3002.007115
851.997887	3012.341481
852.311938	3005.283865
852.625947	2998.730365
852.939914	2982.094558
853.253837	3018.390865
853.567718	2981.338385
853.881555	3007.048269
854.195350	2971.256077
854.509103	3004.527692
854.822812	2994.697442
855.136479	2976.549288
855.450103	2968.735500
855.763685	2985.623365
856.077224	2968.735500
856.390720	2960.921712
856.704173	2970.499904
857.017584	2983.606904
857.330953	2992.933038
857.644278	3026.204654
857.957561	3006.040038
858.270802	3032.758154
858.584000	2994.949500
858.897155	2997.218019
859.210268	2964.954635
859.523339	2995.201558
859.836367	2977.809577
860.149352	2975.793115
860.462295	2963.946404
860.775195	2999.234481
861.088054	2958.905250
861.400869	2962.686115
861.713642	2944.285904
862.026373	2967.475212
862.339062	2989.404231
862.651708	2967.223154
862.964312	2972.012250
863.276873	2990.664519
863.589392	3019.651154
863.901869	3024.440250
864.214303	3037.547250
864.526696	3041.076058
864.839045	3036.539019
865.151353	3065.525654
865.463619	3059.476269
865.775842	3085.942327
866.088023	3111.652212
866.400162	3104.090481
866.712258	3113.668673
867.024313	3083.421750
867.336325	3101.821962
867.648296	3093.504058
867.960224	3088.462904
868.272110	3102.578135
868.583954	3082.161462
868.895755	3111.904269
869.207515	3094.260231
869.519233	3116.189250
869.830909	3123.498923
870.142542	3152.485558
870.454134	3151.225269
870.765684	3136.605923
871.077191	3171.894000
871.388657	3140.386788
871.700081	3145.175885
872.011463	3161.055519
872.322803	3193.823019
872.634101	3208.190308
872.945357	3208.946481
873.256571	3257.845673
873.567744	3244.990731
873.878874	3259.610077
874.189963	3272.465019
874.501010	3315.062769
874.812015	3279.774692
875.122979	3299.183135
875.433900	3283.051442
875.744780	3291.621404
876.055618	3302.207827
876.366415	3332.454750
876.677169	3299.435192
876.987882	3335.479442
877.298554	3351.107019
877.609183	3353.879654
877.919771	3406.055596
878.230317	3441.847788
878.540822	3498.056654
878.851285	3584.512442
879.161707	3696.174000
879.472087	3893.283115
879.782425	4187.182385
880.092722	4747.758692
880.402977	5738.849538
880.713191	7196.499173
881.023363	9040.805308
881.333494	10620.702923
881.643583	11697.493385
881.953631	12036.763038
882.263637	11737.066442
882.573602	11096.335788
882.883526	10472.493000
883.193408	9718.840500
883.503248	8905.954442
883.813048	8249.344154
884.122806	7633.819269
884.432522	6972.419885
884.742197	6389.662500
885.051831	5882.018308
885.361424	5381.935846
885.670975	4980.155885
885.980485	4693.062173
886.289954	4432.182462
886.599382	4233.308942
886.908768	4075.268769
887.218113	3900.340731
887.527417	3785.150365
887.836680	3685.083462
888.145901	3583.252154
888.455082	3498.812827
888.764221	3457.727423
889.073319	3408.072058
889.382376	3369.759288
889.691392	3309.013385
890.000366	3324.388904
890.309300	3310.525731
890.618193	3273.221192
890.927044	3306.996923
891.235855	3303.720173
891.544625	3301.451654
891.853353	3319.599808
892.162041	3307.501038
892.470687	3358.920808
892.779293	3436.302519
893.087858	3572.665731
893.396381	3697.434288
893.704864	3930.335596
894.013306	4263.807923
894.321707	4677.686654
894.630068	5102.655923
894.938387	5361.771231
895.246665	5362.275346
895.554903	5231.205346
895.863100	5037.877096
896.171256	4776.493269
896.479371	4562.244231
896.787446	4344.466385
897.095480	4213.648442
897.403473	4039.476577
897.711425	3886.981673
898.019336	3845.644212
898.327207	3749.106115
898.635038	3646.266577
898.942827	3517.969212
899.250576	3474.363231
899.558284	3362.701673
899.865952	3333.715038
900.173579	3279.018519
900.481165	3240.957808
900.788711	3190.042154
901.096216	3176.683096
901.403681	3119.213942
901.711105	3161.811692
902.018489	3094.764346
902.325832	3080.145000
902.633135	3138.370327
902.940397	3205.165615
903.247619	3348.334385
903.554800	3660.129750
903.861941	4296.323365
904.169041	5036.616808
904.476101	5579.801135
904.783121	5723.726077
905.090100	5493.345346
905.397039	5158.864788
905.703938	4866.729923
906.010796	4563.252462
906.317614	4335.140250
906.624391	4138.535250
906.931129	3960.078404
907.237826	3773.051596
907.544483	3642.737769
907.851099	3516.204808
908.157675	3396.981519
908.464211	3238.941346
908.770707	3106.611058
909.077163	3047.125442
909.383578	2969.491673
909.689954	2932.943308
909.996289	2885.052346
910.302584	2861.863038
910.608839	2873.205635
910.915054	2856.317769
911.221229	2833.632577
911.527363	2851.528673
911.833458	2847.747808
912.139513	2851.276615
912.445527	2862.871269
912.751502	2885.052346
913.057436	2912.274577
913.363331	2940.757096
913.669186	2958.401135
913.975000	3063.509192
914.280775	3176.178981
914.586510	3305.736635
914.892205	3512.676000
915.197859	3845.896269
915.503475	4210.119635
915.809050	4740.196962
916.114585	5110.469712
916.420081	5341.354558
916.725536	5422.517135
917.030952	5265.233135
917.336328	5168.947096
917.641665	4977.635308
917.946961	4753.808077
918.252218	4635.340962
918.557435	4437.727731
918.862612	4283.972538
919.167750	4118.874750
919.472848	3986.544462
919.777906	3834.805731
920.082925	3647.526865
920.387904	3547.712019
920.692843	3422.439346
920.997743	3324.640962
921.302603	3233.900192
921.607423	3162.315808
921.912204	3111.148096
922.216946	3073.087385
922.521647	3011.585308
922.826310	3005.283865
923.130932	2945.042077
923.435516	2922.608942
923.740059	2890.597615
924.044564	2863.375385
924.349028	2839.429904
924.653454	2836.405212
924.957840	2811.703558
925.262186	2781.204577
925.566493	2765.072885
925.870761	2749.193250
926.174989	2736.842423
926.479178	2703.570808
926.783328	2698.025538
927.087438	2705.335212
927.391509	2675.340346
927.695541	2689.203519
927.999533	2660.468942
928.303486	2664.249808
928.607400	2651.394865
928.911275	2666.266269
929.215110	2638.539923
929.518906	2643.076962
929.822663	2645.597538
930.126381	2644.841365
930.430060	2643.833135
930.733699	2643.076962
931.037299	2642.572846
931.340861	2661.981288
931.644383	2634.759058
931.947866	2623.668519
932.251309	2629.717904
932.554714	2651.142808
932.858080	2638.539923
933.161407	2635.515231
933.464694	2622.660288
933.767943	2636.271404
934.071153	2634.507000
934.374323	2611.569750
934.677455	2616.862962
934.980548	2617.367077
935.283602	2620.391769
935.586617	2620.139712
935.889593	2644.589308
936.192530	2623.164404
936.495428	2649.126346
936.798287	2638.287865
937.101108	2633.750827
937.403890	2604.260077
937.706632	2694.748788
938.009336	2695.000846
938.312002	2720.962788
938.614628	2734.069788
938.917216	2766.585231
939.219765	2773.894904
939.522275	2759.275558
939.824747	2776.919596
940.127179	2761.796135
940.429573	2787.506019
940.731929	2796.832154
941.034246	2768.601692
941.336524	2758.771442
941.638763	2757.007038
941.940964	2777.423712
942.243126	2762.804365
942.545250	2773.138731
942.847335	2750.201481
943.149381	2736.086250
943.451389	2715.417519
943.753359	2713.653115
944.055290	2713.653115
944.357182	2684.918538
944.659036	2687.691173
944.960851	2676.600635
945.262628	2682.397962
945.564367	2664.249808
945.866067	2652.151038
946.167729	2687.439115
946.469352	2650.890750
946.770937	2657.696308
947.072484	2696.009077
947.373992	2655.427788
947.675462	2647.866058
947.976893	2667.778615
948.278286	2645.093423
948.579641	2654.923673
948.880958	2615.854731
949.182236	2665.762154
949.483476	2644.589308
949.784678	2630.474077
950.085841	2641.816673
950.386967	2636.271404
950.688054	2648.874288
950.989103	2656.436019
951.290114	2645.849596
951.591087	2646.353712
951.892021	2659.712769
952.192917	2688.195288
952.493776	2686.682942
952.794596	2702.058462
953.095378	2728.524519
953.396122	2680.381500
953.696828	2702.562577
953.997496	2757.511154
954.298126	2685.170596
954.598718	2683.406192
954.899272	2694.748788
955.199788	2670.299192
955.500266	2661.729231
955.800706	2642.068731
956.101108	2644.337250
956.401472	2665.762154
956.701798	2641.312558
957.002087	2604.512135
957.302337	2609.049173
957.602550	2589.136615
957.902724	2587.120154
958.202861	2577.541962
958.502960	2564.687019
958.803022	2572.500808
959.103045	2551.832077
959.403031	2545.782692
959.702979	2540.741538
960.002889	2523.853673
960.302762	2557.377346
960.602596	2536.960673
960.902393	2538.977135
961.202153	2536.204500
961.501875	2500.664365
961.801559	2513.771365
962.101205	2514.527538
962.400814	2533.431865
962.700385	2537.464788
962.999918	2485.288846
963.299414	2523.349558
963.598873	2528.138654
963.898293	2529.398942
964.197677	2511.754904
964.497022	2509.234327
964.796331	2525.366019
965.095601	2533.431865
965.394835	2533.683923
965.694030	2506.965808
965.993189	2512.763135
966.292309	2525.113962
966.591393	2514.275481
966.890439	2516.544000
967.189447	2496.127327
967.488419	2522.089269
967.787353	2503.941115
968.086249	2502.932885
968.385108	2510.998731
968.683930	2502.932885
968.982714	2520.072808
969.281462	2514.023423
969.580172	2508.478154
969.878844	2529.146885
970.177480	2513.771365
970.476078	2500.664365
970.774639	2529.146885
971.073162	2505.201404
971.371649	2547.295038
971.670098	2491.842346
971.968510	2567.207596
972.266885	2524.861904
972.565223	2520.576923
972.863524	2526.122192
973.161788	2497.639673
973.460014	2523.349558
973.758204	2522.845442
974.056356	2540.489481
974.354471	2547.295038
974.652550	2533.431865
974.950591	2532.675692
975.248595	2527.130423
975.546563	2529.651000
975.844493	2514.023423
976.142386	2524.609846
976.440243	2534.692154
976.738062	2526.374250
977.035845	2508.226096
977.333590	2543.262115
977.631299	2531.667462
977.928971	2504.697288
978.226606	2544.270346
978.524204	2520.072808
978.821765	2510.746673
979.119290	2513.519308
979.416777	2519.820750
979.714228	2533.179808
980.011642	2502.176712
980.309020	2486.549135
980.606360	2506.965808
980.903664	2541.497712
981.200931	2532.171577
981.498162	2538.977135
981.795356	2547.295038
982.092513	2581.322827
982.389633	2640.052269
982.686717	2629.465846
982.983764	2679.373269
983.280775	2730.540981
983.577749	2754.234404
983.874686	2744.908269
984.171587	2736.590365
984.468451	2724.239538
984.765279	2715.669577
985.062070	2697.521423
985.358824	2678.869154
985.655543	2666.266269
985.952224	2634.759058
986.248869	2614.594442
986.545478	2581.322827
986.842050	2567.459654
987.138586	2556.873231
987.435086	2555.865000
987.731549	2544.522404
988.027975	2521.837212
988.324366	2522.845442
988.620719	2510.242558
988.917037	2520.828981
989.213318	2492.850577
989.509563	2483.020327
989.805772	2509.234327
990.101944	2513.267250
990.398080	2477.223000
990.694180	2506.461692
990.990244	2485.036788
991.286271	2502.932885
991.582262	2490.077942
991.878217	2498.395846
992.174136	2498.395846
992.470019	2491.590288
992.765865	2508.730212
993.061676	2507.217865
993.357450	2498.143788
993.653188	2510.746673
993.948890	2509.234327
994.244556	2518.812519
994.540186	2505.705519
994.835780	2517.804288
995.131337	2564.434962
995.426859	2549.311500
995.722345	2607.536827
996.017795	2552.336192
996.313208	2604.260077
996.608586	2639.296096
996.903928	2633.246712
997.199234	2614.090327
997.494504	2597.706577
997.789738	2608.293000
998.084936	2628.709673
998.380099	2587.372212
998.675225	2579.054308
998.970316	2570.484346
999.265371	2571.744635
999.560390	2563.174673
999.855373	2552.840308
1000.150320	2525.618077
1000.445232	2511.502846
1000.740108	2519.568692
1001.034948	2493.354692
1001.329752	2525.113962
1001.624521	2492.094404
1001.919254	2508.226096
1002.213951	2473.694192
1002.508613	2500.412308
1002.803239	2510.494615
1003.097829	2481.255923
1003.392384	2496.127327
1003.686903	2515.283712
1003.981386	2477.979173
1004.275834	2494.614981
1004.570246	2466.636577
1004.864623	2481.507981
1005.158964	2501.924654
1005.453270	2472.938019
1005.747540	2462.099538
1006.041775	2478.483288
1006.335974	2484.280615
1006.630138	2474.954481
1006.924266	2474.450365
1007.218359	2491.842346
1007.512416	2500.412308
1007.806438	2474.702423
1008.100425	2476.466827
1008.394376	2464.872173
1008.688292	2474.198308
1008.982172	2492.598519
1009.276017	2481.003865
1009.569827	2483.776500
1009.863602	2491.086173
1010.157341	2476.466827
1010.451045	2496.631442
1010.744714	2475.206538
1011.038347	2488.565596
1011.331945	2498.899962
1011.625508	2479.995635
1011.919036	2474.450365
1012.212528	2485.540904
1012.505986	2473.946250
1012.799408	2447.732250
1013.092795	2502.680827
1013.386147	2470.669500
1013.679464	2504.445231
1013.972745	2487.053250
1014.265992	2469.409212
1014.559204	2481.507981
1014.852380	2474.954481
1015.145521	2499.908192
1015.438628	2481.255923
1015.731699	2484.784731
1016.024736	2475.206538
1016.317737	2485.792962
1016.610703	2470.669500
1016.903635	2491.086173
1017.196531	2475.458596
1017.489393	2478.231231
1017.782219	2462.351596
1018.075011	2520.828981
1018.367768	2466.132462
1018.660490	2468.905096
1018.953177	2468.905096
1019.245829	2468.905096
