Dividing Wavelength (nm)	Counts (n)	Slit_number_12_of_a_total_of_40	
326.493990	2044.439942
326.888308	2044.439942
327.282561	2044.439942
327.676750	2026.039731
328.070874	2025.031500
328.464933	2007.135404
328.858929	2042.927596
329.252859	2062.840154
329.646726	2049.985212
330.040528	2076.703327
330.434265	2099.136462
330.827938	2142.742442
331.221547	2115.016096
331.615091	2169.964673
332.008571	2170.972904
332.401986	2208.025385
332.795338	2233.231154
333.188625	2260.201327
333.581847	2259.697212
333.975006	2274.064500
334.368100	2274.316558
334.761129	2311.116981
335.154095	2333.802173
335.546996	2357.495596
335.939833	2350.942096
336.332606	2383.205481
336.725315	2413.956519
337.117960	2415.468865
337.510540	2425.047058
337.903056	2421.266192
338.295508	2415.720923
338.687896	2437.397885
339.080220	2413.200346
339.472480	2436.389654
339.864676	2438.910231
340.256807	2429.079981
340.648875	2440.422577
341.040879	2457.310442
341.432818	2451.765173
341.824694	2440.926692
342.216506	2467.896865
342.608253	2445.967846
342.999937	2469.157154
343.391557	2440.422577
343.783113	2446.724019
344.174605	2446.976077
344.566033	2476.214769
344.957397	2480.751808
345.348697	2423.786769
345.739934	2452.521346
346.131106	2454.033692
346.522215	2432.104673
346.913260	2442.186981
347.304241	2423.030596
347.695159	2423.282654
348.086012	2455.041923
348.476802	2443.447269
348.867528	2423.534712
349.258191	2432.356731
349.648789	2427.063519
350.039324	2418.241500
350.429796	2442.943154
350.820203	2409.167423
351.210548	2437.145827
351.600828	2431.852615
351.991045	2425.047058
352.381198	2412.948288
352.771288	2423.282654
353.161314	2424.795000
353.551276	2411.435942
353.941175	2432.356731
354.331010	2436.389654
354.720782	2407.150962
355.110490	2422.526481
355.500135	2442.691096
355.889717	2432.104673
356.279235	2412.444173
356.668689	2411.940058
357.058080	2440.674635
357.447408	2421.014135
357.836672	2428.827923
358.225873	2437.649942
358.615010	2420.005904
359.004084	2430.340269
359.393095	2427.063519
359.782043	2440.674635
360.170927	2424.290885
360.559748	2452.773404
360.948505	2412.192115
361.337199	2427.315577
361.725830	2425.551173
362.114398	2440.926692
362.502903	2428.827923
362.891344	2441.430808
363.279722	2396.312481
363.668037	2434.121135
364.056289	2418.997673
364.444478	2435.633481
364.832603	2437.397885
365.220665	2456.554269
365.608665	2450.504885
365.996601	2438.406115
366.384474	2416.981212
366.772284	2417.737385
367.160031	2440.422577
367.547715	2440.926692
367.935336	2436.893769
368.322893	2447.984308
368.710388	2450.000769
369.097820	2430.844385
369.485189	2425.047058
369.872495	2450.504885
370.259738	2445.463731
370.646918	2425.803231
371.034035	2445.967846
371.421090	2459.326904
371.808081	2435.129365
372.195010	2419.501788
372.581875	2462.351596
372.968678	2448.488423
373.355418	2446.219904
373.742096	2434.625250
374.128710	2429.584096
374.515262	2448.992538
374.901751	2429.079981
375.288177	2450.000769
375.674540	2423.282654
376.060841	2448.740481
376.447079	2389.002808
376.833254	2424.290885
377.219367	2389.506923
377.605417	2436.893769
377.991404	2439.162288
378.377329	2449.496654
378.763191	2417.737385
379.148991	2426.559404
379.534727	2449.496654
379.920402	2442.186981
380.306013	2453.277519
380.691563	2435.633481
381.077049	2436.893769
381.462474	2438.154058
381.847835	2462.099538
382.233134	2438.406115
382.618371	2441.178750
383.003545	2433.112904
383.388657	2459.074846
383.773706	2424.542942
384.158693	2456.554269
384.543618	2439.414346
384.928480	2474.198308
385.313280	2426.811462
385.698017	2441.178750
386.082692	2453.529577
386.467305	2453.277519
386.851856	2416.225038
387.236344	2452.521346
387.620770	2450.504885
388.005133	2446.976077
388.389435	2445.715788
388.773674	2437.902000
389.157851	2459.326904
389.541965	2435.633481
389.926018	2437.397885
390.310008	2431.600558
390.693936	2441.934923
391.077802	2434.373192
391.461606	2441.178750
391.845348	2455.041923
392.229027	2454.537808
392.612645	2440.170519
392.996200	2445.463731
393.379694	2445.211673
393.763125	2429.836154
394.146494	2481.003865
394.529801	2443.951385
394.913047	2436.641712
395.296230	2476.970942
395.679351	2464.116000
396.062410	2437.649942
396.445408	2440.422577
396.828343	2437.649942
397.211217	2441.430808
397.594028	2456.806327
397.976778	2430.340269
398.359466	2440.926692
398.742092	2448.488423
399.124656	2460.335135
399.507158	2455.041923
399.889598	2453.025462
400.271977	2439.918462
400.654294	2448.488423
401.036549	2459.578962
401.418742	2439.918462
401.800874	2458.822788
402.182944	2454.285750
402.564952	2477.979173
402.946898	2462.351596
403.328783	2457.310442
403.710606	2446.471962
404.092367	2461.595423
404.474067	2454.537808
404.855705	2465.880404
405.237282	2427.063519
405.618797	2460.839250
406.000250	2467.896865
406.381642	2429.079981
406.762972	2463.611885
407.144240	2471.929788
407.525447	2446.724019
407.906593	2442.439038
408.287677	2480.751808
408.668700	2454.285750
409.049661	2448.992538
409.430560	2461.595423
409.811399	2434.373192
410.192176	2478.483288
410.572891	2473.946250
410.953545	2445.715788
411.334138	2474.198308
411.714669	2442.943154
412.095139	2449.244596
412.475547	2470.921558
412.855894	2497.639673
413.236180	2452.269288
413.616405	2479.995635
413.996568	2489.573827
414.376670	2458.066615
414.756711	2473.190077
415.136691	2450.252827
415.516609	2487.305308
415.896466	2483.272385
416.276262	2443.447269
416.655997	2474.450365
417.035670	2460.587192
417.415283	2472.685962
417.794834	2464.620115
418.174324	2461.343365
418.553753	2481.003865
418.933121	2451.765173
419.312428	2453.277519
419.691674	2463.863942
420.070859	2456.806327
420.449983	2480.247692
420.829045	2475.458596
421.208047	2461.343365
421.586988	2467.644808
421.965867	2453.025462
422.344686	2459.578962
422.723444	2468.400981
423.102141	2476.970942
423.480777	2453.025462
423.859352	2488.817654
424.237866	2488.817654
424.616319	2495.119096
424.994712	2477.979173
425.373044	2451.513115
425.751314	2466.132462
426.129524	2452.269288
426.507673	2434.121135
426.885762	2458.318673
427.263789	2464.872173
427.641756	2459.074846
428.019662	2471.677731
428.397508	2472.181846
428.775292	2470.921558
429.153016	2466.636577
429.530679	2485.288846
429.908282	2459.074846
430.285824	2496.127327
430.663305	2456.302212
431.040726	2472.938019
431.418086	2454.789865
431.795385	2457.562500
432.172624	2484.028558
432.549802	2447.732250
432.926920	2483.020327
433.303977	2468.905096
433.680974	2487.809423
434.057910	2511.754904
434.434786	2463.107769
434.811601	2482.012096
435.188355	2479.491519
435.565050	2480.751808
435.941683	2470.417442
436.318257	2456.302212
436.694770	2472.433904
437.071222	2467.392750
437.447614	2487.809423
437.823946	2458.066615
438.200218	2474.450365
438.576429	2487.557365
438.952580	2450.756942
439.328670	2483.524442
439.704700	2484.280615
440.080670	2472.433904
440.456580	2474.198308
440.832429	2445.967846
441.208218	2463.863942
441.583947	2474.702423
441.959616	2474.954481
442.335224	2485.792962
442.710773	2481.507981
443.086261	2482.012096
443.461689	2496.379385
443.837057	2510.494615
444.212365	2493.858808
444.587612	2470.669500
444.962800	2483.524442
445.337927	2463.611885
445.712995	2464.368058
446.088002	2484.532673
446.462949	2474.198308
446.837837	2503.689058
447.212664	2477.979173
447.587431	2492.850577
447.962139	2491.086173
448.336786	2504.949346
448.711374	2503.184942
449.085901	2483.776500
449.460369	2469.661269
449.834776	2512.006962
450.209124	2502.680827
450.583412	2482.516212
450.957640	2482.516212
451.331808	2513.519308
451.705917	2499.404077
452.079965	2493.606750
452.453954	2492.094404
452.827883	2482.768269
453.201752	2472.938019
453.575562	2520.072808
453.949311	2486.549135
454.323001	2493.354692
454.696632	2516.039885
455.070202	2500.412308
455.443713	2490.330000
455.817164	2503.941115
456.190556	2518.056346
456.563888	2528.894827
456.937160	2487.557365
457.310373	2506.713750
457.683526	2490.834115
458.056619	2481.507981
458.429653	2519.820750
458.802628	2530.407173
459.175542	2490.077942
459.548398	2547.042981
459.921194	2543.010058
460.293930	2520.576923
460.666607	2529.398942
461.039224	2530.659231
461.411782	2514.023423
461.784280	2498.647904
462.156719	2544.018288
462.529099	2537.464788
462.901419	2518.056346
463.273680	2517.300173
463.645882	2513.015192
464.018024	2515.031654
464.390106	2513.519308
464.762130	2557.125288
465.134094	2523.853673
465.505999	2538.977135
465.877845	2546.034750
466.249631	2549.311500
466.621358	2566.451423
466.993026	2576.785788
467.364634	2567.963769
467.736184	2555.360885
468.107674	2574.013154
468.479105	2583.339288
468.850477	2554.856769
469.221790	2589.892788
469.593043	2566.955538
469.964238	2569.476115
470.335373	2582.835173
470.706449	2588.380442
471.077467	2599.975096
471.448425	2615.350615
471.819324	2658.452481
472.190164	2661.225115
472.560945	2649.378404
472.931667	2703.822865
473.302330	2661.477173
473.672934	2687.691173
474.043479	2665.258038
474.413965	2703.318750
474.784393	2711.888712
475.154761	2742.891808
475.525070	2776.667538
475.895321	2769.105808
476.265513	2783.473096
476.635645	2818.257058
477.005719	2843.714885
477.375734	2855.057481
477.745691	2905.469019
478.115588	2943.529731
478.485427	2993.437154
478.855207	3038.555481
479.224928	3153.997904
479.594591	3287.084365
479.964194	3325.649192
480.333739	3365.222250
480.703226	3394.460942
481.072653	3468.313846
481.442022	3561.827250
481.811333	3667.943538
482.180584	3676.261442
482.549777	3749.610231
482.918912	3835.309846
483.287988	3905.886000
483.657005	3959.574288
484.025964	4028.638096
484.394864	4117.866519
484.763706	4223.226635
485.132489	4244.651538
485.501213	4390.845000
485.869879	4450.330615
486.238487	4579.888269
486.607036	4696.590981
486.975527	4813.293692
487.343959	4909.831788
487.712333	5123.576712
488.080648	5238.010904
488.448905	5407.141615
488.817104	5539.723962
489.185244	5713.643769
489.553326	5990.403115
489.921350	6322.867212
490.289315	6873.865327
490.657222	7275.645288
491.025070	7674.652615
491.392861	7863.443827
491.760593	7922.425327
492.128267	8050.974750
492.495883	8037.363635
492.863440	8089.539577
493.230939	8118.526212
493.598380	8136.674365
493.965763	8422.507788
494.333088	8493.840115
494.700354	8670.532558
495.067563	8835.126231
495.434713	9052.147904
495.801805	9311.515269
496.168839	9540.131596
496.535815	9658.094596
496.902733	10007.950673
497.269593	10223.207942
497.636395	10426.114385
498.003139	10779.751327
498.369825	11010.132058
498.736453	11305.039558
499.103023	11449.216558
499.469535	11734.293808
499.835989	11944.005808
500.202385	12202.869058
500.568723	12621.032769
500.935003	12890.986558
501.301226	13081.290115
501.667390	13590.950769
502.033497	14135.647442
502.399546	14222.355288
502.765537	14344.099154
503.131470	14843.929558
503.497345	15158.497558
503.863163	15125.225942
504.228923	15559.269288
504.594625	16118.081192
504.960269	16170.761250
505.325856	16799.141077
505.691385	16757.551558
506.056856	17176.723500
506.422270	17656.641346
506.787625	17899.877019
507.152924	18293.339077
507.518164	18602.613865
507.883347	18552.202327
508.248472	19074.717923
508.613540	19519.347692
508.978550	20103.869481
509.343503	20357.439519
509.708398	20778.123808
510.073236	21315.510808
510.438016	21542.614788
510.802738	21668.391577
511.167403	22288.453500
511.532010	22762.321962
511.896561	23187.543288
512.261053	23882.970462
512.625488	24106.545635
512.989866	24270.131077
513.354186	24523.449058
513.718449	24857.677558
514.082655	25384.478135
514.446803	25628.217923
514.810894	26118.722192
515.174927	26414.133808
515.538904	26570.157519
515.902822	27245.420077
516.266684	27183.413885
516.630488	27781.546788
516.994235	27954.710423
517.357925	28482.771288
517.721558	28839.432923
518.085133	29262.133673
518.448651	29620.811769
518.812112	29715.081346
519.175516	29952.519692
519.538863	30374.212212
519.902152	30407.987942
520.265385	30933.024115
520.628560	31426.301019
520.991678	31259.438827
521.354739	31560.899827
521.717743	32076.861923
522.080690	32083.667481
522.443580	32596.352827
522.806413	32875.128635
523.169189	32926.044288
523.531908	33098.955865
523.894569	33090.637962
524.257174	33381.008423
524.619722	33605.843885
524.982213	33674.403577
525.344647	33671.126827
525.707025	33723.050712
526.069345	34155.581712
526.431608	33977.628981
526.793815	34503.169269
527.155964	34103.657827
527.518057	34162.639327
527.880093	34109.707212
528.242072	34292.953154
528.603995	34092.315231
528.965860	34168.940769
529.327669	34348.657904
529.689421	33986.198942
530.051117	34032.829615
530.412755	33940.072385
530.774337	33920.159827
531.135862	33725.823346
531.497331	33863.950962
531.858743	33615.674135
532.220098	33597.525981
532.581396	33325.303673
532.942638	33052.829308
533.303824	33180.622558
533.664953	32990.066942
534.026025	32668.441327
534.387040	32735.236615
534.747999	32522.751981
535.108902	32439.320885
535.469748	32034.516231
535.830537	31745.910173
536.191270	31726.753788
536.551947	31282.628135
536.912567	31271.033481
537.273131	31197.432635
537.633638	30619.212288
537.994089	30661.810038
538.354483	30151.393212
538.714821	30048.301615
539.075103	30162.231692
539.435328	29783.136923
539.795497	29579.978423
540.155609	29281.794173
540.515665	29189.036942
540.875665	28719.201404
541.235609	28677.107769
541.595496	28391.778462
541.955328	28432.863865
542.315102	27807.256673
542.674821	27342.210231
543.034483	27211.392288
543.394090	26845.152462
543.753640	26633.424000
544.113134	26809.108212
544.472571	26030.249942
544.831953	26392.456846
545.191278	25792.559538
545.550548	25274.328923
545.909761	25158.634442
546.268918	25078.228038
546.628019	24881.875096
546.987064	24346.756615
547.346053	23797.522904
547.704986	23972.198885
548.063863	23329.199712
548.422684	23135.115288
548.781449	22911.288058
549.140158	22703.088404
549.498811	22315.927788
549.857408	21757.620000
550.215949	21916.164288
550.574434	21531.776308
550.932864	21206.117769
551.291237	21160.999442
551.649555	20725.695808
552.007817	20552.280115
552.366022	20007.079327
552.724173	19973.555654
553.082267	19746.955788
553.440305	19643.612135
553.798288	19145.042019
554.156215	18897.269308
554.514086	18686.297019
554.871902	18370.720788
555.229661	18149.918250
555.587365	17787.459288
555.945014	17553.045635
556.302606	17148.493038
556.660143	17116.481712
557.017625	16844.007346
557.375050	16552.124538
557.732421	16371.903288
558.089735	16214.367231
558.446994	15937.859942
558.804197	15846.363000
559.161345	15612.957577
559.518437	15108.338077
559.875474	15046.836000
560.232455	14769.572538
560.589381	14579.016923
560.946251	14268.733904
561.303065	14289.654692
561.659825	14090.781173
562.016528	13668.836596
562.373177	13483.574192
562.729770	13337.884846
563.086307	13008.949558
563.442789	12938.121346
563.799216	12747.565731
564.155587	12518.445288
564.511904	12313.018269
564.868164	12152.961635
565.224370	11962.153962
565.580520	11750.425500
565.936615	11664.221769
566.292654	11423.002558
566.648638	11224.885212
567.004567	11037.102231
567.360441	10975.348096
567.716260	10744.211192
568.072023	10626.248192
568.427732	10527.945692
568.783385	10212.117404
569.138982	10117.595769
569.494525	9915.193442
569.850013	9814.118308
570.205445	9608.439231
570.560823	9510.388788
570.916145	9377.554385
571.271412	9205.146923
571.626625	9027.698308
571.981782	8856.803192
572.336884	8691.957462
572.691931	8589.874096
573.046923	8422.003673
573.401860	8198.428500
573.756743	8110.460365
574.111570	7994.513827
574.466342	7852.353288
574.821059	7728.088846
575.175722	7573.325423
575.530330	7437.466327
575.884882	7334.374731
576.239380	7222.713173
576.593823	7036.190481
576.948211	6904.868423
577.302544	6875.881788
577.656823	6696.416712
578.011047	6628.109077
578.365216	6510.650192
578.719330	6368.993769
579.073389	6276.236538
579.427394	6139.369212
579.781344	6124.497808
580.135239	5969.734385
580.489080	5878.237442
580.842866	5755.737404
581.196597	5671.298077
581.550273	5652.645808
581.903895	5523.592269
582.257463	5537.455442
582.610975	5364.543865
582.964434	5308.082942
583.317837	5219.610692
583.671186	5141.976923
584.024481	5051.992327
584.377721	5034.600346
584.730906	4956.966577
585.084037	4912.100308
585.437113	4848.581769
585.790135	4768.931538
586.143103	4709.193865
586.496016	4630.551865
586.848874	4578.375923
587.201679	4532.249365
587.554428	4469.991115
587.907124	4426.637192
588.259765	4374.713308
588.612352	4358.329558
588.964884	4241.626846
589.317362	4204.574365
589.669786	4142.568173
590.022155	4128.957058
590.374470	4097.197788
590.726731	4075.520827
591.078937	3976.210096
591.431090	3942.938481
591.783188	3915.968308
592.135232	3874.630846
592.487222	3828.252231
592.839157	3811.364365
593.191038	3740.032038
593.542866	3708.776885
593.894639	3724.152404
594.246358	3673.236750
594.598022	3646.266577
594.949633	3599.383846
595.301190	3591.065942
595.652692	3544.435269
596.004141	3519.985673
596.355535	3484.193481
596.706876	3413.869385
597.058162	3433.781942
597.409395	3403.282962
597.760573	3392.444481
598.111698	3358.416692
598.462768	3338.252077
598.813785	3341.276769
599.164748	3315.062769
599.515657	3299.183135
599.866511	3248.771596
600.217312	3282.043212
600.568060	3224.574058
600.918753	3232.891962
601.269392	3209.198538
601.619978	3181.976308
601.970510	3182.732481
602.320988	3162.819923
602.671412	3155.510250
603.021783	3170.381654
603.372100	3125.515385
603.722363	3086.446442
604.072572	3100.309615
604.422728	3087.202615
604.772830	3073.087385
605.122878	3084.429981
605.472872	3058.720096
605.822813	3023.936135
606.172701	3027.212885
606.522534	3038.555481
606.872314	3011.585308
607.222041	3037.547250
607.571714	2992.176865
607.921333	2988.648058
608.270899	2972.768423
608.620411	2965.962865
608.969870	2961.425827
609.319276	2971.004019
609.668627	2971.508135
610.017926	2952.099692
610.367171	2954.368212
610.716362	2932.691250
611.065500	2947.562654
611.414585	2943.529731
611.763616	2922.861000
612.112594	2930.422731
612.461518	2883.792058
612.810389	2880.767365
613.159207	2887.320865
613.507971	2880.767365
613.856682	2852.536904
614.205340	2870.937115
614.553945	2887.320865
614.902496	2860.098635
615.250994	2849.260154
615.599439	2867.660365
615.947830	2872.197404
616.296169	2840.690192
616.644454	2840.186077
616.992686	2825.314673
617.340864	2849.764269
617.688990	2817.248827
618.037063	2842.202538
618.385082	2806.410346
618.733048	2806.914462
619.080961	2833.380519
619.428821	2782.968981
619.776628	2809.435038
620.124382	2784.985442
620.472083	2813.720019
620.819731	2763.812596
621.167326	2783.221038
621.514868	2775.155192
621.862357	2747.176788
622.209793	2753.478231
622.557176	2731.297154
622.904506	2768.601692
623.251783	2753.982346
623.599007	2742.387692
623.946179	2732.305385
624.293297	2739.110942
624.640363	2705.587269
624.987376	2725.751885
625.334336	2677.608865
625.681243	2699.285827
626.028097	2674.332115
626.374899	2680.129442
626.721647	2664.501865
627.068343	2661.477173
627.414987	2670.299192
627.761577	2650.638692
628.108115	2641.564615
628.454600	2660.973058
628.801032	2640.304327
629.147412	2655.931904
629.493739	2627.449385
629.840014	2646.101654
630.186236	2638.035808
630.532405	2623.164404
630.878521	2646.605769
631.224585	2637.531692
631.570597	2616.862962
631.916556	2620.139712
632.262462	2615.854731
632.608316	2612.325923
632.954117	2617.871192
633.299866	2624.676750
633.645562	2622.912346
633.991206	2614.846500
634.336797	2588.632500
634.682336	2613.586212
635.027823	2597.958635
635.373257	2631.734365
635.718639	2593.925712
636.063968	2592.917481
636.409245	2593.421596
636.754470	2590.901019
637.099642	2566.199365
637.444762	2602.495673
637.789829	2546.034750
638.134845	2586.363981
638.479808	2600.731269
638.824719	2556.873231
639.169577	2579.810481
639.514383	2571.744635
639.859137	2562.418500
640.203839	2581.070769
640.548489	2571.744635
640.893086	2538.473019
641.237632	2576.029615
641.582125	2551.832077
641.926566	2574.265212
642.270955	2584.851635
642.615292	2554.100596
642.959576	2545.530635
643.303809	2533.683923
643.647990	2579.558423
643.992118	2547.295038
644.336195	2563.426731
644.680219	2534.188038
645.024192	2557.377346
645.368112	2529.651000
645.711981	2546.790923
646.055797	2543.514173
646.399562	2536.960673
646.743274	2551.327962
647.086935	2553.092365
647.430544	2559.393808
647.774101	2550.067673
648.117606	2559.393808
648.461059	2577.794019
648.804460	2533.683923
649.147810	2562.166442
649.491108	2550.823846
649.834354	2544.522404
650.177548	2550.067673
650.520690	2570.484346
650.863781	2548.555327
651.206820	2500.664365
651.549807	2531.415404
651.892742	2537.212731
652.235626	2503.941115
652.578458	2499.404077
652.921238	2534.692154
653.263967	2529.651000
653.606644	2504.697288
653.949269	2522.341327
654.291843	2541.245654
654.634365	2517.048115
654.976836	2509.738442
655.319255	2525.870135
655.661622	2512.259019
656.003938	2528.894827
656.346203	2515.787827
656.688416	2519.820750
657.030577	2544.522404
657.372687	2522.341327
657.714746	2520.072808
658.056753	2516.544000
658.398708	2530.155115
658.740612	2530.155115
659.082465	2508.226096
659.424266	2534.944212
659.766016	2551.580019
660.107715	2490.077942
660.449362	2512.511077
660.790958	2506.965808
661.132503	2532.927750
661.473996	2524.357788
661.815438	2557.881462
662.156829	2500.160250
662.498168	2545.782692
662.839456	2509.234327
663.180693	2538.977135
663.521879	2530.659231
663.863013	2518.560462
664.204097	2528.138654
664.545129	2511.502846
664.886110	2520.576923
665.227040	2505.705519
665.567918	2522.341327
665.908746	2516.796058
666.249522	2526.122192
666.590248	2506.209635
666.930922	2557.125288
667.271545	2521.333096
667.612118	2501.924654
667.952639	2525.366019
668.293109	2493.606750
668.633528	2525.618077
668.973896	2507.721981
669.314213	2533.683923
669.654480	2512.006962
669.994695	2509.234327
670.334859	2532.927750
670.674973	2547.295038
671.015035	2504.949346
671.355047	2520.324865
671.695008	2488.565596
672.034918	2510.998731
672.374777	2525.618077
672.714585	2505.705519
673.054342	2516.291942
673.394049	2493.102635
673.733705	2514.275481
674.073310	2492.850577
674.412864	2518.056346
674.752368	2495.623212
675.091820	2524.357788
675.431223	2511.502846
675.770574	2525.113962
676.109875	2492.346462
676.449125	2506.965808
676.788324	2499.152019
677.127473	2512.511077
677.466571	2513.519308
677.805619	2512.259019
678.144616	2516.544000
678.483562	2500.160250
678.822458	2525.618077
679.161303	2483.020327
679.500098	2489.825885
679.838842	2529.903058
680.177535	2502.932885
680.516179	2489.069712
680.854771	2510.746673
681.193314	2512.511077
681.531805	2529.903058
681.870247	2515.283712
682.208638	2538.220962
682.546978	2510.242558
682.885268	2519.568692
683.223508	2518.812519
683.561697	2505.201404
683.899836	2497.891731
684.237925	2508.226096
684.575963	2510.494615
684.913951	2519.064577
685.251889	2514.527538
685.589776	2533.179808
685.927614	2525.870135
686.265401	2473.442135
686.603137	2498.647904
686.940824	2490.077942
687.278460	2517.804288
687.616046	2527.382481
687.953582	2505.705519
688.291068	2530.155115
688.628504	2507.469923
688.965889	2502.428769
689.303224	2506.965808
689.640510	2491.338231
689.977745	2531.163346
690.314930	2499.152019
690.652065	2529.398942
690.989150	2507.974038
691.326185	2494.867038
691.663170	2494.362923
692.000105	2479.491519
692.336990	2508.982269
692.673825	2502.680827
693.010610	2508.982269
693.347345	2497.639673
693.684030	2515.283712
694.020665	2482.012096
694.357251	2526.626308
694.693786	2483.776500
695.030272	2505.453462
695.366707	2481.255923
695.703093	2506.209635
696.039429	2500.664365
696.375716	2503.689058
696.711952	2503.437000
697.048139	2489.321769
697.384276	2495.875269
697.720363	2482.012096
698.056400	2489.573827
698.392388	2501.420538
698.728326	2511.250788
699.064214	2508.730212
699.400053	2493.606750
699.735842	2502.932885
700.071581	2498.647904
700.407270	2512.259019
700.742910	2503.184942
701.078501	2478.231231
701.414042	2508.226096
701.749533	2476.970942
702.084974	2500.160250
702.420366	2489.573827
702.755709	2489.825885
703.091002	2502.680827
703.426246	2520.324865
703.761440	2498.647904
704.096584	2479.491519
704.431679	2476.466827
704.766725	2506.209635
705.101721	2452.773404
705.436668	2496.127327
705.771565	2481.760038
706.106413	2523.601615
706.441212	2488.817654
706.775961	2484.532673
707.110661	2489.069712
707.445311	2488.313538
707.779913	2503.941115
708.114465	2492.598519
708.448967	2483.524442
708.783421	2506.965808
709.117825	2478.231231
709.452180	2514.275481
709.786485	2478.735346
710.120742	2494.614981
710.454949	2479.239462
710.789107	2481.760038
711.123216	2485.540904
711.457275	2482.768269
711.791286	2517.552231
712.125247	2488.313538
712.459159	2478.735346
712.793023	2480.247692
713.126837	2506.713750
713.460602	2499.152019
713.794318	2517.804288
714.127985	2482.516212
714.461602	2466.888635
714.795171	2478.231231
715.128691	2497.639673
715.462162	2476.718885
715.795584	2483.524442
716.128957	2482.264154
716.462281	2478.987404
716.795556	2514.023423
717.128782	2500.916423
717.461960	2472.433904
717.795088	2482.516212
718.128167	2510.494615
718.461198	2510.998731
718.794180	2490.834115
719.127113	2488.313538
719.459997	2482.012096
719.792833	2513.519308
720.125619	2476.718885
720.458357	2488.565596
720.791046	2491.086173
721.123686	2483.020327
721.456278	2496.379385
721.788821	2481.760038
722.121315	2473.442135
722.453761	2492.346462
722.786158	2498.647904
723.118506	2471.425673
723.450805	2500.664365
723.783056	2477.979173
724.115259	2493.606750
724.447412	2476.718885
724.779518	2496.883500
725.111574	2478.987404
725.443582	2489.321769
725.775542	2499.152019
726.107453	2466.384519
726.439315	2507.974038
726.771129	2491.086173
727.102895	2485.288846
727.434612	2494.867038
727.766281	2505.453462
728.097901	2490.077942
728.429473	2518.308404
728.760996	2485.540904
729.092471	2502.680827
729.423897	2501.420538
729.755276	2479.743577
730.086606	2500.160250
730.417887	2514.527538
730.749120	2485.540904
731.080305	2476.718885
731.411442	2506.461692
731.742530	2489.069712
732.073570	2506.713750
732.404562	2471.173615
732.735506	2458.066615
733.066401	2496.127327
733.397249	2518.056346
733.728048	2457.058385
734.058798	2470.165385
734.389501	2461.847481
734.720156	2512.006962
735.050762	2482.516212
735.381320	2505.705519
735.711831	2496.631442
736.042293	2497.639673
736.372707	2480.247692
736.703073	2476.970942
737.033391	2490.077942
737.363661	2514.527538
737.693883	2495.875269
738.024056	2513.267250
738.354182	2516.796058
738.684260	2497.387615
739.014290	2484.784731
739.344272	2474.954481
739.674207	2478.735346
740.004093	2494.614981
740.333931	2473.190077
740.663722	2476.718885
740.993464	2492.346462
741.323159	2480.499750
741.652806	2482.516212
741.982405	2506.461692
742.311956	2484.532673
742.641460	2496.883500
742.970915	2473.946250
743.300323	2488.313538
743.629683	2493.606750
743.958996	2457.562500
744.288260	2503.941115
744.617477	2505.957577
744.946647	2471.929788
745.275768	2466.132462
745.604842	2466.888635
745.933869	2478.735346
746.262847	2493.102635
746.591778	2486.297077
746.920662	2499.404077
747.249498	2490.582058
747.578286	2483.020327
747.907027	2478.735346
748.235720	2492.598519
748.564365	2480.499750
748.892963	2490.582058
749.221514	2478.735346
749.550017	2506.965808
749.878473	2476.466827
750.206881	2517.804288
750.535242	2493.606750
750.863555	2492.094404
751.191821	2475.458596
751.520039	2490.834115
751.848210	2508.730212
752.176334	2488.061481
752.504411	2493.858808
752.832440	2472.938019
753.160421	2490.077942
753.488356	2473.946250
753.816243	2487.053250
754.144082	2482.264154
754.471875	2458.066615
754.799620	2499.152019
755.127318	2492.346462
755.454969	2496.379385
755.782572	2474.198308
756.110129	2494.614981
756.437638	2487.557365
756.765100	2475.458596
757.092515	2498.899962
757.419882	2497.135558
757.747203	2470.417442
758.074477	2473.694192
758.401703	2465.124231
758.728882	2495.623212
759.056014	2489.321769
759.383099	2465.124231
759.710138	2478.231231
760.037129	2490.330000
760.364073	2495.371154
760.690970	2478.483288
761.017820	2465.628346
761.344623	2490.077942
761.671379	2467.392750
761.998088	2515.031654
762.324751	2490.834115
762.651366	2488.817654
762.977935	2488.061481
763.304456	2486.045019
763.630931	2455.293981
763.957359	2495.119096
764.283740	2469.409212
764.610074	2524.609846
764.936362	2481.255923
765.262602	2462.603654
765.588796	2467.896865
765.914943	2513.519308
766.241044	2474.702423
766.567097	2459.578962
766.893104	2473.946250
767.219064	2482.264154
767.544978	2481.255923
767.870845	2476.970942
768.196665	2446.976077
768.522438	2463.863942
768.848165	2457.562500
769.173846	2488.817654
769.499479	2494.614981
769.825066	2467.392750
770.150607	2476.466827
770.476101	2478.987404
770.801548	2495.119096
771.126949	2483.776500
771.452303	2500.916423
771.777611	2453.277519
772.102872	2454.789865
772.428087	2486.045019
772.753256	2475.962712
773.078378	2454.033692
773.403453	2507.469923
773.728482	2477.979173
774.053465	2502.680827
774.378401	2467.140692
774.703291	2495.875269
775.028135	2447.984308
775.352932	2472.181846
775.677683	2472.938019
776.002388	2503.689058
776.327046	2461.091308
776.651658	2485.288846
776.976224	2468.905096
777.300743	2491.086173
777.625216	2468.653038
777.949643	2476.718885
778.274024	2457.310442
778.598359	2483.524442
778.922647	2469.661269
779.246889	2484.028558
779.571086	2471.929788
779.895236	2493.858808
780.219339	2488.565596
780.543397	2487.053250
780.867409	2480.247692
781.191374	2481.003865
781.515294	2479.743577
781.839167	2493.606750
782.162995	2485.036788
782.486776	2489.321769
782.810511	2447.732250
783.134201	2469.409212
783.457844	2459.074846
783.781441	2477.979173
784.104993	2467.644808
784.428498	2499.656135
784.751958	2434.373192
785.075372	2490.582058
785.398739	2467.140692
785.722061	2488.061481
786.045337	2473.190077
786.368568	2486.801192
786.691752	2484.280615
787.014891	2477.223000
787.337983	2490.330000
787.661030	2462.603654
787.984031	2443.951385
788.306987	2467.140692
788.629897	2445.211673
788.952760	2469.913327
789.275579	2444.455500
789.598351	2475.710654
789.921078	2482.768269
790.243759	2458.066615
790.566395	2503.941115
790.888984	2468.653038
791.211529	2453.781635
791.534027	2459.831019
791.856480	2467.896865
792.178888	2485.540904
792.501249	2475.458596
792.823566	2456.806327
793.145836	2471.929788
793.468062	2464.620115
793.790241	2462.351596
794.112375	2467.644808
794.434464	2480.247692
794.756507	2481.255923
795.078505	2494.867038
795.400457	2477.727115
795.722364	2479.995635
796.044226	2469.409212
796.366042	2498.899962
796.687812	2490.077942
797.009538	2476.970942
797.331218	2492.850577
797.652852	2465.124231
797.974442	2479.239462
798.295986	2495.119096
798.617484	2467.392750
798.938938	2459.831019
799.260346	2471.173615
799.581709	2483.272385
799.903026	2484.280615
800.224299	2485.792962
800.545526	2487.053250
800.866708	2470.165385
801.187845	2468.400981
801.508936	2464.116000
801.829983	2454.285750
802.150984	2485.792962
802.471940	2476.214769
802.792851	2481.507981
803.113717	2482.012096
803.434538	2470.165385
803.755314	2465.124231
804.076045	2461.091308
804.396731	2473.190077
804.717372	2488.061481
805.037967	2464.872173
805.358518	2451.765173
805.679024	2463.359827
805.999485	2476.970942
806.319901	2466.384519
806.640272	2482.012096
806.960598	2468.400981
807.280879	2487.809423
807.601115	2460.839250
807.921306	2483.272385
808.241453	2479.491519
808.561554	2453.781635
808.881611	2501.168481
809.201623	2447.732250
809.521590	2485.792962
809.841513	2469.661269
810.161390	2455.798096
810.481223	2467.140692
810.801011	2501.672596
811.120755	2443.699327
811.440453	2482.768269
811.760107	2463.863942
812.079716	2486.045019
812.399281	2477.475058
812.718801	2462.099538
813.038276	2478.231231
813.357707	2470.669500
813.677093	2471.173615
813.996434	2471.677731
814.315731	2490.077942
814.634983	2488.817654
814.954191	2483.020327
815.273354	2441.682865
815.592473	2463.107769
815.911547	2466.888635
816.230577	2480.247692
816.549562	2479.995635
816.868502	2466.384519
817.187399	2474.702423
817.506250	2470.669500
817.825058	2475.962712
818.143821	2474.702423
818.462539	2470.669500
818.781213	2475.710654
819.099843	2445.967846
819.418429	2474.954481
819.736970	2492.598519
820.055466	2464.368058
820.373919	2474.450365
820.692327	2474.702423
821.010691	2473.190077
821.329011	2501.672596
821.647286	2494.867038
821.965517	2520.828981
822.283704	2542.253885
822.601847	2546.286808
822.919945	2551.832077
823.237999	2541.497712
823.556010	2544.018288
823.873976	2507.469923
824.191897	2522.593385
824.509775	2497.135558
824.827609	2493.354692
825.145398	2491.338231
825.463144	2494.867038
825.780845	2524.357788
826.098502	2507.974038
826.416116	2514.275481
826.733685	2485.540904
827.051210	2492.598519
827.368692	2490.834115
827.686129	2479.491519
828.003522	2496.631442
828.320872	2478.231231
828.638177	2510.494615
828.955439	2494.614981
829.272656	2465.880404
829.589830	2500.412308
829.906960	2478.987404
830.224046	2493.102635
830.541088	2502.680827
830.858086	2440.926692
831.175041	2479.491519
831.491952	2473.694192
831.808819	2472.685962
832.125642	2482.768269
832.442421	2477.475058
832.759157	2497.639673
833.075849	2479.239462
833.392497	2479.491519
833.709101	2487.809423
834.025662	2507.721981
834.342179	2486.045019
834.658653	2500.412308
834.975083	2486.297077
835.291469	2459.578962
835.607811	2495.119096
835.924110	2467.140692
836.240366	2472.433904
836.556578	2472.181846
836.872746	2481.255923
837.188871	2482.768269
837.504952	2454.789865
837.820990	2471.929788
838.136984	2453.025462
838.452935	2464.872173
838.768842	2482.768269
839.084706	2465.880404
839.400526	2484.532673
839.716303	2495.623212
840.032037	2474.702423
840.347727	2485.288846
840.663373	2451.261058
840.978977	2475.458596
841.294537	2477.223000
841.610054	2461.091308
841.925527	2449.748712
842.240957	2465.376288
842.556344	2474.954481
842.871687	2454.537808
843.186987	2485.036788
843.502244	2473.442135
843.817458	2477.223000
844.132629	2455.293981
844.447756	2461.847481
844.762840	2492.598519
845.077881	2459.074846
845.392879	2474.198308
845.707833	2475.962712
846.022745	2468.905096
846.337613	2451.513115
846.652438	2474.450365
846.967221	2470.417442
847.281960	2470.921558
847.596656	2475.710654
847.911309	2469.409212
848.225919	2476.214769
848.540485	2454.789865
848.855009	2473.694192
849.169490	2484.532673
849.483928	2465.880404
849.798323	2479.491519
850.112675	2468.653038
850.426984	2465.628346
850.741251	2474.198308
851.055474	2465.628346
851.369654	2468.148923
851.683792	2476.466827
851.997887	2470.417442
852.311938	2438.154058
852.625947	2453.529577
852.939914	2471.929788
853.253837	2496.379385
853.567718	2474.198308
853.881555	2458.066615
854.195350	2454.789865
854.509103	2449.244596
854.822812	2485.792962
855.136479	2457.310442
855.450103	2461.343365
855.763685	2485.036788
856.077224	2483.524442
856.390720	2435.381423
856.704173	2468.905096
857.017584	2469.913327
857.330953	2460.839250
857.644278	2485.540904
857.957561	2467.140692
858.270802	2454.537808
858.584000	2470.417442
858.897155	2465.880404
859.210268	2447.228135
859.523339	2471.929788
859.836367	2470.669500
860.149352	2438.154058
860.462295	2487.305308
860.775195	2455.798096
861.088054	2452.773404
861.400869	2499.656135
861.713642	2458.066615
862.026373	2472.181846
862.339062	2456.050154
862.651708	2458.822788
862.964312	2439.918462
863.276873	2478.987404
863.589392	2486.297077
863.901869	2454.537808
864.214303	2468.400981
864.526696	2465.628346
864.839045	2453.277519
865.151353	2479.995635
865.463619	2472.181846
865.775842	2471.425673
866.088023	2500.160250
866.400162	2453.025462
866.712258	2481.507981
867.024313	2475.206538
867.336325	2469.913327
867.648296	2457.814558
867.960224	2487.305308
868.272110	2456.806327
868.583954	2467.392750
868.895755	2464.368058
869.207515	2491.590288
869.519233	2456.806327
869.830909	2480.751808
870.142542	2455.798096
870.454134	2474.954481
870.765684	2460.587192
871.077191	2476.718885
871.388657	2432.860846
871.700081	2488.061481
872.011463	2453.025462
872.322803	2478.735346
872.634101	2458.066615
872.945357	2484.280615
873.256571	2460.587192
873.567744	2477.727115
873.878874	2502.176712
874.189963	2482.516212
874.501010	2486.801192
874.812015	2459.074846
875.122979	2478.735346
875.433900	2448.992538
875.744780	2457.814558
876.055618	2484.280615
876.366415	2450.000769
876.677169	2477.475058
876.987882	2476.214769
877.298554	2464.116000
877.609183	2467.644808
877.919771	2479.995635
878.230317	2452.773404
878.540822	2464.368058
878.851285	2461.091308
879.161707	2483.272385
879.472087	2448.236365
879.782425	2484.280615
880.092722	2485.288846
880.402977	2474.702423
880.713191	2472.938019
881.023363	2483.524442
881.333494	2515.031654
881.643583	2505.705519
881.953631	2494.110865
882.263637	2488.313538
882.573602	2521.333096
882.883526	2489.825885
883.193408	2468.653038
883.503248	2495.875269
883.813048	2505.453462
884.122806	2484.784731
884.432522	2515.283712
884.742197	2485.540904
885.051831	2496.127327
885.361424	2487.053250
885.670975	2493.102635
885.980485	2469.913327
886.289954	2486.801192
886.599382	2449.496654
886.908768	2473.694192
887.218113	2457.310442
887.527417	2461.343365
887.836680	2475.962712
888.145901	2445.463731
888.455082	2517.048115
888.764221	2458.570731
889.073319	2495.875269
889.382376	2465.124231
889.691392	2481.003865
890.000366	2465.124231
890.309300	2468.905096
890.618193	2481.255923
890.927044	2464.116000
891.235855	2470.921558
891.544625	2456.806327
891.853353	2475.962712
892.162041	2482.264154
892.470687	2471.173615
892.779293	2454.537808
893.087858	2491.590288
893.396381	2491.086173
893.704864	2479.491519
894.013306	2479.995635
894.321707	2491.590288
894.630068	2484.532673
894.938387	2469.913327
895.246665	2479.491519
895.554903	2495.623212
895.863100	2481.760038
896.171256	2482.768269
896.479371	2470.921558
896.787446	2489.321769
897.095480	2466.888635
897.403473	2490.077942
897.711425	2479.743577
898.019336	2474.198308
898.327207	2473.946250
898.635038	2474.954481
898.942827	2462.855712
899.250576	2444.707558
899.558284	2463.359827
899.865952	2451.261058
900.173579	2487.053250
900.481165	2462.855712
900.788711	2462.099538
901.096216	2480.247692
901.403681	2491.842346
901.711105	2481.760038
902.018489	2468.148923
902.325832	2483.776500
902.633135	2488.565596
902.940397	2457.310442
903.247619	2446.976077
903.554800	2448.992538
903.861941	2466.384519
904.169041	2495.875269
904.476101	2498.899962
904.783121	2478.483288
905.090100	2466.132462
905.397039	2472.938019
905.703938	2523.853673
906.010796	2506.965808
906.317614	2473.694192
906.624391	2510.494615
906.931129	2467.644808
907.237826	2474.702423
907.544483	2482.012096
907.851099	2480.499750
908.157675	2472.938019
908.464211	2471.173615
908.770707	2472.181846
909.077163	2477.727115
909.383578	2445.715788
909.689954	2452.269288
909.996289	2458.066615
910.302584	2493.606750
910.608839	2444.455500
910.915054	2465.628346
911.221229	2471.677731
911.527363	2483.272385
911.833458	2462.603654
912.139513	2485.036788
912.445527	2452.521346
912.751502	2497.387615
913.057436	2473.946250
913.363331	2457.814558
913.669186	2463.107769
913.975000	2447.984308
914.280775	2468.905096
914.586510	2472.433904
914.892205	2463.863942
915.197859	2465.376288
915.503475	2486.549135
915.809050	2494.110865
916.114585	2469.409212
916.420081	2490.582058
916.725536	2482.768269
917.030952	2468.148923
917.336328	2493.102635
917.641665	2473.694192
917.946961	2473.946250
918.252218	2493.858808
918.557435	2460.083077
918.862612	2488.061481
919.167750	2485.792962
919.472848	2512.006962
919.777906	2499.404077
920.082925	2484.532673
920.387904	2492.346462
920.692843	2474.450365
920.997743	2476.214769
921.302603	2494.110865
921.607423	2463.359827
921.912204	2478.735346
922.216946	2472.181846
922.521647	2483.272385
922.826310	2452.521346
923.130932	2455.546038
923.435516	2468.400981
923.740059	2465.376288
924.044564	2476.718885
924.349028	2492.850577
924.653454	2471.425673
924.957840	2456.806327
925.262186	2462.603654
925.566493	2450.000769
925.870761	2460.587192
926.174989	2464.116000
926.479178	2448.740481
926.783328	2456.302212
927.087438	2473.190077
927.391509	2479.995635
927.695541	2477.979173
927.999533	2475.962712
928.303486	2439.414346
928.607400	2448.992538
928.911275	2476.970942
929.215110	2454.285750
929.518906	2467.644808
929.822663	2466.636577
930.126381	2475.458596
930.430060	2477.475058
930.733699	2503.941115
931.037299	2464.872173
931.340861	2489.321769
931.644383	2467.896865
931.947866	2462.099538
932.251309	2460.335135
932.554714	2475.458596
932.858080	2463.611885
933.161407	2464.872173
933.464694	2469.913327
933.767943	2467.140692
934.071153	2484.280615
934.374323	2471.173615
934.677455	2462.855712
934.980548	2440.170519
935.283602	2469.913327
935.586617	2470.165385
935.889593	2509.234327
936.192530	2484.784731
936.495428	2460.335135
936.798287	2502.428769
937.101108	2485.540904
937.403890	2483.272385
937.706632	2462.603654
938.009336	2461.847481
938.312002	2504.697288
938.614628	2462.855712
938.917216	2461.343365
939.219765	2457.562500
939.522275	2457.058385
939.824747	2464.620115
940.127179	2469.157154
940.429573	2458.066615
940.731929	2487.053250
941.034246	2490.582058
941.336524	2466.888635
941.638763	2461.343365
941.940964	2466.888635
942.243126	2487.557365
942.545250	2465.628346
942.847335	2472.938019
943.149381	2451.765173
943.451389	2469.913327
943.753359	2482.012096
944.055290	2482.012096
944.357182	2478.231231
944.659036	2459.074846
944.960851	2494.110865
945.262628	2471.425673
945.564367	2481.255923
945.866067	2466.384519
946.167729	2453.277519
946.469352	2445.211673
946.770937	2444.959615
947.072484	2477.727115
947.373992	2440.170519
947.675462	2454.789865
947.976893	2443.699327
948.278286	2446.471962
948.579641	2428.323808
948.880958	2455.546038
949.182236	2457.814558
949.483476	2443.447269
949.784678	2468.148923
950.085841	2464.368058
950.386967	2479.743577
950.688054	2459.578962
950.989103	2461.847481
951.290114	2460.335135
951.591087	2466.636577
951.892021	2476.970942
952.192917	2478.231231
952.493776	2465.124231
952.794596	2474.702423
953.095378	2477.979173
953.396122	2468.905096
953.696828	2463.863942
953.997496	2482.768269
954.298126	2476.466827
954.598718	2476.970942
954.899272	2451.261058
955.199788	2467.896865
955.500266	2463.863942
955.800706	2468.905096
956.101108	2483.776500
956.401472	2457.058385
956.701798	2455.546038
957.002087	2463.107769
957.302337	2477.727115
957.602550	2456.554269
957.902724	2442.186981
958.202861	2462.099538
958.502960	2437.397885
958.803022	2486.549135
959.103045	2466.636577
959.403031	2469.409212
959.702979	2471.929788
960.002889	2464.872173
960.302762	2487.053250
960.602596	2444.707558
960.902393	2481.255923
961.202153	2471.173615
961.501875	2461.343365
961.801559	2468.653038
962.101205	2440.926692
962.400814	2446.471962
962.700385	2460.335135
962.999918	2476.970942
963.299414	2459.326904
963.598873	2469.661269
963.898293	2495.371154
964.197677	2468.653038
964.497022	2448.236365
964.796331	2462.603654
965.095601	2447.480192
965.394835	2470.165385
965.694030	2460.083077
965.993189	2435.633481
966.292309	2432.356731
966.591393	2441.178750
966.890439	2461.091308
967.189447	2473.694192
967.488419	2452.269288
967.787353	2463.359827
968.086249	2463.611885
968.385108	2490.330000
968.683930	2467.644808
968.982714	2455.293981
969.281462	2487.557365
969.580172	2471.929788
969.878844	2473.442135
970.177480	2459.326904
970.476078	2451.765173
970.774639	2497.639673
971.073162	2487.557365
971.371649	2456.050154
971.670098	2457.058385
971.968510	2467.896865
972.266885	2466.132462
972.565223	2458.822788
972.863524	2461.091308
973.161788	2451.765173
973.460014	2467.896865
973.758204	2468.653038
974.056356	2444.455500
974.354471	2481.003865
974.652550	2457.562500
974.950591	2468.905096
975.248595	2429.584096
975.546563	2442.186981
975.844493	2454.285750
976.142386	2469.409212
976.440243	2470.669500
976.738062	2463.611885
977.035845	2452.521346
977.333590	2474.198308
977.631299	2490.834115
977.928971	2449.748712
978.226606	2453.277519
978.524204	2461.595423
978.821765	2469.157154
979.119290	2454.285750
979.416777	2450.252827
979.714228	2461.343365
980.011642	2463.611885
980.309020	2475.710654
980.606360	2449.244596
980.903664	2509.486385
981.200931	2451.513115
981.498162	2481.507981
981.795356	2467.140692
982.092513	2464.368058
982.389633	2456.050154
982.686717	2448.488423
982.983764	2452.269288
983.280775	2486.045019
983.577749	2468.400981
983.874686	2482.768269
984.171587	2473.694192
984.468451	2462.855712
984.765279	2464.872173
985.062070	2486.801192
985.358824	2466.384519
985.655543	2469.157154
985.952224	2470.921558
986.248869	2443.195212
986.545478	2466.384519
986.842050	2444.707558
987.138586	2472.181846
987.435086	2445.967846
987.731549	2469.157154
988.027975	2487.305308
988.324366	2442.943154
988.620719	2465.376288
988.917037	2464.872173
989.213318	2472.685962
989.509563	2456.050154
989.805772	2477.979173
990.101944	2467.392750
990.398080	2468.400981
990.694180	2450.252827
990.990244	2473.190077
991.286271	2451.765173
991.582262	2479.239462
991.878217	2457.058385
992.174136	2477.475058
992.470019	2449.244596
992.765865	2486.801192
993.061676	2453.781635
993.357450	2476.718885
993.653188	2465.376288
993.948890	2484.028558
994.244556	2465.880404
994.540186	2454.033692
994.835780	2471.173615
995.131337	2450.756942
995.426859	2464.368058
995.722345	2445.967846
996.017795	2485.036788
996.313208	2469.157154
996.608586	2483.020327
996.903928	2447.732250
997.199234	2468.653038
997.494504	2477.979173
997.789738	2469.661269
998.084936	2495.623212
998.380099	2451.513115
998.675225	2459.578962
998.970316	2475.458596
999.265371	2467.644808
999.560390	2455.546038
999.855373	2473.442135
1000.150320	2480.499750
1000.445232	2466.636577
1000.740108	2473.946250
1001.034948	2444.203442
1001.329752	2450.756942
1001.624521	2475.206538
1001.919254	2431.096442
1002.213951	2478.231231
1002.508613	2464.620115
1002.803239	2453.781635
1003.097829	2470.921558
1003.392384	2431.852615
1003.686903	2463.107769
1003.981386	2474.702423
1004.275834	2449.244596
1004.570246	2459.326904
1004.864623	2460.335135
1005.158964	2467.644808
1005.453270	2453.025462
1005.747540	2459.074846
1006.041775	2458.066615
1006.335974	2487.809423
1006.630138	2452.269288
1006.924266	2484.280615
1007.218359	2482.768269
1007.512416	2463.611885
1007.806438	2448.740481
1008.100425	2441.178750
1008.394376	2445.967846
1008.688292	2418.997673
1008.982172	2459.578962
1009.276017	2438.406115
1009.569827	2447.732250
1009.863602	2478.231231
1010.157341	2468.905096
1010.451045	2466.888635
1010.744714	2463.359827
1011.038347	2492.598519
1011.331945	2453.781635
1011.625508	2469.409212
1011.919036	2456.302212
1012.212528	2464.872173
1012.505986	2472.181846
1012.799408	2444.959615
1013.092795	2474.450365
1013.386147	2456.554269
1013.679464	2450.504885
1013.972745	2488.565596
1014.265992	2443.195212
1014.559204	2463.359827
1014.852380	2451.009000
1015.145521	2457.562500
1015.438628	2474.954481
1015.731699	2465.124231
1016.024736	2469.157154
1016.317737	2445.463731
1016.610703	2431.096442
1016.903635	2469.661269
1017.196531	2440.170519
1017.489393	2467.644808
1017.782219	2467.140692
1018.075011	2486.297077
1018.367768	2466.636577
1018.660490	2462.099538
1018.953177	2462.099538
1019.245829	2462.099538
