Dividing Wavelength (nm)	Counts (n)	Slit_number_30_of_a_total_of_40	
326.493990	2039.045908
326.888308	2039.045908
327.282561	2039.045908
327.676750	2022.006808
328.070874	2014.545900
328.464933	2023.998063
328.858929	2032.366379
329.252859	2038.642615
329.646726	2058.555173
330.040528	2073.577812
330.434265	2092.759402
330.827938	2111.184819
331.221547	2132.634929
331.615091	2153.656540
332.008571	2172.056752
332.401986	2200.362831
332.795338	2217.074256
333.188625	2228.366440
333.581847	2248.505850
333.975006	2267.561412
334.368100	2286.692590
334.761129	2302.496608
335.154095	2316.258958
335.546996	2338.137565
335.939833	2351.471417
336.332606	2355.227077
336.725315	2368.838192
337.117960	2375.820190
337.510540	2391.447767
337.903056	2395.052192
338.295508	2399.664848
338.687896	2415.242013
339.080220	2419.526994
339.472480	2426.559404
339.864676	2420.081521
340.256807	2430.995619
340.648875	2431.373706
341.040879	2418.821233
341.432818	2439.162288
341.824694	2429.836154
342.216506	2432.507965
342.608253	2435.104160
342.999937	2430.592327
343.391557	2434.373192
343.783113	2433.314550
344.174605	2419.728640
344.566033	2433.339756
344.957397	2426.811462
345.348697	2420.963723
345.739934	2422.929773
346.131106	2419.426171
346.522215	2415.015162
346.913260	2418.947262
347.304241	2411.990469
347.695159	2418.770821
348.086012	2406.319171
348.476802	2416.880388
348.867528	2400.673079
349.258191	2408.587690
349.648789	2403.067627
350.039324	2404.579973
350.429796	2410.654563
350.820203	2399.059910
351.210548	2397.950856
351.600828	2402.261042
351.991045	2402.311454
352.381198	2402.437483
352.771288	2405.764644
353.161314	2404.857237
353.551276	2411.486354
353.941175	2406.419994
354.331010	2401.177194
354.720782	2397.850033
355.110490	2403.470919
355.500135	2394.648900
355.889717	2404.101063
356.279235	2408.486867
356.668689	2410.553740
357.058080	2406.546023
357.447408	2397.673592
357.836672	2401.857750
358.225873	2408.209604
358.615010	2401.983779
359.004084	2410.780592
359.393095	2407.831517
359.782043	2410.100037
360.170927	2403.496125
360.559748	2414.737898
360.948505	2408.562485
361.337199	2408.587690
361.725830	2405.260529
362.114398	2415.846952
362.502903	2401.252812
362.891344	2413.654050
363.279722	2416.603125
363.668037	2422.047571
364.056289	2411.561971
364.444478	2413.401992
364.832603	2411.965263
365.220665	2410.352094
365.608665	2409.999213
365.996601	2415.443660
366.384474	2413.830490
366.772284	2419.753846
367.160031	2412.570202
367.547715	2415.115985
367.935336	2407.881929
368.322893	2416.628331
368.710388	2406.016702
369.097820	2415.821746
369.485189	2411.814029
369.872495	2424.190062
370.259738	2416.073804
370.646918	2419.879875
371.034035	2421.593867
371.421090	2424.013621
371.808081	2422.828950
372.195010	2423.257448
372.581875	2428.752306
372.968678	2437.523913
373.355418	2433.062492
373.742096	2440.372165
374.128710	2438.330498
374.515262	2441.582042
374.901751	2443.296035
375.288177	2460.662810
375.674540	2457.360854
376.060841	2457.234825
376.447079	2468.274952
376.833254	2470.543471
377.219367	2472.761579
377.605417	2491.464260
377.991404	2490.355206
378.377329	2490.052737
378.763191	2497.992554
379.148991	2504.546054
379.534727	2497.816113
379.920402	2509.914883
380.306013	2513.292456
380.691563	2526.021369
381.077049	2523.299146
381.462474	2533.809952
381.847835	2529.071267
382.233134	2539.657690
382.618371	2542.405119
383.003545	2543.564585
383.388657	2551.680842
383.773706	2557.175700
384.158693	2561.006977
384.543618	2559.973540
384.928480	2550.622200
385.313280	2555.638148
385.698017	2552.487427
386.082692	2559.343396
386.467305	2558.536812
386.851856	2558.889692
387.236344	2553.268806
387.620770	2554.478683
388.005133	2548.101623
388.389435	2547.421067
388.773674	2542.984852
389.157851	2541.522917
389.541965	2553.571275
389.926018	2543.060469
390.310008	2539.758513
390.693936	2538.851106
391.077802	2530.381967
391.461606	2529.676206
391.845348	2526.550690
392.229027	2528.743592
392.612645	2525.013138
392.996200	2523.626821
393.379694	2514.628362
393.763125	2503.058913
394.146494	2505.327433
394.529801	2510.847496
394.913047	2491.413848
395.296230	2495.623212
395.679351	2475.584625
396.062410	2489.800679
396.445408	2476.164358
396.828343	2465.829992
397.211217	2467.090281
397.594028	2464.947790
397.976778	2450.303238
398.359466	2456.277006
398.742092	2449.597477
399.124656	2460.738427
399.507158	2452.697787
399.889598	2445.463731
400.271977	2450.555296
400.654294	2442.262598
401.036549	2445.035233
401.418742	2444.757969
401.800874	2441.985335
402.182944	2451.034206
402.564952	2442.741508
402.946898	2445.010027
403.328783	2439.061465
403.710606	2441.304779
404.092367	2436.414860
404.474067	2438.960642
404.855705	2437.347473
405.237282	2443.674121
405.618797	2440.246137
406.000250	2440.346960
406.381642	2432.205496
406.762972	2440.750252
407.144240	2432.482760
407.525447	2436.843358
407.906593	2438.607762
408.287677	2439.716815
408.668700	2444.505912
409.049661	2443.094388
409.430560	2442.111363
409.811399	2444.102619
410.192176	2438.784202
410.572891	2446.421550
410.953545	2441.279573
411.334138	2435.230188
411.714669	2434.297575
412.095139	2443.472475
412.475547	2437.826383
412.855894	2443.195212
413.236180	2447.656633
413.616405	2445.715788
413.996568	2436.767740
414.376670	2448.362394
414.756711	2439.893256
415.136691	2448.589246
415.516609	2446.976077
415.896466	2435.683892
416.276262	2439.893256
416.655997	2443.321240
417.035670	2443.396858
417.415283	2446.119081
417.794834	2442.716302
418.174324	2447.228135
418.553753	2437.171033
418.933121	2449.471448
419.312428	2443.346446
419.691674	2439.439552
420.070859	2443.724533
420.449983	2443.573298
420.829045	2438.179263
421.208047	2443.875767
421.586988	2444.304265
421.965867	2446.950871
422.344686	2442.867537
422.723444	2448.337188
423.102141	2442.665890
423.480777	2445.186467
423.859352	2444.480706
424.237866	2445.488937
424.616319	2444.883998
424.994712	2442.514656
425.373044	2440.422577
425.751314	2440.498194
426.129524	2437.649942
426.507673	2445.262085
426.885762	2444.279060
427.263789	2451.462704
427.641756	2454.537808
428.019662	2444.203442
428.397508	2451.462704
428.775292	2437.826383
429.153016	2444.505912
429.530679	2442.186981
429.908282	2446.245110
430.285824	2447.026488
430.663305	2443.497681
431.040726	2449.849535
431.418086	2448.841304
431.795385	2447.177723
432.172624	2446.597990
432.549802	2456.150977
432.926920	2447.782662
433.303977	2451.865996
433.680974	2442.917948
434.057910	2460.032665
434.434786	2454.310956
434.811601	2452.269288
435.188355	2455.092335
435.565050	2456.907150
435.941683	2455.898919
436.318257	2453.655606
436.694770	2453.529577
437.071222	2443.573298
437.447614	2449.295008
437.823946	2451.563527
438.200218	2448.236365
438.576429	2456.907150
438.952580	2451.009000
439.328670	2448.110337
439.704700	2452.924638
440.080670	2451.563527
440.456580	2448.059925
440.832429	2454.638631
441.208218	2451.714762
441.583947	2449.975563
441.959616	2454.966306
442.335224	2451.613938
442.710773	2450.731737
443.086261	2451.941613
443.461689	2460.688015
443.837057	2453.252313
444.212365	2457.360854
444.587612	2463.435444
444.962800	2446.270315
445.337927	2448.916921
445.712995	2444.077413
446.088002	2457.764146
446.462949	2447.858279
446.837837	2455.394804
447.212664	2452.118054
447.587431	2450.328444
447.962139	2454.941100
448.336786	2459.831019
448.711374	2451.109823
449.085901	2455.193158
449.460369	2454.033692
449.834776	2447.833073
450.209124	2452.899433
450.583412	2458.772377
450.957640	2453.983281
451.331808	2451.714762
451.705917	2457.562500
452.079965	2455.193158
452.453954	2455.470421
452.827883	2462.074333
453.201752	2450.782148
453.575562	2451.538321
453.949311	2457.310442
454.323001	2458.974023
454.696632	2460.183900
455.070202	2447.253340
455.443713	2451.865996
455.817164	2457.864969
456.190556	2453.781635
456.563888	2456.201388
456.937160	2453.000256
457.310373	2458.217850
457.683526	2453.479165
458.056619	2460.637604
458.429653	2465.099025
458.802628	2464.166412
459.175542	2458.066615
459.548398	2460.864456
459.921194	2461.091308
460.293930	2464.972996
460.666607	2461.469394
461.039224	2464.645321
461.411782	2462.931329
461.784280	2459.125258
462.156719	2451.840790
462.529099	2466.510548
462.901419	2459.301698
463.273680	2455.470421
463.645882	2459.679785
464.018024	2455.697273
464.390106	2455.369598
464.762130	2462.603654
465.134094	2457.335648
465.505999	2462.956535
465.877845	2467.695219
466.249631	2460.158694
466.621358	2463.132975
466.993026	2453.428754
467.364634	2467.947277
467.736184	2469.308388
468.107674	2462.250773
468.479105	2453.680812
468.850477	2458.167438
469.221790	2465.401494
469.593043	2458.747171
469.964238	2461.418983
470.335373	2457.310442
470.706449	2453.025462
471.077467	2461.519806
471.448425	2465.073819
471.819324	2461.822275
472.190164	2469.736887
472.560945	2461.141719
472.931667	2454.689042
473.302330	2457.839763
473.672934	2466.006433
474.043479	2454.336162
474.413965	2466.082050
474.784393	2452.849021
475.154761	2458.469908
475.525070	2456.024948
475.895321	2468.022894
476.265513	2449.748712
476.635645	2458.419496
477.005719	2465.779581
477.375734	2462.376802
477.745691	2466.510548
478.115588	2454.008487
478.485427	2463.132975
478.855207	2460.561987
479.224928	2472.081023
479.594591	2459.427727
479.964194	2460.914867
480.333739	2460.083077
480.703226	2467.796042
481.072653	2468.980713
481.442022	2465.023408
481.811333	2462.326390
482.180584	2460.032665
482.549777	2461.267748
482.918912	2455.949331
483.287988	2468.955508
483.657005	2458.595937
484.025964	2458.822788
484.394864	2462.603654
484.763706	2460.461163
485.132489	2459.352110
485.501213	2462.679271
485.869879	2468.022894
486.238487	2460.461163
486.607036	2471.072792
486.975527	2460.032665
487.343959	2462.074333
487.712333	2453.806840
488.080648	2458.873200
488.448905	2468.048100
488.817104	2459.578962
489.185244	2458.419496
489.553326	2460.032665
489.921350	2456.176183
490.289315	2457.990998
490.657222	2459.805813
491.025070	2456.881944
491.392861	2462.250773
491.760593	2463.863942
492.128267	2463.763119
492.495883	2464.368058
492.863440	2454.134515
493.230939	2459.049640
493.598380	2455.672067
493.965763	2461.091308
494.333088	2462.099538
494.700354	2466.964252
495.067563	2462.175156
495.434713	2463.561473
495.801805	2463.334621
496.168839	2467.896865
496.535815	2461.872687
496.902733	2474.425160
497.269593	2460.587192
497.636395	2466.586165
498.003139	2460.763633
498.369825	2461.469394
498.736453	2461.267748
499.103023	2457.512088
499.469535	2458.192644
499.835989	2460.057871
500.202385	2458.343879
500.568723	2458.066615
500.935003	2457.965792
501.301226	2465.401494
501.667390	2462.880917
502.033497	2472.181846
502.399546	2466.409725
502.765537	2466.586165
503.131470	2462.124744
503.497345	2462.502831
503.863163	2466.182873
504.228923	2461.822275
504.594625	2463.032152
504.960269	2465.477112
505.325856	2470.770323
505.691385	2460.007460
506.056856	2462.855712
506.422270	2465.401494
506.787625	2463.284210
507.152924	2464.242029
507.518164	2460.083077
507.883347	2458.822788
508.248472	2461.822275
508.613540	2462.931329
508.978550	2453.000256
509.343503	2461.444188
509.708398	2460.864456
510.073236	2467.896865
510.438016	2462.351596
510.802738	2456.932356
511.167403	2456.176183
511.532010	2459.957048
511.896561	2462.855712
512.261053	2467.342338
512.625488	2465.099025
512.989866	2462.402008
513.354186	2460.360340
513.718449	2460.183900
514.082655	2458.520319
514.446803	2457.638117
514.810894	2455.999742
515.174927	2461.771863
515.538904	2457.234825
515.902822	2461.217337
516.266684	2459.175669
516.630488	2462.528037
516.994235	2454.663837
517.357925	2460.057871
517.721558	2460.083077
518.085133	2469.837710
518.448651	2461.192131
518.812112	2459.478138
519.175516	2456.377829
519.538863	2458.394290
519.902152	2463.233798
520.265385	2456.176183
520.628560	2464.166412
520.991678	2457.310442
521.354739	2462.729683
521.717743	2466.460137
522.080690	2469.963738
522.443580	2460.335135
522.806413	2466.787812
523.169189	2465.250260
523.531908	2469.610858
523.894569	2465.905610
524.257174	2466.560960
524.619722	2463.208592
524.982213	2465.225054
525.344647	2467.367544
525.707025	2469.535240
526.069345	2455.898919
526.431608	2465.502317
526.793815	2455.898919
527.155964	2464.519292
527.518057	2455.924125
527.880093	2456.428240
528.242072	2467.947277
528.603995	2466.762606
528.965860	2466.712194
529.327669	2463.863942
529.689421	2463.788325
530.051117	2467.090281
530.412755	2460.511575
530.774337	2466.863429
531.135862	2464.998202
531.497331	2458.520319
531.858743	2466.813017
532.220098	2465.174642
532.581396	2460.839250
532.942638	2467.065075
533.303824	2458.419496
533.664953	2460.057871
534.026025	2466.283696
534.387040	2465.628346
534.747999	2466.964252
535.108902	2464.368058
535.469748	2466.132462
535.830537	2464.544498
536.191270	2470.568677
536.551947	2462.452419
536.912567	2460.839250
537.273131	2460.738427
537.633638	2460.839250
537.994089	2456.075360
538.354483	2461.318160
538.714821	2467.846454
539.075103	2454.159721
539.435328	2463.989971
539.795497	2459.629373
540.155609	2460.209106
540.515665	2461.595423
540.875665	2463.763119
541.235609	2462.402008
541.595496	2458.847994
541.955328	2460.965279
542.315102	2462.654065
542.674821	2462.805300
543.034483	2468.804273
543.394090	2458.570731
543.753640	2462.906123
544.113134	2468.451392
544.472571	2464.670527
544.831953	2467.972483
545.191278	2467.493573
545.550548	2456.352623
545.909761	2467.065075
546.268918	2464.090794
546.628019	2469.157154
546.987064	2463.208592
547.346053	2465.678758
547.704986	2459.377315
548.063863	2460.839250
548.422684	2462.528037
548.781449	2470.114973
549.140158	2474.979687
549.498811	2463.334621
549.857408	2459.100052
550.215949	2459.629373
550.574434	2466.460137
550.932864	2459.200875
551.291237	2459.679785
551.649555	2465.426700
552.007817	2462.250773
552.366022	2460.889662
552.724173	2470.896352
553.082267	2458.016204
553.440305	2469.459623
553.798288	2468.098512
554.156215	2465.703963
554.514086	2470.921558
554.871902	2456.327417
555.229661	2461.318160
555.587365	2449.849535
555.945014	2466.939046
556.302606	2461.519806
556.660143	2471.576908
557.017625	2460.461163
557.375050	2461.141719
557.732421	2471.249233
558.089735	2465.351083
558.446994	2463.107769
558.804197	2469.005919
559.161345	2461.444188
559.518437	2460.259517
559.875474	2463.334621
560.232455	2465.124231
560.589381	2459.906637
560.946251	2463.057358
561.303065	2453.378342
561.659825	2465.502317
562.016528	2466.359313
562.373177	2469.257977
562.729770	2465.099025
563.086307	2466.989458
563.442789	2453.832046
563.799216	2467.821248
564.155587	2460.032665
564.511904	2460.335135
564.868164	2463.485856
565.224370	2458.999229
565.580520	2465.754375
565.936615	2465.779581
566.292654	2453.630400
566.648638	2459.906637
567.004567	2466.157667
567.360441	2465.956021
567.716260	2467.367544
568.072023	2457.512088
568.427732	2462.754888
568.783385	2466.107256
569.138982	2467.342338
569.494525	2465.981227
569.850013	2460.461163
570.205445	2463.208592
570.560823	2460.839250
570.916145	2455.722479
571.271412	2464.116000
571.626625	2459.881431
571.981782	2463.863942
572.336884	2459.175669
572.691931	2460.335135
573.046923	2459.604167
573.401860	2452.546552
573.756743	2466.208079
574.111570	2453.857252
574.466342	2470.719912
574.821059	2459.553756
575.175722	2463.082563
575.530330	2468.048100
575.884882	2463.284210
576.239380	2465.703963
576.593823	2464.015177
576.948211	2460.435958
577.302544	2473.492546
577.656823	2462.402008
578.011047	2458.923612
578.365216	2468.148923
578.719330	2464.620115
579.073389	2460.385546
579.427394	2459.427727
579.781344	2455.722479
580.135239	2463.309415
580.489080	2466.031638
580.842866	2464.796556
581.196597	2469.384006
581.550273	2467.720425
581.903895	2466.939046
582.257463	2463.435444
582.610975	2465.880404
582.964434	2463.208592
583.317837	2462.351596
583.671186	2467.342338
584.024481	2464.216823
584.377721	2465.174642
584.730906	2465.149437
585.084037	2461.570217
585.437113	2451.714762
585.790135	2465.527523
586.143103	2467.392750
586.496016	2459.125258
586.848874	2463.813531
587.201679	2467.997688
587.554428	2458.495113
587.907124	2463.359827
588.259765	2458.016204
588.612352	2462.754888
588.964884	2458.041410
589.317362	2465.099025
589.669786	2467.115487
590.022155	2456.957562
590.374470	2464.242029
590.726731	2462.704477
591.078937	2470.291413
591.431090	2464.972996
591.783188	2463.158181
592.135232	2472.635550
592.487222	2453.504371
592.839157	2468.980713
593.191038	2461.393777
593.542866	2466.863429
593.894639	2459.604167
594.246358	2467.191104
594.598022	2454.285750
594.949633	2466.334108
595.301190	2464.998202
595.652692	2466.586165
596.004141	2469.056331
596.355535	2464.393263
596.706876	2464.242029
597.058162	2457.486883
597.409395	2467.115487
597.760573	2460.713221
598.111698	2464.015177
598.462768	2457.436471
598.813785	2464.544498
599.164748	2461.519806
599.515657	2463.259004
599.866511	2475.685448
600.217312	2467.720425
600.568060	2459.906637
600.918753	2458.721965
601.269392	2467.392750
601.619978	2460.032665
601.970510	2453.227108
602.320988	2454.260544
602.671412	2464.645321
603.021783	2467.014663
603.372100	2453.479165
603.722363	2465.729169
604.072572	2465.426700
604.422728	2461.217337
604.772830	2458.343879
605.122878	2462.855712
605.472872	2460.788838
605.822813	2454.058898
606.172701	2450.101592
606.522534	2457.764146
606.872314	2461.721452
607.222041	2461.469394
607.571714	2468.350569
607.921333	2457.058385
608.270899	2469.384006
608.620411	2458.898406
608.969870	2466.308902
609.319276	2465.956021
609.668627	2470.971969
610.017926	2466.056844
610.367171	2458.999229
610.716362	2463.385033
611.065500	2460.511575
611.414585	2460.108283
611.763616	2462.175156
612.112594	2459.402521
612.461518	2459.553756
612.810389	2463.863942
613.159207	2467.367544
613.507971	2471.828965
613.856682	2459.730196
614.205340	2467.090281
614.553945	2462.654065
614.902496	2455.873713
615.250994	2464.166412
615.599439	2457.990998
615.947830	2470.467854
616.296169	2458.142233
616.644454	2465.603140
616.992686	2460.637604
617.340864	2456.024948
617.688990	2464.468881
618.037063	2467.594396
618.385082	2471.602113
618.733048	2458.772377
619.080961	2464.922585
619.428821	2456.856738
619.776628	2466.283696
620.124382	2463.208592
620.472083	2463.485856
620.819731	2468.249746
621.167326	2468.174129
621.514868	2463.158181
621.862357	2452.294494
622.209793	2462.654065
622.557176	2454.411779
622.904506	2463.863942
623.251783	2458.646348
623.599007	2465.451906
623.946179	2463.385033
624.293297	2463.611885
624.640363	2469.711681
624.987376	2462.603654
625.334336	2459.553756
625.681243	2461.948304
626.028097	2458.469908
626.374899	2460.990485
626.721647	2467.191104
627.068343	2464.292440
627.414987	2460.688015
627.761577	2464.670527
628.108115	2459.957048
628.454600	2463.561473
628.801032	2466.107256
629.147412	2459.049640
629.493739	2468.728656
629.840014	2465.552729
630.186236	2460.209106
630.532405	2462.578448
630.878521	2462.124744
631.224585	2460.536781
631.570597	2464.443675
631.916556	2458.948817
632.262462	2468.073306
632.608316	2458.595937
632.954117	2462.830506
633.299866	2454.991512
633.645562	2464.519292
633.991206	2459.755402
634.336797	2456.150977
634.682336	2461.822275
635.027823	2459.831019
635.373257	2468.451392
635.718639	2453.479165
636.063968	2467.140692
636.409245	2452.193671
636.754470	2463.763119
637.099642	2454.613425
637.444762	2463.662296
637.789829	2461.545012
638.134845	2451.160235
638.479808	2462.502831
638.824719	2473.668987
639.169577	2465.527523
639.514383	2452.672581
639.859137	2469.232771
640.203839	2458.570731
640.548489	2453.277519
640.893086	2464.544498
641.237632	2461.671040
641.582125	2460.839250
641.926566	2468.400981
642.270955	2459.654579
642.615292	2456.831533
642.959576	2452.622169
643.303809	2456.428240
643.647990	2462.452419
643.992118	2470.341825
644.336195	2454.739454
644.680219	2461.166925
645.024192	2451.840790
645.368112	2465.124231
645.711981	2463.284210
646.055797	2465.628346
646.399562	2468.325363
646.743274	2456.453446
647.086935	2459.629373
647.430544	2463.511062
647.774101	2463.763119
648.117606	2462.149950
648.461059	2464.166412
648.804460	2458.696760
649.147810	2465.477112
649.491108	2465.956021
649.834354	2472.484315
650.177548	2457.486883
650.520690	2463.763119
650.863781	2464.620115
651.206820	2463.082563
651.549807	2465.048613
651.892742	2460.461163
652.235626	2457.537294
652.578458	2463.057358
652.921238	2450.857765
653.263967	2466.132462
653.606644	2460.965279
653.949269	2461.015690
654.291843	2469.333594
654.634365	2463.460650
654.976836	2458.545525
655.319255	2456.856738
655.661622	2469.459623
656.003938	2455.949331
656.346203	2461.015690
656.688416	2470.165385
657.030577	2466.712194
657.372687	2452.143260
657.714746	2456.377829
658.056753	2464.393263
658.398708	2462.603654
658.740612	2465.225054
659.082465	2460.410752
659.424266	2454.915894
659.766016	2458.772377
660.107715	2456.529063
660.449362	2453.050667
660.790958	2464.645321
661.132503	2461.620629
661.473996	2453.756429
661.815438	2460.814044
662.156829	2463.687502
662.498168	2464.720938
662.839456	2462.679271
663.180693	2459.881431
663.521879	2464.242029
663.863013	2457.990998
664.204097	2455.293981
664.545129	2459.553756
664.886110	2464.922585
665.227040	2454.260544
665.567918	2466.737400
665.908746	2457.033179
666.249522	2453.252313
666.590248	2462.099538
666.930922	2464.947790
667.271545	2464.922585
667.612118	2462.099538
667.952639	2457.915381
668.293109	2461.217337
668.633528	2465.275465
668.973896	2461.091308
669.314213	2464.569704
669.654480	2463.107769
669.994695	2455.571244
670.334859	2461.645835
670.674973	2464.695733
671.015035	2460.209106
671.355047	2461.645835
671.695008	2457.108796
672.034918	2460.133488
672.374777	2463.032152
672.714585	2467.871660
673.054342	2456.629887
673.394049	2470.593883
673.733705	2465.628346
674.073310	2454.033692
674.412864	2464.922585
674.752368	2467.014663
675.091820	2467.644808
675.431223	2463.284210
675.770574	2460.007460
676.109875	2465.426700
676.449125	2458.873200
676.788324	2457.436471
677.127473	2450.807354
677.466571	2457.638117
677.805619	2458.520319
678.144616	2458.041410
678.483562	2470.669500
678.822458	2457.965792
679.161303	2464.796556
679.500098	2462.124744
679.838842	2455.924125
680.177535	2458.343879
680.516179	2460.360340
680.854771	2460.435958
681.193314	2460.965279
681.531805	2454.462190
681.870247	2458.091821
682.208638	2463.435444
682.546978	2466.434931
682.885268	2456.125771
683.223508	2456.705504
683.561697	2456.655092
683.899836	2462.124744
684.237925	2459.326904
684.575963	2451.361881
684.913951	2456.680298
685.251889	2465.300671
685.589776	2455.571244
685.927614	2460.259517
686.265401	2456.302212
686.603137	2466.787812
686.940824	2458.394290
687.278460	2465.401494
687.616046	2459.226081
687.953582	2464.468881
688.291068	2458.343879
688.628504	2463.964765
688.965889	2461.242542
689.303224	2462.477625
689.640510	2462.452419
689.977745	2458.343879
690.314930	2460.637604
690.652065	2461.771863
690.989150	2456.907150
691.326185	2459.780608
691.663170	2472.282669
692.000105	2457.108796
692.336990	2456.957562
692.673825	2459.200875
693.010610	2458.646348
693.347345	2457.965792
693.684030	2460.209106
694.020665	2466.157667
694.357251	2454.941100
694.693786	2464.191617
695.030272	2456.957562
695.366707	2469.182360
695.703093	2464.116000
696.039429	2458.873200
696.375716	2456.806327
696.711952	2462.603654
697.048139	2460.435958
697.384276	2461.217337
697.720363	2459.452933
698.056400	2458.091821
698.392388	2462.729683
698.728326	2454.789865
699.064214	2462.679271
699.400053	2464.771350
699.735842	2460.587192
700.071581	2459.452933
700.407270	2459.301698
700.742910	2453.579988
701.078501	2465.577935
701.414042	2463.410238
701.749533	2457.058385
702.084974	2460.385546
702.420366	2467.770837
702.755709	2461.923098
703.091002	2460.007460
703.426246	2464.720938
703.761440	2468.375775
704.096584	2458.873200
704.431679	2460.284723
704.766725	2455.167952
705.101721	2461.620629
705.436668	2451.941613
705.771565	2463.410238
706.106413	2457.789352
706.441212	2458.066615
706.775961	2460.914867
707.110661	2460.083077
707.445311	2458.066615
707.779913	2460.309929
708.114465	2455.092335
708.448967	2465.401494
708.783421	2461.217337
709.117825	2461.343365
709.452180	2459.528550
709.786485	2456.478652
710.120742	2458.343879
710.454949	2456.730710
710.789107	2459.251287
711.123216	2446.169492
711.457275	2456.277006
711.791286	2467.443162
712.125247	2463.158181
712.459159	2466.762606
712.793023	2463.889148
713.126837	2464.746144
713.460602	2457.663323
713.794318	2462.780094
714.127985	2457.688529
714.461602	2458.192644
714.795171	2458.318673
715.128691	2459.528550
715.462162	2462.956535
715.795584	2465.703963
716.128957	2468.955508
716.462281	2459.629373
716.795556	2466.409725
717.128782	2459.629373
717.461960	2462.830506
717.795088	2463.284210
718.128167	2463.460650
718.461198	2463.889148
718.794180	2448.034719
719.127113	2463.536267
719.459997	2460.788838
719.792833	2462.452419
720.125619	2457.134002
720.458357	2450.580502
720.791046	2459.553756
721.123686	2459.629373
721.456278	2464.015177
721.788821	2454.109310
722.121315	2459.604167
722.453761	2456.478652
722.786158	2465.199848
723.118506	2458.394290
723.450805	2454.033692
723.783056	2467.191104
724.115259	2456.856738
724.447412	2467.241515
724.779518	2468.678244
725.111574	2456.100565
725.443582	2454.638631
725.775542	2448.337188
726.107453	2461.267748
726.439315	2455.167952
726.771129	2461.318160
727.102895	2459.780608
727.434612	2462.704477
727.766281	2455.117540
728.097901	2469.131948
728.429473	2456.781121
728.760996	2460.007460
729.092471	2452.420523
729.423897	2459.906637
729.755276	2452.899433
730.086606	2455.092335
730.417887	2455.546038
730.749120	2452.143260
731.080305	2454.563013
731.411442	2462.326390
731.742530	2469.257977
732.073570	2450.731737
732.404562	2466.031638
732.735506	2456.150977
733.066401	2462.023921
733.397249	2462.225567
733.728048	2457.587706
734.058798	2459.352110
734.389501	2461.519806
734.720156	2462.578448
735.050762	2457.007973
735.381320	2462.477625
735.711831	2458.797583
736.042293	2464.166412
736.372707	2460.763633
736.703073	2448.790892
737.033391	2458.167438
737.363661	2456.403035
737.693883	2457.386060
738.024056	2456.100565
738.354182	2460.461163
738.684260	2450.126798
739.014290	2457.789352
739.344272	2462.805300
739.674207	2464.494087
740.004093	2461.948304
740.333931	2467.644808
740.663722	2461.267748
740.993464	2467.014663
741.323159	2463.863942
741.652806	2457.260031
741.982405	2466.434931
742.311956	2451.538321
742.641460	2465.829992
742.970915	2456.907150
743.300323	2454.638631
743.629683	2453.176696
743.958996	2449.521860
744.288260	2456.453446
744.617477	2457.940587
744.946647	2461.620629
745.275768	2462.099538
745.604842	2458.495113
745.933869	2458.570731
746.262847	2454.361367
746.591778	2465.804787
746.920662	2454.739454
747.249498	2466.308902
747.578286	2457.159208
747.907027	2453.882458
748.235720	2462.477625
748.564365	2457.814558
748.892963	2459.755402
749.221514	2466.308902
749.550017	2467.720425
749.878473	2460.889662
750.206881	2458.923612
750.535242	2450.278033
750.863555	2463.460650
751.191821	2461.066102
751.520039	2461.242542
751.848210	2450.076387
752.176334	2456.100565
752.504411	2458.671554
752.832440	2471.929788
753.160421	2456.075360
753.488356	2461.721452
753.816243	2459.528550
754.144082	2460.688015
754.471875	2458.066615
754.799620	2460.864456
755.127318	2460.234312
755.454969	2468.199335
755.782572	2461.746658
756.110129	2458.545525
756.437638	2459.528550
756.765100	2455.319187
757.092515	2453.655606
757.419882	2457.940587
757.747203	2457.512088
758.074477	2458.974023
758.401703	2452.798610
758.728882	2455.420010
759.056014	2456.529063
759.383099	2465.653552
759.710138	2455.495627
760.037129	2455.722479
760.364073	2461.418983
760.690970	2451.639144
761.017820	2462.452419
761.344623	2449.068156
761.671379	2461.267748
761.998088	2458.747171
762.324751	2465.073819
762.651366	2459.074846
762.977935	2461.822275
763.304456	2455.167952
763.630931	2457.663323
763.957359	2455.369598
764.283740	2462.149950
764.610074	2463.082563
764.936362	2471.198821
765.262602	2456.629887
765.588796	2460.990485
765.914943	2460.410752
766.241044	2458.797583
766.567097	2463.208592
766.893104	2462.981740
767.219064	2452.521346
767.544978	2462.200362
767.870845	2463.687502
768.196665	2465.451906
768.522438	2463.259004
768.848165	2457.159208
769.173846	2463.485856
769.499479	2450.479679
769.825066	2454.058898
770.150607	2453.882458
770.476101	2452.949844
770.801548	2454.941100
771.126949	2454.789865
771.452303	2458.343879
771.777611	2465.603140
772.102872	2461.948304
772.428087	2454.613425
772.753256	2465.703963
773.078378	2456.201388
773.403453	2460.284723
773.728482	2462.149950
774.053465	2462.855712
774.378401	2464.141206
774.703291	2451.462704
775.028135	2459.276492
775.352932	2449.925152
775.677683	2460.435958
776.002388	2455.319187
776.327046	2452.420523
776.651658	2461.519806
776.976224	2450.630913
777.300743	2455.319187
777.625216	2463.359827
777.949643	2457.386060
778.274024	2462.149950
778.598359	2458.419496
778.922647	2449.118567
779.246889	2448.891715
779.571086	2454.033692
779.895236	2463.460650
780.219339	2462.200362
780.543397	2457.234825
780.867409	2450.882971
781.191374	2449.799123
781.515294	2457.436471
781.839167	2453.075873
782.162995	2458.671554
782.486776	2461.595423
782.810511	2456.604681
783.134201	2455.722479
783.457844	2450.278033
783.781441	2461.771863
784.104993	2454.487396
784.428498	2467.922071
784.751958	2461.166925
785.075372	2454.890688
785.398739	2453.806840
785.722061	2455.798096
786.045337	2450.101592
786.368568	2458.570731
786.691752	2456.554269
787.014891	2463.385033
787.337983	2451.361881
787.661030	2459.049640
787.984031	2458.343879
788.306987	2458.822788
788.629897	2454.638631
788.952760	2459.856225
789.275579	2458.570731
789.598351	2451.336675
789.921078	2454.235338
790.243759	2461.923098
790.566395	2452.596963
790.888984	2466.006433
791.211529	2457.083590
791.534027	2455.092335
791.856480	2451.009000
792.178888	2453.983281
792.501249	2450.252827
792.823566	2460.209106
793.145836	2449.194185
793.468062	2457.688529
793.790241	2456.806327
794.112375	2453.605194
794.434464	2448.790892
794.756507	2453.857252
795.078505	2448.135542
795.400457	2455.949331
795.722364	2449.874740
796.044226	2457.864969
796.366042	2458.822788
796.687812	2457.940587
797.009538	2454.512602
797.331218	2458.142233
797.652852	2459.074846
797.974442	2462.175156
798.295986	2459.730196
798.617484	2461.620629
798.938938	2458.041410
799.260346	2449.975563
799.581709	2455.798096
799.903026	2456.377829
800.224299	2449.899946
800.545526	2457.335648
800.866708	2450.832560
801.187845	2455.268775
801.508936	2455.520833
801.829983	2465.502317
802.150984	2447.908690
802.471940	2466.838223
802.792851	2457.461677
803.113717	2458.419496
803.434538	2460.083077
803.755314	2460.435958
804.076045	2457.890175
804.396731	2455.571244
804.717372	2461.822275
805.037967	2464.872173
805.358518	2468.527010
805.679024	2456.075360
805.999485	2454.991512
806.319901	2457.386060
806.640272	2460.511575
806.960598	2454.487396
807.280879	2466.813017
807.601115	2457.134002
807.921306	2458.974023
808.241453	2459.906637
808.561554	2449.547065
808.881611	2457.864969
809.201623	2454.689042
809.521590	2459.503344
809.841513	2459.503344
810.161390	2459.301698
810.481223	2458.016204
810.801011	2460.284723
811.120755	2461.469394
811.440453	2454.915894
811.760107	2463.737913
812.079716	2447.505398
812.399281	2456.655092
812.718801	2450.555296
813.038276	2459.024435
813.357707	2454.638631
813.677093	2444.858792
813.996434	2458.469908
814.315731	2456.503858
814.634983	2459.024435
814.954191	2460.032665
815.273354	2457.411265
815.592473	2464.342852
815.911547	2463.511062
816.230577	2456.730710
816.549562	2460.763633
816.868502	2452.445729
817.187399	2455.117540
817.506250	2454.714248
817.825058	2454.058898
818.143821	2445.362908
818.462539	2453.958075
818.781213	2456.428240
819.099843	2463.964765
819.418429	2458.041410
819.736970	2467.468367
820.055466	2457.587706
820.373919	2465.477112
820.692327	2462.805300
821.010691	2456.655092
821.329011	2455.697273
821.647286	2456.806327
821.965517	2454.840277
822.283704	2456.251800
822.601847	2459.856225
822.919945	2459.226081
823.237999	2454.260544
823.556010	2452.319700
823.873976	2451.084617
824.191897	2457.411265
824.509775	2455.344392
824.827609	2456.453446
825.145398	2455.420010
825.463144	2456.201388
825.780845	2452.722992
826.098502	2453.731223
826.416116	2467.342338
826.733685	2460.032665
827.051210	2461.519806
827.368692	2463.485856
827.686129	2456.579475
828.003522	2456.277006
828.320872	2453.025462
828.638177	2458.217850
828.955439	2456.302212
829.272656	2461.494600
829.589830	2456.932356
829.906960	2453.731223
830.224046	2453.201902
830.541088	2454.210133
830.858086	2453.958075
831.175041	2453.403548
831.491952	2455.041923
831.808819	2447.606221
832.125642	2453.353137
832.442421	2463.359827
832.759157	2458.873200
833.075849	2458.394290
833.392497	2454.739454
833.709101	2469.207565
834.025662	2459.503344
834.342179	2462.528037
834.658653	2460.864456
834.975083	2449.295008
835.291469	2462.830506
835.607811	2458.847994
835.924110	2458.495113
836.240366	2449.143773
836.556578	2454.815071
836.872746	2459.730196
837.188871	2456.982767
837.504952	2451.412292
837.820990	2456.529063
838.136984	2455.848508
838.452935	2460.461163
838.768842	2452.420523
839.084706	2454.890688
839.400526	2454.336162
839.716303	2445.589760
840.032037	2457.461677
840.347727	2454.184927
840.663373	2456.907150
840.978977	2449.899946
841.294537	2457.033179
841.610054	2449.723506
841.925527	2455.369598
842.240957	2453.630400
842.556344	2452.017231
842.871687	2461.570217
843.186987	2452.949844
843.502244	2452.269288
843.817458	2450.782148
844.132629	2459.352110
844.447756	2449.975563
844.762840	2453.806840
845.077881	2457.386060
845.392879	2456.730710
845.707833	2463.132975
846.022745	2454.890688
846.337613	2452.899433
846.652438	2455.974537
846.967221	2451.966819
847.281960	2463.863942
847.596656	2456.932356
847.911309	2452.067642
848.225919	2465.401494
848.540485	2453.554783
848.855009	2466.762606
849.169490	2452.697787
849.483928	2461.771863
849.798323	2453.529577
850.112675	2455.571244
850.426984	2451.210646
850.741251	2459.377315
851.055474	2453.126285
851.369654	2455.218363
851.683792	2448.538835
851.997887	2451.966819
852.311938	2461.494600
852.625947	2463.712708
852.939914	2452.849021
853.253837	2457.562500
853.567718	2459.881431
853.881555	2450.404062
854.195350	2455.016717
854.509103	2457.461677
854.822812	2460.183900
855.136479	2460.864456
855.450103	2450.756942
855.763685	2456.831533
856.077224	2448.942127
856.390720	2448.034719
856.704173	2456.730710
857.017584	2457.562500
857.330953	2449.471448
857.644278	2448.185954
857.957561	2454.663837
858.270802	2460.965279
858.584000	2458.016204
858.897155	2445.413319
859.210268	2460.007460
859.523339	2456.251800
859.836367	2457.285237
860.149352	2453.882458
860.462295	2454.789865
860.775195	2456.075360
861.088054	2454.260544
861.400869	2453.227108
861.713642	2454.285750
862.026373	2453.882458
862.339062	2455.445215
862.651708	2456.881944
862.964312	2452.546552
863.276873	2456.150977
863.589392	2451.916408
863.901869	2458.016204
864.214303	2455.319187
864.526696	2453.302725
864.839045	2459.452933
865.151353	2454.386573
865.463619	2456.201388
865.775842	2462.528037
866.088023	2459.730196
866.400162	2452.521346
866.712258	2459.957048
867.024313	2458.646348
867.336325	2453.781635
867.648296	2455.646862
867.960224	2456.982767
868.272110	2452.823815
868.583954	2458.192644
868.895755	2448.513629
869.207515	2462.402008
869.519233	2453.302725
869.830909	2465.754375
870.142542	2452.269288
870.454134	2448.160748
870.765684	2463.637090
871.077191	2453.050667
871.388657	2454.915894
871.700081	2450.227621
872.011463	2456.982767
872.322803	2446.093875
872.634101	2448.337188
872.945357	2453.680812
873.256571	2458.873200
873.567744	2454.084104
873.878874	2459.251287
874.189963	2452.823815
874.501010	2453.101079
874.812015	2458.117027
875.122979	2457.663323
875.433900	2457.789352
875.744780	2456.251800
876.055618	2450.504885
876.366415	2466.233285
876.677169	2452.924638
876.987882	2454.840277
877.298554	2462.956535
877.609183	2451.311469
877.919771	2454.462190
878.230317	2452.118054
878.540822	2451.765173
878.851285	2450.504885
879.161707	2446.824842
879.472087	2452.344906
879.782425	2455.722479
880.092722	2454.109310
880.402977	2449.345419
880.713191	2459.352110
881.023363	2460.032665
881.333494	2459.553756
881.643583	2446.446756
881.953631	2455.344392
882.263637	2453.176696
882.573602	2463.057358
882.883526	2448.085131
883.193408	2457.789352
883.503248	2447.782662
883.813048	2456.503858
884.122806	2453.731223
884.432522	2458.117027
884.742197	2450.681325
885.051831	2453.882458
885.361424	2452.319700
885.670975	2450.580502
885.980485	2447.984308
886.289954	2464.494087
886.599382	2457.033179
886.908768	2451.336675
887.218113	2452.092848
887.527417	2455.193158
887.836680	2453.453960
888.145901	2456.226594
888.455082	2455.898919
888.764221	2456.050154
889.073319	2450.882971
889.382376	2453.655606
889.691392	2454.991512
890.000366	2453.101079
890.309300	2451.815585
890.618193	2452.521346
890.927044	2448.967333
891.235855	2454.789865
891.544625	2456.176183
891.853353	2452.773404
892.162041	2456.100565
892.470687	2450.404062
892.779293	2453.378342
893.087858	2450.076387
893.396381	2452.672581
893.704864	2457.335648
894.013306	2450.555296
894.321707	2455.067129
894.630068	2455.949331
894.938387	2454.840277
895.246665	2450.706531
895.554903	2451.084617
895.863100	2447.480192
896.171256	2457.436471
896.479371	2459.528550
896.787446	2457.965792
897.095480	2450.429267
897.403473	2456.554269
897.711425	2454.285750
898.019336	2449.647888
898.327207	2456.277006
898.635038	2456.579475
898.942827	2460.335135
899.250576	2455.167952
899.558284	2449.446242
899.865952	2448.059925
900.173579	2450.252827
900.481165	2458.293467
900.788711	2456.024948
901.096216	2458.999229
901.403681	2451.487910
901.711105	2450.908177
902.018489	2449.219390
902.325832	2455.571244
902.633135	2437.297062
902.940397	2448.160748
903.247619	2443.018771
903.554800	2453.731223
903.861941	2454.386573
904.169041	2458.167438
904.476101	2454.386573
904.783121	2450.328444
905.090100	2455.520833
905.397039	2453.655606
905.703938	2449.244596
906.010796	2453.630400
906.317614	2453.605194
906.624391	2453.403548
906.931129	2451.739967
907.237826	2453.000256
907.544483	2457.209619
907.851099	2456.680298
908.157675	2454.235338
908.464211	2457.436471
908.770707	2446.572785
909.077163	2456.856738
909.383578	2452.420523
909.689954	2452.722992
909.996289	2455.999742
910.302584	2463.863942
910.608839	2451.084617
910.915054	2453.504371
911.221229	2455.798096
911.527363	2451.790379
911.833458	2454.058898
912.139513	2448.110337
912.445527	2452.697787
912.751502	2457.436471
913.057436	2452.017231
913.363331	2453.706017
913.669186	2449.421037
913.975000	2446.623196
914.280775	2454.008487
914.586510	2456.503858
914.892205	2450.328444
915.197859	2450.530090
915.503475	2456.932356
915.809050	2455.898919
916.114585	2456.428240
916.420081	2450.857765
916.725536	2449.194185
917.030952	2453.428754
917.336328	2446.698813
917.641665	2446.799637
917.946961	2452.975050
918.252218	2446.824842
918.557435	2441.380396
918.862612	2455.470421
919.167750	2457.764146
919.472848	2462.603654
919.777906	2455.067129
920.082925	2450.051181
920.387904	2460.536781
920.692843	2448.992538
920.997743	2443.296035
921.302603	2460.713221
921.607423	2456.024948
921.912204	2444.505912
922.216946	2445.740994
922.521647	2445.993052
922.826310	2459.982254
923.130932	2455.772890
923.435516	2452.017231
923.740059	2449.118567
924.044564	2455.571244
924.349028	2453.201902
924.653454	2452.874227
924.957840	2463.889148
925.262186	2443.472475
925.566493	2457.386060
925.870761	2444.757969
926.174989	2459.125258
926.479178	2450.000769
926.783328	2452.319700
927.087438	2445.010027
927.391509	2455.924125
927.695541	2457.209619
927.999533	2448.211160
928.303486	2452.697787
928.607400	2452.168465
928.911275	2448.790892
929.215110	2455.848508
929.518906	2455.193158
929.822663	2449.345419
930.126381	2453.302725
930.430060	2457.990998
930.733699	2455.243569
931.037299	2456.024948
931.340861	2450.429267
931.644383	2451.210646
931.947866	2454.235338
932.251309	2450.177210
932.554714	2451.286263
932.858080	2453.907663
933.161407	2446.396344
933.464694	2452.168465
933.767943	2447.177723
934.071153	2445.085644
934.374323	2451.361881
934.677455	2453.151490
934.980548	2451.765173
935.283602	2451.563527
935.586617	2455.722479
935.889593	2458.394290
936.192530	2447.681838
936.495428	2455.394804
936.798287	2448.715275
937.101108	2454.512602
937.403890	2454.638631
937.706632	2458.117027
938.009336	2454.184927
938.312002	2444.052208
938.614628	2456.478652
938.917216	2448.538835
939.219765	2460.259517
939.522275	2456.176183
939.824747	2451.009000
940.127179	2451.437498
940.429573	2452.949844
940.731929	2452.470935
941.034246	2451.160235
941.336524	2457.738940
941.638763	2457.537294
941.940964	2453.983281
942.243126	2455.848508
942.545250	2457.335648
942.847335	2453.832046
943.149381	2451.588733
943.451389	2453.932869
943.753359	2454.915894
944.055290	2454.588219
944.357182	2445.791406
944.659036	2458.192644
944.960851	2457.461677
945.262628	2447.354163
945.564367	2456.503858
945.866067	2453.252313
946.167729	2450.454473
946.469352	2459.982254
946.770937	2452.269288
947.072484	2456.705504
947.373992	2457.612912
947.675462	2459.402521
947.976893	2452.067642
948.278286	2436.868563
948.579641	2450.504885
948.880958	2444.783175
949.182236	2458.117027
949.483476	2450.101592
949.784678	2455.167952
950.085841	2448.564040
950.386967	2451.739967
950.688054	2456.478652
950.989103	2455.924125
951.290114	2453.932869
951.591087	2452.218877
951.892021	2455.697273
952.192917	2449.471448
952.493776	2448.916921
952.794596	2455.823302
953.095378	2461.545012
953.396122	2447.908690
953.696828	2446.421550
953.997496	2454.689042
954.298126	2447.707044
954.598718	2455.949331
954.899272	2455.873713
955.199788	2463.385033
955.500266	2448.211160
955.800706	2454.663837
956.101108	2452.067642
956.401472	2448.185954
956.701798	2447.001283
957.002087	2447.354163
957.302337	2456.755915
957.602550	2455.747685
957.902724	2443.774944
958.202861	2454.058898
958.502960	2456.982767
958.803022	2454.613425
959.103045	2448.160748
959.403031	2452.798610
959.702979	2447.908690
960.002889	2442.237392
960.302762	2449.471448
960.602596	2455.848508
960.902393	2451.009000
961.202153	2450.152004
961.501875	2450.782148
961.801559	2453.126285
962.101205	2441.405602
962.400814	2448.690069
962.700385	2450.025975
962.999918	2448.816098
963.299414	2447.984308
963.598873	2452.949844
963.898293	2444.657146
964.197677	2456.529063
964.497022	2444.959615
964.796331	2445.035233
965.095601	2451.286263
965.394835	2457.360854
965.694030	2453.781635
965.993189	2451.815585
966.292309	2448.286777
966.591393	2450.983794
966.890439	2454.537808
967.189447	2448.110337
967.488419	2440.422577
967.787353	2451.235852
968.086249	2455.319187
968.385108	2454.134515
968.683930	2447.606221
968.982714	2449.269802
969.281462	2444.228648
969.580172	2454.638631
969.878844	2451.513115
970.177480	2453.176696
970.476078	2454.512602
970.774639	2450.378856
971.073162	2454.915894
971.371649	2451.992025
971.670098	2454.235338
971.968510	2454.588219
972.266885	2447.555810
972.565223	2449.219390
972.863524	2444.808381
973.161788	2450.227621
973.460014	2452.975050
973.758204	2448.261571
974.056356	2452.697787
974.354471	2446.295521
974.652550	2449.547065
974.950591	2453.882458
975.248595	2453.327931
975.546563	2456.957562
975.844493	2454.512602
976.142386	2449.824329
976.440243	2451.891202
976.738062	2454.462190
977.035845	2449.874740
977.333590	2451.538321
977.631299	2454.411779
977.928971	2449.345419
978.226606	2451.941613
978.524204	2450.882971
978.821765	2447.984308
979.119290	2452.647375
979.416777	2454.336162
979.714228	2451.412292
980.011642	2450.177210
980.309020	2447.152517
980.606360	2449.849535
980.903664	2463.284210
981.200931	2447.807867
981.498162	2454.058898
981.795356	2450.832560
982.092513	2449.244596
982.389633	2461.368571
982.686717	2445.589760
982.983764	2456.629887
983.280775	2453.832046
983.577749	2452.521346
983.874686	2452.672581
984.171587	2454.789865
984.468451	2453.302725
984.765279	2453.428754
985.062070	2450.807354
985.358824	2449.950358
985.655543	2458.772377
985.952224	2446.799637
986.248869	2450.555296
986.545478	2441.682865
986.842050	2453.958075
987.138586	2452.823815
987.435086	2453.176696
987.731549	2446.270315
988.027975	2448.715275
988.324366	2447.782662
988.620719	2451.135029
988.917037	2449.244596
989.213318	2456.554269
989.509563	2446.648402
989.805772	2452.596963
990.101944	2450.278033
990.398080	2457.486883
990.694180	2443.396858
990.990244	2460.511575
991.286271	2442.287804
991.582262	2460.788838
991.878217	2452.344906
992.174136	2441.380396
992.470019	2448.664863
992.765865	2437.952412
993.061676	2452.370112
993.357450	2450.706531
993.653188	2439.968873
993.948890	2450.152004
994.244556	2457.184413
994.540186	2449.925152
994.835780	2456.150977
995.131337	2445.287290
995.426859	2460.057871
995.722345	2447.933896
996.017795	2456.050154
996.313208	2448.664863
996.608586	2453.706017
996.903928	2449.698300
997.199234	2447.555810
997.494504	2453.731223
997.789738	2456.932356
998.084936	2446.774431
998.380099	2448.538835
998.675225	2455.798096
998.970316	2444.984821
999.265371	2451.790379
999.560390	2453.731223
999.855373	2453.554783
1000.150320	2449.547065
1000.445232	2445.766200
1000.740108	2450.328444
1001.034948	2460.158694
1001.329752	2444.153031
1001.624521	2455.344392
1001.919254	2445.917435
1002.213951	2459.478138
1002.508613	2452.344906
1002.803239	2457.007973
1003.097829	2461.166925
1003.392384	2450.404062
1003.686903	2449.899946
1003.981386	2456.932356
1004.275834	2448.664863
1004.570246	2444.430294
1004.864623	2454.638631
1005.158964	2450.227621
1005.453270	2452.496140
1005.747540	2451.235852
1006.041775	2448.690069
1006.335974	2452.168465
1006.630138	2449.874740
1006.924266	2455.394804
1007.218359	2463.006946
1007.512416	2447.354163
1007.806438	2451.714762
1008.100425	2442.917948
1008.394376	2445.236879
1008.688292	2451.613938
1008.982172	2451.336675
1009.276017	2447.833073
1009.569827	2447.757456
1009.863602	2451.437498
1010.157341	2455.546038
1010.451045	2452.118054
1010.744714	2446.497167
1011.038347	2457.890175
1011.331945	2457.688529
1011.625508	2453.277519
1011.919036	2458.621142
1012.212528	2460.057871
1012.505986	2450.126798
1012.799408	2449.673094
1013.092795	2450.404062
1013.386147	2455.697273
1013.679464	2458.671554
1013.972745	2443.094388
1014.265992	2451.311469
1014.559204	2448.160748
1014.852380	2454.890688
1015.145521	2452.571758
1015.438628	2445.564554
1015.731699	2453.756429
1016.024736	2448.059925
1016.317737	2441.178750
1016.610703	2451.311469
1016.903635	2465.653552
1017.196531	2467.342338
1017.489393	2454.361367
1017.782219	2447.656633
1018.075011	2452.849021
1018.367768	2448.211160
1018.660490	2447.883485
1018.953177	2447.883485
1019.245829	2447.883485
