Dividing Wavelength (nm)	Counts (n)	Slit_number_2_of_a_total_of_40	
326.493990	2158.622077
326.888308	2158.622077
327.282561	2158.622077
327.676750	2138.877558
328.070874	2130.475635
328.464933	2134.844635
328.858929	2139.465692
329.252859	2162.739019
329.646726	2179.458846
330.040528	2181.643346
330.434265	2214.158788
330.827938	2221.552481
331.221547	2257.176635
331.615091	2251.295288
332.008571	2277.341250
332.401986	2316.326173
332.795338	2327.500731
333.188625	2341.952038
333.581847	2374.551500
333.975006	2390.263096
334.368100	2398.749038
334.761129	2418.241500
335.154095	2440.002481
335.546996	2454.369769
335.939833	2466.972654
336.332606	2490.750096
336.725315	2481.255923
337.117960	2505.201404
337.510540	2507.721981
337.903056	2520.913000
338.295508	2524.357788
338.687896	2544.438385
339.080220	2524.945923
339.472480	2550.571788
339.864676	2550.067673
340.256807	2545.446615
340.648875	2541.245654
341.040879	2544.606423
341.432818	2564.182904
341.824694	2560.486058
342.216506	2554.100596
342.608253	2564.855058
342.999937	2563.258692
343.391557	2548.303269
343.783113	2553.008346
344.174605	2536.876654
344.566033	2533.179808
344.957397	2546.622885
345.348697	2554.184615
345.739934	2551.748058
346.131106	2541.245654
346.522215	2547.631115
346.913260	2538.220962
347.304241	2532.255596
347.695159	2530.995308
348.086012	2541.749769
348.476802	2532.591673
348.867528	2538.389000
349.258191	2528.222673
349.648789	2533.767942
350.039324	2523.685635
350.429796	2525.366019
350.820203	2513.939404
351.210548	2528.306692
351.600828	2529.062865
351.991045	2524.693865
352.381198	2515.955865
352.771288	2525.450038
353.161314	2532.843731
353.551276	2512.343038
353.941175	2519.232615
354.331010	2524.861904
354.720782	2521.417115
355.110490	2529.987077
355.500135	2513.603327
355.889717	2532.423635
356.279235	2534.020000
356.668689	2533.011769
357.058080	2514.359500
357.447408	2530.995308
357.836672	2530.071096
358.225873	2531.163346
358.615010	2540.489481
359.004084	2540.573500
359.393095	2533.851962
359.782043	2523.685635
360.170927	2521.417115
360.559748	2530.155115
360.948505	2525.029942
361.337199	2545.866712
361.725830	2538.304981
362.114398	2535.448327
362.502903	2517.384192
362.891344	2527.718558
363.279722	2530.995308
363.668037	2545.782692
364.056289	2535.532346
364.444478	2544.354365
364.832603	2531.163346
365.220665	2544.186327
365.608665	2539.817327
365.996601	2532.171577
366.384474	2540.657519
366.772284	2521.249077
367.160031	2542.001827
367.547715	2537.632827
367.935336	2533.851962
368.322893	2538.389000
368.710388	2519.736731
369.097820	2542.253885
369.485189	2529.987077
369.872495	2530.575212
370.259738	2541.665750
370.646918	2536.204500
371.034035	2541.665750
371.421090	2538.389000
371.808081	2549.395519
372.195010	2538.389000
372.581875	2536.456558
372.968678	2543.010058
373.355418	2545.614654
373.742096	2552.084135
374.128710	2539.733308
374.515262	2553.344423
374.901751	2532.171577
375.288177	2552.924327
375.674540	2538.136942
376.060841	2543.094077
376.447079	2539.229192
376.833254	2555.949019
377.219367	2537.128712
377.605417	2544.102308
377.991404	2549.479538
378.377329	2556.957250
378.763191	2546.874942
379.148991	2560.906154
379.534727	2545.782692
379.920402	2535.952442
380.306013	2538.641058
380.691563	2540.657519
381.077049	2539.985365
381.462474	2543.094077
381.847835	2553.008346
382.233134	2542.926038
382.618371	2535.112250
383.003545	2548.807385
383.388657	2545.698673
383.773706	2550.739827
384.158693	2540.657519
384.543618	2532.675692
384.928480	2537.632827
385.313280	2562.082423
385.698017	2548.891404
386.082692	2559.057731
386.467305	2551.243942
386.851856	2551.327962
387.236344	2539.649288
387.620770	2544.102308
388.005133	2549.899635
388.389435	2555.024808
388.773674	2550.907865
389.157851	2541.329673
389.541965	2552.672269
389.926018	2550.403750
390.310008	2540.657519
390.693936	2553.596481
391.077802	2548.555327
391.461606	2545.614654
391.845348	2559.813904
392.229027	2550.655808
392.612645	2542.505942
392.996200	2541.497712
393.379694	2555.360885
393.763125	2558.301558
394.146494	2558.805673
394.529801	2556.621173
394.913047	2537.632827
395.296230	2555.276865
395.679351	2560.822135
396.062410	2554.772750
396.445408	2561.830365
396.828343	2542.673981
397.211217	2548.219250
397.594028	2559.561846
397.976778	2557.881462
398.359466	2547.295038
398.742092	2557.377346
399.124656	2562.502519
399.507158	2552.504231
399.889598	2566.871519
400.271977	2564.098885
400.654294	2556.117058
401.036549	2555.780981
401.418742	2554.016577
401.800874	2555.024808
402.182944	2547.631115
402.564952	2579.726462
402.946898	2555.780981
403.328783	2565.443192
403.710606	2554.352654
404.092367	2559.057731
404.474067	2556.873231
404.855705	2560.234000
405.237282	2563.594769
405.618797	2565.779269
406.000250	2548.555327
406.381642	2552.420212
406.762972	2559.477827
407.144240	2567.963769
407.525447	2570.904442
407.906593	2559.561846
408.287677	2552.084135
408.668700	2566.535442
409.049661	2551.748058
409.430560	2553.344423
409.811399	2550.151692
410.192176	2565.191135
410.572891	2563.510750
410.953545	2563.594769
411.334138	2551.748058
411.714669	2569.140038
412.095139	2553.176385
412.475547	2572.080712
412.855894	2559.225769
413.236180	2561.074192
413.616405	2563.090654
413.996568	2553.848538
414.376670	2559.813904
414.756711	2577.625981
415.136691	2562.502519
415.516609	2546.874942
415.896466	2562.082423
416.276262	2567.879750
416.655997	2556.621173
417.035670	2564.939077
417.415283	2576.449712
417.794834	2572.080712
418.174324	2565.527212
418.553753	2564.266923
418.933121	2559.141750
419.312428	2566.619462
419.691674	2556.705192
420.070859	2573.256981
420.449983	2558.721654
420.829045	2558.721654
421.208047	2570.652385
421.586988	2571.492577
421.965867	2566.367404
422.344686	2569.476115
422.723444	2566.367404
423.102141	2559.309788
423.480777	2560.486058
423.859352	2562.586538
424.237866	2579.306365
424.616319	2547.295038
424.994712	2565.275154
425.373044	2556.873231
425.751314	2552.672269
426.129524	2575.693538
426.507673	2555.612942
426.885762	2556.285096
427.263789	2573.509038
427.641756	2563.678788
428.019662	2571.660615
428.397508	2578.046077
428.775292	2579.222346
429.153016	2561.410269
429.530679	2556.453135
429.908282	2563.090654
430.285824	2561.158212
430.663305	2568.972000
431.040726	2565.695250
431.418086	2560.738115
431.795385	2561.158212
432.172624	2568.383865
432.549802	2568.972000
432.926920	2557.125288
433.303977	2566.115346
433.680974	2565.359173
434.057910	2570.484346
434.434786	2571.156500
434.811601	2562.166442
435.188355	2584.179481
435.565050	2562.082423
435.941683	2563.426731
436.318257	2569.560135
436.694770	2570.988462
437.071222	2585.187712
437.447614	2585.439769
437.823946	2563.174673
438.200218	2558.385577
438.576429	2571.408558
438.952580	2562.166442
439.328670	2576.281673
439.704700	2574.097173
440.080670	2569.896212
440.456580	2562.082423
440.832429	2572.668846
441.208218	2566.451423
441.583947	2570.568365
441.959616	2578.466173
442.335224	2566.703481
442.710773	2573.845115
443.086261	2569.476115
443.461689	2559.477827
443.837057	2574.181192
444.212365	2555.612942
444.587612	2577.541962
444.962800	2573.172962
445.337927	2557.629404
445.712995	2557.293327
446.088002	2571.072481
446.462949	2570.904442
446.837837	2571.240519
447.212664	2571.324538
447.587431	2581.490865
447.962139	2566.451423
448.336786	2572.836885
448.711374	2580.314596
449.085901	2594.765904
449.460369	2559.645865
449.834776	2573.593058
450.209124	2583.507327
450.583412	2573.256981
450.957640	2576.953827
451.331808	2573.256981
451.705917	2594.681885
452.079965	2578.718231
452.453954	2583.171250
452.827883	2569.224058
453.201752	2564.098885
453.575562	2577.878038
453.949311	2587.708288
454.323001	2567.039558
454.696632	2591.825231
455.070202	2562.250462
455.443713	2582.331058
455.817164	2570.484346
456.190556	2564.855058
456.563888	2568.299846
456.937160	2577.205885
457.310373	2584.851635
457.683526	2571.408558
458.056619	2566.283385
458.429653	2572.164731
458.802628	2577.205885
459.175542	2575.357462
459.548398	2565.947308
459.921194	2580.986750
460.293930	2580.818712
460.666607	2566.619462
461.039224	2574.433250
461.411782	2560.065962
461.784280	2573.425019
462.156719	2573.677077
462.529099	2567.207596
462.901419	2589.472692
463.273680	2572.248750
463.645882	2585.439769
464.018024	2568.467885
464.390106	2581.154788
464.762130	2571.072481
465.134094	2575.189423
465.505999	2571.492577
465.877845	2573.761096
466.249631	2582.415077
466.621358	2573.256981
466.993026	2569.560135
467.364634	2591.489154
467.736184	2569.980231
468.107674	2590.396904
468.479105	2575.441481
468.850477	2586.448000
469.221790	2570.652385
469.593043	2594.765904
469.964238	2588.380442
470.335373	2577.962058
470.706449	2587.036135
471.077467	2573.425019
471.448425	2587.036135
471.819324	2560.486058
472.190164	2582.079000
472.560945	2564.098885
472.931667	2590.228865
473.302330	2580.566654
473.672934	2572.416788
474.043479	2579.726462
474.413965	2588.632500
474.784393	2571.912673
475.154761	2570.484346
475.525070	2567.963769
475.895321	2577.457942
476.265513	2586.111923
476.635645	2564.687019
477.005719	2576.869808
477.375734	2590.732981
477.745691	2567.123577
478.115588	2574.265212
478.485427	2573.929135
478.855207	2595.354038
479.224928	2582.079000
479.594591	2576.533731
479.964194	2578.382154
480.333739	2570.736404
480.703226	2574.265212
481.072653	2572.500808
481.442022	2575.693538
481.811333	2570.064250
482.180584	2575.945596
482.549777	2582.751154
482.918912	2584.599577
483.287988	2586.784077
483.657005	2580.566654
484.025964	2562.754577
484.394864	2585.103692
484.763706	2574.937365
485.132489	2572.920904
485.501213	2584.851635
485.869879	2586.868096
486.238487	2581.658904
486.607036	2573.004923
486.975527	2584.935654
487.343959	2576.113635
487.712333	2589.556712
488.080648	2570.148269
488.448905	2564.182904
488.817104	2569.392096
489.185244	2571.156500
489.553326	2607.032712
489.921350	2569.644154
490.289315	2580.650673
490.657222	2603.251846
491.025070	2566.031327
491.392861	2586.868096
491.760593	2583.255269
492.128267	2576.869808
492.495883	2570.988462
492.863440	2579.474404
493.230939	2579.306365
493.598380	2583.003212
493.965763	2586.952115
494.333088	2591.321115
494.700354	2577.121865
495.067563	2575.273442
495.434713	2576.869808
495.801805	2568.887981
496.168839	2574.181192
496.535815	2584.935654
496.902733	2582.583115
497.269593	2592.329346
497.636395	2576.365692
498.003139	2565.023096
498.369825	2577.625981
498.736453	2574.601288
499.103023	2586.195942
499.469535	2573.341000
499.835989	2566.787500
500.202385	2565.695250
500.568723	2574.097173
500.935003	2591.909250
501.301226	2580.986750
501.667390	2576.449712
502.033497	2588.716519
502.399546	2574.097173
502.765537	2570.484346
503.131470	2584.851635
503.497345	2581.406846
503.863163	2581.574885
504.228923	2576.113635
504.594625	2598.546769
504.960269	2576.449712
505.325856	2580.566654
505.691385	2578.886269
506.056856	2579.810481
506.422270	2569.560135
506.787625	2567.879750
507.152924	2575.021385
507.518164	2586.532019
507.883347	2576.281673
508.248472	2595.690115
508.613540	2585.019673
508.978550	2591.405135
509.343503	2574.013154
509.708398	2586.616038
510.073236	2595.522077
510.438016	2580.566654
510.802738	2589.892788
511.167403	2585.775846
511.532010	2572.248750
511.896561	2594.513846
512.261053	2560.738115
512.625488	2563.426731
512.989866	2587.876327
513.354186	2582.163019
513.718449	2583.759385
514.082655	2586.279962
514.446803	2578.466173
514.810894	2586.868096
515.174927	2588.380442
515.538904	2584.095462
515.902822	2578.550192
516.266684	2589.136615
516.630488	2587.120154
516.994235	2583.255269
517.357925	2594.513846
517.721558	2588.044365
518.085133	2597.454519
518.448651	2590.144846
518.812112	2597.118442
519.175516	2573.845115
519.538863	2563.342712
519.902152	2568.383865
520.265385	2578.382154
520.628560	2577.962058
520.991678	2589.388673
521.354739	2568.047788
521.717743	2575.357462
522.080690	2585.187712
522.443580	2579.390385
522.806413	2593.253558
523.169189	2580.314596
523.531908	2592.917481
523.894569	2584.011442
524.257174	2576.281673
524.619722	2579.894500
524.982213	2589.808769
525.344647	2581.574885
525.707025	2563.846827
526.069345	2584.683596
526.431608	2589.304654
526.793815	2580.062538
527.155964	2580.818712
527.518057	2572.416788
527.880093	2580.902731
528.242072	2572.500808
528.603995	2586.952115
528.965860	2594.513846
529.327669	2584.347519
529.689421	2581.322827
530.051117	2583.927423
530.412755	2567.711712
530.774337	2589.388673
531.135862	2583.759385
531.497331	2590.396904
531.858743	2586.448000
532.220098	2584.431538
532.581396	2566.199365
532.942638	2589.388673
533.303824	2574.433250
533.664953	2587.036135
534.026025	2579.642442
534.387040	2587.792308
534.747999	2570.904442
535.108902	2589.640731
535.469748	2590.901019
535.830537	2587.960346
536.191270	2589.556712
536.551947	2563.342712
536.912567	2574.853346
537.273131	2597.622558
537.633638	2584.851635
537.994089	2584.935654
538.354483	2587.624269
538.714821	2584.431538
539.075103	2575.525500
539.435328	2572.164731
539.795497	2572.920904
540.155609	2586.616038
540.515665	2577.710000
540.875665	2571.576596
541.235609	2571.072481
541.595496	2570.148269
541.955328	2580.734692
542.315102	2569.224058
542.674821	2585.775846
543.034483	2577.794019
543.394090	2586.027904
543.753640	2584.515558
544.113134	2578.634212
544.472571	2588.464462
544.831953	2599.386962
545.191278	2584.599577
545.550548	2602.579692
545.909761	2584.767615
546.268918	2583.171250
546.628019	2583.507327
546.987064	2597.874615
547.346053	2578.886269
547.704986	2587.036135
548.063863	2582.919192
548.422684	2578.550192
548.781449	2574.349231
549.140158	2576.281673
549.498811	2589.640731
549.857408	2588.212404
550.215949	2577.205885
550.574434	2582.415077
550.932864	2588.716519
551.291237	2578.046077
551.649555	2582.163019
552.007817	2582.079000
552.366022	2559.981942
552.724173	2579.306365
553.082267	2596.782365
553.440305	2585.775846
553.798288	2584.599577
554.156215	2585.523788
554.514086	2576.449712
554.871902	2583.759385
555.229661	2572.584827
555.587365	2595.690115
555.945014	2575.357462
556.302606	2598.882846
556.660143	2578.634212
557.017625	2578.802250
557.375050	2588.968577
557.732421	2576.617750
558.089735	2577.457942
558.446994	2578.886269
558.804197	2590.144846
559.161345	2587.120154
559.518437	2580.650673
559.875474	2580.986750
560.232455	2574.769327
560.589381	2575.021385
560.946251	2585.691827
561.303065	2566.535442
561.659825	2589.388673
562.016528	2571.996692
562.373177	2571.240519
562.729770	2587.456231
563.086307	2588.968577
563.442789	2579.810481
563.799216	2579.390385
564.155587	2584.347519
564.511904	2582.667135
564.868164	2586.363981
565.224370	2583.255269
565.580520	2598.378731
565.936615	2577.373923
566.292654	2591.489154
566.648638	2589.388673
567.004567	2580.314596
567.360441	2578.634212
567.716260	2570.736404
568.072023	2587.540250
568.427732	2562.166442
568.783385	2578.886269
569.138982	2591.825231
569.494525	2575.945596
569.850013	2582.667135
570.205445	2577.710000
570.560823	2588.716519
570.916145	2573.509038
571.271412	2592.833462
571.626625	2590.648962
571.981782	2567.375635
572.336884	2591.657192
572.691931	2580.986750
573.046923	2575.441481
573.401860	2589.892788
573.756743	2585.691827
574.111570	2570.316308
574.466342	2564.182904
574.821059	2584.011442
575.175722	2583.003212
575.530330	2584.767615
575.884882	2584.095462
576.239380	2587.960346
576.593823	2581.826942
576.948211	2581.154788
577.302544	2578.214115
577.656823	2590.060827
578.011047	2601.403423
578.365216	2583.423308
578.719330	2569.896212
579.073389	2575.861577
579.427394	2605.520365
579.781344	2583.507327
580.135239	2574.349231
580.489080	2575.777558
580.842866	2584.935654
581.196597	2591.573173
581.550273	2580.230577
581.903895	2597.790596
582.257463	2583.759385
582.610975	2590.312885
582.964434	2597.790596
583.317837	2574.769327
583.671186	2585.355750
584.024481	2586.195942
584.377721	2590.564942
584.730906	2568.047788
585.084037	2570.988462
585.437113	2589.640731
585.790135	2566.199365
586.143103	2583.423308
586.496016	2580.398615
586.848874	2587.288192
587.201679	2589.388673
587.554428	2589.976808
587.907124	2586.784077
588.259765	2581.742923
588.612352	2581.826942
588.964884	2595.606096
589.317362	2572.248750
589.669786	2579.474404
590.022155	2573.593058
590.374470	2582.751154
590.726731	2570.652385
591.078937	2587.876327
591.431090	2597.286481
591.783188	2591.153077
592.135232	2576.365692
592.487222	2591.825231
592.839157	2576.449712
593.191038	2571.744635
593.542866	2574.349231
593.894639	2575.189423
594.246358	2576.197654
594.598022	2567.039558
594.949633	2587.708288
595.301190	2583.591346
595.652692	2596.026192
596.004141	2571.912673
596.355535	2592.749442
596.706876	2577.121865
597.058162	2569.896212
597.409395	2567.459654
597.760573	2567.459654
598.111698	2575.441481
598.462768	2580.818712
598.813785	2581.574885
599.164748	2588.380442
599.515657	2573.172962
599.866511	2575.777558
600.217312	2585.355750
600.568060	2581.154788
600.918753	2596.614327
601.269392	2583.255269
601.619978	2595.942173
601.970510	2595.101981
602.320988	2588.716519
602.671412	2590.228865
603.021783	2572.836885
603.372100	2582.667135
603.722363	2579.390385
604.072572	2575.441481
604.422728	2578.802250
604.772830	2568.972000
605.122878	2577.289904
605.472872	2578.298135
605.822813	2582.751154
606.172701	2584.347519
606.522534	2573.004923
606.872314	2580.230577
607.222041	2581.658904
607.571714	2582.835173
607.921333	2575.525500
608.270899	2573.929135
608.620411	2565.275154
608.969870	2582.163019
609.319276	2584.095462
609.668627	2579.222346
610.017926	2605.352327
610.367171	2581.742923
610.716362	2582.667135
611.065500	2597.370500
611.414585	2577.457942
611.763616	2577.457942
612.112594	2579.222346
612.461518	2586.279962
612.810389	2569.812192
613.159207	2571.828654
613.507971	2584.935654
613.856682	2588.296423
614.205340	2580.986750
614.553945	2577.037846
614.902496	2586.111923
615.250994	2588.380442
615.599439	2576.197654
615.947830	2586.279962
616.296169	2594.765904
616.644454	2585.187712
616.992686	2599.639019
617.340864	2580.902731
617.688990	2582.919192
618.037063	2586.279962
618.385082	2590.564942
618.733048	2572.752865
619.080961	2590.564942
619.428821	2582.919192
619.776628	2574.181192
620.124382	2576.953827
620.472083	2584.179481
620.819731	2592.497385
621.167326	2574.853346
621.514868	2574.349231
621.862357	2581.826942
622.209793	2577.373923
622.557176	2582.919192
622.904506	2576.029615
623.251783	2575.021385
623.599007	2588.128385
623.946179	2578.550192
624.293297	2584.179481
624.640363	2573.761096
624.987376	2571.744635
625.334336	2576.785788
625.681243	2582.835173
626.028097	2578.970288
626.374899	2586.363981
626.721647	2586.700058
627.068343	2584.683596
627.414987	2583.171250
627.761577	2572.164731
628.108115	2586.700058
628.454600	2581.238808
628.801032	2581.658904
629.147412	2575.777558
629.493739	2587.708288
629.840014	2588.296423
630.186236	2582.919192
630.532405	2576.281673
630.878521	2567.459654
631.224585	2596.026192
631.570597	2579.390385
631.916556	2578.634212
632.262462	2597.286481
632.608316	2599.302942
632.954117	2583.087231
633.299866	2581.238808
633.645562	2590.312885
633.991206	2581.070769
634.336797	2584.935654
634.682336	2577.878038
635.027823	2580.902731
635.373257	2603.839981
635.718639	2582.079000
636.063968	2581.154788
636.409245	2586.363981
636.754470	2557.713423
637.099642	2572.920904
637.444762	2574.601288
637.789829	2570.904442
638.134845	2571.324538
638.479808	2601.739500
638.824719	2590.312885
639.169577	2569.728173
639.514383	2582.667135
639.859137	2582.835173
640.203839	2578.298135
640.548489	2592.917481
640.893086	2582.835173
641.237632	2586.532019
641.582125	2586.784077
641.926566	2589.304654
642.270955	2584.263500
642.615292	2562.250462
642.959576	2579.642442
643.303809	2579.390385
643.647990	2582.499096
643.992118	2569.812192
644.336195	2584.263500
644.680219	2583.087231
645.024192	2584.599577
645.368112	2584.683596
645.711981	2583.003212
646.055797	2590.732981
646.399562	2564.350942
646.743274	2565.191135
647.086935	2599.975096
647.430544	2580.146558
647.774101	2576.701769
648.117606	2576.029615
648.461059	2582.415077
648.804460	2600.899308
649.147810	2569.056019
649.491108	2583.843404
649.834354	2589.220635
650.177548	2580.566654
650.520690	2573.593058
650.863781	2575.525500
651.206820	2576.617750
651.549807	2573.929135
651.892742	2577.710000
652.235626	2575.441481
652.578458	2576.197654
652.921238	2581.994981
653.263967	2588.212404
653.606644	2589.388673
653.949269	2581.406846
654.291843	2582.583115
654.634365	2593.841692
654.976836	2579.894500
655.319255	2589.892788
655.661622	2581.994981
656.003938	2570.736404
656.346203	2594.345808
656.688416	2586.195942
657.030577	2586.700058
657.372687	2576.785788
657.714746	2564.518981
658.056753	2583.087231
658.398708	2594.933942
658.740612	2565.527212
659.082465	2583.255269
659.424266	2574.853346
659.766016	2587.120154
660.107715	2579.978519
660.449362	2574.937365
660.790958	2578.886269
661.132503	2589.220635
661.473996	2580.818712
661.815438	2577.457942
662.156829	2601.151365
662.498168	2575.525500
662.839456	2586.363981
663.180693	2599.470981
663.521879	2576.617750
663.863013	2572.080712
664.204097	2593.169538
664.545129	2589.136615
664.886110	2584.179481
665.227040	2585.607808
665.567918	2590.732981
665.908746	2588.464462
666.249522	2582.919192
666.590248	2568.467885
666.930922	2585.019673
667.271545	2589.556712
667.612118	2588.212404
667.952639	2581.994981
668.293109	2584.431538
668.633528	2588.800538
668.973896	2585.775846
669.314213	2594.093750
669.654480	2588.968577
669.994695	2583.339288
670.334859	2574.685308
670.674973	2589.472692
671.015035	2575.777558
671.355047	2585.439769
671.695008	2586.195942
672.034918	2585.523788
672.374777	2574.685308
672.714585	2583.591346
673.054342	2583.507327
673.394049	2600.479212
673.733705	2587.792308
674.073310	2591.741212
674.412864	2592.077288
674.752368	2574.097173
675.091820	2598.966865
675.431223	2581.238808
675.770574	2585.523788
676.109875	2589.892788
676.449125	2585.019673
676.788324	2576.449712
677.127473	2578.718231
677.466571	2584.179481
677.805619	2585.691827
678.144616	2585.943885
678.483562	2582.751154
678.822458	2578.382154
679.161303	2581.994981
679.500098	2575.693538
679.838842	2577.037846
680.177535	2579.810481
680.516179	2580.902731
680.854771	2572.416788
681.193314	2588.968577
681.531805	2574.181192
681.870247	2563.426731
682.208638	2597.118442
682.546978	2581.238808
682.885268	2587.708288
683.223508	2581.574885
683.561697	2575.357462
683.899836	2578.802250
684.237925	2588.800538
684.575963	2574.433250
684.913951	2581.574885
685.251889	2588.128385
685.589776	2581.406846
685.927614	2579.306365
686.265401	2573.593058
686.603137	2580.314596
686.940824	2561.746346
687.278460	2573.172962
687.616046	2585.271731
687.953582	2587.456231
688.291068	2592.749442
688.628504	2580.314596
688.965889	2585.103692
689.303224	2579.642442
689.640510	2598.630788
689.977745	2590.312885
690.314930	2588.212404
690.652065	2603.167827
690.989150	2582.751154
691.326185	2588.464462
691.663170	2583.255269
692.000105	2586.700058
692.336990	2580.314596
692.673825	2585.607808
693.010610	2569.392096
693.347345	2579.474404
693.684030	2584.683596
694.020665	2581.994981
694.357251	2593.925712
694.693786	2597.622558
695.030272	2578.970288
695.366707	2576.365692
695.703093	2574.769327
696.039429	2594.429827
696.375716	2592.161308
696.711952	2581.574885
697.048139	2589.304654
697.384276	2599.218923
697.720363	2582.247038
698.056400	2575.357462
698.392388	2583.759385
698.728326	2576.785788
699.064214	2595.774135
699.400053	2603.335865
699.735842	2579.642442
700.071581	2584.935654
700.407270	2586.448000
700.742910	2581.742923
701.078501	2572.752865
701.414042	2588.296423
701.749533	2586.279962
702.084974	2578.382154
702.420366	2588.632500
702.755709	2590.396904
703.091002	2582.415077
703.426246	2597.034423
703.761440	2579.222346
704.096584	2590.564942
704.431679	2579.642442
704.766725	2588.632500
705.101721	2583.087231
705.436668	2594.009731
705.771565	2591.489154
706.106413	2585.859865
706.441212	2586.363981
706.775961	2574.769327
707.110661	2595.017962
707.445311	2580.482635
707.779913	2590.564942
708.114465	2569.728173
708.448967	2583.339288
708.783421	2591.993269
709.117825	2581.742923
709.452180	2587.876327
709.786485	2589.640731
710.120742	2567.207596
710.454949	2591.321115
710.789107	2584.935654
711.123216	2600.311173
711.457275	2592.245327
711.791286	2599.302942
712.125247	2565.947308
712.459159	2581.322827
712.793023	2595.270019
713.126837	2595.354038
713.460602	2591.909250
713.794318	2586.700058
714.127985	2594.429827
714.461602	2571.072481
714.795171	2603.251846
715.128691	2598.210692
715.462162	2584.347519
715.795584	2586.784077
716.128957	2595.101981
716.462281	2591.237096
716.795556	2589.136615
717.128782	2593.169538
717.461960	2588.212404
717.795088	2586.195942
718.128167	2587.456231
718.461198	2577.710000
718.794180	2595.606096
719.127113	2589.388673
719.459997	2588.548481
719.792833	2579.894500
720.125619	2589.640731
720.458357	2588.968577
720.791046	2593.505615
721.123686	2597.370500
721.456278	2590.901019
721.788821	2599.050885
722.121315	2593.253558
722.453761	2577.289904
722.786158	2591.321115
723.118506	2600.563231
723.450805	2596.950404
723.783056	2596.698346
724.115259	2598.378731
724.447412	2579.978519
724.779518	2602.411654
725.111574	2570.400327
725.443582	2592.665423
725.775542	2585.187712
726.107453	2588.296423
726.439315	2587.540250
726.771129	2605.688404
727.102895	2581.322827
727.434612	2594.261788
727.766281	2600.647250
728.097901	2609.133192
728.429473	2583.591346
728.760996	2583.843404
729.092471	2590.985038
729.423897	2571.240519
729.755276	2585.439769
730.086606	2595.354038
730.417887	2585.523788
730.749120	2592.665423
731.080305	2578.886269
731.411442	2576.869808
731.742530	2595.522077
732.073570	2585.439769
732.404562	2602.663712
732.735506	2594.429827
733.066401	2595.101981
733.397249	2593.589635
733.728048	2593.589635
734.058798	2610.981615
734.389501	2593.589635
734.720156	2587.960346
735.050762	2590.480923
735.381320	2583.507327
735.711831	2585.019673
736.042293	2600.563231
736.372707	2602.411654
736.703073	2593.085519
737.033391	2600.647250
737.363661	2602.747731
737.693883	2588.632500
738.024056	2581.574885
738.354182	2602.411654
738.684260	2589.220635
739.014290	2591.657192
739.344272	2582.079000
739.674207	2589.892788
740.004093	2599.470981
740.333931	2606.024481
740.663722	2581.406846
740.993464	2585.103692
741.323159	2596.782365
741.652806	2576.701769
741.982405	2584.347519
742.311956	2597.874615
742.641460	2583.927423
742.970915	2583.843404
743.300323	2601.571462
743.629683	2586.868096
743.958996	2583.591346
744.288260	2596.782365
744.617477	2596.698346
744.946647	2589.220635
745.275768	2584.515558
745.604842	2601.067346
745.933869	2590.228865
746.262847	2595.354038
746.591778	2578.382154
746.920662	2589.976808
747.249498	2598.126673
747.578286	2596.110212
747.907027	2580.314596
748.235720	2594.093750
748.564365	2594.681885
748.892963	2584.599577
749.221514	2591.573173
749.550017	2587.036135
749.878473	2587.288192
750.206881	2609.133192
750.535242	2591.489154
750.863555	2602.495673
751.191821	2591.237096
751.520039	2607.368788
751.848210	2596.614327
752.176334	2587.540250
752.504411	2588.800538
752.832440	2593.337577
753.160421	2586.279962
753.488356	2600.983327
753.816243	2591.657192
754.144082	2588.380442
754.471875	2594.597865
754.799620	2593.421596
755.127318	2583.675365
755.454969	2574.349231
755.782572	2588.212404
756.110129	2606.864673
756.437638	2586.448000
756.765100	2593.925712
757.092515	2605.100269
757.419882	2586.195942
757.747203	2602.495673
758.074477	2596.278250
758.401703	2598.798827
758.728882	2583.003212
759.056014	2596.194231
759.383099	2593.841692
759.710138	2570.568365
760.037129	2579.978519
760.364073	2593.757673
760.690970	2606.192519
761.017820	2590.817000
761.344623	2610.057404
761.671379	2608.124962
761.998088	2613.418173
762.324751	2594.345808
762.651366	2600.983327
762.977935	2599.891077
763.304456	2622.240192
763.630931	2618.375308
763.957359	2616.862962
764.283740	2609.217212
764.610074	2620.979904
764.936362	2600.395192
765.262602	2596.278250
765.588796	2594.513846
765.914943	2606.108500
766.241044	2594.261788
766.567097	2593.925712
766.893104	2610.309462
767.219064	2598.798827
767.544978	2599.807058
767.870845	2595.186000
768.196665	2603.503904
768.522438	2590.480923
768.848165	2582.163019
769.173846	2594.093750
769.499479	2593.253558
769.825066	2588.548481
770.150607	2602.663712
770.476101	2587.624269
770.801548	2590.060827
771.126949	2593.505615
771.452303	2584.179481
771.777611	2595.438058
772.102872	2592.161308
772.428087	2583.255269
772.753256	2591.237096
773.078378	2594.681885
773.403453	2587.624269
773.728482	2597.958635
774.053465	2588.296423
774.378401	2585.103692
774.703291	2598.042654
775.028135	2593.505615
775.352932	2590.648962
775.677683	2592.413365
776.002388	2587.540250
776.327046	2589.808769
776.651658	2584.851635
776.976224	2573.677077
777.300743	2584.263500
777.625216	2602.495673
777.949643	2590.985038
778.274024	2589.556712
778.598359	2592.413365
778.922647	2597.370500
779.246889	2586.952115
779.571086	2589.052596
779.895236	2588.128385
780.219339	2584.263500
780.543397	2594.849923
780.867409	2590.817000
781.191374	2611.821808
781.515294	2584.935654
781.839167	2595.438058
782.162995	2594.513846
782.486776	2591.153077
782.810511	2600.647250
783.134201	2589.892788
783.457844	2587.288192
783.781441	2595.186000
784.104993	2595.438058
784.428498	2588.128385
784.751958	2587.288192
785.075372	2584.935654
785.398739	2601.823519
785.722061	2590.648962
786.045337	2593.841692
786.368568	2598.126673
786.691752	2585.439769
787.014891	2596.194231
787.337983	2589.136615
787.661030	2594.093750
787.984031	2587.120154
788.306987	2600.395192
788.629897	2595.858154
788.952760	2588.212404
789.275579	2595.354038
789.598351	2590.480923
789.921078	2593.001500
790.243759	2591.741212
790.566395	2588.296423
790.888984	2598.798827
791.211529	2596.698346
791.534027	2589.472692
791.856480	2582.583115
792.178888	2588.548481
792.501249	2599.134904
792.823566	2582.751154
793.145836	2595.186000
793.468062	2577.205885
793.790241	2589.472692
794.112375	2575.861577
794.434464	2601.487442
794.756507	2602.495673
795.078505	2596.698346
795.400457	2600.059115
795.722364	2605.184288
796.044226	2589.892788
796.366042	2583.087231
796.687812	2594.177769
797.009538	2593.421596
797.331218	2599.975096
797.652852	2588.800538
797.974442	2599.639019
798.295986	2601.151365
798.617484	2600.059115
798.938938	2602.327635
799.260346	2590.060827
799.581709	2599.470981
799.903026	2586.784077
800.224299	2595.438058
800.545526	2610.393481
800.866708	2588.968577
801.187845	2597.034423
801.508936	2585.019673
801.829983	2587.372212
802.150984	2587.792308
802.471940	2602.495673
802.792851	2584.263500
803.113717	2574.265212
803.434538	2608.293000
803.755314	2592.749442
804.076045	2587.120154
804.396731	2590.060827
804.717372	2578.382154
805.037967	2607.452808
805.358518	2590.985038
805.679024	2600.227154
805.999485	2577.037846
806.319901	2595.858154
806.640272	2588.380442
806.960598	2590.396904
807.280879	2588.800538
807.601115	2598.546769
807.921306	2592.161308
808.241453	2591.909250
808.561554	2592.497385
808.881611	2590.732981
809.201623	2591.993269
809.521590	2576.533731
809.841513	2594.933942
810.161390	2588.380442
810.481223	2593.589635
810.801011	2587.204173
811.120755	2595.270019
811.440453	2589.220635
811.760107	2595.101981
812.079716	2585.943885
812.399281	2589.052596
812.718801	2586.616038
813.038276	2588.464462
813.357707	2597.202462
813.677093	2586.868096
813.996434	2590.732981
814.315731	2595.690115
814.634983	2594.261788
814.954191	2586.363981
815.273354	2593.421596
815.592473	2577.878038
815.911547	2595.270019
816.230577	2597.622558
816.549562	2588.968577
816.868502	2600.563231
817.187399	2595.438058
817.506250	2603.335865
817.825058	2600.227154
818.143821	2609.469269
818.462539	2612.662000
818.781213	2602.411654
819.099843	2589.052596
819.418429	2625.096846
819.736970	2606.360558
820.055466	2623.416462
820.373919	2630.390058
820.692327	2608.545058
821.010691	2631.566327
821.329011	2658.872577
821.647286	2689.287538
821.965517	2731.801269
822.283704	2760.787904
822.601847	2790.194635
822.919945	2792.799231
823.237999	2791.959038
823.556010	2771.458346
823.873976	2759.779673
824.191897	2727.768346
824.509775	2716.089673
824.827609	2698.529654
825.145398	2685.170596
825.463144	2688.363327
825.780845	2674.332115
826.098502	2667.694596
826.416116	2666.098231
826.733685	2693.740558
827.051210	2706.343442
827.368692	2693.404481
827.686129	2679.709346
828.003522	2681.809827
828.320872	2668.870865
828.638177	2651.058788
828.955439	2641.984712
829.272656	2629.045750
829.589830	2624.340673
829.906960	2617.703154
830.224046	2617.955212
830.541088	2602.999788
830.858086	2611.401712
831.175041	2596.866385
831.491952	2610.057404
831.808819	2610.393481
832.125642	2616.610904
832.442421	2610.645538
832.759157	2610.981615
833.075849	2637.363654
833.392497	2632.574558
833.709101	2628.877712
834.025662	2647.950077
834.342179	2645.009404
834.658653	2638.119827
834.975083	2644.589308
835.291469	2643.581077
835.607811	2630.390058
835.924110	2615.014538
836.240366	2611.149654
836.556578	2606.276538
836.872746	2603.335865
837.188871	2598.210692
837.504952	2591.321115
837.820990	2594.261788
838.136984	2602.327635
838.452935	2595.522077
838.768842	2600.395192
839.084706	2593.085519
839.400526	2608.377019
839.716303	2603.167827
840.032037	2580.986750
840.347727	2627.029288
840.663373	2619.467558
840.978977	2600.899308
841.294537	2605.604385
841.610054	2609.805346
841.925527	2591.993269
842.240957	2589.388673
842.556344	2593.337577
842.871687	2588.968577
843.186987	2575.693538
843.502244	2606.192519
843.817458	2600.815288
844.132629	2594.345808
844.447756	2583.423308
844.762840	2585.943885
845.077881	2587.876327
845.392879	2591.489154
845.707833	2578.634212
846.022745	2580.734692
846.337613	2581.154788
846.652438	2582.499096
846.967221	2577.710000
847.281960	2583.759385
847.596656	2577.205885
847.911309	2585.019673
848.225919	2576.449712
848.540485	2595.270019
848.855009	2574.853346
849.169490	2587.540250
849.483928	2583.927423
849.798323	2577.541962
850.112675	2585.019673
850.426984	2574.097173
850.741251	2588.716519
851.055474	2577.037846
851.369654	2578.802250
851.683792	2579.642442
851.997887	2595.101981
852.311938	2586.448000
852.625947	2588.212404
852.939914	2593.757673
853.253837	2579.810481
853.567718	2572.836885
853.881555	2583.759385
854.195350	2573.761096
854.509103	2584.683596
854.822812	2571.576596
855.136479	2596.278250
855.450103	2575.609519
855.763685	2597.118442
856.077224	2585.103692
856.390720	2580.650673
856.704173	2588.968577
857.017584	2582.415077
857.330953	2583.507327
857.644278	2595.942173
857.957561	2620.643827
858.270802	2588.296423
858.584000	2589.808769
858.897155	2589.892788
859.210268	2593.421596
859.523339	2589.136615
859.836367	2579.390385
860.149352	2606.696635
860.462295	2590.732981
860.775195	2583.507327
861.088054	2587.120154
861.400869	2581.994981
861.713642	2588.380442
862.026373	2583.759385
862.339062	2593.001500
862.651708	2585.775846
862.964312	2577.457942
863.276873	2587.120154
863.589392	2586.363981
863.901869	2594.009731
864.214303	2597.202462
864.526696	2587.876327
864.839045	2585.859865
865.151353	2591.909250
865.463619	2582.331058
865.775842	2583.759385
866.088023	2593.589635
866.400162	2583.591346
866.712258	2582.499096
867.024313	2582.751154
867.336325	2579.306365
867.648296	2575.609519
867.960224	2590.060827
868.272110	2594.009731
868.583954	2589.472692
868.895755	2579.726462
869.207515	2591.573173
869.519233	2583.003212
869.830909	2593.253558
870.142542	2585.439769
870.454134	2584.851635
870.765684	2593.925712
871.077191	2592.665423
871.388657	2590.985038
871.700081	2577.962058
872.011463	2596.782365
872.322803	2590.144846
872.634101	2588.212404
872.945357	2583.591346
873.256571	2597.454519
873.567744	2601.655481
873.878874	2585.691827
874.189963	2579.810481
874.501010	2577.541962
874.812015	2598.462750
875.122979	2590.732981
875.433900	2582.667135
875.744780	2590.228865
876.055618	2589.892788
876.366415	2592.749442
876.677169	2594.765904
876.987882	2609.385250
877.298554	2596.866385
877.609183	2595.858154
877.919771	2600.227154
878.230317	2591.069058
878.540822	2605.268308
878.851285	2599.975096
879.161707	2617.871192
879.472087	2622.576269
879.782425	2628.205558
880.092722	2619.635596
880.402977	2625.769000
880.713191	2634.254942
881.023363	2652.991231
881.333494	2661.309135
881.643583	2685.254615
881.953631	2681.221692
882.263637	2672.231635
882.573602	2685.590692
882.883526	2685.422654
883.193408	2669.122923
883.503248	2678.701115
883.813048	2657.696308
884.122806	2655.427788
884.432522	2647.866058
884.742197	2649.378404
885.051831	2635.095135
885.361424	2637.027577
885.670975	2629.885942
885.980485	2629.549865
886.289954	2629.129769
886.599382	2606.276538
886.908768	2593.925712
887.218113	2603.083808
887.527417	2605.436346
887.836680	2592.077288
888.145901	2589.892788
888.455082	2599.807058
888.764221	2594.513846
889.073319	2607.284769
889.382376	2576.365692
889.691392	2600.227154
890.000366	2583.171250
890.309300	2599.555000
890.618193	2599.891077
890.927044	2602.831750
891.235855	2597.958635
891.544625	2595.438058
891.853353	2602.243615
892.162041	2589.052596
892.470687	2587.120154
892.779293	2597.034423
893.087858	2605.268308
893.396381	2606.192519
893.704864	2607.788885
894.013306	2598.378731
894.321707	2612.998077
894.630068	2621.736077
894.938387	2632.070442
895.246665	2618.627365
895.554903	2611.065635
895.863100	2626.525173
896.171256	2624.844788
896.479371	2615.854731
896.787446	2623.836558
897.095480	2618.543346
897.403473	2621.231962
897.711425	2611.821808
898.019336	2608.881135
898.327207	2601.655481
898.635038	2596.782365
898.942827	2605.100269
899.250576	2593.421596
899.558284	2588.800538
899.865952	2593.589635
900.173579	2598.126673
900.481165	2590.144846
900.788711	2584.263500
901.096216	2582.667135
901.403681	2598.714808
901.711105	2577.794019
902.018489	2595.774135
902.325832	2607.536827
902.633135	2595.354038
902.940397	2586.784077
903.247619	2574.937365
903.554800	2594.849923
903.861941	2616.442865
904.169041	2634.002885
904.476101	2625.853019
904.783121	2632.406519
905.090100	2631.566327
905.397039	2631.062212
905.703938	2619.467558
906.010796	2629.297808
906.317614	2617.787173
906.624391	2604.512135
906.931129	2610.309462
907.237826	2600.899308
907.544483	2604.344096
907.851099	2602.915769
908.157675	2594.009731
908.464211	2590.060827
908.770707	2587.624269
909.077163	2597.286481
909.383578	2603.335865
909.689954	2599.975096
909.996289	2583.927423
910.302584	2580.398615
910.608839	2596.446288
910.915054	2576.617750
911.221229	2582.835173
911.527363	2583.759385
911.833458	2577.289904
912.139513	2585.775846
912.445527	2583.927423
912.751502	2598.294712
913.057436	2589.640731
913.363331	2589.976808
913.669186	2593.841692
913.975000	2594.429827
914.280775	2591.825231
914.586510	2581.742923
914.892205	2599.050885
915.197859	2605.772423
915.503475	2623.920577
915.809050	2626.693212
916.114585	2632.154462
916.420081	2615.938750
916.725536	2622.492250
917.030952	2618.627365
917.336328	2618.039231
917.641665	2611.065635
917.946961	2623.836558
918.252218	2630.222019
918.557435	2618.375308
918.862612	2609.889365
919.167750	2613.670231
919.472848	2614.510423
919.777906	2620.559808
920.082925	2602.243615
920.387904	2611.737788
920.692843	2606.864673
920.997743	2602.579692
921.302603	2599.218923
921.607423	2603.671942
921.912204	2587.120154
922.216946	2594.177769
922.521647	2593.757673
922.826310	2596.698346
923.130932	2566.031327
923.435516	2593.337577
923.740059	2598.630788
924.044564	2592.077288
924.349028	2582.079000
924.653454	2572.332769
924.957840	2599.639019
925.262186	2576.449712
925.566493	2586.111923
925.870761	2587.036135
926.174989	2581.406846
926.479178	2576.785788
926.783328	2595.354038
927.087438	2586.363981
927.391509	2579.306365
927.695541	2570.820423
927.999533	2589.892788
928.303486	2578.550192
928.607400	2569.644154
928.911275	2574.685308
929.215110	2584.431538
929.518906	2572.668846
929.822663	2595.774135
930.126381	2584.347519
930.430060	2571.240519
930.733699	2568.803962
931.037299	2575.861577
931.340861	2572.920904
931.644383	2578.046077
931.947866	2569.896212
932.251309	2592.497385
932.554714	2595.017962
932.858080	2578.970288
933.161407	2561.326250
933.464694	2584.515558
933.767943	2576.953827
934.071153	2592.497385
934.374323	2581.070769
934.677455	2590.648962
934.980548	2588.884558
935.283602	2578.886269
935.586617	2577.457942
935.889593	2579.390385
936.192530	2575.693538
936.495428	2583.171250
936.798287	2582.331058
937.101108	2578.466173
937.403890	2574.937365
937.706632	2577.289904
938.009336	2573.845115
938.312002	2571.324538
938.614628	2583.843404
938.917216	2577.625981
939.219765	2581.238808
939.522275	2581.574885
939.824747	2590.228865
940.127179	2564.855058
940.429573	2582.583115
940.731929	2583.843404
941.034246	2578.802250
941.336524	2591.741212
941.638763	2580.314596
941.940964	2581.574885
942.243126	2583.507327
942.545250	2580.818712
942.847335	2565.611231
943.149381	2585.943885
943.451389	2575.441481
943.753359	2582.331058
944.055290	2589.976808
944.357182	2582.415077
944.659036	2583.843404
944.960851	2571.744635
945.262628	2577.541962
945.564367	2559.309788
945.866067	2591.825231
946.167729	2580.146558
946.469352	2594.345808
946.770937	2593.925712
947.072484	2580.566654
947.373992	2577.878038
947.675462	2575.357462
947.976893	2577.289904
948.278286	2576.029615
948.579641	2586.363981
948.880958	2575.693538
949.182236	2578.718231
949.483476	2574.685308
949.784678	2576.617750
950.085841	2573.004923
950.386967	2585.355750
950.688054	2586.952115
950.989103	2583.003212
951.290114	2564.939077
951.591087	2576.281673
951.892021	2579.054308
952.192917	2582.583115
952.493776	2567.879750
952.794596	2587.876327
953.095378	2597.790596
953.396122	2564.182904
953.696828	2577.457942
953.997496	2585.943885
954.298126	2582.163019
954.598718	2576.953827
954.899272	2566.115346
955.199788	2561.662327
955.500266	2579.138327
955.800706	2587.120154
956.101108	2575.441481
956.401472	2584.179481
956.701798	2585.439769
957.002087	2564.182904
957.302337	2582.163019
957.602550	2575.777558
957.902724	2571.072481
958.202861	2572.248750
958.502960	2571.744635
958.803022	2574.349231
959.103045	2570.820423
959.403031	2575.609519
959.702979	2578.298135
960.002889	2592.497385
960.302762	2577.710000
960.602596	2587.708288
960.902393	2570.988462
961.202153	2574.181192
961.501875	2575.357462
961.801559	2578.886269
962.101205	2577.205885
962.400814	2581.238808
962.700385	2570.820423
962.999918	2577.541962
963.299414	2573.509038
963.598873	2559.561846
963.898293	2582.751154
964.197677	2570.904442
964.497022	2577.373923
964.796331	2571.996692
965.095601	2579.222346
965.394835	2575.609519
965.694030	2567.711712
965.993189	2566.451423
966.292309	2562.334481
966.591393	2568.803962
966.890439	2576.281673
967.189447	2568.635923
967.488419	2565.947308
967.787353	2566.115346
968.086249	2582.331058
968.385108	2563.762808
968.683930	2562.922615
968.982714	2574.013154
969.281462	2573.509038
969.580172	2556.537154
969.878844	2564.434962
970.177480	2576.029615
970.476078	2584.263500
970.774639	2565.023096
971.073162	2572.332769
971.371649	2552.672269
971.670098	2571.744635
971.968510	2570.568365
972.266885	2567.711712
972.565223	2580.566654
972.863524	2588.968577
973.161788	2556.117058
973.460014	2572.920904
973.758204	2575.945596
974.056356	2569.812192
974.354471	2587.036135
974.652550	2590.564942
974.950591	2565.443192
975.248595	2587.456231
975.546563	2569.392096
975.844493	2565.779269
976.142386	2564.603000
976.440243	2575.021385
976.738062	2577.373923
977.035845	2568.635923
977.333590	2575.609519
977.631299	2581.742923
977.928971	2573.172962
978.226606	2581.910962
978.524204	2570.736404
978.821765	2570.568365
979.119290	2570.568365
979.416777	2568.551904
979.714228	2584.935654
980.011642	2574.769327
980.309020	2562.166442
980.606360	2562.670558
980.903664	2578.382154
981.200931	2582.751154
981.498162	2567.795731
981.795356	2566.871519
982.092513	2584.263500
982.389633	2571.828654
982.686717	2574.517269
982.983764	2581.826942
983.280775	2569.140038
983.577749	2571.996692
983.874686	2588.044365
984.171587	2568.972000
984.468451	2577.710000
984.765279	2584.515558
985.062070	2589.388673
985.358824	2581.658904
985.655543	2566.871519
985.952224	2583.087231
986.248869	2578.466173
986.545478	2570.820423
986.842050	2567.627692
987.138586	2568.719942
987.435086	2574.937365
987.731549	2573.425019
988.027975	2548.051212
988.324366	2575.273442
988.620719	2584.095462
988.917037	2576.533731
989.213318	2565.359173
989.509563	2565.863288
989.805772	2575.357462
990.101944	2569.140038
990.398080	2579.054308
990.694180	2567.627692
990.990244	2574.013154
991.286271	2578.550192
991.582262	2578.466173
991.878217	2576.953827
992.174136	2558.385577
992.470019	2563.846827
992.765865	2579.726462
993.061676	2572.416788
993.357450	2551.832077
993.653188	2566.115346
993.948890	2576.281673
994.244556	2581.658904
994.540186	2572.668846
994.835780	2572.332769
995.131337	2574.937365
995.426859	2579.810481
995.722345	2573.677077
996.017795	2575.105404
996.313208	2571.660615
996.608586	2570.904442
996.903928	2564.014865
997.199234	2570.148269
997.494504	2571.660615
997.789738	2586.616038
998.084936	2568.719942
998.380099	2571.744635
998.675225	2571.996692
998.970316	2579.222346
999.265371	2574.265212
999.560390	2569.560135
999.855373	2572.584827
1000.150320	2573.509038
1000.445232	2580.734692
1000.740108	2576.449712
1001.034948	2559.561846
1001.329752	2566.871519
1001.624521	2563.090654
1001.919254	2554.940788
1002.213951	2559.561846
1002.508613	2559.561846
1002.803239	2571.576596
1003.097829	2576.113635
1003.392384	2577.541962
1003.686903	2569.476115
1003.981386	2578.130096
1004.275834	2568.215827
1004.570246	2563.006635
1004.864623	2578.130096
1005.158964	2562.418500
1005.453270	2560.822135
1005.747540	2580.062538
1006.041775	2582.499096
1006.335974	2562.838596
1006.630138	2567.543673
1006.924266	2571.408558
1007.218359	2569.812192
1007.512416	2565.107115
1007.806438	2583.003212
1008.100425	2567.039558
1008.394376	2578.466173
1008.688292	2567.375635
1008.982172	2552.840308
1009.276017	2562.754577
1009.569827	2584.347519
1009.863602	2579.054308
1010.157341	2552.756288
1010.451045	2575.189423
1010.744714	2567.039558
1011.038347	2555.444904
1011.331945	2582.247038
1011.625508	2566.703481
1011.919036	2581.070769
1012.212528	2570.736404
1012.505986	2570.400327
1012.799408	2575.021385
1013.092795	2553.932558
1013.386147	2561.410269
1013.679464	2560.654096
1013.972745	2565.023096
1014.265992	2581.406846
1014.559204	2574.769327
1014.852380	2560.990173
1015.145521	2565.107115
1015.438628	2555.949019
1015.731699	2575.609519
1016.024736	2581.742923
1016.317737	2578.214115
1016.610703	2565.023096
1016.903635	2558.469596
1017.196531	2569.896212
1017.489393	2579.390385
1017.782219	2563.930846
1018.075011	2574.517269
1018.367768	2571.744635
1018.660490	2575.105404
1018.953177	2575.105404
1019.245829	2575.105404
