Dividing Wavelength (nm)	Counts (n)	Slit_number_28_of_a_total_of_40	
326.493990	2045.952288
326.888308	2045.952288
327.282561	2045.952288
327.676750	2022.258865
328.070874	2017.721827
328.464933	2028.560308
328.858929	2031.585000
329.252859	2059.059288
329.646726	2061.075750
330.040528	2068.385423
330.434265	2102.413212
330.827938	2107.454365
331.221547	2134.424538
331.615091	2164.167346
332.008571	2179.794923
332.401986	2209.537731
332.795338	2225.165308
333.188625	2236.507904
333.581847	2242.053173
333.975006	2269.527462
334.368100	2276.080962
334.761129	2303.555250
335.154095	2321.955462
335.546996	2334.810404
335.939833	2318.426654
336.332606	2340.103615
336.725315	2363.040865
337.117960	2385.221942
337.510540	2394.296019
337.903056	2412.192115
338.295508	2386.734288
338.687896	2436.893769
339.080220	2419.753846
339.472480	2412.696231
339.864676	2426.811462
340.256807	2429.584096
340.648875	2433.617019
341.040879	2433.364962
341.432818	2451.009000
341.824694	2458.318673
342.216506	2432.608788
342.608253	2450.504885
342.999937	2428.071750
343.391557	2444.959615
343.783113	2426.811462
344.174605	2461.847481
344.566033	2440.170519
344.957397	2430.340269
345.348697	2457.562500
345.739934	2416.981212
346.131106	2420.005904
346.522215	2426.055288
346.913260	2438.406115
347.304241	2400.849519
347.695159	2426.307346
348.086012	2427.063519
348.476802	2390.515154
348.867528	2408.411250
349.258191	2408.411250
349.648789	2448.488423
350.039324	2407.907135
350.429796	2411.688000
350.820203	2402.865981
351.210548	2415.720923
351.600828	2398.581000
351.991045	2407.403019
352.381198	2417.737385
352.771288	2430.340269
353.161314	2403.874212
353.551276	2397.068654
353.941175	2406.394788
354.331010	2393.035731
354.720782	2424.542942
355.110490	2428.071750
355.500135	2408.411250
355.889717	2384.969885
356.279235	2398.328942
356.668689	2444.707558
357.058080	2414.460635
357.447408	2420.005904
357.836672	2392.531615
358.225873	2433.869077
358.615010	2419.753846
359.004084	2402.865981
359.393095	2426.559404
359.782043	2403.874212
360.170927	2413.704462
360.559748	2398.581000
360.948505	2412.192115
361.337199	2410.679769
361.725830	2414.208577
362.114398	2431.852615
362.502903	2445.211673
362.891344	2416.477096
363.279722	2386.230173
363.668037	2423.786769
364.056289	2427.063519
364.444478	2418.493558
364.832603	2398.581000
365.220665	2426.811462
365.608665	2411.940058
365.996601	2429.332038
366.384474	2424.542942
366.772284	2409.419481
367.160031	2420.510019
367.547715	2415.972981
367.935336	2418.493558
368.322893	2400.849519
368.710388	2403.874212
369.097820	2410.427712
369.485189	2398.328942
369.872495	2422.778538
370.259738	2432.860846
370.646918	2414.712692
371.034035	2424.542942
371.421090	2446.724019
371.808081	2418.493558
372.195010	2437.649942
372.581875	2430.340269
372.968678	2417.233269
373.355418	2416.729154
373.742096	2414.460635
374.128710	2415.720923
374.515262	2436.893769
374.901751	2427.063519
375.288177	2440.926692
375.674540	2422.526481
376.060841	2413.704462
376.447079	2448.992538
376.833254	2451.009000
377.219367	2467.644808
377.605417	2467.644808
377.991404	2465.124231
378.377329	2483.524442
378.763191	2492.094404
379.148991	2478.483288
379.534727	2494.110865
379.920402	2491.086173
380.306013	2539.985365
380.691563	2530.155115
381.077049	2540.489481
381.462474	2535.448327
381.847835	2562.670558
382.233134	2595.942173
382.618371	2609.301231
383.003545	2629.465846
383.388657	2608.797115
383.773706	2644.589308
384.158693	2650.386635
384.543618	2691.724096
384.928480	2686.935000
385.313280	2707.855788
385.698017	2733.817731
386.082692	2735.330077
386.467305	2747.428846
386.851856	2772.886673
387.236344	2804.645942
387.620770	2789.018365
388.005133	2835.144923
388.389435	2871.441231
388.773674	2870.937115
389.157851	2877.238558
389.541965	2889.085269
389.926018	2913.282808
390.310008	2923.617173
390.693936	2916.307500
391.077802	2950.839404
391.461606	2943.781788
391.845348	2986.127481
392.229027	2959.157308
392.612645	2966.466981
392.996200	2997.722135
393.379694	2995.957731
393.763125	3038.303423
394.146494	3018.390865
394.529801	3034.270500
394.913047	3035.026673
395.296230	3015.366173
395.679351	3038.051365
396.062410	3030.489635
396.445408	2986.127481
396.828343	2996.209788
397.211217	2994.193327
397.594028	2988.648058
397.976778	2971.760192
398.359466	2935.968000
398.742092	2905.216962
399.124656	2912.778692
399.507158	2895.386712
399.889598	2857.830115
400.271977	2839.429904
400.654294	2837.413442
401.036549	2832.624346
401.418742	2804.898000
401.800874	2826.574962
402.182944	2774.399019
402.564952	2779.188115
402.946898	2750.957654
403.328783	2744.656212
403.710606	2700.546115
404.092367	2702.814635
404.474067	2697.521423
404.855705	2690.967923
405.237282	2635.515231
405.618797	2634.507000
406.000250	2642.068731
406.381642	2619.635596
406.762972	2610.561519
407.144240	2616.106788
407.525447	2585.103692
407.906593	2575.273442
408.287677	2533.179808
408.668700	2550.067673
409.049661	2526.626308
409.430560	2509.990500
409.811399	2493.102635
410.192176	2536.456558
410.572891	2481.003865
410.953545	2509.990500
411.334138	2479.743577
411.714669	2482.264154
412.095139	2477.727115
412.475547	2498.647904
412.855894	2465.376288
413.236180	2482.264154
413.616405	2499.152019
413.996568	2492.850577
414.376670	2486.297077
414.756711	2479.491519
415.136691	2463.863942
415.516609	2451.261058
415.896466	2476.466827
416.276262	2443.447269
416.655997	2483.524442
417.035670	2467.896865
417.415283	2465.880404
417.794834	2483.272385
418.174324	2477.727115
418.553753	2459.326904
418.933121	2453.277519
419.312428	2477.475058
419.691674	2471.929788
420.070859	2460.335135
420.449983	2459.074846
420.829045	2471.929788
421.208047	2475.962712
421.586988	2466.636577
421.965867	2470.165385
422.344686	2427.567635
422.723444	2471.677731
423.102141	2447.480192
423.480777	2456.806327
423.859352	2464.872173
424.237866	2466.132462
424.616319	2463.359827
424.994712	2490.330000
425.373044	2455.041923
425.751314	2467.896865
426.129524	2448.236365
426.507673	2482.516212
426.885762	2465.628346
427.263789	2459.831019
427.641756	2463.359827
428.019662	2460.587192
428.397508	2430.340269
428.775292	2438.154058
429.153016	2427.819692
429.530679	2447.984308
429.908282	2445.463731
430.285824	2463.359827
430.663305	2446.471962
431.040726	2466.636577
431.418086	2474.702423
431.795385	2444.959615
432.172624	2442.691096
432.549802	2462.603654
432.926920	2452.017231
433.303977	2459.326904
433.680974	2458.570731
434.057910	2441.934923
434.434786	2460.335135
434.811601	2451.261058
435.188355	2461.847481
435.565050	2481.760038
435.941683	2466.132462
436.318257	2448.992538
436.694770	2454.789865
437.071222	2462.603654
437.447614	2462.603654
437.823946	2441.430808
438.200218	2451.765173
438.576429	2481.507981
438.952580	2471.173615
439.328670	2455.546038
439.704700	2471.425673
440.080670	2449.496654
440.456580	2448.236365
440.832429	2474.702423
441.208218	2458.066615
441.583947	2471.677731
441.959616	2492.346462
442.335224	2479.743577
442.710773	2459.578962
443.086261	2444.203442
443.461689	2453.277519
443.837057	2464.368058
444.212365	2473.946250
444.587612	2460.839250
444.962800	2479.995635
445.337927	2472.685962
445.712995	2472.181846
446.088002	2471.425673
446.462949	2463.359827
446.837837	2447.228135
447.212664	2481.255923
447.587431	2457.310442
447.962139	2473.694192
448.336786	2444.455500
448.711374	2448.740481
449.085901	2510.746673
449.460369	2462.099538
449.834776	2490.077942
450.209124	2462.099538
450.583412	2474.198308
450.957640	2474.702423
451.331808	2455.293981
451.705917	2497.135558
452.079965	2439.666404
452.453954	2483.272385
452.827883	2476.718885
453.201752	2483.272385
453.575562	2477.979173
453.949311	2485.036788
454.323001	2482.264154
454.696632	2470.417442
455.070202	2471.425673
455.443713	2444.203442
455.817164	2470.669500
456.190556	2472.433904
456.563888	2458.066615
456.937160	2453.025462
457.310373	2482.012096
457.683526	2468.653038
458.056619	2459.578962
458.429653	2455.293981
458.802628	2497.387615
459.175542	2474.450365
459.548398	2474.450365
459.921194	2488.061481
460.293930	2476.466827
460.666607	2469.409212
461.039224	2464.368058
461.411782	2462.855712
461.784280	2499.656135
462.156719	2463.863942
462.529099	2520.576923
462.901419	2482.264154
463.273680	2460.587192
463.645882	2488.061481
464.018024	2469.409212
464.390106	2463.611885
464.762130	2490.582058
465.134094	2452.521346
465.505999	2485.288846
465.877845	2472.181846
466.249631	2476.214769
466.621358	2493.354692
466.993026	2472.181846
467.364634	2498.143788
467.736184	2453.025462
468.107674	2449.748712
468.479105	2481.255923
468.850477	2456.554269
469.221790	2484.280615
469.593043	2505.453462
469.964238	2467.140692
470.335373	2482.264154
470.706449	2470.417442
471.077467	2448.236365
471.448425	2481.003865
471.819324	2471.929788
472.190164	2468.905096
472.560945	2479.239462
472.931667	2474.702423
473.302330	2489.573827
473.672934	2458.066615
474.043479	2464.872173
474.413965	2472.181846
474.784393	2472.181846
475.154761	2465.628346
475.525070	2478.987404
475.895321	2475.710654
476.265513	2478.987404
476.635645	2468.905096
477.005719	2491.842346
477.375734	2480.499750
477.745691	2486.801192
478.115588	2483.776500
478.485427	2478.231231
478.855207	2464.368058
479.224928	2468.400981
479.594591	2475.458596
479.964194	2480.247692
480.333739	2463.611885
480.703226	2455.293981
481.072653	2481.507981
481.442022	2487.305308
481.811333	2486.297077
482.180584	2470.921558
482.549777	2463.359827
482.918912	2491.338231
483.287988	2489.573827
483.657005	2502.680827
484.025964	2493.858808
484.394864	2504.193173
484.763706	2480.247692
485.132489	2451.513115
485.501213	2492.850577
485.869879	2498.143788
486.238487	2484.784731
486.607036	2488.061481
486.975527	2504.193173
487.343959	2480.499750
487.712333	2485.540904
488.080648	2474.954481
488.448905	2458.318673
488.817104	2475.206538
489.185244	2496.631442
489.553326	2468.148923
489.921350	2491.086173
490.289315	2499.908192
490.657222	2481.003865
491.025070	2499.908192
491.392861	2459.578962
491.760593	2482.768269
492.128267	2486.801192
492.495883	2498.395846
492.863440	2506.209635
493.230939	2471.677731
493.598380	2487.053250
493.965763	2466.888635
494.333088	2488.313538
494.700354	2486.045019
495.067563	2491.338231
495.434713	2465.376288
495.801805	2496.379385
496.168839	2482.264154
496.535815	2444.455500
496.902733	2478.483288
497.269593	2492.850577
497.636395	2476.466827
498.003139	2490.077942
498.369825	2480.499750
498.736453	2473.946250
499.103023	2508.226096
499.469535	2462.603654
499.835989	2470.417442
500.202385	2481.255923
500.568723	2457.562500
500.935003	2469.409212
501.301226	2484.280615
501.667390	2502.176712
502.033497	2485.792962
502.399546	2483.776500
502.765537	2477.727115
503.131470	2493.102635
503.497345	2459.831019
503.863163	2490.077942
504.228923	2484.280615
504.594625	2467.896865
504.960269	2492.598519
505.325856	2486.801192
505.691385	2467.392750
506.056856	2472.685962
506.422270	2465.880404
506.787625	2486.801192
507.152924	2462.099538
507.518164	2482.012096
507.883347	2460.587192
508.248472	2465.376288
508.613540	2470.165385
508.978550	2455.546038
509.343503	2482.264154
509.708398	2492.598519
510.073236	2503.184942
510.438016	2466.132462
510.802738	2486.549135
511.167403	2490.077942
511.532010	2458.318673
511.896561	2497.135558
512.261053	2504.193173
512.625488	2468.148923
512.989866	2477.223000
513.354186	2506.461692
513.718449	2494.867038
514.082655	2463.359827
514.446803	2499.152019
514.810894	2494.110865
515.174927	2513.015192
515.538904	2471.677731
515.902822	2488.817654
516.266684	2481.507981
516.630488	2491.590288
516.994235	2464.620115
517.357925	2460.839250
517.721558	2483.524442
518.085133	2488.565596
518.448651	2465.628346
518.812112	2470.669500
519.175516	2480.247692
519.538863	2494.110865
519.902152	2469.157154
520.265385	2488.313538
520.628560	2482.012096
520.991678	2492.598519
521.354739	2494.110865
521.717743	2479.239462
522.080690	2468.400981
522.443580	2470.921558
522.806413	2473.946250
523.169189	2453.277519
523.531908	2483.020327
523.894569	2488.565596
524.257174	2473.442135
524.619722	2462.855712
524.982213	2496.379385
525.344647	2452.521346
525.707025	2494.362923
526.069345	2474.450365
526.431608	2469.409212
526.793815	2482.012096
527.155964	2483.524442
527.518057	2471.425673
527.880093	2472.181846
528.242072	2475.710654
528.603995	2471.173615
528.965860	2495.623212
529.327669	2488.565596
529.689421	2468.905096
530.051117	2459.074846
530.412755	2484.784731
530.774337	2460.335135
531.135862	2498.395846
531.497331	2470.669500
531.858743	2480.751808
532.220098	2479.743577
532.581396	2475.206538
532.942638	2475.458596
533.303824	2478.483288
533.664953	2486.045019
534.026025	2481.507981
534.387040	2469.409212
534.747999	2468.905096
535.108902	2471.677731
535.469748	2470.165385
535.830537	2475.458596
536.191270	2482.516212
536.551947	2475.962712
536.912567	2479.995635
537.273131	2488.565596
537.633638	2477.475058
537.994089	2505.705519
538.354483	2463.863942
538.714821	2472.181846
539.075103	2484.784731
539.435328	2479.239462
539.795497	2472.433904
540.155609	2471.173615
540.515665	2481.255923
540.875665	2487.053250
541.235609	2478.987404
541.595496	2485.540904
541.955328	2471.677731
542.315102	2466.636577
542.674821	2474.702423
543.034483	2497.639673
543.394090	2487.557365
543.753640	2489.321769
544.113134	2499.152019
544.472571	2483.524442
544.831953	2505.453462
545.191278	2506.461692
545.550548	2514.023423
545.909761	2486.801192
546.268918	2491.338231
546.628019	2466.888635
546.987064	2479.491519
547.346053	2488.565596
547.704986	2493.606750
548.063863	2474.702423
548.422684	2481.255923
548.781449	2472.181846
549.140158	2493.102635
549.498811	2479.491519
549.857408	2455.293981
550.215949	2490.077942
550.574434	2482.516212
550.932864	2476.466827
551.291237	2499.656135
551.649555	2487.305308
552.007817	2494.362923
552.366022	2479.239462
552.724173	2479.743577
553.082267	2482.516212
553.440305	2466.888635
553.798288	2448.488423
554.156215	2493.354692
554.514086	2490.077942
554.871902	2466.384519
555.229661	2472.938019
555.587365	2462.603654
555.945014	2488.061481
556.302606	2471.929788
556.660143	2465.376288
557.017625	2471.425673
557.375050	2467.896865
557.732421	2494.614981
558.089735	2501.924654
558.446994	2467.644808
558.804197	2505.957577
559.161345	2466.132462
559.518437	2464.872173
559.875474	2491.086173
560.232455	2456.302212
560.589381	2496.883500
560.946251	2478.483288
561.303065	2476.466827
561.659825	2456.554269
562.016528	2478.987404
562.373177	2469.157154
562.729770	2471.425673
563.086307	2500.664365
563.442789	2482.516212
563.799216	2487.809423
564.155587	2471.173615
564.511904	2477.475058
564.868164	2472.685962
565.224370	2478.231231
565.580520	2482.264154
565.936615	2454.789865
566.292654	2470.417442
566.648638	2487.053250
567.004567	2471.173615
567.360441	2475.458596
567.716260	2455.293981
568.072023	2467.392750
568.427732	2462.351596
568.783385	2467.644808
569.138982	2479.239462
569.494525	2489.825885
569.850013	2463.611885
570.205445	2472.938019
570.560823	2458.318673
570.916145	2484.280615
571.271412	2472.938019
571.626625	2450.756942
571.981782	2467.392750
572.336884	2486.297077
572.691931	2466.636577
573.046923	2463.611885
573.401860	2480.499750
573.756743	2488.565596
574.111570	2470.921558
574.466342	2505.201404
574.821059	2478.483288
575.175722	2495.371154
575.530330	2481.255923
575.884882	2475.962712
576.239380	2488.313538
576.593823	2467.896865
576.948211	2463.863942
577.302544	2496.127327
577.656823	2467.140692
578.011047	2498.143788
578.365216	2468.905096
578.719330	2484.280615
579.073389	2465.124231
579.427394	2473.190077
579.781344	2471.425673
580.135239	2519.316635
580.489080	2491.590288
580.842866	2476.466827
581.196597	2505.201404
581.550273	2462.855712
581.903895	2489.573827
582.257463	2482.264154
582.610975	2468.148923
582.964434	2491.590288
583.317837	2461.847481
583.671186	2475.206538
584.024481	2482.768269
584.377721	2469.409212
584.730906	2474.198308
585.084037	2473.946250
585.437113	2454.789865
585.790135	2486.801192
586.143103	2473.190077
586.496016	2491.338231
586.848874	2475.962712
587.201679	2469.409212
587.554428	2491.086173
587.907124	2463.359827
588.259765	2491.590288
588.612352	2491.338231
588.964884	2486.297077
589.317362	2468.653038
589.669786	2471.173615
590.022155	2477.979173
590.374470	2481.003865
590.726731	2485.288846
591.078937	2485.036788
591.431090	2452.521346
591.783188	2474.954481
592.135232	2505.957577
592.487222	2479.239462
592.839157	2463.863942
593.191038	2503.941115
593.542866	2472.181846
593.894639	2464.872173
594.246358	2478.483288
594.598022	2490.077942
594.949633	2482.012096
595.301190	2496.127327
595.652692	2480.751808
596.004141	2470.669500
596.355535	2483.020327
596.706876	2488.061481
597.058162	2475.962712
597.409395	2471.173615
597.760573	2458.822788
598.111698	2464.368058
598.462768	2498.899962
598.813785	2490.330000
599.164748	2463.359827
599.515657	2466.888635
599.866511	2468.400981
600.217312	2490.834115
600.568060	2494.362923
600.918753	2467.644808
601.269392	2481.760038
601.619978	2485.288846
601.970510	2488.061481
602.320988	2457.814558
602.671412	2443.951385
603.021783	2463.107769
603.372100	2451.261058
603.722363	2490.582058
604.072572	2485.288846
604.422728	2467.896865
604.772830	2502.176712
605.122878	2459.326904
605.472872	2487.305308
605.822813	2472.181846
606.172701	2473.694192
606.522534	2466.888635
606.872314	2469.157154
607.222041	2464.368058
607.571714	2465.880404
607.921333	2493.606750
608.270899	2494.614981
608.620411	2478.987404
608.969870	2461.091308
609.319276	2476.214769
609.668627	2479.995635
610.017926	2484.028558
610.367171	2471.173615
610.716362	2481.003865
611.065500	2514.023423
611.414585	2473.442135
611.763616	2486.297077
612.112594	2464.620115
612.461518	2481.255923
612.810389	2464.872173
613.159207	2493.102635
613.507971	2486.045019
613.856682	2501.672596
614.205340	2480.499750
614.553945	2520.072808
614.902496	2498.647904
615.250994	2465.628346
615.599439	2498.143788
615.947830	2468.653038
616.296169	2496.379385
616.644454	2464.368058
616.992686	2484.028558
617.340864	2483.272385
617.688990	2483.524442
618.037063	2477.727115
618.385082	2488.313538
618.733048	2487.053250
619.080961	2466.384519
619.428821	2509.738442
619.776628	2503.437000
620.124382	2483.524442
620.472083	2482.516212
620.819731	2472.433904
621.167326	2491.590288
621.514868	2503.941115
621.862357	2461.091308
622.209793	2485.036788
622.557176	2449.496654
622.904506	2482.516212
623.251783	2459.831019
623.599007	2501.168481
623.946179	2513.519308
624.293297	2469.157154
624.640363	2478.483288
624.987376	2485.792962
625.334336	2487.305308
625.681243	2467.392750
626.028097	2470.669500
626.374899	2490.330000
626.721647	2485.036788
627.068343	2490.582058
627.414987	2491.590288
627.761577	2480.751808
628.108115	2469.661269
628.454600	2467.896865
628.801032	2484.784731
629.147412	2467.392750
629.493739	2473.442135
629.840014	2475.206538
630.186236	2467.140692
630.532405	2474.954481
630.878521	2468.653038
631.224585	2468.905096
631.570597	2476.970942
631.916556	2476.466827
632.262462	2462.099538
632.608316	2494.867038
632.954117	2508.982269
633.299866	2476.214769
633.645562	2451.009000
633.991206	2498.899962
634.336797	2473.190077
634.682336	2496.631442
635.027823	2490.582058
635.373257	2497.639673
635.718639	2471.425673
636.063968	2493.354692
636.409245	2453.025462
636.754470	2479.491519
637.099642	2471.677731
637.444762	2464.620115
637.789829	2487.557365
638.134845	2464.116000
638.479808	2483.272385
638.824719	2482.012096
639.169577	2489.825885
639.514383	2467.392750
639.859137	2479.995635
640.203839	2488.565596
640.548489	2467.392750
640.893086	2476.214769
641.237632	2477.223000
641.582125	2448.992538
641.926566	2478.231231
642.270955	2453.781635
642.615292	2455.293981
642.959576	2455.293981
643.303809	2468.653038
643.647990	2474.954481
643.992118	2465.376288
644.336195	2470.165385
644.680219	2465.628346
645.024192	2488.817654
645.368112	2473.190077
645.711981	2498.395846
646.055797	2456.050154
646.399562	2467.644808
646.743274	2460.587192
647.086935	2476.466827
647.430544	2474.702423
647.774101	2483.020327
648.117606	2479.239462
648.461059	2449.244596
648.804460	2477.475058
649.147810	2471.929788
649.491108	2480.247692
649.834354	2442.186981
650.177548	2482.516212
650.520690	2460.839250
650.863781	2468.905096
651.206820	2480.751808
651.549807	2486.297077
651.892742	2474.702423
652.235626	2471.425673
652.578458	2494.110865
652.921238	2452.017231
653.263967	2497.387615
653.606644	2474.702423
653.949269	2469.661269
654.291843	2505.957577
654.634365	2456.302212
654.976836	2484.784731
655.319255	2471.425673
655.661622	2474.450365
656.003938	2464.872173
656.346203	2466.132462
656.688416	2483.524442
657.030577	2462.351596
657.372687	2467.644808
657.714746	2478.231231
658.056753	2453.781635
658.398708	2468.148923
658.740612	2463.863942
659.082465	2465.376288
659.424266	2466.384519
659.766016	2492.094404
660.107715	2460.839250
660.449362	2470.165385
660.790958	2467.896865
661.132503	2466.888635
661.473996	2466.132462
661.815438	2460.083077
662.156829	2493.102635
662.498168	2489.825885
662.839456	2479.491519
663.180693	2438.406115
663.521879	2481.507981
663.863013	2484.532673
664.204097	2477.223000
664.545129	2492.850577
664.886110	2452.521346
665.227040	2483.524442
665.567918	2495.875269
665.908746	2455.546038
666.249522	2457.310442
666.590248	2464.620115
666.930922	2458.318673
667.271545	2478.735346
667.612118	2497.891731
667.952639	2470.417442
668.293109	2454.537808
668.633528	2503.941115
668.973896	2479.239462
669.314213	2479.995635
669.654480	2490.330000
669.994695	2466.132462
670.334859	2478.987404
670.674973	2454.285750
671.015035	2452.773404
671.355047	2452.017231
671.695008	2487.809423
672.034918	2495.623212
672.374777	2465.880404
672.714585	2488.565596
673.054342	2475.710654
673.394049	2462.603654
673.733705	2470.669500
674.073310	2478.231231
674.412864	2486.549135
674.752368	2509.738442
675.091820	2457.562500
675.431223	2473.694192
675.770574	2467.644808
676.109875	2473.694192
676.449125	2462.855712
676.788324	2447.732250
677.127473	2455.041923
677.466571	2444.455500
677.805619	2476.718885
678.144616	2459.831019
678.483562	2462.855712
678.822458	2473.442135
679.161303	2499.152019
679.500098	2461.091308
679.838842	2464.368058
680.177535	2475.458596
680.516179	2469.913327
680.854771	2501.168481
681.193314	2483.020327
681.531805	2477.727115
681.870247	2462.855712
682.208638	2479.995635
682.546978	2462.099538
682.885268	2451.261058
683.223508	2487.053250
683.561697	2463.107769
683.899836	2482.516212
684.237925	2490.077942
684.575963	2475.206538
684.913951	2452.773404
685.251889	2477.475058
685.589776	2496.127327
685.927614	2463.359827
686.265401	2474.450365
686.603137	2461.091308
686.940824	2468.400981
687.278460	2464.116000
687.616046	2464.620115
687.953582	2492.094404
688.291068	2493.354692
688.628504	2440.926692
688.965889	2456.302212
689.303224	2453.529577
689.640510	2476.214769
689.977745	2468.148923
690.314930	2473.694192
690.652065	2473.694192
690.989150	2467.140692
691.326185	2470.669500
691.663170	2478.231231
692.000105	2448.992538
692.336990	2464.620115
692.673825	2471.677731
693.010610	2475.458596
693.347345	2488.817654
693.684030	2476.718885
694.020665	2451.765173
694.357251	2443.951385
694.693786	2491.590288
695.030272	2455.546038
695.366707	2436.893769
695.703093	2474.198308
696.039429	2457.562500
696.375716	2478.231231
696.711952	2438.910231
697.048139	2474.198308
697.384276	2494.614981
697.720363	2448.488423
698.056400	2479.239462
698.392388	2454.033692
698.728326	2484.280615
699.064214	2497.891731
699.400053	2443.951385
699.735842	2444.455500
700.071581	2468.653038
700.407270	2458.822788
700.742910	2464.116000
701.078501	2491.842346
701.414042	2469.157154
701.749533	2462.099538
702.084974	2457.310442
702.420366	2467.896865
702.755709	2486.297077
703.091002	2477.979173
703.426246	2454.033692
703.761440	2460.587192
704.096584	2484.784731
704.431679	2450.504885
704.766725	2486.549135
705.101721	2467.140692
705.436668	2453.529577
705.771565	2489.069712
706.106413	2471.677731
706.441212	2497.387615
706.775961	2489.825885
707.110661	2465.628346
707.445311	2486.801192
707.779913	2468.905096
708.114465	2491.338231
708.448967	2468.148923
708.783421	2458.822788
709.117825	2456.554269
709.452180	2485.540904
709.786485	2448.740481
710.120742	2497.891731
710.454949	2445.463731
710.789107	2478.987404
711.123216	2465.124231
711.457275	2479.491519
711.791286	2467.644808
712.125247	2446.724019
712.459159	2458.570731
712.793023	2461.091308
713.126837	2456.050154
713.460602	2458.570731
713.794318	2468.653038
714.127985	2451.261058
714.461602	2483.272385
714.795171	2479.239462
715.128691	2449.748712
715.462162	2467.644808
715.795584	2462.603654
716.128957	2468.148923
716.462281	2467.140692
716.795556	2454.789865
717.128782	2488.817654
717.461960	2473.694192
717.795088	2471.425673
718.128167	2465.124231
718.461198	2457.562500
718.794180	2471.929788
719.127113	2466.888635
719.459997	2508.730212
719.792833	2446.219904
720.125619	2461.091308
720.458357	2455.798096
720.791046	2484.280615
721.123686	2487.809423
721.456278	2462.351596
721.788821	2458.570731
722.121315	2454.537808
722.453761	2463.107769
722.786158	2459.074846
723.118506	2481.760038
723.450805	2474.450365
723.783056	2488.313538
724.115259	2483.020327
724.447412	2467.644808
724.779518	2455.041923
725.111574	2472.181846
725.443582	2481.760038
725.775542	2467.644808
726.107453	2456.554269
726.439315	2481.003865
726.771129	2450.252827
727.102895	2459.578962
727.434612	2463.359827
727.766281	2459.578962
728.097901	2447.732250
728.429473	2479.239462
728.760996	2484.280615
729.092471	2470.669500
729.423897	2478.735346
729.755276	2486.045019
730.086606	2464.116000
730.417887	2445.967846
730.749120	2454.789865
731.080305	2482.264154
731.411442	2465.376288
731.742530	2432.608788
732.073570	2483.272385
732.404562	2456.806327
732.735506	2467.140692
733.066401	2457.058385
733.397249	2465.124231
733.728048	2476.970942
734.058798	2451.261058
734.389501	2489.321769
734.720156	2473.694192
735.050762	2455.798096
735.381320	2484.028558
735.711831	2460.839250
736.042293	2473.694192
736.372707	2460.839250
736.703073	2474.702423
737.033391	2449.748712
737.363661	2476.214769
737.693883	2478.735346
738.024056	2458.570731
738.354182	2459.074846
738.684260	2485.540904
739.014290	2461.091308
739.344272	2477.223000
739.674207	2467.644808
740.004093	2468.400981
740.333931	2457.058385
740.663722	2465.880404
740.993464	2462.351596
741.323159	2480.499750
741.652806	2468.653038
741.982405	2456.302212
742.311956	2470.165385
742.641460	2478.483288
742.970915	2461.343365
743.300323	2471.425673
743.629683	2475.710654
743.958996	2445.211673
744.288260	2455.798096
744.617477	2454.789865
744.946647	2461.091308
745.275768	2459.326904
745.604842	2455.041923
745.933869	2443.699327
746.262847	2457.562500
746.591778	2438.406115
746.920662	2464.368058
747.249498	2464.368058
747.578286	2478.735346
747.907027	2470.921558
748.235720	2443.951385
748.564365	2458.318673
748.892963	2446.724019
749.221514	2476.718885
749.550017	2490.077942
749.878473	2477.475058
750.206881	2469.661269
750.535242	2472.938019
750.863555	2470.921558
751.191821	2479.743577
751.520039	2484.784731
751.848210	2490.077942
752.176334	2459.831019
752.504411	2497.387615
752.832440	2464.368058
753.160421	2488.061481
753.488356	2466.888635
753.816243	2501.420538
754.144082	2475.710654
754.471875	2509.738442
754.799620	2463.611885
755.127318	2446.976077
755.454969	2469.409212
755.782572	2468.400981
756.110129	2470.669500
756.437638	2473.190077
756.765100	2468.653038
757.092515	2454.537808
757.419882	2436.389654
757.747203	2501.924654
758.074477	2468.653038
758.401703	2473.694192
758.728882	2450.252827
759.056014	2496.883500
759.383099	2469.409212
759.710138	2467.140692
760.037129	2458.066615
760.364073	2471.677731
760.690970	2462.855712
761.017820	2456.806327
761.344623	2473.946250
761.671379	2465.628346
761.998088	2467.140692
762.324751	2456.554269
762.651366	2470.165385
762.977935	2478.987404
763.304456	2463.611885
763.630931	2452.269288
763.957359	2456.806327
764.283740	2468.148923
764.610074	2475.206538
764.936362	2478.231231
765.262602	2477.223000
765.588796	2469.157154
765.914943	2484.028558
766.241044	2467.644808
766.567097	2462.351596
766.893104	2456.806327
767.219064	2454.033692
767.544978	2481.507981
767.870845	2472.433904
768.196665	2477.979173
768.522438	2469.913327
768.848165	2455.798096
769.173846	2467.896865
769.499479	2496.127327
769.825066	2469.661269
770.150607	2471.425673
770.476101	2461.595423
770.801548	2478.987404
771.126949	2468.653038
771.452303	2464.116000
771.777611	2481.507981
772.102872	2455.798096
772.428087	2459.074846
772.753256	2470.669500
773.078378	2499.152019
773.403453	2464.620115
773.728482	2478.987404
774.053465	2468.148923
774.378401	2467.140692
774.703291	2479.239462
775.028135	2480.247692
775.352932	2465.376288
775.677683	2438.910231
776.002388	2480.751808
776.327046	2436.389654
776.651658	2470.165385
776.976224	2458.822788
777.300743	2493.354692
777.625216	2453.781635
777.949643	2461.847481
778.274024	2445.211673
778.598359	2495.371154
778.922647	2463.107769
779.246889	2464.872173
779.571086	2462.099538
779.895236	2474.954481
780.219339	2475.710654
780.543397	2454.033692
780.867409	2482.012096
781.191374	2456.806327
781.515294	2457.562500
781.839167	2462.855712
782.162995	2462.099538
782.486776	2452.773404
782.810511	2476.214769
783.134201	2453.025462
783.457844	2450.756942
783.781441	2446.976077
784.104993	2441.682865
784.428498	2485.288846
784.751958	2471.425673
785.075372	2480.751808
785.398739	2444.707558
785.722061	2457.814558
786.045337	2451.765173
786.368568	2448.992538
786.691752	2452.521346
787.014891	2470.921558
787.337983	2445.715788
787.661030	2462.099538
787.984031	2458.066615
788.306987	2460.335135
788.629897	2470.669500
788.952760	2447.984308
789.275579	2507.721981
789.598351	2429.079981
789.921078	2507.217865
790.243759	2469.661269
790.566395	2452.521346
790.888984	2467.140692
791.211529	2459.831019
791.534027	2450.252827
791.856480	2454.285750
792.178888	2470.921558
792.501249	2468.400981
792.823566	2470.165385
793.145836	2485.036788
793.468062	2475.458596
793.790241	2484.028558
794.112375	2476.718885
794.434464	2452.773404
794.756507	2472.685962
795.078505	2460.839250
795.400457	2436.893769
795.722364	2491.842346
796.044226	2453.529577
796.366042	2460.587192
796.687812	2464.368058
797.009538	2450.756942
797.331218	2475.962712
797.652852	2480.499750
797.974442	2451.261058
798.295986	2447.228135
798.617484	2452.773404
798.938938	2485.036788
799.260346	2444.959615
799.581709	2437.397885
799.903026	2482.516212
800.224299	2482.264154
800.545526	2481.255923
800.866708	2469.409212
801.187845	2456.806327
801.508936	2450.000769
801.829983	2453.277519
802.150984	2451.765173
802.471940	2463.863942
802.792851	2466.636577
803.113717	2474.450365
803.434538	2488.817654
803.755314	2445.211673
804.076045	2448.236365
804.396731	2473.442135
804.717372	2452.017231
805.037967	2462.099538
805.358518	2472.181846
805.679024	2476.214769
805.999485	2463.611885
806.319901	2475.458596
806.640272	2457.310442
806.960598	2492.346462
807.280879	2451.513115
807.601115	2457.562500
807.921306	2486.801192
808.241453	2464.368058
808.561554	2452.017231
808.881611	2468.653038
809.201623	2480.247692
809.521590	2493.102635
809.841513	2466.888635
810.161390	2449.496654
810.481223	2445.211673
810.801011	2458.822788
811.120755	2444.455500
811.440453	2457.814558
811.760107	2479.491519
812.079716	2457.310442
812.399281	2467.392750
812.718801	2462.603654
813.038276	2479.743577
813.357707	2470.921558
813.677093	2459.831019
813.996434	2478.231231
814.315731	2458.318673
814.634983	2466.384519
814.954191	2463.611885
815.273354	2469.913327
815.592473	2463.107769
815.911547	2471.677731
816.230577	2450.252827
816.549562	2469.409212
816.868502	2434.121135
817.187399	2472.181846
817.506250	2451.009000
817.825058	2479.743577
818.143821	2494.867038
818.462539	2459.578962
818.781213	2452.521346
819.099843	2457.814558
819.418429	2458.570731
819.736970	2482.012096
820.055466	2500.160250
820.373919	2478.231231
820.692327	2483.524442
821.010691	2455.041923
821.329011	2478.231231
821.647286	2457.058385
821.965517	2495.875269
822.283704	2497.387615
822.601847	2505.201404
822.919945	2481.255923
823.237999	2486.801192
823.556010	2494.614981
823.873976	2470.921558
824.191897	2476.970942
824.509775	2461.847481
824.827609	2455.293981
825.145398	2474.702423
825.463144	2463.107769
825.780845	2466.636577
826.098502	2442.186981
826.416116	2447.984308
826.733685	2466.888635
827.051210	2459.074846
827.368692	2477.727115
827.686129	2463.611885
828.003522	2481.003865
828.320872	2456.554269
828.638177	2468.400981
828.955439	2453.529577
829.272656	2474.702423
829.589830	2459.326904
829.906960	2461.595423
830.224046	2465.628346
830.541088	2469.661269
830.858086	2465.376288
831.175041	2454.285750
831.491952	2467.644808
831.808819	2483.272385
832.125642	2453.781635
832.442421	2457.814558
832.759157	2466.384519
833.075849	2449.748712
833.392497	2464.620115
833.709101	2447.732250
834.025662	2470.417442
834.342179	2473.190077
834.658653	2462.855712
834.975083	2463.359827
835.291469	2473.190077
835.607811	2463.359827
835.924110	2465.880404
836.240366	2457.058385
836.556578	2464.116000
836.872746	2461.595423
837.188871	2467.140692
837.504952	2458.822788
837.820990	2454.285750
838.136984	2471.425673
838.452935	2452.521346
838.768842	2488.061481
839.084706	2468.148923
839.400526	2441.178750
839.716303	2443.195212
840.032037	2457.058385
840.347727	2452.773404
840.663373	2467.644808
840.978977	2472.685962
841.294537	2463.107769
841.610054	2454.537808
841.925527	2457.058385
842.240957	2454.537808
842.556344	2439.918462
842.871687	2483.272385
843.186987	2420.762077
843.502244	2445.211673
843.817458	2466.888635
844.132629	2459.074846
844.447756	2444.203442
844.762840	2477.979173
845.077881	2468.400981
845.392879	2458.822788
845.707833	2434.877308
846.022745	2449.748712
846.337613	2459.326904
846.652438	2453.025462
846.967221	2490.330000
847.281960	2469.661269
847.596656	2464.368058
847.911309	2470.165385
848.225919	2457.310442
848.540485	2450.000769
848.855009	2448.992538
849.169490	2413.200346
849.483928	2452.521346
849.798323	2449.496654
850.112675	2473.694192
850.426984	2463.359827
850.741251	2454.789865
851.055474	2453.025462
851.369654	2451.009000
851.683792	2466.636577
851.997887	2446.219904
852.311938	2459.578962
852.625947	2454.285750
852.939914	2491.338231
853.253837	2438.910231
853.567718	2476.718885
853.881555	2452.269288
854.195350	2484.028558
854.509103	2450.756942
854.822812	2449.496654
855.136479	2468.905096
855.450103	2478.987404
855.763685	2458.066615
856.077224	2482.012096
856.390720	2465.124231
856.704173	2451.009000
857.017584	2471.173615
857.330953	2455.293981
857.644278	2471.425673
857.957561	2448.992538
858.270802	2473.946250
858.584000	2483.020327
858.897155	2455.798096
859.210268	2462.603654
859.523339	2482.516212
859.836367	2453.277519
860.149352	2459.074846
860.462295	2447.732250
860.775195	2473.442135
861.088054	2437.649942
861.400869	2471.425673
861.713642	2435.129365
862.026373	2460.083077
862.339062	2437.397885
862.651708	2461.091308
862.964312	2458.066615
863.276873	2486.549135
863.589392	2452.017231
863.901869	2457.814558
864.214303	2453.781635
864.526696	2476.970942
864.839045	2472.685962
865.151353	2435.885538
865.463619	2470.669500
865.775842	2459.831019
866.088023	2469.913327
866.400162	2447.480192
866.712258	2493.354692
867.024313	2458.066615
867.336325	2425.299115
867.648296	2464.116000
867.960224	2466.384519
868.272110	2468.148923
868.583954	2443.447269
868.895755	2445.715788
869.207515	2479.995635
869.519233	2433.112904
869.830909	2479.239462
870.142542	2468.905096
870.454134	2459.578962
870.765684	2491.086173
871.077191	2458.066615
871.388657	2471.929788
871.700081	2464.368058
872.011463	2454.285750
872.322803	2439.162288
872.634101	2474.954481
872.945357	2453.781635
873.256571	2473.694192
873.567744	2453.781635
873.878874	2456.806327
874.189963	2456.050154
874.501010	2460.083077
874.812015	2471.425673
875.122979	2473.694192
875.433900	2444.455500
875.744780	2459.074846
876.055618	2460.335135
876.366415	2467.392750
876.677169	2465.880404
876.987882	2453.529577
877.298554	2475.458596
877.609183	2457.814558
877.919771	2457.814558
878.230317	2449.244596
878.540822	2446.976077
878.851285	2460.839250
879.161707	2453.025462
879.472087	2451.009000
879.782425	2473.694192
880.092722	2449.748712
880.402977	2475.710654
880.713191	2461.091308
881.023363	2447.984308
881.333494	2455.293981
881.643583	2483.272385
881.953631	2456.554269
882.263637	2450.504885
882.573602	2475.962712
882.883526	2478.987404
883.193408	2434.625250
883.503248	2451.261058
883.813048	2477.979173
884.122806	2452.017231
884.432522	2444.455500
884.742197	2456.302212
885.051831	2464.620115
885.361424	2467.392750
885.670975	2445.463731
885.980485	2431.096442
886.289954	2478.735346
886.599382	2475.458596
886.908768	2463.863942
887.218113	2468.148923
887.527417	2467.644808
887.836680	2477.979173
888.145901	2459.831019
888.455082	2448.488423
888.764221	2481.255923
889.073319	2455.798096
889.382376	2461.343365
889.691392	2448.740481
890.000366	2478.987404
890.309300	2461.091308
890.618193	2463.107769
890.927044	2434.625250
891.235855	2451.765173
891.544625	2433.364962
891.853353	2433.364962
892.162041	2457.310442
892.470687	2453.277519
892.779293	2455.293981
893.087858	2450.756942
893.396381	2460.839250
893.704864	2449.496654
894.013306	2457.058385
894.321707	2464.368058
894.630068	2461.091308
894.938387	2450.252827
895.246665	2460.083077
895.554903	2477.475058
895.863100	2463.107769
896.171256	2427.567635
896.479371	2454.789865
896.787446	2479.743577
897.095480	2469.409212
897.403473	2468.400981
897.711425	2468.148923
898.019336	2467.392750
898.327207	2433.869077
898.635038	2475.458596
898.942827	2481.255923
899.250576	2443.195212
899.558284	2477.475058
899.865952	2454.033692
900.173579	2466.132462
900.481165	2449.244596
900.788711	2461.847481
901.096216	2455.546038
901.403681	2475.710654
901.711105	2454.285750
902.018489	2461.343365
902.325832	2444.203442
902.633135	2445.715788
902.940397	2468.905096
903.247619	2469.157154
903.554800	2447.984308
903.861941	2471.173615
904.169041	2463.107769
904.476101	2459.074846
904.783121	2479.239462
905.090100	2455.293981
905.397039	2467.392750
905.703938	2460.839250
906.010796	2460.335135
906.317614	2465.628346
906.624391	2444.455500
906.931129	2457.310442
907.237826	2458.570731
907.544483	2429.584096
907.851099	2464.116000
908.157675	2472.938019
908.464211	2481.760038
908.770707	2467.896865
909.077163	2463.863942
909.383578	2465.124231
909.689954	2467.644808
909.996289	2455.293981
910.302584	2452.773404
910.608839	2456.806327
910.915054	2441.934923
911.221229	2438.910231
911.527363	2479.239462
911.833458	2462.855712
912.139513	2444.707558
912.445527	2445.211673
912.751502	2475.710654
913.057436	2468.400981
913.363331	2432.608788
913.669186	2466.636577
913.975000	2454.033692
914.280775	2446.724019
914.586510	2456.806327
914.892205	2495.119096
915.197859	2462.855712
915.503475	2447.732250
915.809050	2458.570731
916.114585	2456.050154
916.420081	2464.872173
916.725536	2467.644808
917.030952	2465.376288
917.336328	2473.442135
917.641665	2453.781635
917.946961	2455.798096
918.252218	2502.176712
918.557435	2450.252827
918.862612	2467.392750
919.167750	2489.069712
919.472848	2465.376288
919.777906	2463.611885
920.082925	2475.206538
920.387904	2470.669500
920.692843	2454.285750
920.997743	2462.603654
921.302603	2457.310442
921.607423	2429.584096
921.912204	2446.976077
922.216946	2454.537808
922.521647	2456.806327
922.826310	2476.466827
923.130932	2490.834115
923.435516	2459.578962
923.740059	2430.592327
924.044564	2482.768269
924.349028	2444.203442
924.653454	2472.181846
924.957840	2457.562500
925.262186	2452.521346
925.566493	2448.992538
925.870761	2471.173615
926.174989	2461.091308
926.479178	2479.995635
926.783328	2493.102635
927.087438	2446.219904
927.391509	2449.748712
927.695541	2471.173615
927.999533	2470.417442
928.303486	2457.058385
928.607400	2480.247692
928.911275	2454.789865
929.215110	2442.943154
929.518906	2460.335135
929.822663	2469.157154
930.126381	2460.335135
930.430060	2437.902000
930.733699	2454.537808
931.037299	2435.129365
931.340861	2451.261058
931.644383	2421.770308
931.947866	2446.219904
932.251309	2456.050154
932.554714	2441.430808
932.858080	2439.918462
933.161407	2460.839250
933.464694	2449.748712
933.767943	2473.442135
934.071153	2470.669500
934.374323	2447.228135
934.677455	2466.636577
934.980548	2463.359827
935.283602	2448.488423
935.586617	2454.537808
935.889593	2472.181846
936.192530	2472.938019
936.495428	2446.219904
936.798287	2463.359827
937.101108	2442.186981
937.403890	2454.537808
937.706632	2443.951385
938.009336	2463.359827
938.312002	2472.181846
938.614628	2454.033692
938.917216	2456.806327
939.219765	2450.504885
939.522275	2446.219904
939.824747	2437.649942
940.127179	2475.458596
940.429573	2435.633481
940.731929	2451.261058
941.034246	2462.603654
941.336524	2473.946250
941.638763	2474.954481
941.940964	2429.584096
942.243126	2450.504885
942.545250	2457.814558
942.847335	2449.748712
943.149381	2465.376288
943.451389	2441.178750
943.753359	2465.124231
944.055290	2462.855712
944.357182	2459.326904
944.659036	2498.899962
944.960851	2470.669500
945.262628	2470.669500
945.564367	2468.653038
945.866067	2470.669500
946.167729	2474.954481
946.469352	2458.570731
946.770937	2459.831019
947.072484	2459.074846
947.373992	2460.083077
947.675462	2462.351596
947.976893	2465.628346
948.278286	2440.926692
948.579641	2425.047058
948.880958	2447.228135
949.182236	2453.529577
949.483476	2442.439038
949.784678	2465.376288
950.085841	2456.554269
950.386967	2470.417442
950.688054	2435.885538
950.989103	2465.124231
951.290114	2464.620115
951.591087	2471.929788
951.892021	2445.211673
952.192917	2474.702423
952.493776	2467.644808
952.794596	2466.384519
953.095378	2448.992538
953.396122	2467.392750
953.696828	2468.905096
953.997496	2459.074846
954.298126	2433.869077
954.598718	2466.636577
954.899272	2474.198308
955.199788	2466.636577
955.500266	2459.831019
955.800706	2433.869077
956.101108	2452.773404
956.401472	2457.058385
956.701798	2463.611885
957.002087	2478.987404
957.302337	2438.154058
957.602550	2452.017231
957.902724	2431.096442
958.202861	2445.715788
958.502960	2448.236365
958.803022	2426.307346
959.103045	2477.475058
959.403031	2438.910231
959.702979	2454.033692
960.002889	2476.970942
960.302762	2480.751808
960.602596	2442.943154
960.902393	2430.088212
961.202153	2444.203442
961.501875	2444.455500
961.801559	2492.346462
962.101205	2470.921558
962.400814	2468.653038
962.700385	2447.732250
962.999918	2443.699327
963.299414	2474.198308
963.598873	2454.537808
963.898293	2473.946250
964.197677	2460.083077
964.497022	2440.422577
964.796331	2458.066615
965.095601	2454.285750
965.394835	2467.896865
965.694030	2455.041923
965.993189	2440.170519
966.292309	2472.685962
966.591393	2457.058385
966.890439	2468.148923
967.189447	2480.751808
967.488419	2460.587192
967.787353	2471.929788
968.086249	2458.066615
968.385108	2467.392750
968.683930	2457.562500
968.982714	2447.480192
969.281462	2463.863942
969.580172	2461.091308
969.878844	2473.694192
970.177480	2461.343365
970.476078	2447.480192
970.774639	2469.157154
971.073162	2458.570731
971.371649	2466.888635
971.670098	2477.475058
971.968510	2450.252827
972.266885	2479.239462
972.565223	2463.107769
972.863524	2478.987404
973.161788	2432.356731
973.460014	2449.244596
973.758204	2489.825885
974.056356	2468.148923
974.354471	2486.045019
974.652550	2457.562500
974.950591	2476.970942
975.248595	2451.261058
975.546563	2461.091308
975.844493	2441.934923
976.142386	2499.404077
976.440243	2432.860846
976.738062	2460.083077
977.035845	2459.578962
977.333590	2445.463731
977.631299	2443.699327
977.928971	2453.277519
978.226606	2418.997673
978.524204	2476.466827
978.821765	2430.088212
979.119290	2469.409212
979.416777	2429.332038
979.714228	2460.587192
980.011642	2456.302212
980.309020	2457.310442
980.606360	2463.611885
980.903664	2473.694192
981.200931	2455.041923
981.498162	2465.376288
981.795356	2476.718885
982.092513	2443.951385
982.389633	2476.466827
982.686717	2449.244596
982.983764	2457.058385
983.280775	2448.992538
983.577749	2467.140692
983.874686	2442.943154
984.171587	2440.170519
984.468451	2447.228135
984.765279	2452.269288
985.062070	2422.778538
985.358824	2467.644808
985.655543	2463.611885
985.952224	2477.979173
986.248869	2444.707558
986.545478	2465.124231
986.842050	2434.625250
987.138586	2441.934923
987.435086	2475.458596
987.731549	2462.855712
988.027975	2439.162288
988.324366	2425.299115
988.620719	2453.025462
988.917037	2450.000769
989.213318	2475.458596
989.509563	2459.578962
989.805772	2468.905096
990.101944	2451.261058
990.398080	2457.058385
990.694180	2435.129365
990.990244	2450.252827
991.286271	2444.203442
991.582262	2490.582058
991.878217	2436.641712
992.174136	2459.831019
992.470019	2417.989442
992.765865	2436.137596
993.061676	2478.735346
993.357450	2428.323808
993.653188	2439.666404
993.948890	2465.376288
994.244556	2479.743577
994.540186	2450.252827
994.835780	2451.261058
995.131337	2469.409212
995.426859	2480.499750
995.722345	2466.384519
996.017795	2439.414346
996.313208	2464.872173
996.608586	2430.844385
996.903928	2479.239462
997.199234	2469.157154
997.494504	2457.058385
997.789738	2472.938019
998.084936	2493.858808
998.380099	2468.653038
998.675225	2477.727115
998.970316	2458.066615
999.265371	2443.447269
999.560390	2471.425673
999.855373	2454.285750
1000.150320	2455.546038
1000.445232	2457.310442
1000.740108	2463.611885
1001.034948	2477.727115
1001.329752	2447.480192
1001.624521	2449.748712
1001.919254	2466.132462
1002.213951	2462.099538
1002.508613	2446.724019
1002.803239	2474.702423
1003.097829	2470.417442
1003.392384	2458.066615
1003.686903	2462.351596
1003.981386	2452.017231
1004.275834	2448.236365
1004.570246	2469.661269
1004.864623	2479.743577
1005.158964	2433.112904
1005.453270	2460.083077
1005.747540	2477.727115
1006.041775	2461.847481
1006.335974	2475.458596
1006.630138	2457.562500
1006.924266	2479.743577
1007.218359	2466.888635
1007.512416	2448.488423
1007.806438	2460.335135
1008.100425	2443.195212
1008.394376	2462.099538
1008.688292	2432.860846
1008.982172	2462.099538
1009.276017	2467.140692
1009.569827	2457.814558
1009.863602	2447.732250
1010.157341	2440.674635
1010.451045	2444.203442
1010.744714	2456.302212
1011.038347	2464.368058
1011.331945	2465.124231
1011.625508	2462.603654
1011.919036	2466.132462
1012.212528	2484.280615
1012.505986	2433.364962
1012.799408	2455.293981
1013.092795	2458.066615
1013.386147	2451.261058
1013.679464	2451.009000
1013.972745	2445.967846
1014.265992	2449.244596
1014.559204	2464.620115
1014.852380	2471.677731
1015.145521	2459.831019
1015.438628	2447.732250
1015.731699	2451.009000
1016.024736	2430.088212
1016.317737	2433.617019
1016.610703	2435.633481
1016.903635	2459.578962
1017.196531	2452.017231
1017.489393	2447.480192
1017.782219	2452.269288
1018.075011	2440.170519
1018.367768	2436.641712
1018.660490	2451.513115
1018.953177	2451.513115
1019.245829	2451.513115
