Dividing Wavelength (nm)	Counts (n)	Slit_number_26_of_a_total_of_40	
326.493990	2038.113294
326.888308	2038.113294
327.282561	2038.113294
327.676750	2021.477487
328.070874	2013.260406
328.464933	2024.023269
328.858929	2032.139527
329.252859	2042.297452
329.646726	2059.865873
330.040528	2072.947667
330.434265	2088.600450
330.827938	2113.050046
331.221547	2133.920423
331.615091	2153.530512
332.008571	2173.896773
332.401986	2195.523323
332.795338	2209.966229
333.188625	2235.424056
333.581847	2254.151942
333.975006	2261.184352
334.368100	2289.288785
334.761129	2303.857719
335.154095	2318.149390
335.546996	2335.692606
335.939833	2348.093844
336.332606	2360.570700
336.725315	2366.821731
337.117960	2387.818137
337.510540	2391.094887
337.903056	2404.479150
338.295508	2403.823800
338.687896	2415.897363
339.080220	2424.064033
339.472480	2425.500762
339.864676	2428.903540
340.256807	2430.592327
340.648875	2441.229162
341.040879	2437.045004
341.432818	2434.095929
341.824694	2433.743048
342.216506	2438.154058
342.608253	2434.121135
342.999937	2435.356217
343.391557	2434.877308
343.783113	2438.103646
344.174605	2433.289344
344.566033	2431.575352
344.957397	2434.700867
345.348697	2425.778025
345.739934	2428.021338
346.131106	2428.752306
346.522215	2419.955492
346.913260	2425.626790
347.304241	2426.609815
347.695159	2418.165883
348.086012	2419.501788
348.476802	2418.644792
348.867528	2402.135013
349.258191	2411.083062
349.648789	2410.805798
350.039324	2403.344890
350.429796	2404.706002
350.820203	2407.503842
351.210548	2409.696744
351.600828	2405.840262
351.991045	2412.746642
352.381198	2395.102604
352.771288	2407.856723
353.161314	2406.974521
353.551276	2408.285221
353.941175	2406.394788
354.331010	2400.320198
354.720782	2405.033677
355.110490	2399.866494
355.500135	2409.243040
355.889717	2407.276990
356.279235	2403.042421
356.668689	2408.990983
357.058080	2402.765158
357.447408	2410.427712
357.836672	2408.209604
358.225873	2412.570202
358.615010	2410.226065
359.004084	2411.511560
359.393095	2410.402506
359.782043	2409.318658
360.170927	2410.049625
360.559748	2424.795000
360.948505	2412.267733
361.337199	2408.209604
361.725830	2416.199833
362.114398	2409.847979
362.502903	2413.704462
362.891344	2414.208577
363.279722	2418.468352
363.668037	2417.964237
364.056289	2407.705488
364.444478	2415.695717
364.832603	2422.274423
365.220665	2416.073804
365.608665	2422.299629
365.996601	2420.283167
366.384474	2419.678229
366.772284	2421.039340
367.160031	2428.777512
367.547715	2415.645306
367.935336	2415.972981
368.322893	2417.636562
368.710388	2414.611869
369.097820	2416.048598
369.485189	2416.703948
369.872495	2421.493044
370.259738	2431.020825
370.646918	2422.828950
371.034035	2424.946235
371.421090	2423.963210
371.808081	2429.432862
372.195010	2419.779052
372.581875	2422.375246
372.968678	2427.013108
373.355418	2423.055802
373.742096	2433.717842
374.128710	2428.021338
374.515262	2425.525967
374.901751	2434.045517
375.288177	2431.600558
375.674540	2423.761563
376.060841	2436.036773
376.447079	2430.365475
376.833254	2423.534712
377.219367	2430.617533
377.605417	2430.667944
377.991404	2436.414860
378.377329	2431.071237
378.763191	2444.304265
379.148991	2439.036260
379.534727	2438.532144
379.920402	2440.926692
380.306013	2447.883485
380.691563	2449.975563
381.077049	2458.646348
381.462474	2457.310442
381.847835	2484.028558
382.233134	2489.977119
382.618371	2496.278562
383.003545	2522.341327
383.388657	2526.903571
383.773706	2566.955538
384.158693	2585.708631
384.543618	2610.737960
384.928480	2630.700929
385.313280	2671.080571
385.698017	2702.940663
386.082692	2749.949423
386.467305	2775.684513
386.851856	2838.169615
387.236344	2889.816237
387.620770	2932.439192
388.005133	2979.573981
388.389435	3040.571942
388.773674	3106.132148
389.157851	3160.601815
389.541965	3223.994325
389.926018	3268.381685
390.310008	3333.084894
390.693936	3409.508787
391.077802	3455.257258
391.461606	3525.480531
391.845348	3582.823656
392.229027	3647.123573
392.612645	3741.544385
392.996200	3805.919919
393.379694	3879.495560
393.763125	3983.948267
394.146494	4047.139131
394.529801	4106.448306
394.913047	4213.144327
395.296230	4219.672621
395.679351	4258.338271
396.062410	4373.931929
396.445408	4343.357331
396.828343	4396.617121
397.211217	4477.073937
397.594028	4416.454062
397.976778	4491.390813
398.359466	4551.783837
398.742092	4538.424779
399.124656	4570.007608
399.507158	4631.711331
399.889598	4618.679948
400.271977	4668.562165
400.654294	4650.766892
401.036549	4700.875962
401.418742	4680.484494
401.800874	4738.457763
402.182944	4728.224221
402.564952	4816.116738
402.946898	4707.782342
403.328783	4680.938198
403.710606	4686.080175
404.092367	4690.138304
404.474067	4735.735540
404.855705	4620.645998
405.237282	4536.685581
405.618797	4588.508642
406.000250	4585.231892
406.381642	4594.608438
406.762972	4510.521992
407.144240	4378.519379
407.525447	4349.482333
407.906593	4256.069752
408.287677	4238.753388
408.668700	4169.689581
409.049661	4087.165892
409.430560	4033.906102
409.811399	3945.484263
410.192176	3898.147829
410.572891	3822.076817
410.953545	3798.887510
411.334138	3657.785613
411.714669	3646.367400
412.095139	3489.915190
412.475547	3469.473312
412.855894	3384.025754
413.236180	3340.318950
413.616405	3246.654312
413.996568	3205.342056
414.376670	3153.619817
414.756711	3082.564754
415.136691	3040.874412
415.516609	2999.058040
415.896466	2963.417083
416.276262	2922.281267
416.655997	2896.117679
417.035670	2854.881040
417.415283	2843.488033
417.794834	2808.905717
418.174324	2766.257556
418.553753	2732.885117
418.933121	2716.072869
419.312428	2680.734381
419.691674	2652.957623
420.070859	2634.128913
420.449983	2625.483335
420.829045	2608.267794
421.208047	2589.338262
421.586988	2575.298648
421.965867	2573.559450
422.344686	2551.453990
422.723444	2542.329502
423.102141	2537.414377
423.480777	2533.003367
423.859352	2519.114988
424.237866	2525.139167
424.616319	2511.679287
424.994712	2517.300173
425.373044	2503.134531
425.751314	2511.603669
426.129524	2501.622185
426.507673	2490.279588
426.885762	2497.236381
427.263789	2486.675163
427.641756	2493.732779
428.019662	2490.002325
428.397508	2482.087713
428.775292	2486.045019
429.153016	2485.868579
429.530679	2477.752321
429.908282	2476.189563
430.285824	2479.819194
430.663305	2480.373721
431.040726	2481.659215
431.418086	2487.355719
431.795385	2472.585138
432.172624	2478.508494
432.549802	2474.223513
432.926920	2477.374235
433.303977	2469.711681
433.680974	2470.039356
434.057910	2480.676190
434.434786	2474.147896
434.811601	2474.248719
435.188355	2468.400981
435.565050	2469.787298
435.941683	2472.610344
436.318257	2466.056844
436.694770	2464.116000
437.071222	2469.636063
437.447614	2475.105715
437.823946	2467.090281
438.200218	2458.243056
438.576429	2460.940073
438.952580	2466.989458
439.328670	2465.048613
439.704700	2464.695733
440.080670	2472.761579
440.456580	2459.150463
440.832429	2466.813017
441.208218	2469.762092
441.583947	2471.854171
441.959616	2466.989458
442.335224	2463.687502
442.710773	2469.358800
443.086261	2472.005406
443.461689	2469.333594
443.837057	2467.922071
444.212365	2459.805813
444.587612	2471.097998
444.962800	2469.686475
445.337927	2465.829992
445.712995	2457.335648
446.088002	2472.786785
446.462949	2456.251800
446.837837	2467.846454
447.212664	2462.200362
447.587431	2471.980200
447.962139	2471.854171
448.336786	2474.273925
448.711374	2484.179792
449.085901	2466.434931
449.460369	2462.528037
449.834776	2467.241515
450.209124	2471.702937
450.583412	2474.324337
450.957640	2470.896352
451.331808	2484.860348
451.705917	2473.795015
452.079965	2471.299644
452.453954	2470.165385
452.827883	2466.434931
453.201752	2472.585138
453.575562	2466.359313
453.949311	2478.987404
454.323001	2460.763633
454.696632	2461.393777
455.070202	2470.089767
455.443713	2470.114973
455.817164	2471.828965
456.190556	2480.928248
456.563888	2479.466313
456.937160	2484.583085
457.310373	2468.779067
457.683526	2468.249746
458.056619	2474.702423
458.429653	2470.795529
458.802628	2471.425673
459.175542	2475.836683
459.548398	2470.820735
459.921194	2475.231744
460.293930	2474.299131
460.666607	2477.298617
461.039224	2479.592342
461.411782	2488.439567
461.784280	2470.845940
462.156719	2476.517238
462.529099	2471.501290
462.901419	2476.391210
463.273680	2482.087713
463.645882	2470.795529
464.018024	2468.451392
464.390106	2481.356746
464.762130	2471.501290
465.134094	2479.995635
465.505999	2494.917450
465.877845	2487.481748
466.249631	2492.648931
466.621358	2488.414362
466.993026	2485.490492
467.364634	2496.102121
467.736184	2487.532160
468.107674	2483.650471
468.479105	2481.734833
468.850477	2481.936479
469.221790	2485.918990
469.593043	2484.356233
469.964238	2478.735346
470.335373	2483.726088
470.706449	2481.911273
471.077467	2481.810450
471.448425	2482.743063
471.819324	2483.776500
472.190164	2485.969402
472.560945	2479.819194
472.931667	2482.566623
473.302330	2479.088227
473.672934	2481.860862
474.043479	2478.332054
474.413965	2480.348515
474.784393	2479.289873
475.154761	2477.399440
475.525070	2479.516725
475.895321	2473.467340
476.265513	2483.700883
476.635645	2482.213742
477.005719	2478.231231
477.375734	2489.170535
477.745691	2477.676704
478.115588	2483.751294
478.485427	2482.642240
478.855207	2484.809937
479.224928	2493.707573
479.594591	2494.438540
479.964194	2495.522388
480.333739	2495.194713
480.703226	2489.120123
481.072653	2483.675677
481.442022	2499.429283
481.811333	2487.834629
482.180584	2486.801192
482.549777	2487.154073
482.918912	2483.826912
483.287988	2487.078456
483.657005	2486.523929
484.025964	2495.698829
484.394864	2483.927735
484.763706	2492.976606
485.132489	2488.994094
485.501213	2490.203971
485.869879	2479.088227
486.238487	2487.632983
486.607036	2488.842860
486.975527	2492.422079
487.343959	2487.582571
487.712333	2491.136585
488.080648	2488.439567
488.448905	2491.615494
488.817104	2495.093890
489.185244	2479.390696
489.553326	2488.515185
489.921350	2495.093890
490.289315	2490.632469
490.657222	2492.573313
491.025070	2500.235867
491.392861	2489.800679
491.760593	2494.791421
492.128267	2495.698829
492.495883	2493.279075
492.863440	2483.373208
493.230939	2495.522388
493.598380	2494.589775
493.965763	2491.716317
494.333088	2486.902015
494.700354	2485.339258
495.067563	2478.357260
495.434713	2483.322796
495.801805	2488.036275
496.168839	2487.759012
496.535815	2485.893785
496.902733	2480.020840
497.269593	2486.372694
497.636395	2484.608290
498.003139	2492.396873
498.369825	2498.194200
498.736453	2489.750267
499.103023	2490.077942
499.469535	2485.162817
499.835989	2489.120123
500.202385	2481.860862
500.568723	2484.230204
500.935003	2478.256437
501.301226	2478.004379
501.667390	2489.624238
502.033497	2494.690598
502.399546	2490.531646
502.765537	2476.441621
503.131470	2496.429796
503.497345	2492.951400
503.863163	2482.541417
504.228923	2484.809937
504.594625	2481.457569
504.960269	2483.373208
505.325856	2486.927221
505.691385	2481.432363
506.056856	2484.557879
506.422270	2490.254383
506.787625	2489.069712
507.152924	2490.128354
507.518164	2490.405617
507.883347	2481.886067
508.248472	2494.614981
508.613540	2484.709113
508.978550	2486.826398
509.343503	2487.683394
509.708398	2489.321769
510.073236	2486.851604
510.438016	2488.389156
510.802738	2486.977633
511.167403	2486.826398
511.532010	2482.617035
511.896561	2484.129381
512.261053	2483.902529
512.625488	2485.742550
512.989866	2488.086687
513.354186	2491.237408
513.718449	2477.399440
514.082655	2490.859321
514.446803	2482.617035
514.810894	2484.759525
515.174927	2485.868579
515.538904	2489.977119
515.902822	2487.834629
516.266684	2487.557365
516.630488	2481.003865
516.994235	2492.043992
517.357925	2480.272898
517.721558	2481.634010
518.085133	2486.221460
518.448651	2483.877323
518.812112	2477.601087
519.175516	2476.794502
519.538863	2481.936479
519.902152	2488.086687
520.265385	2481.255923
520.628560	2485.641727
520.991678	2477.096971
521.354739	2488.086687
521.717743	2481.886067
522.080690	2476.214769
522.443580	2481.205512
522.806413	2483.927735
523.169189	2490.884527
523.531908	2492.497696
523.894569	2484.230204
524.257174	2476.643267
524.619722	2469.963738
524.982213	2484.104175
525.344647	2486.523929
525.707025	2485.061994
526.069345	2484.507467
526.431608	2482.743063
526.793815	2479.491519
527.155964	2481.659215
527.518057	2480.272898
527.880093	2490.178765
528.242072	2481.684421
528.603995	2485.061994
528.965860	2487.759012
529.327669	2483.902529
529.689421	2476.996148
530.051117	2478.962198
530.412755	2477.349029
530.774337	2479.819194
531.135862	2482.415388
531.497331	2481.457569
531.858743	2489.271358
532.220098	2483.952940
532.581396	2481.306335
532.942638	2484.457056
533.303824	2478.735346
533.664953	2488.086687
534.026025	2479.289873
534.387040	2476.870119
534.747999	2482.390183
535.108902	2483.297590
535.469748	2481.003865
535.830537	2472.988431
536.191270	2478.760552
536.551947	2483.020327
536.912567	2484.381438
537.273131	2483.373208
537.633638	2482.667446
537.994089	2479.264667
538.354483	2475.912300
538.714821	2478.079996
539.075103	2491.111379
539.435328	2479.970429
539.795497	2468.980713
540.155609	2481.281129
540.515665	2478.029585
540.875665	2483.297590
541.235609	2474.374748
541.595496	2485.213229
541.955328	2481.533187
542.315102	2476.517238
542.674821	2477.928762
543.034483	2478.357260
543.394090	2483.423619
543.753640	2477.802733
544.113134	2480.298104
544.472571	2487.506954
544.831953	2478.886581
545.191278	2487.229690
545.550548	2478.533700
545.909761	2484.154587
546.268918	2480.096458
546.628019	2480.802219
546.987064	2475.912300
547.346053	2476.592856
547.704986	2481.129894
548.063863	2481.356746
548.422684	2480.424133
548.781449	2480.197281
549.140158	2477.223000
549.498811	2488.389156
549.857408	2484.129381
550.215949	2486.070225
550.574434	2481.634010
550.932864	2486.145842
551.291237	2471.677731
551.649555	2478.306848
552.007817	2485.868579
552.366022	2480.852631
552.724173	2482.138125
553.082267	2482.692652
553.440305	2480.650985
553.798288	2474.677217
554.156215	2484.204998
554.514086	2471.476085
554.871902	2481.936479
555.229661	2477.248206
555.587365	2472.207052
555.945014	2476.517238
556.302606	2479.289873
556.660143	2480.726602
557.017625	2484.885554
557.375050	2486.649958
557.732421	2481.205512
558.089735	2482.541417
558.446994	2479.793988
558.804197	2487.759012
559.161345	2475.433390
559.518437	2478.079996
559.875474	2477.399440
560.232455	2475.912300
560.589381	2473.795015
560.946251	2476.265181
561.303065	2478.281642
561.659825	2475.307362
562.016528	2477.071765
562.373177	2482.314565
562.729770	2482.163331
563.086307	2475.660242
563.442789	2481.331540
563.799216	2470.241002
564.155587	2480.524956
564.511904	2475.458596
564.868164	2482.516212
565.224370	2480.600573
565.580520	2482.037302
565.936615	2482.843887
566.292654	2478.079996
566.648638	2470.770323
567.004567	2475.004892
567.360441	2473.795015
567.716260	2480.575367
568.072023	2474.929275
568.427732	2482.566623
568.783385	2477.802733
569.138982	2484.835142
569.494525	2478.533700
569.850013	2477.777527
570.205445	2478.886581
570.560823	2478.634523
570.916145	2473.996662
571.271412	2474.828452
571.626625	2478.861375
571.981782	2484.809937
572.336884	2471.652525
572.691931	2478.508494
573.046923	2475.130921
573.401860	2473.568163
573.756743	2481.331540
574.111570	2482.264154
574.466342	2476.744090
574.821059	2467.468367
575.175722	2482.012096
575.530330	2477.449852
575.884882	2479.920017
576.239380	2472.484315
576.593823	2472.232258
576.948211	2473.366517
577.302544	2471.526496
577.656823	2476.945737
578.011047	2472.786785
578.365216	2481.003865
578.719330	2471.929788
579.073389	2482.491006
579.427394	2477.399440
579.781344	2472.509521
580.135239	2477.525469
580.489080	2472.938019
580.842866	2477.525469
581.196597	2478.332054
581.550273	2476.567650
581.903895	2475.786271
582.257463	2468.501804
582.610975	2477.878350
582.964434	2474.248719
583.317837	2477.676704
583.671186	2468.400981
584.024481	2481.356746
584.377721	2473.568163
584.730906	2473.341312
585.084037	2476.567650
585.437113	2480.777013
585.790135	2473.820221
586.143103	2482.415388
586.496016	2473.921044
586.848874	2472.005406
587.201679	2483.549648
587.554428	2475.685448
587.907124	2465.149437
588.259765	2475.332567
588.612352	2478.256437
588.964884	2481.306335
589.317362	2475.710654
589.669786	2479.970429
590.022155	2471.677731
590.374470	2473.694192
590.726731	2477.853144
591.078937	2471.173615
591.431090	2477.475058
591.783188	2475.357773
592.135232	2478.306848
592.487222	2476.113946
592.839157	2478.936992
593.191038	2475.761065
593.542866	2475.987917
593.894639	2474.954481
594.246358	2471.879377
594.598022	2485.036788
594.949633	2478.508494
595.301190	2474.551188
595.652692	2474.248719
596.004141	2472.433904
596.355535	2468.199335
596.706876	2476.643267
597.058162	2478.558906
597.409395	2476.366004
597.760573	2478.533700
598.111698	2477.676704
598.462768	2472.030612
598.813785	2476.013123
599.164748	2470.921558
599.515657	2468.224540
599.866511	2477.500263
600.217312	2471.274438
600.568060	2474.954481
600.918753	2478.004379
601.269392	2472.559933
601.619978	2478.281642
601.970510	2482.314565
602.320988	2472.408698
602.671412	2468.627833
603.021783	2470.316619
603.372100	2476.214769
603.722363	2469.988944
604.072572	2478.029585
604.422728	2476.996148
604.772830	2478.508494
605.122878	2475.710654
605.472872	2478.861375
605.822813	2472.055817
606.172701	2469.056331
606.522534	2477.777527
606.872314	2474.601600
607.222041	2476.693679
607.571714	2463.939560
607.921333	2467.644808
608.270899	2468.174129
608.620411	2466.485342
608.969870	2478.710140
609.319276	2466.283696
609.668627	2475.433390
610.017926	2468.350569
610.367171	2478.306848
610.716362	2478.079996
611.065500	2473.568163
611.414585	2479.793988
611.763616	2467.896865
612.112594	2473.467340
612.461518	2478.231231
612.810389	2470.266208
613.159207	2464.418469
613.507971	2474.097485
613.856682	2472.585138
614.205340	2476.844913
614.553945	2475.836683
614.902496	2467.670013
615.250994	2467.165898
615.599439	2468.350569
615.947830	2469.661269
616.296169	2479.012610
616.644454	2477.953967
616.992686	2471.097998
617.340864	2478.861375
617.688990	2466.409725
618.037063	2474.525983
618.385082	2472.408698
618.733048	2475.332567
619.080961	2477.197794
619.428821	2469.762092
619.776628	2477.626292
620.124382	2472.433904
620.472083	2459.881431
620.819731	2473.870633
621.167326	2468.804273
621.514868	2479.340285
621.862357	2482.793475
622.209793	2473.164871
622.557176	2474.929275
622.904506	2477.323823
623.251783	2477.853144
623.599007	2478.407671
623.946179	2464.216823
624.293297	2473.820221
624.640363	2472.156640
624.987376	2470.467854
625.334336	2466.787812
625.681243	2467.543985
626.028097	2469.560446
626.374899	2471.274438
626.721647	2471.425673
627.068343	2475.181333
627.414987	2473.013637
627.761577	2465.351083
628.108115	2471.627319
628.454600	2467.518779
628.801032	2471.224027
629.147412	2473.643781
629.493739	2466.737400
629.840014	2473.164871
630.186236	2472.408698
630.532405	2476.643267
630.878521	2474.248719
631.224585	2464.468881
631.570597	2472.887608
631.916556	2470.820735
632.262462	2477.878350
632.608316	2480.348515
632.954117	2480.827425
633.299866	2470.089767
633.645562	2474.551188
633.991206	2471.224027
634.336797	2475.055304
634.682336	2479.516725
635.027823	2475.836683
635.373257	2471.047587
635.718639	2475.130921
636.063968	2476.416415
636.409245	2468.930302
636.754470	2469.711681
637.099642	2464.947790
637.444762	2480.373721
637.789829	2472.459110
638.134845	2473.870633
638.479808	2471.299644
638.824719	2474.324337
639.169577	2468.022894
639.514383	2460.688015
639.859137	2465.023408
640.203839	2468.148923
640.548489	2470.291413
640.893086	2473.517752
641.237632	2474.551188
641.582125	2468.022894
641.926566	2468.627833
642.270955	2471.904583
642.615292	2468.980713
642.959576	2478.558906
643.303809	2465.729169
643.647990	2471.249233
643.992118	2470.921558
644.336195	2477.298617
644.680219	2467.720425
645.024192	2468.451392
645.368112	2470.039356
645.711981	2477.223000
646.055797	2466.787812
646.399562	2467.443162
646.743274	2471.274438
647.086935	2473.416929
647.430544	2473.618575
647.774101	2472.912813
648.117606	2459.856225
648.461059	2471.854171
648.804460	2472.736373
649.147810	2472.585138
649.491108	2475.004892
649.834354	2475.080510
650.177548	2474.097485
650.520690	2462.452419
650.863781	2468.274952
651.206820	2469.510035
651.549807	2475.080510
651.892742	2474.677217
652.235626	2475.004892
652.578458	2469.762092
652.921238	2475.307362
653.263967	2466.157667
653.606644	2475.357773
653.949269	2472.660756
654.291843	2472.232258
654.634365	2470.593883
654.976836	2474.021867
655.319255	2473.568163
655.661622	2463.712708
656.003938	2474.752835
656.346203	2469.585652
656.688416	2469.434417
657.030577	2471.198821
657.372687	2460.864456
657.714746	2471.324850
658.056753	2470.114973
658.398708	2472.030612
658.740612	2465.779581
659.082465	2467.619602
659.424266	2469.610858
659.766016	2472.433904
660.107715	2472.660756
660.449362	2469.837710
660.790958	2468.325363
661.132503	2465.477112
661.473996	2471.350056
661.815438	2472.509521
662.156829	2465.149437
662.498168	2472.433904
662.839456	2465.451906
663.180693	2474.626806
663.521879	2461.771863
663.863013	2467.493573
664.204097	2467.922071
664.545129	2479.920017
664.886110	2471.476085
665.227040	2472.358287
665.567918	2468.274952
665.908746	2466.913840
666.249522	2466.334108
666.590248	2473.618575
666.930922	2467.644808
667.271545	2470.971969
667.612118	2470.619088
667.952639	2473.114460
668.293109	2472.610344
668.633528	2472.307875
668.973896	2470.316619
669.314213	2476.315592
669.654480	2467.821248
669.994695	2474.626806
670.334859	2475.609831
670.674973	2470.266208
671.015035	2470.140179
671.355047	2466.661783
671.695008	2461.292954
672.034918	2470.064562
672.374777	2478.987404
672.714585	2475.761065
673.054342	2468.854685
673.394049	2471.249233
673.733705	2478.558906
674.073310	2476.466827
674.412864	2468.879890
674.752368	2468.148923
675.091820	2473.568163
675.431223	2470.543471
675.770574	2474.223513
676.109875	2475.735860
676.449125	2463.788325
676.788324	2464.141206
677.127473	2470.871146
677.466571	2461.822275
677.805619	2459.326904
678.144616	2470.644294
678.483562	2477.172588
678.822458	2461.822275
679.161303	2471.728142
679.500098	2469.837710
679.838842	2470.140179
680.177535	2461.998715
680.516179	2476.416415
680.854771	2468.224540
681.193314	2479.063021
681.531805	2470.316619
681.870247	2467.291927
682.208638	2472.055817
682.546978	2478.861375
682.885268	2468.804273
683.223508	2472.912813
683.561697	2460.889662
683.899836	2468.199335
684.237925	2474.601600
684.575963	2465.451906
684.913951	2461.242542
685.251889	2473.568163
685.589776	2466.611371
685.927614	2472.610344
686.265401	2469.938533
686.603137	2471.904583
686.940824	2463.737913
687.278460	2475.307362
687.616046	2470.770323
687.953582	2463.233798
688.291068	2461.040896
688.628504	2469.182360
688.965889	2463.208592
689.303224	2465.956021
689.640510	2467.392750
689.977745	2472.963225
690.314930	2472.887608
690.652065	2474.652012
690.989150	2471.652525
691.326185	2468.703450
691.663170	2470.896352
692.000105	2468.829479
692.336990	2466.888635
692.673825	2472.963225
693.010610	2468.400981
693.347345	2459.352110
693.684030	2467.947277
694.020665	2463.057358
694.357251	2455.142746
694.693786	2466.409725
695.030272	2464.998202
695.366707	2466.586165
695.703093	2467.846454
696.039429	2468.375775
696.375716	2469.131948
696.711952	2470.694706
697.048139	2465.351083
697.384276	2471.501290
697.720363	2471.299644
698.056400	2462.049127
698.392388	2469.056331
698.728326	2460.990485
699.064214	2469.384006
699.400053	2468.602627
699.735842	2463.410238
700.071581	2467.896865
700.407270	2469.535240
700.742910	2457.990998
701.078501	2464.846967
701.414042	2469.257977
701.749533	2479.920017
702.084974	2464.947790
702.420366	2459.856225
702.755709	2472.484315
703.091002	2455.672067
703.426246	2465.376288
703.761440	2472.156640
704.096584	2461.519806
704.431679	2462.200362
704.766725	2458.923612
705.101721	2468.098512
705.436668	2462.780094
705.771565	2461.620629
706.106413	2472.761579
706.441212	2468.476598
706.775961	2461.897892
707.110661	2465.527523
707.445311	2469.484829
707.779913	2467.165898
708.114465	2456.881944
708.448967	2461.066102
708.783421	2467.468367
709.117825	2472.282669
709.452180	2471.476085
709.786485	2465.401494
710.120742	2460.259517
710.454949	2459.377315
710.789107	2467.216310
711.123216	2455.369598
711.457275	2464.670527
711.791286	2465.930815
712.125247	2467.065075
712.459159	2467.569190
712.793023	2466.964252
713.126837	2461.418983
713.460602	2459.200875
713.794318	2470.770323
714.127985	2469.636063
714.461602	2479.214256
714.795171	2474.450365
715.128691	2468.022894
715.462162	2472.055817
715.795584	2468.804273
716.128957	2467.140692
716.462281	2464.645321
716.795556	2461.570217
717.128782	2460.183900
717.461960	2469.031125
717.795088	2469.308388
718.128167	2469.711681
718.461198	2463.208592
718.794180	2466.989458
719.127113	2460.814044
719.459997	2467.644808
719.792833	2470.190590
720.125619	2465.451906
720.458357	2467.493573
720.791046	2459.780608
721.123686	2459.604167
721.456278	2460.637604
721.788821	2470.064562
722.121315	2462.654065
722.453761	2470.417442
722.786158	2468.148923
723.118506	2460.637604
723.450805	2462.477625
723.783056	2464.065588
724.115259	2462.931329
724.447412	2467.342338
724.779518	2467.090281
725.111574	2465.048613
725.443582	2454.840277
725.775542	2462.275979
726.107453	2455.193158
726.439315	2463.788325
726.771129	2472.333081
727.102895	2462.830506
727.434612	2465.275465
727.766281	2458.570731
728.097901	2461.066102
728.429473	2465.275465
728.760996	2467.896865
729.092471	2460.486369
729.423897	2467.972483
729.755276	2458.621142
730.086606	2461.444188
730.417887	2462.956535
730.749120	2470.341825
731.080305	2461.545012
731.411442	2458.898406
731.742530	2471.753348
732.073570	2469.106742
732.404562	2465.930815
732.735506	2461.696246
733.066401	2463.788325
733.397249	2470.140179
733.728048	2465.502317
734.058798	2464.947790
734.389501	2462.830506
734.720156	2463.233798
735.050762	2475.105715
735.381320	2471.274438
735.711831	2466.182873
736.042293	2464.418469
736.372707	2471.702937
736.703073	2463.687502
737.033391	2462.956535
737.363661	2462.805300
737.693883	2456.377829
738.024056	2460.713221
738.354182	2474.349542
738.684260	2468.224540
739.014290	2458.217850
739.344272	2465.225054
739.674207	2460.814044
740.004093	2464.141206
740.333931	2470.896352
740.663722	2463.485856
740.993464	2462.427213
741.323159	2466.535754
741.652806	2469.610858
741.982405	2456.655092
742.311956	2464.242029
742.641460	2463.284210
742.970915	2470.543471
743.300323	2460.587192
743.629683	2464.494087
743.958996	2455.117540
744.288260	2457.108796
744.617477	2467.317133
744.946647	2462.502831
745.275768	2473.870633
745.604842	2470.114973
745.933869	2461.746658
746.262847	2464.191617
746.591778	2458.369085
746.920662	2474.551188
747.249498	2468.728656
747.578286	2468.829479
747.907027	2454.336162
748.235720	2467.594396
748.564365	2465.048613
748.892963	2464.695733
749.221514	2470.190590
749.550017	2469.333594
749.878473	2465.956021
750.206881	2466.460137
750.535242	2457.285237
750.863555	2468.048100
751.191821	2450.756942
751.520039	2454.638631
751.848210	2464.116000
752.176334	2466.560960
752.504411	2468.073306
752.832440	2466.107256
753.160421	2464.368058
753.488356	2465.729169
753.816243	2457.764146
754.144082	2467.796042
754.471875	2463.662296
754.799620	2457.789352
755.127318	2467.493573
755.454969	2460.612398
755.782572	2471.072792
756.110129	2464.443675
756.437638	2465.048613
756.765100	2462.452419
757.092515	2466.384519
757.419882	2454.487396
757.747203	2470.014150
758.074477	2456.680298
758.401703	2469.787298
758.728882	2457.738940
759.056014	2471.778554
759.383099	2464.594910
759.710138	2461.923098
760.037129	2460.309929
760.364073	2460.713221
760.690970	2460.057871
761.017820	2463.233798
761.344623	2471.526496
761.671379	2467.241515
761.998088	2462.931329
762.324751	2475.307362
762.651366	2458.142233
762.977935	2471.702937
763.304456	2473.114460
763.630931	2469.308388
763.957359	2471.980200
764.283740	2463.385033
764.610074	2467.165898
764.936362	2464.468881
765.262602	2464.393263
765.588796	2467.569190
765.914943	2455.016717
766.241044	2464.242029
766.567097	2449.345419
766.893104	2458.671554
767.219064	2466.611371
767.544978	2459.730196
767.870845	2469.207565
768.196665	2465.577935
768.522438	2465.250260
768.848165	2466.762606
769.173846	2466.636577
769.499479	2463.006946
769.825066	2461.771863
770.150607	2463.460650
770.476101	2464.897379
770.801548	2465.149437
771.126949	2463.788325
771.452303	2461.242542
771.777611	2454.008487
772.102872	2458.369085
772.428087	2459.679785
772.753256	2456.453446
773.078378	2469.232771
773.403453	2461.292954
773.728482	2451.538321
774.053465	2457.537294
774.378401	2457.360854
774.703291	2468.199335
775.028135	2456.050154
775.352932	2461.721452
775.677683	2459.452933
776.002388	2460.461163
776.327046	2461.847481
776.651658	2461.671040
776.976224	2460.083077
777.300743	2462.603654
777.625216	2458.747171
777.949643	2462.200362
778.274024	2463.032152
778.598359	2458.293467
778.922647	2453.479165
779.246889	2463.989971
779.571086	2462.049127
779.895236	2464.191617
780.219339	2456.932356
780.543397	2460.435958
780.867409	2458.847994
781.191374	2466.535754
781.515294	2473.593369
781.839167	2456.680298
782.162995	2468.426187
782.486776	2460.007460
782.810511	2457.386060
783.134201	2464.393263
783.457844	2463.032152
783.781441	2462.049127
784.104993	2452.042437
784.428498	2459.931842
784.751958	2467.291927
785.075372	2453.529577
785.398739	2463.082563
785.722061	2463.158181
786.045337	2464.620115
786.368568	2455.344392
786.691752	2460.763633
787.014891	2459.301698
787.337983	2465.678758
787.661030	2462.704477
787.984031	2466.989458
788.306987	2458.142233
788.629897	2458.469908
788.952760	2464.368058
789.275579	2451.084617
789.598351	2454.663837
789.921078	2454.134515
790.243759	2462.402008
790.566395	2457.209619
790.888984	2457.638117
791.211529	2461.292954
791.534027	2459.049640
791.856480	2462.553242
792.178888	2459.957048
792.501249	2452.748198
792.823566	2465.325877
793.145836	2455.999742
793.468062	2461.822275
793.790241	2460.713221
794.112375	2460.309929
794.434464	2454.386573
794.756507	2460.158694
795.078505	2457.234825
795.400457	2462.074333
795.722364	2452.269288
796.044226	2459.578962
796.366042	2466.535754
796.687812	2463.536267
797.009538	2464.670527
797.331218	2459.604167
797.652852	2462.780094
797.974442	2461.570217
798.295986	2459.578962
798.617484	2457.436471
798.938938	2460.713221
799.260346	2457.738940
799.581709	2461.242542
799.903026	2466.031638
800.224299	2451.387087
800.545526	2465.981227
800.866708	2461.923098
801.187845	2461.015690
801.508936	2456.327417
801.829983	2458.167438
802.150984	2451.865996
802.471940	2460.864456
802.792851	2460.561987
803.113717	2460.965279
803.434538	2464.242029
803.755314	2455.016717
804.076045	2460.738427
804.396731	2457.335648
804.717372	2455.596450
805.037967	2460.057871
805.358518	2464.746144
805.679024	2463.410238
805.999485	2457.360854
806.319901	2456.327417
806.640272	2458.898406
806.960598	2456.024948
807.280879	2452.420523
807.601115	2466.132462
807.921306	2460.763633
808.241453	2457.260031
808.561554	2456.478652
808.881611	2457.184413
809.201623	2456.730710
809.521590	2450.303238
809.841513	2457.033179
810.161390	2465.300671
810.481223	2457.360854
810.801011	2454.890688
811.120755	2461.872687
811.440453	2456.655092
811.760107	2464.342852
812.079716	2462.880917
812.399281	2459.175669
812.718801	2460.688015
813.038276	2457.638117
813.357707	2461.393777
813.677093	2458.293467
813.996434	2452.193671
814.315731	2464.342852
814.634983	2461.771863
814.954191	2455.546038
815.273354	2461.292954
815.592473	2454.310956
815.911547	2457.562500
816.230577	2455.823302
816.549562	2458.394290
816.868502	2462.402008
817.187399	2463.561473
817.506250	2458.923612
817.825058	2467.770837
818.143821	2454.285750
818.462539	2444.606735
818.781213	2470.845940
819.099843	2468.300158
819.418429	2453.025462
819.736970	2455.672067
820.055466	2458.923612
820.373919	2463.712708
820.692327	2467.165898
821.010691	2464.216823
821.329011	2470.644294
821.647286	2477.223000
821.965517	2476.844913
822.283704	2490.103148
822.601847	2482.163331
822.919945	2475.307362
823.237999	2487.985863
823.556010	2482.213742
823.873976	2474.752835
824.191897	2470.442648
824.509775	2470.845940
824.827609	2466.913840
825.145398	2464.922585
825.463144	2464.468881
825.780845	2467.896865
826.098502	2466.434931
826.416116	2472.988431
826.733685	2467.140692
827.051210	2469.510035
827.368692	2470.619088
827.686129	2465.981227
828.003522	2468.854685
828.320872	2469.988944
828.638177	2475.382979
828.955439	2463.586679
829.272656	2464.267235
829.589830	2466.989458
829.906960	2460.965279
830.224046	2467.191104
830.541088	2463.006946
830.858086	2458.117027
831.175041	2461.545012
831.491952	2462.074333
831.808819	2459.402521
832.125642	2466.964252
832.442421	2462.225567
832.759157	2461.872687
833.075849	2467.997688
833.392497	2462.654065
833.709101	2462.704477
834.025662	2461.292954
834.342179	2467.392750
834.658653	2463.107769
834.975083	2459.478138
835.291469	2467.216310
835.607811	2460.410752
835.924110	2456.730710
836.240366	2469.384006
836.556578	2457.486883
836.872746	2458.923612
837.188871	2452.470935
837.504952	2459.881431
837.820990	2457.638117
838.136984	2455.898919
838.452935	2460.713221
838.768842	2447.908690
839.084706	2461.015690
839.400526	2458.469908
839.716303	2459.730196
840.032037	2449.874740
840.347727	2453.907663
840.663373	2456.125771
840.978977	2455.898919
841.294537	2464.872173
841.610054	2456.705504
841.925527	2464.519292
842.240957	2455.319187
842.556344	2458.343879
842.871687	2460.763633
843.186987	2461.192131
843.502244	2453.075873
843.817458	2454.210133
844.132629	2457.436471
844.447756	2453.806840
844.762840	2451.487910
845.077881	2471.123204
845.392879	2456.226594
845.707833	2461.343365
846.022745	2456.730710
846.337613	2452.647375
846.652438	2459.150463
846.967221	2451.412292
847.281960	2452.748198
847.596656	2464.494087
847.911309	2460.763633
848.225919	2456.982767
848.540485	2456.932356
848.855009	2454.033692
849.169490	2452.697787
849.483928	2460.158694
849.798323	2454.966306
850.112675	2462.124744
850.426984	2455.924125
850.741251	2458.318673
851.055474	2452.445729
851.369654	2453.655606
851.683792	2459.780608
851.997887	2460.612398
852.311938	2456.302212
852.625947	2451.992025
852.939914	2460.410752
853.253837	2464.569704
853.567718	2446.850048
853.881555	2458.847994
854.195350	2451.966819
854.509103	2460.587192
854.822812	2458.142233
855.136479	2449.899946
855.450103	2452.067642
855.763685	2455.772890
856.077224	2446.774431
856.390720	2451.664350
856.704173	2463.032152
857.017584	2451.563527
857.330953	2470.114973
857.644278	2453.756429
857.957561	2457.461677
858.270802	2451.059412
858.584000	2447.631427
858.897155	2456.453446
859.210268	2447.606221
859.523339	2456.478652
859.836367	2458.268262
860.149352	2463.309415
860.462295	2463.611885
860.775195	2452.470935
861.088054	2462.099538
861.400869	2456.881944
861.713642	2451.714762
862.026373	2464.267235
862.339062	2460.536781
862.651708	2459.226081
862.964312	2457.814558
863.276873	2461.494600
863.589392	2462.603654
863.901869	2449.899946
864.214303	2457.461677
864.526696	2459.074846
864.839045	2454.991512
865.151353	2459.478138
865.463619	2460.461163
865.775842	2461.343365
866.088023	2465.502317
866.400162	2458.192644
866.712258	2454.840277
867.024313	2450.580502
867.336325	2464.292440
867.648296	2462.250773
867.960224	2453.781635
868.272110	2459.049640
868.583954	2455.546038
868.895755	2451.966819
869.207515	2462.679271
869.519233	2451.261058
869.830909	2462.502831
870.142542	2456.150977
870.454134	2458.570731
870.765684	2456.352623
871.077191	2455.142746
871.388657	2463.410238
871.700081	2447.328958
872.011463	2450.958588
872.322803	2447.656633
872.634101	2454.537808
872.945357	2457.386060
873.256571	2455.193158
873.567744	2452.370112
873.878874	2449.748712
874.189963	2454.840277
874.501010	2451.664350
874.812015	2450.832560
875.122979	2458.974023
875.433900	2449.042950
875.744780	2463.057358
876.055618	2456.302212
876.366415	2456.201388
876.677169	2453.579988
876.987882	2453.605194
877.298554	2449.143773
877.609183	2461.948304
877.919771	2457.713735
878.230317	2453.630400
878.540822	2453.327931
878.851285	2455.999742
879.161707	2460.410752
879.472087	2457.764146
879.782425	2458.091821
880.092722	2464.342852
880.402977	2465.628346
880.713191	2461.469394
881.023363	2469.510035
881.333494	2478.886581
881.643583	2463.284210
881.953631	2474.047073
882.263637	2471.576908
882.573602	2464.897379
882.883526	2455.747685
883.193408	2462.855712
883.503248	2462.351596
883.813048	2471.854171
884.122806	2463.309415
884.432522	2459.931842
884.742197	2463.687502
885.051831	2467.039869
885.361424	2458.520319
885.670975	2456.957562
885.980485	2457.890175
886.289954	2462.099538
886.599382	2449.269802
886.908768	2453.781635
887.218113	2453.630400
887.527417	2459.982254
887.836680	2454.008487
888.145901	2459.226081
888.455082	2464.720938
888.764221	2447.581015
889.073319	2462.855712
889.382376	2462.855712
889.691392	2463.964765
890.000366	2453.327931
890.309300	2452.445729
890.618193	2453.252313
890.927044	2451.714762
891.235855	2452.269288
891.544625	2452.319700
891.853353	2448.286777
892.162041	2459.629373
892.470687	2458.343879
892.779293	2462.175156
893.087858	2459.377315
893.396381	2456.932356
893.704864	2460.158694
894.013306	2453.579988
894.321707	2463.687502
894.630068	2456.377829
894.938387	2454.033692
895.246665	2457.310442
895.554903	2459.049640
895.863100	2466.082050
896.171256	2460.940073
896.479371	2453.126285
896.787446	2466.989458
897.095480	2450.882971
897.403473	2456.680298
897.711425	2458.268262
898.019336	2450.076387
898.327207	2458.948817
898.635038	2457.411265
898.942827	2453.731223
899.250576	2453.151490
899.558284	2463.989971
899.865952	2460.536781
900.173579	2452.218877
900.481165	2451.966819
900.788711	2463.006946
901.096216	2452.269288
901.403681	2455.747685
901.711105	2461.998715
902.018489	2457.184413
902.325832	2458.721965
902.633135	2458.117027
902.940397	2454.588219
903.247619	2447.606221
903.554800	2454.285750
903.861941	2457.386060
904.169041	2455.016717
904.476101	2462.654065
904.783121	2459.629373
905.090100	2459.226081
905.397039	2459.175669
905.703938	2446.597990
906.010796	2453.983281
906.317614	2455.117540
906.624391	2450.303238
906.931129	2457.789352
907.237826	2456.327417
907.544483	2453.277519
907.851099	2458.318673
908.157675	2453.781635
908.464211	2452.975050
908.770707	2458.948817
909.077163	2457.310442
909.383578	2450.252827
909.689954	2454.714248
909.996289	2462.931329
910.302584	2454.184927
910.608839	2457.083590
910.915054	2452.874227
911.221229	2455.747685
911.527363	2455.974537
911.833458	2452.496140
912.139513	2458.671554
912.445527	2453.000256
912.751502	2450.605708
913.057436	2453.554783
913.363331	2455.873713
913.669186	2458.999229
913.975000	2457.260031
914.280775	2456.806327
914.586510	2452.395317
914.892205	2451.941613
915.197859	2456.453446
915.503475	2453.453960
915.809050	2454.184927
916.114585	2465.829992
916.420081	2456.100565
916.725536	2463.334621
917.030952	2470.114973
917.336328	2464.418469
917.641665	2462.981740
917.946961	2464.267235
918.252218	2459.831019
918.557435	2458.747171
918.862612	2454.789865
919.167750	2461.292954
919.472848	2460.410752
919.777906	2462.175156
920.082925	2451.916408
920.387904	2462.376802
920.692843	2451.840790
920.997743	2455.520833
921.302603	2451.563527
921.607423	2458.847994
921.912204	2458.923612
922.216946	2457.411265
922.521647	2452.596963
922.826310	2458.822788
923.130932	2455.772890
923.435516	2457.789352
923.740059	2453.832046
924.044564	2457.915381
924.349028	2450.807354
924.653454	2463.460650
924.957840	2458.419496
925.262186	2448.236365
925.566493	2463.158181
925.870761	2456.957562
926.174989	2448.538835
926.479178	2455.470421
926.783328	2450.656119
927.087438	2456.554269
927.391509	2445.413319
927.695541	2456.024948
927.999533	2454.310956
928.303486	2444.707558
928.607400	2457.990998
928.911275	2453.781635
929.215110	2454.386573
929.518906	2448.286777
929.822663	2454.512602
930.126381	2458.469908
930.430060	2449.244596
930.733699	2451.336675
931.037299	2446.446756
931.340861	2454.436985
931.644383	2460.990485
931.947866	2464.972996
932.251309	2454.689042
932.554714	2459.125258
932.858080	2455.747685
933.161407	2453.000256
933.464694	2448.387600
933.767943	2450.051181
934.071153	2445.085644
934.374323	2452.496140
934.677455	2457.638117
934.980548	2449.446242
935.283602	2453.680812
935.586617	2452.496140
935.889593	2450.908177
936.192530	2454.966306
936.495428	2447.555810
936.798287	2459.427727
937.101108	2448.942127
937.403890	2453.983281
937.706632	2455.420010
938.009336	2457.915381
938.312002	2455.016717
938.614628	2451.387087
938.917216	2463.712708
939.219765	2452.622169
939.522275	2452.622169
939.824747	2457.436471
940.127179	2454.487396
940.429573	2458.268262
940.731929	2450.807354
941.034246	2456.478652
941.336524	2450.378856
941.638763	2450.530090
941.940964	2458.495113
942.243126	2453.176696
942.545250	2455.949331
942.847335	2457.184413
943.149381	2450.756942
943.451389	2445.665377
943.753359	2457.234825
944.055290	2449.471448
944.357182	2452.143260
944.659036	2448.286777
944.960851	2454.764660
945.262628	2455.394804
945.564367	2452.924638
945.866067	2452.647375
946.167729	2452.849021
946.469352	2448.816098
946.770937	2454.184927
947.072484	2446.219904
947.373992	2460.007460
947.675462	2449.925152
947.976893	2452.546552
948.278286	2451.588733
948.579641	2451.563527
948.880958	2456.277006
949.182236	2450.378856
949.483476	2450.404062
949.784678	2457.663323
950.085841	2457.260031
950.386967	2449.950358
950.688054	2457.033179
950.989103	2444.480706
951.290114	2459.452933
951.591087	2450.908177
951.892021	2456.680298
952.192917	2453.680812
952.493776	2459.831019
952.794596	2449.723506
953.095378	2453.504371
953.396122	2456.932356
953.696828	2453.655606
953.997496	2442.842331
954.298126	2452.697787
954.598718	2456.327417
954.899272	2448.236365
955.199788	2451.739967
955.500266	2450.857765
955.800706	2458.772377
956.101108	2448.841304
956.401472	2456.176183
956.701798	2456.932356
957.002087	2454.336162
957.302337	2445.791406
957.602550	2449.471448
957.902724	2449.622683
958.202861	2454.815071
958.502960	2458.923612
958.803022	2454.109310
959.103045	2456.907150
959.403031	2455.949331
959.702979	2453.151490
960.002889	2450.076387
960.302762	2452.370112
960.602596	2462.175156
960.902393	2452.773404
961.202153	2453.529577
961.501875	2460.990485
961.801559	2453.075873
962.101205	2459.654579
962.400814	2445.766200
962.700385	2455.067129
962.999918	2447.858279
963.299414	2443.573298
963.598873	2452.168465
963.898293	2448.992538
964.197677	2458.621142
964.497022	2453.655606
964.796331	2457.814558
965.095601	2458.948817
965.394835	2453.227108
965.694030	2451.437498
965.993189	2451.815585
966.292309	2449.496654
966.591393	2448.816098
966.890439	2449.093362
967.189447	2455.495627
967.488419	2453.857252
967.787353	2458.974023
968.086249	2455.218363
968.385108	2445.413319
968.683930	2453.706017
968.982714	2444.757969
969.281462	2456.982767
969.580172	2458.167438
969.878844	2450.731737
970.177480	2455.117540
970.476078	2450.731737
970.774639	2456.529063
971.073162	2452.193671
971.371649	2447.328958
971.670098	2449.269802
971.968510	2454.714248
972.266885	2453.504371
972.565223	2454.714248
972.863524	2448.790892
973.161788	2453.428754
973.460014	2458.419496
973.758204	2448.538835
974.056356	2453.277519
974.354471	2452.924638
974.652550	2459.150463
974.950591	2456.226594
975.248595	2455.218363
975.546563	2450.580502
975.844493	2452.546552
976.142386	2455.672067
976.440243	2456.024948
976.738062	2453.479165
977.035845	2453.756429
977.333590	2449.597477
977.631299	2456.503858
977.928971	2447.555810
978.226606	2453.983281
978.524204	2452.067642
978.821765	2446.144287
979.119290	2453.227108
979.416777	2455.772890
979.714228	2454.260544
980.011642	2450.328444
980.309020	2450.756942
980.606360	2447.681838
980.903664	2448.538835
981.200931	2455.319187
981.498162	2460.511575
981.795356	2445.740994
982.092513	2452.420523
982.389633	2455.142746
982.686717	2450.353650
982.983764	2460.940073
983.280775	2452.445729
983.577749	2457.663323
983.874686	2452.244083
984.171587	2458.419496
984.468451	2451.462704
984.765279	2454.033692
985.062070	2447.883485
985.358824	2458.671554
985.655543	2448.891715
985.952224	2451.588733
986.248869	2453.126285
986.545478	2447.858279
986.842050	2453.101079
987.138586	2452.395317
987.435086	2453.504371
987.731549	2448.160748
988.027975	2460.914867
988.324366	2456.024948
988.620719	2446.194698
988.917037	2444.178237
989.213318	2450.832560
989.509563	2446.623196
989.805772	2447.959102
990.101944	2450.908177
990.398080	2456.730710
990.694180	2448.160748
990.990244	2450.051181
991.286271	2451.084617
991.582262	2450.404062
991.878217	2445.917435
992.174136	2459.881431
992.470019	2454.462190
992.765865	2450.958588
993.061676	2442.464244
993.357450	2450.807354
993.653188	2448.110337
993.948890	2457.310442
994.244556	2448.034719
994.540186	2451.916408
994.835780	2449.345419
995.131337	2452.975050
995.426859	2447.228135
995.722345	2452.773404
996.017795	2448.009513
996.313208	2455.243569
996.608586	2465.855198
996.903928	2454.008487
997.199234	2443.749738
997.494504	2454.235338
997.789738	2451.109823
998.084936	2449.925152
998.380099	2459.326904
998.675225	2455.722479
998.970316	2451.639144
999.265371	2453.781635
999.560390	2455.924125
999.855373	2454.966306
1000.150320	2449.723506
1000.445232	2451.286263
1000.740108	2450.404062
1001.034948	2446.396344
1001.329752	2457.310442
1001.624521	2448.387600
1001.919254	2447.933896
1002.213951	2461.897892
1002.508613	2446.497167
1002.803239	2458.671554
1003.097829	2447.707044
1003.392384	2449.345419
1003.686903	2455.142746
1003.981386	2455.520833
1004.275834	2449.874740
1004.570246	2459.100052
1004.864623	2453.176696
1005.158964	2449.370625
1005.453270	2445.715788
1005.747540	2448.891715
1006.041775	2451.109823
1006.335974	2448.438012
1006.630138	2454.462190
1006.924266	2453.327931
1007.218359	2453.151490
1007.512416	2450.756942
1007.806438	2455.772890
1008.100425	2449.950358
1008.394376	2444.430294
1008.688292	2459.679785
1008.982172	2452.899433
1009.276017	2452.218877
1009.569827	2451.891202
1009.863602	2445.186467
1010.157341	2458.570731
1010.451045	2450.857765
1010.744714	2451.689556
1011.038347	2450.025975
1011.331945	2456.932356
1011.625508	2454.890688
1011.919036	2457.033179
1012.212528	2449.647888
1012.505986	2454.865483
1012.799408	2451.462704
1013.092795	2459.503344
1013.386147	2452.067642
1013.679464	2452.344906
1013.972745	2455.319187
1014.265992	2450.530090
1014.559204	2450.429267
1014.852380	2457.134002
1015.145521	2449.572271
1015.438628	2448.160748
1015.731699	2455.470421
1016.024736	2452.697787
1016.317737	2449.143773
1016.610703	2454.991512
1016.903635	2450.782148
1017.196531	2448.589246
1017.489393	2458.999229
1017.782219	2454.260544
1018.075011	2454.512602
1018.367768	2442.892742
1018.660490	2453.151490
1018.953177	2453.151490
1019.245829	2453.151490
