Dividing Wavelength (nm)	Counts (n)	Slit_number_36_of_a_total_of_40	
326.493990	2032.845288
326.888308	2032.845288
327.282561	2032.845288
327.676750	2015.201250
328.070874	1993.272231
328.464933	2029.316481
328.858929	2038.894673
329.252859	2019.234173
329.646726	2033.601462
330.040528	2058.807231
330.434265	2075.947154
330.827938	2121.821654
331.221547	2139.213635
331.615091	2157.613846
332.008571	2171.477019
332.401986	2181.307269
332.795338	2200.715712
333.188625	2233.987327
333.581847	2241.549058
333.975006	2291.708538
334.368100	2287.423558
334.761129	2290.700308
335.154095	2324.728096
335.546996	2322.207519
335.939833	2338.591269
336.332606	2357.747654
336.725315	2388.750750
337.117960	2378.164327
337.510540	2401.605692
337.903056	2404.378327
338.295508	2410.931827
338.687896	2397.320712
339.080220	2439.162288
339.472480	2448.488423
339.864676	2433.617019
340.256807	2444.455500
340.648875	2454.285750
341.040879	2415.468865
341.432818	2450.756942
341.824694	2422.274423
342.216506	2455.798096
342.608253	2440.674635
342.999937	2437.902000
343.391557	2430.592327
343.783113	2438.154058
344.174605	2433.364962
344.566033	2435.381423
344.957397	2426.559404
345.348697	2419.249731
345.739934	2417.485327
346.131106	2456.050154
346.522215	2406.646846
346.913260	2401.101577
347.304241	2404.882442
347.695159	2406.646846
348.086012	2408.915365
348.476802	2417.233269
348.867528	2419.501788
349.258191	2399.841288
349.648789	2410.175654
350.039324	2392.783673
350.429796	2415.972981
350.820203	2399.589231
351.210548	2403.118038
351.600828	2418.241500
351.991045	2408.159192
352.381198	2423.786769
352.771288	2401.605692
353.161314	2425.047058
353.551276	2397.068654
353.941175	2399.589231
354.331010	2397.824827
354.720782	2397.320712
355.110490	2396.564538
355.500135	2407.403019
355.889717	2407.403019
356.279235	2422.274423
356.668689	2403.370096
357.058080	2403.874212
357.447408	2404.882442
357.836672	2399.589231
358.225873	2425.299115
358.615010	2433.869077
359.004084	2411.688000
359.393095	2413.200346
359.782043	2411.940058
360.170927	2419.501788
360.559748	2419.753846
360.948505	2420.257962
361.337199	2416.225038
361.725830	2410.931827
362.114398	2406.646846
362.502903	2414.208577
362.891344	2391.523385
363.279722	2402.361865
363.668037	2414.208577
364.056289	2393.539846
364.444478	2404.126269
364.832603	2433.869077
365.220665	2409.167423
365.608665	2410.175654
365.996601	2417.485327
366.384474	2417.989442
366.772284	2428.071750
367.160031	2407.907135
367.547715	2427.819692
367.935336	2411.183885
368.322893	2410.931827
368.710388	2421.518250
369.097820	2444.455500
369.485189	2421.518250
369.872495	2443.195212
370.259738	2413.956519
370.646918	2399.589231
371.034035	2423.786769
371.421090	2445.715788
371.808081	2417.485327
372.195010	2400.597462
372.581875	2427.315577
372.968678	2408.411250
373.355418	2441.430808
373.742096	2418.745615
374.128710	2423.282654
374.515262	2422.022365
374.901751	2404.882442
375.288177	2437.145827
375.674540	2444.455500
376.060841	2401.857750
376.447079	2434.625250
376.833254	2416.225038
377.219367	2411.940058
377.605417	2419.753846
377.991404	2445.967846
378.377329	2443.951385
378.763191	2429.584096
379.148991	2425.551173
379.534727	2433.112904
379.920402	2421.770308
380.306013	2435.129365
380.691563	2437.902000
381.077049	2417.989442
381.462474	2401.605692
381.847835	2427.315577
382.233134	2438.910231
382.618371	2433.112904
383.003545	2448.740481
383.388657	2414.964750
383.773706	2414.964750
384.158693	2421.518250
384.543618	2453.529577
384.928480	2418.241500
385.313280	2400.597462
385.698017	2443.951385
386.082692	2423.534712
386.467305	2428.323808
386.851856	2444.707558
387.236344	2426.559404
387.620770	2447.732250
388.005133	2422.526481
388.389435	2398.328942
388.773674	2447.480192
389.157851	2414.964750
389.541965	2436.137596
389.926018	2430.088212
390.310008	2422.274423
390.693936	2450.252827
391.077802	2421.518250
391.461606	2454.285750
391.845348	2432.104673
392.229027	2425.803231
392.612645	2454.537808
392.996200	2421.518250
393.379694	2438.658173
393.763125	2461.343365
394.146494	2445.463731
394.529801	2415.468865
394.913047	2437.397885
395.296230	2433.112904
395.679351	2429.332038
396.062410	2458.318673
396.445408	2413.704462
396.828343	2433.364962
397.211217	2442.186981
397.594028	2438.910231
397.976778	2421.770308
398.359466	2438.154058
398.742092	2444.707558
399.124656	2409.671538
399.507158	2460.083077
399.889598	2450.252827
400.271977	2453.025462
400.654294	2451.261058
401.036549	2408.915365
401.418742	2450.000769
401.800874	2421.014135
402.182944	2450.252827
402.564952	2436.137596
402.946898	2426.811462
403.328783	2450.756942
403.710606	2430.088212
404.092367	2470.921558
404.474067	2434.121135
404.855705	2465.376288
405.237282	2451.513115
405.618797	2453.025462
406.000250	2440.926692
406.381642	2418.241500
406.762972	2451.009000
407.144240	2427.567635
407.525447	2433.364962
407.906593	2430.592327
408.287677	2451.513115
408.668700	2454.033692
409.049661	2452.269288
409.430560	2415.720923
409.811399	2444.455500
410.192176	2437.397885
410.572891	2443.951385
410.953545	2432.104673
411.334138	2451.765173
411.714669	2455.546038
412.095139	2415.720923
412.475547	2417.989442
412.855894	2459.578962
413.236180	2439.918462
413.616405	2447.228135
413.996568	2435.633481
414.376670	2457.814558
414.756711	2456.554269
415.136691	2452.521346
415.516609	2478.987404
415.896466	2429.836154
416.276262	2452.269288
416.655997	2448.740481
417.035670	2450.504885
417.415283	2441.934923
417.794834	2456.554269
418.174324	2438.406115
418.553753	2452.773404
418.933121	2446.976077
419.312428	2456.806327
419.691674	2446.219904
420.070859	2444.959615
420.449983	2454.789865
420.829045	2445.967846
421.208047	2461.595423
421.586988	2452.017231
421.965867	2445.463731
422.344686	2416.477096
422.723444	2442.186981
423.102141	2458.318673
423.480777	2422.022365
423.859352	2434.877308
424.237866	2441.934923
424.616319	2440.674635
424.994712	2462.099538
425.373044	2443.951385
425.751314	2441.682865
426.129524	2458.318673
426.507673	2434.877308
426.885762	2454.789865
427.263789	2453.025462
427.641756	2439.666404
428.019662	2458.570731
428.397508	2456.554269
428.775292	2452.017231
429.153016	2446.724019
429.530679	2451.009000
429.908282	2446.724019
430.285824	2445.463731
430.663305	2447.228135
431.040726	2460.839250
431.418086	2466.384519
431.795385	2441.430808
432.172624	2434.121135
432.549802	2442.691096
432.926920	2456.050154
433.303977	2433.869077
433.680974	2434.877308
434.057910	2450.504885
434.434786	2406.394788
434.811601	2477.223000
435.188355	2471.677731
435.565050	2467.896865
435.941683	2460.335135
436.318257	2466.384519
436.694770	2405.134500
437.071222	2427.063519
437.447614	2447.228135
437.823946	2467.140692
438.200218	2434.625250
438.576429	2470.417442
438.952580	2461.343365
439.328670	2464.116000
439.704700	2437.145827
440.080670	2460.335135
440.456580	2451.009000
440.832429	2455.546038
441.208218	2477.223000
441.583947	2472.433904
441.959616	2438.658173
442.335224	2463.611885
442.710773	2469.913327
443.086261	2453.025462
443.461689	2446.471962
443.837057	2456.554269
444.212365	2452.269288
444.587612	2449.748712
444.962800	2468.905096
445.337927	2459.074846
445.712995	2472.181846
446.088002	2438.910231
446.462949	2421.266192
446.837837	2452.521346
447.212664	2443.195212
447.587431	2466.888635
447.962139	2447.480192
448.336786	2455.546038
448.711374	2456.050154
449.085901	2466.384519
449.460369	2443.195212
449.834776	2437.145827
450.209124	2430.088212
450.583412	2469.157154
450.957640	2492.850577
451.331808	2434.121135
451.705917	2440.926692
452.079965	2430.592327
452.453954	2461.847481
452.827883	2442.691096
453.201752	2436.641712
453.575562	2477.979173
453.949311	2458.822788
454.323001	2462.855712
454.696632	2472.685962
455.070202	2480.247692
455.443713	2432.608788
455.817164	2452.773404
456.190556	2451.513115
456.563888	2443.195212
456.937160	2436.137596
457.310373	2457.310442
457.683526	2441.682865
458.056619	2478.483288
458.429653	2462.603654
458.802628	2448.740481
459.175542	2462.351596
459.548398	2454.537808
459.921194	2473.694192
460.293930	2467.392750
460.666607	2455.546038
461.039224	2458.318673
461.411782	2453.025462
461.784280	2459.074846
462.156719	2478.231231
462.529099	2462.603654
462.901419	2456.302212
463.273680	2451.765173
463.645882	2455.041923
464.018024	2474.450365
464.390106	2439.918462
464.762130	2439.414346
465.134094	2452.521346
465.505999	2446.724019
465.877845	2467.140692
466.249631	2459.074846
466.621358	2463.359827
466.993026	2473.694192
467.364634	2464.620115
467.736184	2452.521346
468.107674	2442.691096
468.479105	2460.587192
468.850477	2437.902000
469.221790	2444.707558
469.593043	2467.896865
469.964238	2451.009000
470.335373	2450.756942
470.706449	2481.760038
471.077467	2436.137596
471.448425	2456.302212
471.819324	2476.214769
472.190164	2446.976077
472.560945	2470.417442
472.931667	2485.792962
473.302330	2444.203442
473.672934	2451.261058
474.043479	2461.595423
474.413965	2453.529577
474.784393	2459.578962
475.154761	2430.340269
475.525070	2483.776500
475.895321	2459.326904
476.265513	2460.839250
476.635645	2471.173615
477.005719	2440.926692
477.375734	2429.836154
477.745691	2461.847481
478.115588	2440.422577
478.485427	2453.025462
478.855207	2464.368058
479.224928	2468.400981
479.594591	2463.107769
479.964194	2455.546038
480.333739	2454.789865
480.703226	2473.694192
481.072653	2462.603654
481.442022	2459.326904
481.811333	2426.811462
482.180584	2477.727115
482.549777	2464.368058
482.918912	2456.302212
483.287988	2455.041923
483.657005	2494.867038
484.025964	2471.929788
484.394864	2450.252827
484.763706	2461.091308
485.132489	2450.756942
485.501213	2465.880404
485.869879	2443.699327
486.238487	2458.570731
486.607036	2454.033692
486.975527	2463.107769
487.343959	2451.261058
487.712333	2447.480192
488.080648	2458.822788
488.448905	2456.050154
488.817104	2464.116000
489.185244	2459.578962
489.553326	2461.091308
489.921350	2456.554269
490.289315	2466.132462
490.657222	2483.776500
491.025070	2458.318673
491.392861	2465.124231
491.760593	2456.806327
492.128267	2482.264154
492.495883	2469.913327
492.863440	2464.116000
493.230939	2458.570731
493.598380	2452.521346
493.965763	2430.592327
494.333088	2454.285750
494.700354	2458.822788
495.067563	2464.368058
495.434713	2432.104673
495.801805	2472.685962
496.168839	2458.318673
496.535815	2442.186981
496.902733	2448.488423
497.269593	2469.409212
497.636395	2446.471962
498.003139	2466.132462
498.369825	2482.768269
498.736453	2428.827923
499.103023	2483.524442
499.469535	2492.850577
499.835989	2483.020327
500.202385	2467.896865
500.568723	2465.880404
500.935003	2449.244596
501.301226	2440.926692
501.667390	2452.773404
502.033497	2440.170519
502.399546	2453.781635
502.765537	2470.417442
503.131470	2460.083077
503.497345	2473.190077
503.863163	2453.277519
504.228923	2465.124231
504.594625	2474.702423
504.960269	2452.521346
505.325856	2472.181846
505.691385	2491.590288
506.056856	2445.967846
506.422270	2481.003865
506.787625	2466.132462
507.152924	2440.170519
507.518164	2477.727115
507.883347	2441.682865
508.248472	2473.190077
508.613540	2456.302212
508.978550	2465.628346
509.343503	2429.584096
509.708398	2468.653038
510.073236	2477.727115
510.438016	2455.293981
510.802738	2469.157154
511.167403	2466.888635
511.532010	2436.641712
511.896561	2462.603654
512.261053	2455.041923
512.625488	2457.058385
512.989866	2456.806327
513.354186	2465.628346
513.718449	2478.483288
514.082655	2460.587192
514.446803	2471.425673
514.810894	2443.699327
515.174927	2476.970942
515.538904	2466.888635
515.902822	2477.979173
516.266684	2462.855712
516.630488	2448.740481
516.994235	2482.012096
517.357925	2459.831019
517.721558	2478.987404
518.085133	2478.231231
518.448651	2467.140692
518.812112	2450.000769
519.175516	2469.913327
519.538863	2457.058385
519.902152	2462.603654
520.265385	2439.666404
520.628560	2465.880404
520.991678	2475.458596
521.354739	2453.025462
521.717743	2447.228135
522.080690	2481.003865
522.443580	2453.277519
522.806413	2462.099538
523.169189	2449.748712
523.531908	2469.661269
523.894569	2467.140692
524.257174	2475.206538
524.619722	2453.025462
524.982213	2489.825885
525.344647	2462.603654
525.707025	2469.661269
526.069345	2457.814558
526.431608	2457.814558
526.793815	2456.302212
527.155964	2469.409212
527.518057	2474.198308
527.880093	2491.338231
528.242072	2468.653038
528.603995	2464.368058
528.965860	2455.293981
529.327669	2479.491519
529.689421	2470.669500
530.051117	2451.009000
530.412755	2483.524442
530.774337	2432.104673
531.135862	2456.554269
531.497331	2472.938019
531.858743	2458.066615
532.220098	2475.962712
532.581396	2470.165385
532.942638	2486.297077
533.303824	2480.751808
533.664953	2472.181846
534.026025	2468.400981
534.387040	2452.773404
534.747999	2447.732250
535.108902	2451.513115
535.469748	2460.839250
535.830537	2467.392750
536.191270	2442.186981
536.551947	2459.326904
536.912567	2440.170519
537.273131	2480.499750
537.633638	2455.798096
537.994089	2473.442135
538.354483	2451.513115
538.714821	2468.400981
539.075103	2456.554269
539.435328	2484.784731
539.795497	2498.143788
540.155609	2473.946250
540.515665	2479.491519
540.875665	2487.809423
541.235609	2488.565596
541.595496	2491.338231
541.955328	2464.368058
542.315102	2458.822788
542.674821	2463.863942
543.034483	2476.970942
543.394090	2491.842346
543.753640	2498.899962
544.113134	2457.814558
544.472571	2480.751808
544.831953	2465.124231
545.191278	2489.321769
545.550548	2455.041923
545.909761	2461.595423
546.268918	2447.732250
546.628019	2471.173615
546.987064	2473.946250
547.346053	2465.124231
547.704986	2469.661269
548.063863	2450.252827
548.422684	2469.913327
548.781449	2456.302212
549.140158	2481.760038
549.498811	2470.417442
549.857408	2490.077942
550.215949	2496.379385
550.574434	2490.077942
550.932864	2471.677731
551.291237	2474.954481
551.649555	2474.450365
552.007817	2505.957577
552.366022	2468.653038
552.724173	2475.206538
553.082267	2442.691096
553.440305	2457.562500
553.798288	2456.554269
554.156215	2463.359827
554.514086	2456.050154
554.871902	2453.781635
555.229661	2452.269288
555.587365	2485.792962
555.945014	2455.546038
556.302606	2455.798096
556.660143	2463.863942
557.017625	2444.203442
557.375050	2462.099538
557.732421	2455.041923
558.089735	2470.165385
558.446994	2467.140692
558.804197	2475.962712
559.161345	2477.475058
559.518437	2431.852615
559.875474	2455.546038
560.232455	2457.310442
560.589381	2456.302212
560.946251	2457.814558
561.303065	2439.918462
561.659825	2477.223000
562.016528	2469.661269
562.373177	2443.447269
562.729770	2462.351596
563.086307	2507.469923
563.442789	2449.496654
563.799216	2456.806327
564.155587	2463.107769
564.511904	2472.938019
564.868164	2435.129365
565.224370	2439.162288
565.580520	2463.359827
565.936615	2481.003865
566.292654	2448.992538
566.648638	2495.623212
567.004567	2460.839250
567.360441	2440.422577
567.716260	2450.756942
568.072023	2478.735346
568.427732	2469.409212
568.783385	2461.847481
569.138982	2470.921558
569.494525	2446.724019
569.850013	2457.814558
570.205445	2452.017231
570.560823	2438.154058
570.916145	2428.827923
571.271412	2465.628346
571.626625	2484.784731
571.981782	2450.000769
572.336884	2445.715788
572.691931	2445.967846
573.046923	2423.534712
573.401860	2458.570731
573.756743	2460.083077
574.111570	2474.954481
574.466342	2485.792962
574.821059	2454.033692
575.175722	2484.280615
575.530330	2472.181846
575.884882	2451.765173
576.239380	2455.798096
576.593823	2455.546038
576.948211	2455.798096
577.302544	2469.661269
577.656823	2467.140692
578.011047	2478.987404
578.365216	2456.554269
578.719330	2485.036788
579.073389	2487.809423
579.427394	2461.847481
579.781344	2468.148923
580.135239	2477.979173
580.489080	2463.611885
580.842866	2470.417442
581.196597	2459.326904
581.550273	2458.570731
581.903895	2468.653038
582.257463	2474.702423
582.610975	2447.480192
582.964434	2501.672596
583.317837	2480.247692
583.671186	2472.433904
584.024481	2454.285750
584.377721	2459.074846
584.730906	2481.760038
585.084037	2479.995635
585.437113	2483.776500
585.790135	2495.371154
586.143103	2462.603654
586.496016	2487.053250
586.848874	2452.773404
587.201679	2498.143788
587.554428	2466.384519
587.907124	2471.929788
588.259765	2489.573827
588.612352	2474.450365
588.964884	2457.562500
589.317362	2473.694192
589.669786	2474.450365
590.022155	2470.921558
590.374470	2435.885538
590.726731	2445.715788
591.078937	2456.050154
591.431090	2463.863942
591.783188	2469.157154
592.135232	2448.488423
592.487222	2476.970942
592.839157	2436.893769
593.191038	2441.430808
593.542866	2447.480192
593.894639	2464.368058
594.246358	2469.913327
594.598022	2480.499750
594.949633	2469.913327
595.301190	2455.546038
595.652692	2453.025462
596.004141	2476.214769
596.355535	2482.768269
596.706876	2452.269288
597.058162	2457.814558
597.409395	2489.321769
597.760573	2484.532673
598.111698	2452.017231
598.462768	2471.677731
598.813785	2476.466827
599.164748	2433.617019
599.515657	2471.425673
599.866511	2465.124231
600.217312	2457.562500
600.568060	2443.951385
600.918753	2474.702423
601.269392	2459.831019
601.619978	2460.839250
601.970510	2479.491519
602.320988	2470.417442
602.671412	2454.033692
603.021783	2465.880404
603.372100	2489.573827
603.722363	2473.442135
604.072572	2469.661269
604.422728	2449.748712
604.772830	2484.028558
605.122878	2465.628346
605.472872	2461.091308
605.822813	2441.178750
606.172701	2472.181846
606.522534	2475.206538
606.872314	2465.376288
607.222041	2433.112904
607.571714	2468.400981
607.921333	2436.641712
608.270899	2457.310442
608.620411	2459.578962
608.969870	2443.699327
609.319276	2450.756942
609.668627	2472.938019
610.017926	2464.116000
610.367171	2457.814558
610.716362	2463.611885
611.065500	2475.710654
611.414585	2503.689058
611.763616	2488.565596
612.112594	2464.116000
612.461518	2475.710654
612.810389	2472.685962
613.159207	2475.458596
613.507971	2453.529577
613.856682	2489.321769
614.205340	2442.943154
614.553945	2462.099538
614.902496	2474.450365
615.250994	2476.970942
615.599439	2493.858808
615.947830	2469.661269
616.296169	2459.326904
616.644454	2466.636577
616.992686	2474.198308
617.340864	2458.822788
617.688990	2468.400981
618.037063	2452.521346
618.385082	2473.946250
618.733048	2482.264154
619.080961	2475.710654
619.428821	2440.170519
619.776628	2462.603654
620.124382	2483.524442
620.472083	2452.269288
620.819731	2477.475058
621.167326	2452.017231
621.514868	2441.430808
621.862357	2447.228135
622.209793	2465.628346
622.557176	2415.972981
622.904506	2492.094404
623.251783	2479.743577
623.599007	2499.152019
623.946179	2456.554269
624.293297	2477.727115
624.640363	2456.050154
624.987376	2472.685962
625.334336	2446.724019
625.681243	2448.992538
626.028097	2448.488423
626.374899	2475.962712
626.721647	2453.529577
627.068343	2471.677731
627.414987	2461.595423
627.761577	2471.425673
628.108115	2474.198308
628.454600	2478.483288
628.801032	2471.929788
629.147412	2463.359827
629.493739	2455.546038
629.840014	2465.628346
630.186236	2475.458596
630.532405	2472.685962
630.878521	2451.009000
631.224585	2453.529577
631.570597	2464.872173
631.916556	2466.132462
632.262462	2481.003865
632.608316	2473.190077
632.954117	2443.195212
633.299866	2446.471962
633.645562	2449.496654
633.991206	2463.611885
634.336797	2490.330000
634.682336	2439.918462
635.027823	2481.003865
635.373257	2446.219904
635.718639	2482.768269
636.063968	2450.756942
636.409245	2450.000769
636.754470	2464.872173
637.099642	2463.359827
637.444762	2446.219904
637.789829	2450.000769
638.134845	2459.074846
638.479808	2453.025462
638.824719	2462.351596
639.169577	2466.384519
639.514383	2478.735346
639.859137	2487.053250
640.203839	2474.450365
640.548489	2483.524442
640.893086	2455.798096
641.237632	2469.157154
641.582125	2488.565596
641.926566	2451.009000
642.270955	2467.140692
642.615292	2483.524442
642.959576	2471.425673
643.303809	2454.537808
643.647990	2461.091308
643.992118	2449.244596
644.336195	2473.946250
644.680219	2468.653038
645.024192	2492.094404
645.368112	2455.798096
645.711981	2475.962712
646.055797	2489.573827
646.399562	2488.565596
646.743274	2458.318673
647.086935	2466.132462
647.430544	2459.578962
647.774101	2459.578962
648.117606	2459.326904
648.461059	2463.611885
648.804460	2455.293981
649.147810	2453.025462
649.491108	2492.598519
649.834354	2490.330000
650.177548	2458.066615
650.520690	2478.483288
650.863781	2465.124231
651.206820	2469.409212
651.549807	2478.735346
651.892742	2439.666404
652.235626	2456.050154
652.578458	2481.760038
652.921238	2447.480192
653.263967	2485.540904
653.606644	2465.124231
653.949269	2474.702423
654.291843	2460.083077
654.634365	2450.756942
654.976836	2453.781635
655.319255	2447.228135
655.661622	2457.814558
656.003938	2477.727115
656.346203	2487.557365
656.688416	2474.954481
657.030577	2468.905096
657.372687	2490.582058
657.714746	2471.173615
658.056753	2460.587192
658.398708	2448.488423
658.740612	2464.872173
659.082465	2475.962712
659.424266	2485.540904
659.766016	2446.219904
660.107715	2460.083077
660.449362	2459.326904
660.790958	2470.921558
661.132503	2461.091308
661.473996	2452.017231
661.815438	2465.376288
662.156829	2454.789865
662.498168	2463.863942
662.839456	2470.921558
663.180693	2480.751808
663.521879	2486.045019
663.863013	2481.255923
664.204097	2462.099538
664.545129	2459.831019
664.886110	2461.091308
665.227040	2478.987404
665.567918	2482.516212
665.908746	2473.442135
666.249522	2475.962712
666.590248	2463.863942
666.930922	2445.715788
667.271545	2455.041923
667.612118	2484.028558
667.952639	2465.628346
668.293109	2476.718885
668.633528	2438.406115
668.973896	2455.798096
669.314213	2446.976077
669.654480	2455.798096
669.994695	2470.921558
670.334859	2459.074846
670.674973	2470.417442
671.015035	2495.371154
671.355047	2469.913327
671.695008	2455.546038
672.034918	2467.644808
672.374777	2471.173615
672.714585	2459.326904
673.054342	2470.165385
673.394049	2454.285750
673.733705	2492.850577
674.073310	2443.951385
674.412864	2482.264154
674.752368	2457.814558
675.091820	2474.198308
675.431223	2480.499750
675.770574	2482.264154
676.109875	2466.384519
676.449125	2449.748712
676.788324	2475.206538
677.127473	2455.798096
677.466571	2462.603654
677.805619	2491.338231
678.144616	2438.406115
678.483562	2462.855712
678.822458	2458.822788
679.161303	2452.773404
679.500098	2445.967846
679.838842	2484.028558
680.177535	2440.170519
680.516179	2450.504885
680.854771	2466.888635
681.193314	2454.789865
681.531805	2467.644808
681.870247	2474.450365
682.208638	2455.798096
682.546978	2474.198308
682.885268	2468.905096
683.223508	2452.773404
683.561697	2466.888635
683.899836	2473.190077
684.237925	2459.578962
684.575963	2469.157154
684.913951	2467.896865
685.251889	2481.760038
685.589776	2465.880404
685.927614	2466.888635
686.265401	2444.203442
686.603137	2472.938019
686.940824	2458.822788
687.278460	2483.776500
687.616046	2494.362923
687.953582	2448.488423
688.291068	2481.255923
688.628504	2479.239462
688.965889	2489.825885
689.303224	2476.214769
689.640510	2465.124231
689.977745	2461.091308
690.314930	2463.611885
690.652065	2470.165385
690.989150	2446.219904
691.326185	2468.400981
691.663170	2457.310442
692.000105	2481.003865
692.336990	2469.409212
692.673825	2475.710654
693.010610	2474.954481
693.347345	2474.198308
693.684030	2465.880404
694.020665	2472.181846
694.357251	2464.116000
694.693786	2452.269288
695.030272	2487.557365
695.366707	2460.839250
695.703093	2461.595423
696.039429	2476.214769
696.375716	2473.694192
696.711952	2470.165385
697.048139	2458.570731
697.384276	2474.198308
697.720363	2435.885538
698.056400	2474.198308
698.392388	2464.368058
698.728326	2482.516212
699.064214	2468.400981
699.400053	2483.776500
699.735842	2467.644808
700.071581	2471.425673
700.407270	2479.743577
700.742910	2479.995635
701.078501	2479.995635
701.414042	2441.178750
701.749533	2492.850577
702.084974	2482.264154
702.420366	2477.979173
702.755709	2456.302212
703.091002	2509.234327
703.426246	2440.170519
703.761440	2473.442135
704.096584	2485.792962
704.431679	2461.595423
704.766725	2477.223000
705.101721	2460.587192
705.436668	2452.017231
705.771565	2487.557365
706.106413	2464.872173
706.441212	2470.417442
706.775961	2421.014135
707.110661	2491.590288
707.445311	2462.603654
707.779913	2476.718885
708.114465	2461.847481
708.448967	2444.455500
708.783421	2455.798096
709.117825	2452.773404
709.452180	2444.707558
709.786485	2482.264154
710.120742	2426.055288
710.454949	2477.475058
710.789107	2458.066615
711.123216	2447.984308
711.457275	2489.069712
711.791286	2473.946250
712.125247	2452.269288
712.459159	2466.132462
712.793023	2475.206538
713.126837	2477.979173
713.460602	2457.310442
713.794318	2476.466827
714.127985	2448.488423
714.461602	2489.321769
714.795171	2473.442135
715.128691	2460.839250
715.462162	2446.976077
715.795584	2482.264154
716.128957	2482.516212
716.462281	2482.264154
716.795556	2467.896865
717.128782	2460.335135
717.461960	2479.743577
717.795088	2453.529577
718.128167	2443.951385
718.461198	2468.905096
718.794180	2451.009000
719.127113	2487.053250
719.459997	2432.608788
719.792833	2472.433904
720.125619	2478.483288
720.458357	2445.967846
720.791046	2456.806327
721.123686	2466.888635
721.456278	2455.798096
721.788821	2462.855712
722.121315	2465.124231
722.453761	2470.921558
722.786158	2476.214769
723.118506	2457.310442
723.450805	2464.620115
723.783056	2462.603654
724.115259	2469.913327
724.447412	2445.463731
724.779518	2470.669500
725.111574	2492.094404
725.443582	2441.178750
725.775542	2481.003865
726.107453	2465.124231
726.439315	2467.896865
726.771129	2475.206538
727.102895	2482.516212
727.434612	2465.124231
727.766281	2438.658173
728.097901	2490.330000
728.429473	2448.488423
728.760996	2479.995635
729.092471	2474.198308
729.423897	2461.847481
729.755276	2440.926692
730.086606	2470.921558
730.417887	2484.028558
730.749120	2460.839250
731.080305	2475.206538
731.411442	2454.033692
731.742530	2458.066615
732.073570	2449.496654
732.404562	2439.918462
732.735506	2475.962712
733.066401	2453.277519
733.397249	2458.822788
733.728048	2486.297077
734.058798	2471.929788
734.389501	2458.822788
734.720156	2472.433904
735.050762	2498.143788
735.381320	2446.724019
735.711831	2491.338231
736.042293	2473.190077
736.372707	2436.389654
736.703073	2479.995635
737.033391	2467.392750
737.363661	2475.962712
737.693883	2461.595423
738.024056	2479.491519
738.354182	2458.822788
738.684260	2457.814558
739.014290	2489.069712
739.344272	2455.041923
739.674207	2485.792962
740.004093	2469.409212
740.333931	2470.921558
740.663722	2461.343365
740.993464	2463.359827
741.323159	2466.636577
741.652806	2439.414346
741.982405	2478.987404
742.311956	2462.099538
742.641460	2479.239462
742.970915	2459.326904
743.300323	2475.458596
743.629683	2467.392750
743.958996	2468.400981
744.288260	2473.442135
744.617477	2469.409212
744.946647	2466.888635
745.275768	2459.074846
745.604842	2415.216808
745.933869	2445.715788
746.262847	2454.033692
746.591778	2455.293981
746.920662	2439.666404
747.249498	2480.247692
747.578286	2437.649942
747.907027	2471.929788
748.235720	2464.620115
748.564365	2469.913327
748.892963	2465.376288
749.221514	2451.009000
749.550017	2465.628346
749.878473	2477.727115
750.206881	2452.017231
750.535242	2460.335135
750.863555	2468.905096
751.191821	2439.414346
751.520039	2475.206538
751.848210	2474.198308
752.176334	2464.116000
752.504411	2462.351596
752.832440	2459.326904
753.160421	2446.976077
753.488356	2471.677731
753.816243	2481.507981
754.144082	2457.058385
754.471875	2461.091308
754.799620	2465.628346
755.127318	2469.661269
755.454969	2491.338231
755.782572	2502.428769
756.110129	2467.644808
756.437638	2457.058385
756.765100	2478.483288
757.092515	2461.847481
757.419882	2470.165385
757.747203	2470.417442
758.074477	2489.573827
758.401703	2478.735346
758.728882	2463.863942
759.056014	2449.748712
759.383099	2468.148923
759.710138	2450.252827
760.037129	2446.724019
760.364073	2446.976077
760.690970	2470.921558
761.017820	2482.768269
761.344623	2462.603654
761.671379	2458.066615
761.998088	2467.896865
762.324751	2490.834115
762.651366	2450.504885
762.977935	2444.959615
763.304456	2473.694192
763.630931	2445.967846
763.957359	2463.359827
764.283740	2450.252827
764.610074	2482.768269
764.936362	2463.107769
765.262602	2431.348500
765.588796	2483.272385
765.914943	2453.025462
766.241044	2487.809423
766.567097	2467.140692
766.893104	2471.677731
767.219064	2480.247692
767.544978	2452.017231
767.870845	2462.099538
768.196665	2448.236365
768.522438	2467.140692
768.848165	2481.507981
769.173846	2478.987404
769.499479	2456.554269
769.825066	2453.529577
770.150607	2458.318673
770.476101	2460.083077
770.801548	2464.620115
771.126949	2473.442135
771.452303	2450.252827
771.777611	2452.017231
772.102872	2464.872173
772.428087	2459.831019
772.753256	2469.157154
773.078378	2475.710654
773.403453	2467.140692
773.728482	2441.934923
774.053465	2433.869077
774.378401	2460.587192
774.703291	2459.074846
775.028135	2453.529577
775.352932	2447.228135
775.677683	2470.669500
776.002388	2464.872173
776.327046	2436.893769
776.651658	2461.595423
776.976224	2469.913327
777.300743	2474.702423
777.625216	2461.595423
777.949643	2487.305308
778.274024	2455.041923
778.598359	2470.417442
778.922647	2442.943154
779.246889	2470.165385
779.571086	2454.537808
779.895236	2459.578962
780.219339	2497.639673
780.543397	2453.277519
780.867409	2452.017231
781.191374	2471.173615
781.515294	2493.354692
781.839167	2455.546038
782.162995	2448.488423
782.486776	2485.036788
782.810511	2483.776500
783.134201	2455.293981
783.457844	2478.987404
783.781441	2433.364962
784.104993	2457.058385
784.428498	2474.198308
784.751958	2464.620115
785.075372	2436.641712
785.398739	2454.033692
785.722061	2453.781635
786.045337	2494.362923
786.368568	2451.009000
786.691752	2453.781635
787.014891	2466.132462
787.337983	2454.285750
787.661030	2463.863942
787.984031	2470.669500
788.306987	2483.020327
788.629897	2442.186981
788.952760	2460.587192
789.275579	2463.107769
789.598351	2474.954481
789.921078	2466.636577
790.243759	2465.880404
790.566395	2454.033692
790.888984	2456.050154
791.211529	2449.748712
791.534027	2453.277519
791.856480	2438.910231
792.178888	2449.748712
792.501249	2456.554269
792.823566	2455.293981
793.145836	2464.872173
793.468062	2458.066615
793.790241	2445.967846
794.112375	2451.513115
794.434464	2454.789865
794.756507	2444.455500
795.078505	2450.000769
795.400457	2430.340269
795.722364	2472.181846
796.044226	2454.033692
796.366042	2454.789865
796.687812	2446.976077
797.009538	2469.661269
797.331218	2453.277519
797.652852	2445.211673
797.974442	2463.107769
798.295986	2463.611885
798.617484	2465.880404
798.938938	2457.058385
799.260346	2447.480192
799.581709	2474.450365
799.903026	2479.491519
800.224299	2481.255923
800.545526	2468.653038
800.866708	2448.740481
801.187845	2466.384519
801.508936	2442.691096
801.829983	2458.570731
802.150984	2452.521346
802.471940	2454.789865
802.792851	2470.669500
803.113717	2460.083077
803.434538	2455.293981
803.755314	2472.181846
804.076045	2464.620115
804.396731	2464.116000
804.717372	2463.359827
805.037967	2457.562500
805.358518	2469.913327
805.679024	2471.677731
805.999485	2450.504885
806.319901	2485.792962
806.640272	2450.504885
806.960598	2463.863942
807.280879	2482.264154
807.601115	2453.277519
807.921306	2441.934923
808.241453	2480.499750
808.561554	2442.691096
808.881611	2454.789865
809.201623	2433.617019
809.521590	2444.455500
809.841513	2456.050154
810.161390	2452.017231
810.481223	2439.414346
810.801011	2479.743577
811.120755	2458.066615
811.440453	2454.789865
811.760107	2472.938019
812.079716	2476.214769
812.399281	2465.376288
812.718801	2442.691096
813.038276	2458.570731
813.357707	2466.384519
813.677093	2493.354692
813.996434	2476.466827
814.315731	2447.984308
814.634983	2467.392750
814.954191	2435.633481
815.273354	2454.285750
815.592473	2463.107769
815.911547	2472.938019
816.230577	2475.206538
816.549562	2477.475058
816.868502	2455.293981
817.187399	2459.831019
817.506250	2468.148923
817.825058	2470.669500
818.143821	2463.107769
818.462539	2468.905096
818.781213	2463.863942
819.099843	2451.513115
819.418429	2466.636577
819.736970	2465.124231
820.055466	2454.537808
820.373919	2477.727115
820.692327	2467.392750
821.010691	2448.740481
821.329011	2467.896865
821.647286	2425.047058
821.965517	2464.620115
822.283704	2466.384519
822.601847	2455.293981
822.919945	2469.661269
823.237999	2451.261058
823.556010	2460.839250
823.873976	2448.992538
824.191897	2468.400981
824.509775	2459.326904
824.827609	2469.913327
825.145398	2449.748712
825.463144	2467.392750
825.780845	2449.244596
826.098502	2474.198308
826.416116	2460.335135
826.733685	2448.236365
827.051210	2462.603654
827.368692	2433.364962
827.686129	2465.376288
828.003522	2460.335135
828.320872	2477.979173
828.638177	2458.066615
828.955439	2445.715788
829.272656	2467.140692
829.589830	2473.694192
829.906960	2454.033692
830.224046	2481.760038
830.541088	2442.943154
830.858086	2472.685962
831.175041	2473.694192
831.491952	2468.148923
831.808819	2477.475058
832.125642	2452.017231
832.442421	2451.513115
832.759157	2463.107769
833.075849	2469.913327
833.392497	2463.611885
833.709101	2465.124231
834.025662	2440.926692
834.342179	2446.724019
834.658653	2452.521346
834.975083	2451.765173
835.291469	2478.987404
835.607811	2451.261058
835.924110	2445.967846
836.240366	2450.756942
836.556578	2488.313538
836.872746	2463.359827
837.188871	2461.091308
837.504952	2435.885538
837.820990	2475.206538
838.136984	2442.439038
838.452935	2447.480192
838.768842	2440.170519
839.084706	2491.842346
839.400526	2476.718885
839.716303	2480.499750
840.032037	2433.112904
840.347727	2446.976077
840.663373	2455.546038
840.978977	2465.376288
841.294537	2460.839250
841.610054	2458.066615
841.925527	2440.674635
842.240957	2465.628346
842.556344	2464.368058
842.871687	2464.368058
843.186987	2450.000769
843.502244	2465.376288
843.817458	2461.847481
844.132629	2478.987404
844.447756	2454.033692
844.762840	2466.888635
845.077881	2444.455500
845.392879	2457.562500
845.707833	2453.277519
846.022745	2440.422577
846.337613	2464.620115
846.652438	2466.132462
846.967221	2462.351596
847.281960	2458.570731
847.596656	2475.458596
847.911309	2466.132462
848.225919	2448.236365
848.540485	2464.116000
848.855009	2481.255923
849.169490	2462.351596
849.483928	2451.261058
849.798323	2454.033692
850.112675	2459.074846
850.426984	2447.480192
850.741251	2490.330000
851.055474	2459.326904
851.369654	2456.302212
851.683792	2457.562500
851.997887	2425.047058
852.311938	2459.074846
852.625947	2432.356731
852.939914	2443.951385
853.253837	2457.562500
853.567718	2471.929788
853.881555	2439.666404
854.195350	2485.792962
854.509103	2496.127327
854.822812	2457.310442
855.136479	2461.847481
855.450103	2470.921558
855.763685	2437.902000
856.077224	2463.611885
856.390720	2480.499750
856.704173	2449.496654
857.017584	2482.516212
857.330953	2438.154058
857.644278	2462.603654
857.957561	2469.913327
858.270802	2447.732250
858.584000	2463.107769
858.897155	2464.620115
859.210268	2431.096442
859.523339	2446.976077
859.836367	2436.137596
860.149352	2443.951385
860.462295	2458.822788
860.775195	2443.699327
861.088054	2454.537808
861.400869	2455.546038
861.713642	2437.397885
862.026373	2466.384519
862.339062	2466.636577
862.651708	2454.285750
862.964312	2456.302212
863.276873	2472.685962
863.589392	2462.099538
863.901869	2467.392750
864.214303	2470.165385
864.526696	2466.636577
864.839045	2442.439038
865.151353	2454.537808
865.463619	2452.017231
865.775842	2459.326904
866.088023	2453.025462
866.400162	2465.124231
866.712258	2447.732250
867.024313	2457.814558
867.336325	2452.773404
867.648296	2466.636577
867.960224	2478.231231
868.272110	2456.806327
868.583954	2478.483288
868.895755	2453.277519
869.207515	2462.603654
869.519233	2441.178750
869.830909	2461.595423
870.142542	2455.041923
870.454134	2443.195212
870.765684	2471.173615
871.077191	2459.074846
871.388657	2459.074846
871.700081	2462.855712
872.011463	2449.496654
872.322803	2451.009000
872.634101	2459.326904
872.945357	2466.132462
873.256571	2455.041923
873.567744	2429.836154
873.878874	2471.929788
874.189963	2476.970942
874.501010	2439.162288
874.812015	2455.798096
875.122979	2451.513115
875.433900	2451.765173
875.744780	2461.343365
876.055618	2460.839250
876.366415	2434.373192
876.677169	2453.277519
876.987882	2463.611885
877.298554	2456.554269
877.609183	2438.910231
877.919771	2466.132462
878.230317	2462.855712
878.540822	2432.104673
878.851285	2466.132462
879.161707	2454.537808
879.472087	2461.091308
879.782425	2463.611885
880.092722	2460.083077
880.402977	2477.979173
880.713191	2480.499750
881.023363	2446.219904
881.333494	2452.269288
881.643583	2440.422577
881.953631	2468.905096
882.263637	2447.480192
882.573602	2469.661269
882.883526	2466.384519
883.193408	2465.376288
883.503248	2469.157154
883.813048	2470.417442
884.122806	2443.447269
884.432522	2465.376288
884.742197	2450.000769
885.051831	2452.269288
885.361424	2445.715788
885.670975	2458.066615
885.980485	2444.707558
886.289954	2462.855712
886.599382	2476.214769
886.908768	2453.529577
887.218113	2444.707558
887.527417	2472.433904
887.836680	2438.658173
888.145901	2468.148923
888.455082	2453.781635
888.764221	2460.587192
889.073319	2456.302212
889.382376	2466.636577
889.691392	2468.148923
890.000366	2486.549135
890.309300	2471.677731
890.618193	2457.562500
890.927044	2451.765173
891.235855	2475.962712
891.544625	2471.425673
891.853353	2423.030596
892.162041	2453.025462
892.470687	2460.083077
892.779293	2444.959615
893.087858	2457.562500
893.396381	2434.877308
893.704864	2462.351596
894.013306	2451.513115
894.321707	2463.863942
894.630068	2461.847481
894.938387	2456.302212
895.246665	2479.239462
895.554903	2452.269288
895.863100	2458.318673
896.171256	2486.549135
896.479371	2448.992538
896.787446	2469.661269
897.095480	2466.132462
897.403473	2454.033692
897.711425	2445.967846
898.019336	2477.475058
898.327207	2446.219904
898.635038	2477.727115
898.942827	2441.682865
899.250576	2446.219904
899.558284	2444.707558
899.865952	2482.264154
900.173579	2435.381423
900.481165	2453.781635
900.788711	2462.099538
901.096216	2451.261058
901.403681	2454.537808
901.711105	2463.863942
902.018489	2451.261058
902.325832	2456.554269
902.633135	2451.513115
902.940397	2446.219904
903.247619	2446.724019
903.554800	2455.798096
903.861941	2461.847481
904.169041	2480.751808
904.476101	2454.537808
904.783121	2471.425673
905.090100	2457.814558
905.397039	2466.132462
905.703938	2470.669500
906.010796	2465.124231
906.317614	2460.335135
906.624391	2453.277519
906.931129	2456.806327
907.237826	2456.554269
907.544483	2491.842346
907.851099	2435.129365
908.157675	2461.343365
908.464211	2439.666404
908.770707	2469.157154
909.077163	2459.578962
909.383578	2454.285750
909.689954	2440.422577
909.996289	2463.359827
910.302584	2475.962712
910.608839	2434.877308
910.915054	2459.326904
911.221229	2449.748712
911.527363	2442.943154
911.833458	2468.905096
912.139513	2452.017231
912.445527	2445.211673
912.751502	2445.715788
913.057436	2478.987404
913.363331	2473.442135
913.669186	2444.203442
913.975000	2437.145827
914.280775	2466.384519
914.586510	2463.107769
914.892205	2442.186981
915.197859	2454.789865
915.503475	2467.896865
915.809050	2458.318673
916.114585	2466.132462
916.420081	2445.967846
916.725536	2437.145827
917.030952	2461.091308
917.336328	2451.513115
917.641665	2434.877308
917.946961	2450.000769
918.252218	2465.124231
918.557435	2456.554269
918.862612	2447.228135
919.167750	2428.071750
919.472848	2467.140692
919.777906	2455.293981
920.082925	2447.480192
920.387904	2466.132462
920.692843	2421.266192
920.997743	2489.321769
921.302603	2454.789865
921.607423	2468.148923
921.912204	2461.091308
922.216946	2440.674635
922.521647	2472.181846
922.826310	2441.178750
923.130932	2457.814558
923.435516	2461.595423
923.740059	2467.140692
924.044564	2463.107769
924.349028	2464.872173
924.653454	2445.463731
924.957840	2460.083077
925.262186	2433.364962
925.566493	2467.896865
925.870761	2467.392750
926.174989	2457.562500
926.479178	2445.967846
926.783328	2453.277519
927.087438	2450.504885
927.391509	2466.888635
927.695541	2448.488423
927.999533	2435.633481
928.303486	2448.488423
928.607400	2466.132462
928.911275	2479.743577
929.215110	2447.480192
929.518906	2446.724019
929.822663	2460.083077
930.126381	2447.480192
930.430060	2461.343365
930.733699	2460.839250
931.037299	2455.293981
931.340861	2457.562500
931.644383	2434.373192
931.947866	2451.765173
932.251309	2453.277519
932.554714	2454.285750
932.858080	2446.976077
933.161407	2443.699327
933.464694	2476.214769
933.767943	2477.223000
934.071153	2479.491519
934.374323	2462.351596
934.677455	2447.732250
934.980548	2448.740481
935.283602	2452.521346
935.586617	2459.326904
935.889593	2447.984308
936.192530	2448.236365
936.495428	2438.910231
936.798287	2468.148923
937.101108	2496.883500
937.403890	2462.855712
937.706632	2483.524442
938.009336	2486.045019
938.312002	2437.145827
938.614628	2479.239462
938.917216	2443.195212
939.219765	2455.293981
939.522275	2450.252827
939.824747	2459.074846
940.127179	2448.236365
940.429573	2474.702423
940.731929	2450.504885
941.034246	2456.806327
941.336524	2469.913327
941.638763	2456.050154
941.940964	2463.863942
942.243126	2484.280615
942.545250	2457.814558
942.847335	2455.293981
943.149381	2477.475058
943.451389	2480.247692
943.753359	2446.219904
944.055290	2454.789865
944.357182	2463.863942
944.659036	2454.285750
944.960851	2472.685962
945.262628	2463.359827
945.564367	2467.140692
945.866067	2456.554269
946.167729	2457.310442
946.469352	2466.888635
946.770937	2438.406115
947.072484	2445.211673
947.373992	2435.885538
947.675462	2485.792962
947.976893	2430.088212
948.278286	2472.685962
948.579641	2479.743577
948.880958	2459.831019
949.182236	2479.995635
949.483476	2467.140692
949.784678	2481.003865
950.085841	2430.592327
950.386967	2454.537808
950.688054	2462.603654
950.989103	2469.409212
951.290114	2436.389654
951.591087	2450.252827
951.892021	2458.066615
952.192917	2451.261058
952.493776	2470.669500
952.794596	2456.554269
953.095378	2440.170519
953.396122	2473.694192
953.696828	2474.702423
953.997496	2449.244596
954.298126	2462.099538
954.598718	2486.801192
954.899272	2474.198308
955.199788	2455.546038
955.500266	2450.000769
955.800706	2479.491519
956.101108	2458.066615
956.401472	2440.422577
956.701798	2472.685962
957.002087	2470.165385
957.302337	2434.625250
957.602550	2462.099538
957.902724	2460.083077
958.202861	2458.318673
958.502960	2434.625250
958.803022	2462.855712
959.103045	2474.954481
959.403031	2477.727115
959.702979	2455.041923
960.002889	2462.603654
960.302762	2457.562500
960.602596	2447.480192
960.902393	2433.869077
961.202153	2429.332038
961.501875	2449.748712
961.801559	2475.206538
962.101205	2444.455500
962.400814	2471.425673
962.700385	2465.124231
962.999918	2462.099538
963.299414	2475.458596
963.598873	2442.439038
963.898293	2450.252827
964.197677	2429.836154
964.497022	2464.620115
964.796331	2483.776500
965.095601	2445.715788
965.394835	2434.121135
965.694030	2453.025462
965.993189	2452.773404
966.292309	2443.195212
966.591393	2448.740481
966.890439	2465.124231
967.189447	2442.943154
967.488419	2493.354692
967.787353	2468.148923
968.086249	2448.740481
968.385108	2464.620115
968.683930	2458.066615
968.982714	2455.546038
969.281462	2469.157154
969.580172	2441.430808
969.878844	2440.422577
970.177480	2494.867038
970.476078	2458.318673
970.774639	2466.384519
971.073162	2471.173615
971.371649	2464.872173
971.670098	2449.748712
971.968510	2399.337173
972.266885	2480.751808
972.565223	2442.439038
972.863524	2464.620115
973.161788	2448.740481
973.460014	2455.293981
973.758204	2436.641712
974.056356	2443.195212
974.354471	2463.611885
974.652550	2467.896865
974.950591	2466.636577
975.248595	2462.099538
975.546563	2461.847481
975.844493	2477.223000
976.142386	2443.951385
976.440243	2458.570731
976.738062	2477.223000
977.035845	2450.252827
977.333590	2450.756942
977.631299	2458.570731
977.928971	2447.984308
978.226606	2458.066615
978.524204	2447.228135
978.821765	2441.682865
979.119290	2453.277519
979.416777	2453.781635
979.714228	2438.154058
980.011642	2435.129365
980.309020	2476.466827
980.606360	2436.389654
980.903664	2456.302212
981.200931	2446.976077
981.498162	2467.392750
981.795356	2441.430808
982.092513	2450.000769
982.389633	2448.488423
982.686717	2470.165385
982.983764	2451.261058
983.280775	2450.000769
983.577749	2474.954481
983.874686	2428.575865
984.171587	2442.943154
984.468451	2441.682865
984.765279	2463.863942
985.062070	2444.203442
985.358824	2440.170519
985.655543	2458.318673
985.952224	2441.430808
986.248869	2439.414346
986.545478	2425.299115
986.842050	2468.653038
987.138586	2460.335135
987.435086	2423.282654
987.731549	2456.302212
988.027975	2453.277519
988.324366	2451.261058
988.620719	2476.718885
988.917037	2485.036788
989.213318	2499.404077
989.509563	2468.905096
989.805772	2471.173615
990.101944	2446.724019
990.398080	2446.976077
990.694180	2438.910231
990.990244	2477.727115
991.286271	2446.471962
991.582262	2426.055288
991.878217	2464.116000
992.174136	2455.041923
992.470019	2455.798096
992.765865	2468.400981
993.061676	2438.658173
993.357450	2449.496654
993.653188	2459.326904
993.948890	2452.017231
994.244556	2448.740481
994.540186	2434.877308
994.835780	2434.625250
995.131337	2439.666404
995.426859	2456.050154
995.722345	2448.236365
996.017795	2476.970942
996.313208	2451.765173
996.608586	2448.740481
996.903928	2445.715788
997.199234	2445.967846
997.494504	2437.649942
997.789738	2450.504885
998.084936	2456.806327
998.380099	2436.389654
998.675225	2454.537808
998.970316	2444.455500
999.265371	2486.045019
999.560390	2464.368058
999.855373	2465.880404
1000.150320	2463.611885
1000.445232	2477.475058
1000.740108	2482.516212
1001.034948	2451.261058
1001.329752	2445.715788
1001.624521	2472.181846
1001.919254	2440.926692
1002.213951	2450.000769
1002.508613	2443.447269
1002.803239	2491.590288
1003.097829	2470.669500
1003.392384	2440.422577
1003.686903	2453.277519
1003.981386	2445.967846
1004.275834	2448.236365
1004.570246	2446.724019
1004.864623	2453.781635
1005.158964	2450.000769
1005.453270	2449.748712
1005.747540	2435.129365
1006.041775	2472.938019
1006.335974	2444.707558
1006.630138	2456.806327
1006.924266	2446.471962
1007.218359	2449.496654
1007.512416	2418.493558
1007.806438	2457.562500
1008.100425	2428.071750
1008.394376	2464.368058
1008.688292	2475.962712
1008.982172	2442.439038
1009.276017	2463.359827
1009.569827	2435.381423
1009.863602	2447.984308
1010.157341	2445.463731
1010.451045	2451.009000
1010.744714	2431.096442
1011.038347	2448.488423
1011.331945	2457.814558
1011.625508	2439.666404
1011.919036	2462.099538
1012.212528	2451.009000
1012.505986	2470.921558
1012.799408	2441.430808
1013.092795	2447.480192
1013.386147	2458.822788
1013.679464	2443.699327
1013.972745	2464.116000
1014.265992	2452.017231
1014.559204	2460.839250
1014.852380	2476.718885
1015.145521	2448.740481
1015.438628	2445.715788
1015.731699	2452.521346
1016.024736	2451.261058
1016.317737	2448.992538
1016.610703	2455.798096
1016.903635	2462.603654
1017.196531	2475.962712
1017.489393	2448.488423
1017.782219	2441.682865
1018.075011	2477.223000
1018.367768	2454.537808
1018.660490	2455.293981
1018.953177	2455.293981
1019.245829	2455.293981
