Dividing Wavelength (nm)	Counts (n)	Slit_number_30_of_a_total_of_40	
326.493990	2133.836404
326.888308	2133.836404
327.282561	2133.836404
327.676750	2105.101827
328.070874	2113.755808
328.464933	2131.147788
328.858929	2133.920423
329.252859	2152.068577
329.646726	2167.528115
330.040528	2171.561038
330.434265	2183.071673
330.827938	2216.595346
331.221547	2228.946173
331.615091	2254.992135
332.008571	2273.728423
332.401986	2304.143385
332.795338	2309.352577
333.188625	2340.943808
333.581847	2353.882769
333.975006	2374.887577
334.368100	2403.286077
334.761129	2420.510019
335.154095	2432.860846
335.546996	2459.494942
335.939833	2447.984308
336.332606	2470.501462
336.725315	2484.952769
337.117960	2499.992212
337.510540	2486.381096
337.903056	2502.596808
338.295508	2528.726788
338.687896	2523.265538
339.080220	2514.779596
339.472480	2529.314923
339.864676	2529.735019
340.256807	2538.557038
340.648875	2536.876654
341.040879	2539.313212
341.432818	2548.051212
341.824694	2545.782692
342.216506	2542.926038
342.608253	2553.680500
342.999937	2527.802577
343.391557	2549.395519
343.783113	2533.179808
344.174605	2525.366019
344.566033	2550.235712
344.957397	2543.430154
345.348697	2554.940788
345.739934	2529.398942
346.131106	2532.759712
346.522215	2517.552231
346.913260	2529.819038
347.304241	2536.792635
347.695159	2535.112250
348.086012	2513.603327
348.476802	2512.595096
348.867528	2512.090981
349.258191	2520.408885
349.648789	2521.585154
350.039324	2510.578635
350.429796	2516.880077
350.820203	2497.135558
351.210548	2502.680827
351.600828	2506.461692
351.991045	2516.628019
352.381198	2510.662654
352.771288	2507.217865
353.161314	2502.596808
353.551276	2504.613269
353.941175	2517.384192
354.331010	2511.838923
354.720782	2499.992212
355.110490	2502.848865
355.500135	2515.787827
355.889717	2518.392423
356.279235	2515.955865
356.668689	2515.619788
357.058080	2523.097500
357.447408	2519.736731
357.836672	2520.324865
358.225873	2515.619788
358.615010	2498.731923
359.004084	2515.871846
359.393095	2508.562173
359.782043	2516.880077
360.170927	2522.257308
360.559748	2529.482962
360.948505	2517.804288
361.337199	2519.148596
361.725830	2510.074519
362.114398	2510.662654
362.502903	2501.168481
362.891344	2518.728500
363.279722	2527.214442
363.668037	2514.107442
364.056289	2515.283712
364.444478	2521.669173
364.832603	2518.728500
365.220665	2519.904769
365.608665	2523.265538
365.996601	2528.222673
366.384474	2515.535769
366.772284	2517.132135
367.160031	2514.695577
367.547715	2542.842019
367.935336	2511.838923
368.322893	2515.703808
368.710388	2527.466500
369.097820	2518.980558
369.485189	2524.693865
369.872495	2525.870135
370.259738	2527.886596
370.646918	2521.837212
371.034035	2533.179808
371.421090	2526.878365
371.808081	2518.308404
372.195010	2526.458269
372.581875	2517.972327
372.968678	2528.138654
373.355418	2528.726788
373.742096	2524.189750
374.128710	2536.120481
374.515262	2537.632827
374.901751	2520.240846
375.288177	2513.267250
375.674540	2526.206212
376.060841	2542.842019
376.447079	2519.316635
376.833254	2546.454846
377.219367	2532.927750
377.605417	2540.153404
377.991404	2526.710327
378.377329	2540.825558
378.763191	2534.860192
379.148991	2541.245654
379.534727	2542.673981
379.920402	2539.565269
380.306013	2547.127000
380.691563	2551.159923
381.077049	2538.893115
381.462474	2556.285096
381.847835	2542.505942
382.233134	2541.581731
382.618371	2545.026519
383.003545	2554.352654
383.388657	2551.411981
383.773706	2528.474731
384.158693	2558.385577
384.543618	2546.370827
384.928480	2550.151692
385.313280	2541.161635
385.698017	2545.950731
386.082692	2551.327962
386.467305	2555.108827
386.851856	2544.942500
387.236344	2540.489481
387.620770	2541.329673
388.005133	2546.118769
388.389435	2544.774462
388.773674	2554.352654
389.157851	2536.624596
389.541965	2556.537154
389.926018	2533.095788
390.310008	2529.735019
390.693936	2543.766231
391.077802	2556.537154
391.461606	2538.809096
391.845348	2553.428442
392.229027	2546.034750
392.612645	2536.876654
392.996200	2525.113962
393.379694	2543.094077
393.763125	2545.026519
394.146494	2543.178096
394.529801	2548.303269
394.913047	2539.565269
395.296230	2540.909577
395.679351	2532.255596
396.062410	2549.311500
396.445408	2554.520692
396.828343	2546.202788
397.211217	2523.853673
397.594028	2533.431865
397.976778	2539.061154
398.359466	2527.046404
398.742092	2536.204500
399.124656	2535.868423
399.507158	2534.104019
399.889598	2538.725077
400.271977	2551.580019
400.654294	2541.161635
401.036549	2539.649288
401.418742	2554.436673
401.800874	2543.010058
402.182944	2538.641058
402.564952	2522.509365
402.946898	2539.565269
403.328783	2549.731596
403.710606	2539.145173
404.092367	2542.505942
404.474067	2540.741538
404.855705	2525.618077
405.237282	2547.967192
405.618797	2536.624596
406.000250	2536.792635
406.381642	2546.538865
406.762972	2538.220962
407.144240	2552.588250
407.525447	2543.934269
407.906593	2537.380769
408.287677	2530.491192
408.668700	2541.497712
409.049661	2534.860192
409.430560	2546.706904
409.811399	2525.786115
410.192176	2542.589962
410.572891	2557.545385
410.953545	2545.782692
411.334138	2535.280288
411.714669	2555.360885
412.095139	2541.749769
412.475547	2560.486058
412.855894	2531.415404
413.236180	2549.059442
413.616405	2552.924327
413.996568	2554.268635
414.376670	2556.453135
414.756711	2547.042981
415.136691	2562.502519
415.516609	2549.143462
415.896466	2555.444904
416.276262	2546.622885
416.655997	2542.842019
417.035670	2553.932558
417.415283	2558.217538
417.794834	2556.285096
418.174324	2550.403750
418.553753	2540.069385
418.933121	2549.563558
419.312428	2558.553615
419.691674	2537.968904
420.070859	2544.102308
420.449983	2535.868423
420.829045	2550.655808
421.208047	2553.260404
421.586988	2548.891404
421.965867	2539.229192
422.344686	2564.266923
422.723444	2542.926038
423.102141	2554.688731
423.480777	2555.360885
423.859352	2548.051212
424.237866	2553.680500
424.616319	2564.518981
424.994712	2549.395519
425.373044	2553.512462
425.751314	2552.000115
426.129524	2550.991885
426.507673	2562.922615
426.885762	2547.631115
427.263789	2546.622885
427.641756	2540.993596
428.019662	2554.940788
428.397508	2552.084135
428.775292	2550.823846
429.153016	2534.440096
429.530679	2547.211019
429.908282	2569.896212
430.285824	2551.664038
430.663305	2534.440096
431.040726	2554.268635
431.418086	2564.266923
431.795385	2552.672269
432.172624	2554.604712
432.549802	2535.532346
432.926920	2547.547096
433.303977	2553.176385
433.680974	2555.528923
434.057910	2553.260404
434.434786	2554.940788
434.811601	2554.352654
435.188355	2553.512462
435.565050	2549.311500
435.941683	2559.141750
436.318257	2570.400327
436.694770	2540.825558
437.071222	2559.813904
437.447614	2553.008346
437.823946	2546.454846
438.200218	2538.809096
438.576429	2556.453135
438.952580	2558.217538
439.328670	2559.897923
439.704700	2546.958962
440.080670	2545.530635
440.456580	2558.553615
440.832429	2564.434962
441.208218	2559.645865
441.583947	2544.186327
441.959616	2553.008346
442.335224	2565.611231
442.710773	2562.334481
443.086261	2541.581731
443.461689	2547.042981
443.837057	2557.461365
444.212365	2570.232288
444.587612	2540.825558
444.962800	2553.260404
445.337927	2562.250462
445.712995	2559.645865
446.088002	2543.346135
446.462949	2551.832077
446.837837	2545.698673
447.212664	2569.476115
447.587431	2567.375635
447.962139	2574.097173
448.336786	2571.408558
448.711374	2555.192846
449.085901	2548.303269
449.460369	2559.561846
449.834776	2555.612942
450.209124	2562.082423
450.583412	2568.047788
450.957640	2566.787500
451.331808	2550.151692
451.705917	2562.502519
452.079965	2554.352654
452.453954	2549.227481
452.827883	2555.360885
453.201752	2575.021385
453.575562	2559.309788
453.949311	2557.209308
454.323001	2560.402038
454.696632	2559.225769
455.070202	2540.069385
455.443713	2547.883173
455.817164	2573.929135
456.190556	2558.217538
456.563888	2561.158212
456.937160	2568.719942
457.310373	2555.276865
457.683526	2569.728173
458.056619	2549.899635
458.429653	2557.041269
458.802628	2554.436673
459.175542	2556.285096
459.548398	2564.434962
459.921194	2550.823846
460.293930	2550.487769
460.666607	2566.031327
461.039224	2561.662327
461.411782	2552.504231
461.784280	2544.438385
462.156719	2554.856769
462.529099	2567.795731
462.901419	2573.929135
463.273680	2552.336192
463.645882	2558.469596
464.018024	2570.064250
464.390106	2550.655808
464.762130	2573.341000
465.134094	2556.033038
465.505999	2547.547096
465.877845	2555.360885
466.249631	2549.143462
466.621358	2558.973712
466.993026	2547.799154
467.364634	2566.619462
467.736184	2568.803962
468.107674	2564.687019
468.479105	2562.838596
468.850477	2555.780981
469.221790	2561.494288
469.593043	2563.426731
469.964238	2561.662327
470.335373	2574.937365
470.706449	2559.393808
471.077467	2560.486058
471.448425	2564.434962
471.819324	2551.580019
472.190164	2561.914385
472.560945	2557.881462
472.931667	2572.752865
473.302330	2574.601288
473.672934	2556.621173
474.043479	2541.581731
474.413965	2547.127000
474.784393	2562.250462
475.154761	2557.545385
475.525070	2571.996692
475.895321	2559.141750
476.265513	2573.593058
476.635645	2565.863288
477.005719	2561.662327
477.375734	2551.832077
477.745691	2557.461365
478.115588	2552.168154
478.485427	2553.344423
478.855207	2566.115346
479.224928	2548.807385
479.594591	2566.703481
479.964194	2558.973712
480.333739	2561.326250
480.703226	2555.528923
481.072653	2558.049500
481.442022	2559.813904
481.811333	2551.580019
482.180584	2554.604712
482.549777	2570.064250
482.918912	2564.687019
483.287988	2563.258692
483.657005	2555.865000
484.025964	2564.014865
484.394864	2555.276865
484.763706	2573.256981
485.132489	2568.635923
485.501213	2563.342712
485.869879	2556.873231
486.238487	2552.756288
486.607036	2553.848538
486.975527	2575.273442
487.343959	2558.049500
487.712333	2573.425019
488.080648	2560.318019
488.448905	2559.141750
488.817104	2553.932558
489.185244	2555.276865
489.553326	2555.696962
489.921350	2562.838596
490.289315	2569.224058
490.657222	2564.266923
491.025070	2564.434962
491.392861	2569.392096
491.760593	2548.387288
492.128267	2546.958962
492.495883	2553.764519
492.863440	2565.863288
493.230939	2560.822135
493.598380	2570.652385
493.965763	2561.158212
494.333088	2565.527212
494.700354	2577.625981
495.067563	2572.248750
495.434713	2557.797442
495.801805	2566.871519
496.168839	2567.963769
496.535815	2573.256981
496.902733	2559.393808
497.269593	2556.201077
497.636395	2552.588250
498.003139	2547.127000
498.369825	2554.016577
498.736453	2563.426731
499.103023	2570.568365
499.469535	2569.308077
499.835989	2567.879750
500.202385	2568.299846
500.568723	2575.861577
500.935003	2568.803962
501.301226	2564.518981
501.667390	2561.998404
502.033497	2558.721654
502.399546	2562.922615
502.765537	2574.601288
503.131470	2547.463077
503.497345	2569.476115
503.863163	2547.967192
504.228923	2575.441481
504.594625	2571.156500
504.960269	2565.023096
505.325856	2578.214115
505.691385	2568.131808
506.056856	2548.135231
506.422270	2555.192846
506.787625	2572.416788
507.152924	2561.326250
507.518164	2568.972000
507.883347	2581.658904
508.248472	2558.133519
508.613540	2572.164731
508.978550	2575.777558
509.343503	2567.039558
509.708398	2567.711712
510.073236	2558.217538
510.438016	2553.260404
510.802738	2561.074192
511.167403	2569.308077
511.532010	2560.234000
511.896561	2561.830365
512.261053	2551.580019
512.625488	2568.803962
512.989866	2572.416788
513.354186	2565.695250
513.718449	2554.688731
514.082655	2566.871519
514.446803	2567.291615
514.810894	2567.711712
515.174927	2565.527212
515.538904	2553.848538
515.902822	2558.385577
516.266684	2582.079000
516.630488	2568.467885
516.994235	2570.148269
517.357925	2580.398615
517.721558	2565.527212
518.085133	2557.629404
518.448651	2562.754577
518.812112	2573.761096
519.175516	2565.443192
519.538863	2571.072481
519.902152	2562.670558
520.265385	2572.248750
520.628560	2571.492577
520.991678	2566.283385
521.354739	2553.008346
521.717743	2563.090654
522.080690	2569.812192
522.443580	2575.777558
522.806413	2570.400327
523.169189	2558.889692
523.531908	2576.533731
523.894569	2589.052596
524.257174	2580.314596
524.619722	2577.205885
524.982213	2577.878038
525.344647	2564.266923
525.707025	2559.813904
526.069345	2570.736404
526.431608	2551.664038
526.793815	2566.787500
527.155964	2575.945596
527.518057	2576.281673
527.880093	2561.578308
528.242072	2579.138327
528.603995	2553.428442
528.965860	2563.846827
529.327669	2572.584827
529.689421	2565.275154
530.051117	2562.250462
530.412755	2557.629404
530.774337	2566.703481
531.135862	2568.131808
531.497331	2573.425019
531.858743	2573.004923
532.220098	2535.448327
532.581396	2568.635923
532.942638	2558.469596
533.303824	2565.527212
533.664953	2568.887981
534.026025	2573.425019
534.387040	2553.344423
534.747999	2564.350942
535.108902	2569.476115
535.469748	2572.920904
535.830537	2568.467885
536.191270	2563.762808
536.551947	2555.360885
536.912567	2560.486058
537.273131	2558.049500
537.633638	2565.359173
537.994089	2571.576596
538.354483	2561.410269
538.714821	2564.350942
539.075103	2575.861577
539.435328	2563.762808
539.795497	2571.240519
540.155609	2566.367404
540.515665	2575.441481
540.875665	2561.326250
541.235609	2571.996692
541.595496	2555.612942
541.955328	2577.710000
542.315102	2562.166442
542.674821	2570.316308
543.034483	2552.588250
543.394090	2557.293327
543.753640	2572.248750
544.113134	2554.352654
544.472571	2559.981942
544.831953	2561.998404
545.191278	2563.426731
545.550548	2562.670558
545.909761	2564.266923
546.268918	2568.467885
546.628019	2583.087231
546.987064	2562.670558
547.346053	2573.509038
547.704986	2551.496000
548.063863	2559.141750
548.422684	2566.871519
548.781449	2572.836885
549.140158	2572.584827
549.498811	2561.746346
549.857408	2558.637635
550.215949	2565.191135
550.574434	2566.871519
550.932864	2581.322827
551.291237	2575.021385
551.649555	2566.871519
552.007817	2583.339288
552.366022	2559.729885
552.724173	2562.082423
553.082267	2576.197654
553.440305	2562.418500
553.798288	2571.576596
554.156215	2573.845115
554.514086	2569.224058
554.871902	2565.359173
555.229661	2556.873231
555.587365	2576.029615
555.945014	2559.393808
556.302606	2580.650673
556.660143	2583.927423
557.017625	2566.115346
557.375050	2567.375635
557.732421	2558.637635
558.089735	2553.512462
558.446994	2559.645865
558.804197	2585.775846
559.161345	2569.056019
559.518437	2579.558423
559.875474	2574.853346
560.232455	2576.869808
560.589381	2584.011442
560.946251	2559.477827
561.303065	2576.533731
561.659825	2574.265212
562.016528	2555.865000
562.373177	2574.937365
562.729770	2572.836885
563.086307	2571.156500
563.442789	2574.937365
563.799216	2565.863288
564.155587	2561.662327
564.511904	2560.065962
564.868164	2566.955538
565.224370	2563.090654
565.580520	2575.945596
565.936615	2574.013154
566.292654	2574.853346
566.648638	2561.830365
567.004567	2569.728173
567.360441	2579.978519
567.716260	2558.889692
568.072023	2578.466173
568.427732	2577.962058
568.783385	2562.334481
569.138982	2567.795731
569.494525	2589.640731
569.850013	2561.326250
570.205445	2559.981942
570.560823	2564.350942
570.916145	2565.611231
571.271412	2570.988462
571.626625	2577.457942
571.981782	2569.896212
572.336884	2569.224058
572.691931	2558.973712
573.046923	2577.962058
573.401860	2574.265212
573.756743	2568.635923
574.111570	2564.266923
574.466342	2548.807385
574.821059	2561.662327
575.175722	2574.433250
575.530330	2576.785788
575.884882	2567.459654
576.239380	2547.463077
576.593823	2571.240519
576.948211	2570.736404
577.302544	2560.149981
577.656823	2559.729885
578.011047	2570.568365
578.365216	2567.375635
578.719330	2572.920904
579.073389	2572.920904
579.427394	2564.771038
579.781344	2555.949019
580.135239	2579.306365
580.489080	2556.033038
580.842866	2574.853346
581.196597	2575.525500
581.550273	2574.769327
581.903895	2558.133519
582.257463	2555.949019
582.610975	2558.973712
582.964434	2586.027904
583.317837	2569.224058
583.671186	2568.551904
584.024481	2568.887981
584.377721	2559.561846
584.730906	2573.256981
585.084037	2567.543673
585.437113	2559.981942
585.790135	2556.033038
586.143103	2571.324538
586.496016	2551.748058
586.848874	2579.390385
587.201679	2569.728173
587.554428	2566.955538
587.907124	2562.922615
588.259765	2553.344423
588.612352	2560.149981
588.964884	2579.306365
589.317362	2568.047788
589.669786	2573.088942
590.022155	2557.293327
590.374470	2570.652385
590.726731	2544.942500
591.078937	2572.164731
591.431090	2546.454846
591.783188	2561.746346
592.135232	2577.962058
592.487222	2564.771038
592.839157	2574.013154
593.191038	2581.658904
593.542866	2561.326250
593.894639	2566.535442
594.246358	2582.079000
594.598022	2579.726462
594.949633	2569.056019
595.301190	2570.232288
595.652692	2564.266923
596.004141	2572.080712
596.355535	2555.780981
596.706876	2568.551904
597.058162	2578.802250
597.409395	2580.230577
597.760573	2578.550192
598.111698	2575.609519
598.462768	2579.306365
598.813785	2564.855058
599.164748	2565.443192
599.515657	2566.451423
599.866511	2584.515558
600.217312	2565.947308
600.568060	2577.541962
600.918753	2583.927423
601.269392	2560.990173
601.619978	2558.637635
601.970510	2554.772750
602.320988	2573.929135
602.671412	2569.644154
603.021783	2583.675365
603.372100	2558.049500
603.722363	2573.509038
604.072572	2569.140038
604.422728	2568.047788
604.772830	2577.037846
605.122878	2567.879750
605.472872	2565.695250
605.822813	2563.258692
606.172701	2560.486058
606.522534	2572.584827
606.872314	2570.736404
607.222041	2578.802250
607.571714	2562.754577
607.921333	2547.799154
608.270899	2573.677077
608.620411	2565.191135
608.969870	2567.711712
609.319276	2564.687019
609.668627	2577.625981
610.017926	2580.902731
610.367171	2574.097173
610.716362	2564.771038
611.065500	2576.617750
611.414585	2558.385577
611.763616	2550.571788
612.112594	2555.949019
612.461518	2570.820423
612.810389	2580.314596
613.159207	2557.209308
613.507971	2570.988462
613.856682	2582.751154
614.205340	2580.566654
614.553945	2570.904442
614.902496	2582.079000
615.250994	2566.367404
615.599439	2568.719942
615.947830	2567.711712
616.296169	2564.855058
616.644454	2573.088942
616.992686	2569.728173
617.340864	2560.906154
617.688990	2567.039558
618.037063	2563.426731
618.385082	2571.408558
618.733048	2555.949019
619.080961	2563.846827
619.428821	2567.543673
619.776628	2562.586538
620.124382	2564.771038
620.472083	2576.029615
620.819731	2567.207596
621.167326	2570.316308
621.514868	2571.912673
621.862357	2572.836885
622.209793	2561.662327
622.557176	2574.349231
622.904506	2572.584827
623.251783	2574.349231
623.599007	2561.830365
623.946179	2581.238808
624.293297	2566.451423
624.640363	2575.021385
624.987376	2570.064250
625.334336	2564.771038
625.681243	2562.502519
626.028097	2563.006635
626.374899	2555.528923
626.721647	2574.937365
627.068343	2556.537154
627.414987	2556.957250
627.761577	2567.039558
628.108115	2573.929135
628.454600	2559.813904
628.801032	2559.393808
629.147412	2578.298135
629.493739	2569.056019
629.840014	2575.777558
630.186236	2569.896212
630.532405	2567.543673
630.878521	2561.830365
631.224585	2560.486058
631.570597	2570.904442
631.916556	2566.787500
632.262462	2573.929135
632.608316	2560.486058
632.954117	2559.561846
633.299866	2569.392096
633.645562	2559.225769
633.991206	2561.746346
634.336797	2575.861577
634.682336	2559.477827
635.027823	2563.006635
635.373257	2559.225769
635.718639	2576.617750
636.063968	2550.487769
636.409245	2557.797442
636.754470	2560.234000
637.099642	2560.402038
637.444762	2575.441481
637.789829	2568.131808
638.134845	2580.230577
638.479808	2561.410269
638.824719	2572.164731
639.169577	2555.528923
639.514383	2561.494288
639.859137	2563.090654
640.203839	2571.156500
640.548489	2566.619462
640.893086	2558.217538
641.237632	2555.780981
641.582125	2578.550192
641.926566	2575.273442
642.270955	2572.920904
642.615292	2570.232288
642.959576	2565.443192
643.303809	2557.377346
643.647990	2565.191135
643.992118	2556.285096
644.336195	2559.981942
644.680219	2563.930846
645.024192	2566.283385
645.368112	2580.062538
645.711981	2572.668846
646.055797	2560.149981
646.399562	2566.451423
646.743274	2569.476115
647.086935	2569.056019
647.430544	2567.459654
647.774101	2561.410269
648.117606	2570.736404
648.461059	2553.344423
648.804460	2558.301558
649.147810	2563.090654
649.491108	2577.962058
649.834354	2563.594769
650.177548	2578.802250
650.520690	2579.810481
650.863781	2572.920904
651.206820	2558.553615
651.549807	2569.560135
651.892742	2573.761096
652.235626	2562.334481
652.578458	2553.428442
652.921238	2559.813904
653.263967	2580.566654
653.606644	2575.609519
653.949269	2559.729885
654.291843	2579.390385
654.634365	2572.164731
654.976836	2573.509038
655.319255	2570.988462
655.661622	2572.500808
656.003938	2573.341000
656.346203	2566.199365
656.688416	2571.744635
657.030577	2581.994981
657.372687	2567.207596
657.714746	2555.276865
658.056753	2567.459654
658.398708	2557.965481
658.740612	2556.789212
659.082465	2569.140038
659.424266	2554.520692
659.766016	2577.625981
660.107715	2572.668846
660.449362	2561.914385
660.790958	2565.863288
661.132503	2568.131808
661.473996	2545.362596
661.815438	2565.275154
662.156829	2553.428442
662.498168	2552.336192
662.839456	2563.594769
663.180693	2564.266923
663.521879	2569.476115
663.863013	2563.510750
664.204097	2561.494288
664.545129	2560.990173
664.886110	2565.275154
665.227040	2575.357462
665.567918	2565.527212
665.908746	2561.578308
666.249522	2557.377346
666.590248	2578.214115
666.930922	2570.064250
667.271545	2571.492577
667.612118	2565.275154
667.952639	2561.242231
668.293109	2583.255269
668.633528	2561.746346
668.973896	2557.797442
669.314213	2567.375635
669.654480	2570.904442
669.994695	2569.896212
670.334859	2565.443192
670.674973	2549.731596
671.015035	2568.131808
671.355047	2571.744635
671.695008	2565.191135
672.034918	2566.703481
672.374777	2564.518981
672.714585	2564.350942
673.054342	2570.820423
673.394049	2570.148269
673.733705	2561.746346
674.073310	2562.334481
674.412864	2563.006635
674.752368	2568.467885
675.091820	2562.754577
675.431223	2566.199365
675.770574	2564.266923
676.109875	2564.434962
676.449125	2578.130096
676.788324	2563.510750
677.127473	2553.932558
677.466571	2575.189423
677.805619	2567.879750
678.144616	2569.644154
678.483562	2558.973712
678.822458	2560.990173
679.161303	2563.594769
679.500098	2564.014865
679.838842	2557.377346
680.177535	2570.148269
680.516179	2568.215827
680.854771	2563.846827
681.193314	2555.276865
681.531805	2557.125288
681.870247	2563.174673
682.208638	2575.525500
682.546978	2577.625981
682.885268	2567.627692
683.223508	2560.906154
683.561697	2568.299846
683.899836	2567.627692
684.237925	2584.851635
684.575963	2551.748058
684.913951	2577.289904
685.251889	2579.894500
685.589776	2579.642442
685.927614	2577.962058
686.265401	2567.963769
686.603137	2567.123577
686.940824	2567.627692
687.278460	2573.088942
687.616046	2567.963769
687.953582	2556.873231
688.291068	2568.887981
688.628504	2579.306365
688.965889	2546.454846
689.303224	2555.024808
689.640510	2569.224058
689.977745	2566.283385
690.314930	2554.268635
690.652065	2567.627692
690.989150	2568.551904
691.326185	2565.107115
691.663170	2558.133519
692.000105	2550.739827
692.336990	2571.072481
692.673825	2559.981942
693.010610	2563.258692
693.347345	2559.897923
693.684030	2573.004923
694.020665	2573.256981
694.357251	2567.543673
694.693786	2563.342712
695.030272	2559.897923
695.366707	2571.324538
695.703093	2565.779269
696.039429	2563.342712
696.375716	2565.779269
696.711952	2571.744635
697.048139	2561.410269
697.384276	2566.283385
697.720363	2564.687019
698.056400	2565.023096
698.392388	2564.687019
698.728326	2562.166442
699.064214	2574.601288
699.400053	2566.451423
699.735842	2550.571788
700.071581	2557.041269
700.407270	2566.367404
700.742910	2555.949019
701.078501	2574.937365
701.414042	2560.654096
701.749533	2567.207596
702.084974	2558.301558
702.420366	2554.604712
702.755709	2566.703481
703.091002	2560.822135
703.426246	2568.551904
703.761440	2558.385577
704.096584	2574.937365
704.431679	2563.678788
704.766725	2572.500808
705.101721	2568.131808
705.436668	2564.182904
705.771565	2565.359173
706.106413	2571.660615
706.441212	2548.639346
706.775961	2570.064250
707.110661	2568.131808
707.445311	2546.706904
707.779913	2561.662327
708.114465	2562.754577
708.448967	2556.789212
708.783421	2565.611231
709.117825	2571.660615
709.452180	2583.927423
709.786485	2561.074192
710.120742	2571.828654
710.454949	2569.812192
710.789107	2568.467885
711.123216	2557.797442
711.457275	2572.500808
711.791286	2565.611231
712.125247	2548.807385
712.459159	2577.457942
712.793023	2551.496000
713.126837	2560.318019
713.460602	2571.996692
713.794318	2559.141750
714.127985	2563.426731
714.461602	2563.426731
714.795171	2570.064250
715.128691	2561.578308
715.462162	2564.939077
715.795584	2567.963769
716.128957	2553.260404
716.462281	2562.586538
716.795556	2584.347519
717.128782	2561.242231
717.461960	2576.365692
717.795088	2552.840308
718.128167	2570.316308
718.461198	2563.174673
718.794180	2563.090654
719.127113	2561.410269
719.459997	2557.797442
719.792833	2568.383865
720.125619	2568.972000
720.458357	2557.965481
720.791046	2569.224058
721.123686	2574.769327
721.456278	2570.064250
721.788821	2551.832077
722.121315	2567.627692
722.453761	2550.151692
722.786158	2575.861577
723.118506	2561.998404
723.450805	2547.042981
723.783056	2566.115346
724.115259	2553.764519
724.447412	2563.510750
724.779518	2569.812192
725.111574	2570.904442
725.443582	2562.250462
725.775542	2562.838596
726.107453	2565.443192
726.439315	2559.393808
726.771129	2581.406846
727.102895	2565.359173
727.434612	2577.373923
727.766281	2563.090654
728.097901	2555.528923
728.429473	2568.887981
728.760996	2561.074192
729.092471	2565.863288
729.423897	2559.141750
729.755276	2553.932558
730.086606	2567.291615
730.417887	2568.047788
730.749120	2564.687019
731.080305	2566.283385
731.411442	2568.803962
731.742530	2565.443192
732.073570	2567.291615
732.404562	2572.668846
732.735506	2563.342712
733.066401	2572.080712
733.397249	2557.125288
733.728048	2559.561846
734.058798	2584.515558
734.389501	2554.772750
734.720156	2569.812192
735.050762	2561.914385
735.381320	2566.871519
735.711831	2566.535442
736.042293	2571.828654
736.372707	2564.350942
736.703073	2554.688731
737.033391	2547.211019
737.363661	2551.916096
737.693883	2558.553615
738.024056	2563.426731
738.354182	2555.528923
738.684260	2566.703481
739.014290	2567.711712
739.344272	2556.369115
739.674207	2554.688731
740.004093	2565.527212
740.333931	2564.518981
740.663722	2562.166442
740.993464	2553.764519
741.323159	2570.652385
741.652806	2554.688731
741.982405	2572.332769
742.311956	2558.133519
742.641460	2565.107115
742.970915	2554.772750
743.300323	2559.729885
743.629683	2558.217538
743.958996	2574.769327
744.288260	2550.235712
744.617477	2570.988462
744.946647	2559.897923
745.275768	2578.970288
745.604842	2570.400327
745.933869	2554.772750
746.262847	2568.215827
746.591778	2571.660615
746.920662	2578.298135
747.249498	2563.594769
747.578286	2551.580019
747.907027	2574.769327
748.235720	2565.107115
748.564365	2551.075904
748.892963	2559.477827
749.221514	2561.998404
749.550017	2580.146558
749.878473	2566.451423
750.206881	2563.846827
750.535242	2551.748058
750.863555	2564.434962
751.191821	2576.365692
751.520039	2566.031327
751.848210	2578.214115
752.176334	2572.416788
752.504411	2558.385577
752.832440	2570.400327
753.160421	2569.056019
753.488356	2570.652385
753.816243	2547.715135
754.144082	2570.820423
754.471875	2580.986750
754.799620	2562.670558
755.127318	2567.291615
755.454969	2556.369115
755.782572	2567.459654
756.110129	2552.840308
756.437638	2560.822135
756.765100	2549.983654
757.092515	2551.748058
757.419882	2560.906154
757.747203	2550.319731
758.074477	2576.701769
758.401703	2566.703481
758.728882	2555.865000
759.056014	2579.054308
759.383099	2571.240519
759.710138	2561.326250
760.037129	2554.268635
760.364073	2568.635923
760.690970	2563.258692
761.017820	2572.500808
761.344623	2560.318019
761.671379	2560.149981
761.998088	2567.123577
762.324751	2554.352654
762.651366	2557.125288
762.977935	2573.256981
763.304456	2561.914385
763.630931	2562.838596
763.957359	2571.660615
764.283740	2562.838596
764.610074	2558.469596
764.936362	2560.402038
765.262602	2557.629404
765.588796	2568.719942
765.914943	2541.413692
766.241044	2563.426731
766.567097	2567.123577
766.893104	2564.518981
767.219064	2565.023096
767.544978	2566.535442
767.870845	2567.711712
768.196665	2559.477827
768.522438	2580.986750
768.848165	2555.444904
769.173846	2560.906154
769.499479	2558.133519
769.825066	2574.013154
770.150607	2569.056019
770.476101	2554.184615
770.801548	2560.738115
771.126949	2554.940788
771.452303	2562.838596
771.777611	2546.958962
772.102872	2574.685308
772.428087	2555.865000
772.753256	2561.746346
773.078378	2563.426731
773.403453	2563.342712
773.728482	2569.224058
774.053465	2554.268635
774.378401	2581.490865
774.703291	2576.281673
775.028135	2571.828654
775.352932	2552.504231
775.677683	2569.644154
776.002388	2557.545385
776.327046	2572.080712
776.651658	2564.098885
776.976224	2565.695250
777.300743	2563.678788
777.625216	2574.097173
777.949643	2565.779269
778.274024	2573.341000
778.598359	2559.981942
778.922647	2557.041269
779.246889	2567.375635
779.571086	2569.056019
779.895236	2554.016577
780.219339	2573.004923
780.543397	2565.527212
780.867409	2562.838596
781.191374	2588.884558
781.515294	2559.393808
781.839167	2557.881462
782.162995	2557.125288
782.486776	2566.031327
782.810511	2568.887981
783.134201	2553.008346
783.457844	2570.400327
783.781441	2549.479538
784.104993	2565.191135
784.428498	2565.443192
784.751958	2552.420212
785.075372	2557.461365
785.398739	2579.978519
785.722061	2561.914385
786.045337	2557.881462
786.368568	2562.166442
786.691752	2553.008346
787.014891	2549.311500
787.337983	2569.056019
787.661030	2563.426731
787.984031	2573.088942
788.306987	2549.059442
788.629897	2583.171250
788.952760	2555.949019
789.275579	2574.349231
789.598351	2583.339288
789.921078	2562.334481
790.243759	2562.838596
790.566395	2557.545385
790.888984	2564.014865
791.211529	2560.486058
791.534027	2566.871519
791.856480	2563.846827
792.178888	2567.963769
792.501249	2561.998404
792.823566	2571.408558
793.145836	2558.301558
793.468062	2557.881462
793.790241	2550.823846
794.112375	2573.004923
794.434464	2569.980231
794.756507	2558.889692
795.078505	2542.842019
795.400457	2565.611231
795.722364	2559.813904
796.044226	2566.283385
796.366042	2578.130096
796.687812	2575.693538
797.009538	2564.434962
797.331218	2563.846827
797.652852	2560.990173
797.974442	2557.377346
798.295986	2550.991885
798.617484	2557.125288
798.938938	2563.762808
799.260346	2567.375635
799.581709	2569.308077
799.903026	2556.873231
800.224299	2574.937365
800.545526	2566.199365
800.866708	2567.207596
801.187845	2571.576596
801.508936	2579.390385
801.829983	2556.201077
802.150984	2582.835173
802.471940	2573.509038
802.792851	2565.695250
803.113717	2566.703481
803.434538	2578.970288
803.755314	2551.580019
804.076045	2561.410269
804.396731	2563.426731
804.717372	2554.940788
805.037967	2554.520692
805.358518	2563.510750
805.679024	2571.828654
805.999485	2559.225769
806.319901	2571.576596
806.640272	2549.227481
806.960598	2563.762808
807.280879	2571.324538
807.601115	2565.191135
807.921306	2558.301558
808.241453	2571.660615
808.561554	2552.756288
808.881611	2575.105404
809.201623	2569.476115
809.521590	2575.693538
809.841513	2549.227481
810.161390	2565.611231
810.481223	2546.538865
810.801011	2577.878038
811.120755	2572.248750
811.440453	2541.665750
811.760107	2567.627692
812.079716	2553.680500
812.399281	2556.621173
812.718801	2555.949019
813.038276	2554.016577
813.357707	2567.795731
813.677093	2555.612942
813.996434	2559.561846
814.315731	2557.797442
814.634983	2568.467885
814.954191	2553.260404
815.273354	2554.184615
815.592473	2564.603000
815.911547	2556.201077
816.230577	2560.570077
816.549562	2577.289904
816.868502	2563.594769
817.187399	2565.947308
817.506250	2576.113635
817.825058	2559.645865
818.143821	2557.797442
818.462539	2539.397231
818.781213	2570.148269
819.099843	2543.850250
819.418429	2552.840308
819.736970	2572.080712
820.055466	2569.812192
820.373919	2546.706904
820.692327	2560.234000
821.010691	2556.873231
821.329011	2568.215827
821.647286	2553.428442
821.965517	2565.695250
822.283704	2571.576596
822.601847	2565.947308
822.919945	2556.453135
823.237999	2568.467885
823.556010	2573.425019
823.873976	2548.639346
824.191897	2569.644154
824.509775	2563.258692
824.827609	2555.444904
825.145398	2548.891404
825.463144	2571.072481
825.780845	2570.904442
826.098502	2565.443192
826.416116	2544.270346
826.733685	2576.281673
827.051210	2565.191135
827.368692	2576.617750
827.686129	2563.510750
828.003522	2569.644154
828.320872	2568.803962
828.638177	2557.965481
828.955439	2558.805673
829.272656	2559.225769
829.589830	2569.392096
829.906960	2547.463077
830.224046	2573.088942
830.541088	2553.260404
830.858086	2550.907865
831.175041	2567.459654
831.491952	2558.301558
831.808819	2560.486058
832.125642	2564.855058
832.442421	2567.039558
832.759157	2552.000115
833.075849	2564.350942
833.392497	2568.551904
833.709101	2570.484346
834.025662	2556.285096
834.342179	2549.227481
834.658653	2545.782692
834.975083	2549.059442
835.291469	2582.835173
835.607811	2553.344423
835.924110	2564.687019
836.240366	2550.487769
836.556578	2569.308077
836.872746	2565.863288
837.188871	2558.805673
837.504952	2554.184615
837.820990	2571.912673
838.136984	2556.117058
838.452935	2567.963769
838.768842	2547.967192
839.084706	2556.789212
839.400526	2561.578308
839.716303	2555.108827
840.032037	2558.217538
840.347727	2555.696962
840.663373	2558.049500
840.978977	2551.832077
841.294537	2556.033038
841.610054	2548.303269
841.925527	2552.000115
842.240957	2561.074192
842.556344	2552.000115
842.871687	2559.897923
843.186987	2558.469596
843.502244	2578.550192
843.817458	2570.316308
844.132629	2566.367404
844.447756	2571.324538
844.762840	2545.446615
845.077881	2575.021385
845.392879	2557.881462
845.707833	2548.891404
846.022745	2567.627692
846.337613	2558.217538
846.652438	2547.547096
846.967221	2559.813904
847.281960	2561.074192
847.596656	2555.780981
847.911309	2570.316308
848.225919	2565.947308
848.540485	2547.463077
848.855009	2551.496000
849.169490	2570.652385
849.483928	2547.631115
849.798323	2561.410269
850.112675	2560.318019
850.426984	2552.672269
850.741251	2567.291615
851.055474	2556.705192
851.369654	2556.369115
851.683792	2560.570077
851.997887	2556.621173
852.311938	2565.611231
852.625947	2546.538865
852.939914	2571.828654
853.253837	2568.467885
853.567718	2560.402038
853.881555	2559.141750
854.195350	2559.057731
854.509103	2559.729885
854.822812	2552.756288
855.136479	2540.909577
855.450103	2562.166442
855.763685	2547.127000
856.077224	2548.471308
856.390720	2557.041269
856.704173	2567.795731
857.017584	2563.174673
857.330953	2559.897923
857.644278	2554.520692
857.957561	2567.543673
858.270802	2545.614654
858.584000	2545.278577
858.897155	2552.924327
859.210268	2552.672269
859.523339	2576.953827
859.836367	2559.309788
860.149352	2560.065962
860.462295	2557.125288
860.775195	2568.383865
861.088054	2563.258692
861.400869	2570.652385
861.713642	2556.033038
862.026373	2551.832077
862.339062	2565.191135
862.651708	2558.301558
862.964312	2575.357462
863.276873	2546.202788
863.589392	2567.963769
863.901869	2570.736404
864.214303	2573.341000
864.526696	2541.749769
864.839045	2568.972000
865.151353	2579.390385
865.463619	2552.672269
865.775842	2559.729885
866.088023	2557.041269
866.400162	2560.149981
866.712258	2553.008346
867.024313	2548.639346
867.336325	2551.664038
867.648296	2565.611231
867.960224	2558.049500
868.272110	2550.235712
868.583954	2558.805673
868.895755	2562.922615
869.207515	2559.309788
869.519233	2561.998404
869.830909	2550.151692
870.142542	2556.033038
870.454134	2559.981942
870.765684	2569.392096
871.077191	2562.166442
871.388657	2555.024808
871.700081	2546.538865
872.011463	2570.148269
872.322803	2556.873231
872.634101	2554.016577
872.945357	2557.209308
873.256571	2548.891404
873.567744	2556.033038
873.878874	2565.611231
874.189963	2567.039558
874.501010	2548.807385
874.812015	2554.184615
875.122979	2564.014865
875.433900	2561.998404
875.744780	2577.878038
876.055618	2545.278577
876.366415	2561.578308
876.677169	2559.561846
876.987882	2555.612942
877.298554	2553.176385
877.609183	2550.907865
877.919771	2562.502519
878.230317	2564.350942
878.540822	2580.062538
878.851285	2542.001827
879.161707	2541.245654
879.472087	2559.477827
879.782425	2563.762808
880.092722	2568.551904
880.402977	2552.504231
880.713191	2559.225769
881.023363	2578.550192
881.333494	2567.291615
881.643583	2562.250462
881.953631	2567.963769
882.263637	2561.998404
882.573602	2550.991885
882.883526	2558.973712
883.193408	2544.354365
883.503248	2560.234000
883.813048	2562.334481
884.122806	2556.873231
884.432522	2544.018288
884.742197	2564.603000
885.051831	2554.436673
885.361424	2568.887981
885.670975	2564.603000
885.980485	2555.780981
886.289954	2564.518981
886.599382	2552.420212
886.908768	2556.285096
887.218113	2567.543673
887.527417	2552.168154
887.836680	2566.871519
888.145901	2557.881462
888.455082	2552.672269
888.764221	2558.385577
889.073319	2554.100596
889.382376	2548.807385
889.691392	2544.018288
890.000366	2558.553615
890.309300	2564.603000
890.618193	2561.242231
890.927044	2563.006635
891.235855	2559.309788
891.544625	2560.654096
891.853353	2551.411981
892.162041	2567.963769
892.470687	2549.815615
892.779293	2556.033038
893.087858	2560.065962
893.396381	2560.149981
893.704864	2577.373923
894.013306	2563.426731
894.321707	2563.342712
894.630068	2573.845115
894.938387	2570.568365
895.246665	2557.881462
895.554903	2566.535442
895.863100	2552.084135
896.171256	2558.049500
896.479371	2555.949019
896.787446	2561.830365
897.095480	2559.225769
897.403473	2557.461365
897.711425	2541.497712
898.019336	2540.321442
898.327207	2548.387288
898.635038	2555.192846
898.942827	2570.568365
899.250576	2550.739827
899.558284	2559.141750
899.865952	2568.972000
900.173579	2573.256981
900.481165	2558.889692
900.788711	2560.738115
901.096216	2574.013154
901.403681	2552.168154
901.711105	2560.822135
902.018489	2561.662327
902.325832	2568.551904
902.633135	2547.799154
902.940397	2570.820423
903.247619	2553.176385
903.554800	2559.561846
903.861941	2566.619462
904.169041	2563.090654
904.476101	2553.008346
904.783121	2559.645865
905.090100	2559.057731
905.397039	2563.174673
905.703938	2549.983654
906.010796	2560.065962
906.317614	2556.117058
906.624391	2564.014865
906.931129	2566.115346
907.237826	2540.993596
907.544483	2561.746346
907.851099	2555.444904
908.157675	2568.467885
908.464211	2546.370827
908.770707	2558.469596
909.077163	2550.739827
909.383578	2547.379058
909.689954	2561.158212
909.996289	2567.879750
910.302584	2555.192846
910.608839	2563.258692
910.915054	2562.250462
911.221229	2553.848538
911.527363	2541.665750
911.833458	2564.434962
912.139513	2553.260404
912.445527	2546.538865
912.751502	2546.118769
913.057436	2570.820423
913.363331	2565.023096
913.669186	2568.131808
913.975000	2542.758000
914.280775	2547.042981
914.586510	2564.014865
914.892205	2556.621173
915.197859	2571.072481
915.503475	2556.537154
915.809050	2558.301558
916.114585	2562.082423
916.420081	2549.143462
916.725536	2560.234000
917.030952	2566.535442
917.336328	2553.764519
917.641665	2564.182904
917.946961	2560.065962
918.252218	2549.899635
918.557435	2557.209308
918.862612	2547.547096
919.167750	2556.033038
919.472848	2556.033038
919.777906	2560.486058
920.082925	2546.118769
920.387904	2558.049500
920.692843	2550.655808
920.997743	2560.234000
921.302603	2550.739827
921.607423	2561.662327
921.912204	2553.512462
922.216946	2552.420212
922.521647	2532.003538
922.826310	2567.375635
923.130932	2546.958962
923.435516	2563.174673
923.740059	2542.001827
924.044564	2561.326250
924.349028	2545.530635
924.653454	2550.907865
924.957840	2561.074192
925.262186	2557.293327
925.566493	2567.039558
925.870761	2540.321442
926.174989	2565.443192
926.479178	2547.295038
926.783328	2572.164731
927.087438	2550.655808
927.391509	2553.260404
927.695541	2558.217538
927.999533	2560.654096
928.303486	2563.006635
928.607400	2567.291615
928.911275	2566.451423
929.215110	2559.981942
929.518906	2563.678788
929.822663	2556.789212
930.126381	2546.034750
930.430060	2556.705192
930.733699	2561.662327
931.037299	2547.631115
931.340861	2562.922615
931.644383	2562.670558
931.947866	2560.906154
932.251309	2555.696962
932.554714	2567.375635
932.858080	2564.518981
933.161407	2562.166442
933.464694	2547.715135
933.767943	2563.426731
934.071153	2560.149981
934.374323	2553.176385
934.677455	2560.486058
934.980548	2557.377346
935.283602	2556.705192
935.586617	2562.670558
935.889593	2574.349231
936.192530	2560.486058
936.495428	2562.334481
936.798287	2539.229192
937.101108	2554.772750
937.403890	2553.344423
937.706632	2561.662327
938.009336	2561.914385
938.312002	2570.148269
938.614628	2550.991885
938.917216	2557.377346
939.219765	2544.942500
939.522275	2555.108827
939.824747	2563.846827
940.127179	2544.438385
940.429573	2556.117058
940.731929	2551.664038
941.034246	2555.444904
941.336524	2537.968904
941.638763	2553.932558
941.940964	2544.102308
942.243126	2563.930846
942.545250	2540.573500
942.847335	2552.420212
943.149381	2548.471308
943.451389	2556.537154
943.753359	2559.225769
944.055290	2552.420212
944.357182	2555.444904
944.659036	2551.580019
944.960851	2566.283385
945.262628	2562.166442
945.564367	2558.721654
945.866067	2558.049500
946.167729	2552.420212
946.469352	2549.731596
946.770937	2546.622885
947.072484	2547.127000
947.373992	2556.621173
947.675462	2561.662327
947.976893	2569.140038
948.278286	2565.023096
948.579641	2547.883173
948.880958	2561.662327
949.182236	2551.748058
949.483476	2566.535442
949.784678	2555.024808
950.085841	2562.418500
950.386967	2554.940788
950.688054	2550.739827
950.989103	2549.899635
951.290114	2554.604712
951.591087	2560.654096
951.892021	2562.250462
952.192917	2551.411981
952.493776	2554.856769
952.794596	2557.041269
953.095378	2559.309788
953.396122	2555.865000
953.696828	2551.580019
953.997496	2546.958962
954.298126	2559.309788
954.598718	2546.286808
954.899272	2568.803962
955.199788	2558.217538
955.500266	2546.538865
955.800706	2551.832077
956.101108	2532.675692
956.401472	2556.621173
956.701798	2568.551904
957.002087	2564.098885
957.302337	2548.891404
957.602550	2556.285096
957.902724	2558.049500
958.202861	2561.746346
958.502960	2553.260404
958.803022	2568.635923
959.103045	2559.981942
959.403031	2558.049500
959.702979	2555.528923
960.002889	2575.693538
960.302762	2543.346135
960.602596	2556.453135
960.902393	2548.051212
961.202153	2542.673981
961.501875	2544.942500
961.801559	2547.883173
962.101205	2550.235712
962.400814	2566.115346
962.700385	2570.316308
962.999918	2551.327962
963.299414	2571.240519
963.598873	2544.774462
963.898293	2555.528923
964.197677	2571.996692
964.497022	2562.586538
964.796331	2552.252173
965.095601	2543.934269
965.394835	2564.266923
965.694030	2549.563558
965.993189	2563.006635
966.292309	2559.057731
966.591393	2548.219250
966.890439	2535.952442
967.189447	2555.949019
967.488419	2562.166442
967.787353	2567.627692
968.086249	2556.957250
968.385108	2567.291615
968.683930	2550.487769
968.982714	2543.430154
969.281462	2564.182904
969.580172	2550.571788
969.878844	2551.243942
970.177480	2557.041269
970.476078	2556.537154
970.774639	2567.543673
971.073162	2550.991885
971.371649	2563.174673
971.670098	2553.008346
971.968510	2576.869808
972.266885	2555.360885
972.565223	2546.706904
972.863524	2554.856769
973.161788	2562.754577
973.460014	2555.360885
973.758204	2554.940788
974.056356	2576.197654
974.354471	2557.797442
974.652550	2535.364308
974.950591	2565.359173
975.248595	2550.487769
975.546563	2559.981942
975.844493	2555.780981
976.142386	2556.621173
976.440243	2551.243942
976.738062	2573.593058
977.035845	2568.383865
977.333590	2557.041269
977.631299	2548.135231
977.928971	2559.141750
978.226606	2565.359173
978.524204	2560.065962
978.821765	2552.588250
979.119290	2555.612942
979.416777	2559.393808
979.714228	2547.631115
980.011642	2553.932558
980.309020	2562.502519
980.606360	2559.225769
980.903664	2544.354365
981.200931	2558.973712
981.498162	2554.268635
981.795356	2562.502519
982.092513	2553.260404
982.389633	2546.958962
982.686717	2557.293327
982.983764	2572.668846
983.280775	2560.402038
983.577749	2565.107115
983.874686	2547.042981
984.171587	2553.764519
984.468451	2567.123577
984.765279	2565.527212
985.062070	2563.090654
985.358824	2555.865000
985.655543	2553.176385
985.952224	2555.024808
986.248869	2559.477827
986.545478	2562.922615
986.842050	2564.855058
987.138586	2554.016577
987.435086	2567.459654
987.731549	2541.749769
988.027975	2553.260404
988.324366	2551.664038
988.620719	2536.876654
988.917037	2568.383865
989.213318	2558.217538
989.509563	2556.453135
989.805772	2538.893115
990.101944	2560.318019
990.398080	2540.825558
990.694180	2551.243942
990.990244	2565.947308
991.286271	2535.028231
991.582262	2540.657519
991.878217	2565.275154
992.174136	2564.182904
992.470019	2542.085846
992.765865	2558.469596
993.061676	2553.680500
993.357450	2572.416788
993.653188	2555.444904
993.948890	2540.741538
994.244556	2559.141750
994.540186	2546.034750
994.835780	2552.504231
995.131337	2547.631115
995.426859	2541.245654
995.722345	2554.352654
996.017795	2560.318019
996.313208	2563.678788
996.608586	2565.359173
996.903928	2563.090654
997.199234	2555.949019
997.494504	2555.949019
997.789738	2567.711712
998.084936	2554.352654
998.380099	2562.082423
998.675225	2557.629404
998.970316	2556.957250
999.265371	2559.813904
999.560390	2552.252173
999.855373	2550.739827
1000.150320	2553.680500
1000.445232	2550.151692
1000.740108	2555.865000
1001.034948	2556.033038
1001.329752	2560.402038
1001.624521	2559.645865
1001.919254	2553.092365
1002.213951	2546.454846
1002.508613	2562.166442
1002.803239	2567.039558
1003.097829	2568.383865
1003.392384	2552.084135
1003.686903	2561.074192
1003.981386	2547.631115
1004.275834	2568.887981
1004.570246	2559.309788
1004.864623	2549.899635
1005.158964	2553.176385
1005.453270	2547.715135
1005.747540	2549.563558
1006.041775	2558.889692
1006.335974	2556.033038
1006.630138	2557.797442
1006.924266	2560.486058
1007.218359	2547.715135
1007.512416	2563.594769
1007.806438	2551.159923
1008.100425	2538.473019
1008.394376	2554.100596
1008.688292	2565.275154
1008.982172	2551.327962
1009.276017	2544.270346
1009.569827	2554.436673
1009.863602	2556.537154
1010.157341	2553.092365
1010.451045	2550.907865
1010.744714	2561.914385
1011.038347	2551.916096
1011.331945	2546.370827
1011.625508	2543.010058
1011.919036	2562.250462
1012.212528	2564.098885
1012.505986	2567.963769
1012.799408	2538.977135
1013.092795	2565.611231
1013.386147	2566.703481
1013.679464	2541.497712
1013.972745	2553.932558
1014.265992	2555.780981
1014.559204	2571.324538
1014.852380	2554.268635
1015.145521	2546.790923
1015.438628	2555.612942
1015.731699	2571.240519
1016.024736	2547.379058
1016.317737	2553.680500
1016.610703	2547.379058
1016.903635	2552.168154
1017.196531	2561.242231
1017.489393	2558.721654
1017.782219	2554.688731
1018.075011	2533.263827
1018.367768	2548.723365
1018.660490	2549.227481
1018.953177	2549.227481
1019.245829	2549.227481
