Dividing Wavelength (nm)	Counts (n)	Slit_number_33_of_a_total_of_40	
326.493990	2041.390044
326.888308	2041.390044
327.282561	2041.390044
327.676750	2017.167300
328.070874	2013.310817
328.464933	2025.636438
328.858929	2030.299506
329.252859	2039.676052
329.646726	2055.656510
330.040528	2074.686865
330.434265	2085.147260
330.827938	2112.193050
331.221547	2134.021246
331.615091	2149.875675
332.008571	2175.535148
332.401986	2193.960565
332.795338	2207.748121
333.188625	2233.659652
333.581847	2248.430233
333.975006	2264.713160
334.368100	2288.507406
334.761129	2305.546506
335.154095	2313.965233
335.546996	2329.920485
335.939833	2346.026971
336.332606	2360.394260
336.725315	2369.695188
337.117960	2378.592825
337.510540	2391.851060
337.903056	2392.834085
338.295508	2402.840775
338.687896	2410.251271
339.080220	2416.124215
339.472480	2425.324321
339.864676	2425.803231
340.256807	2428.122162
340.648875	2430.214240
341.040879	2428.172573
341.432818	2433.163315
341.824694	2434.927719
342.216506	2426.181317
342.608253	2439.615992
342.999937	2425.147881
343.391557	2438.506938
343.783113	2433.213727
344.174605	2431.071237
344.566033	2429.533685
344.957397	2430.289858
345.348697	2423.988415
345.739934	2427.113931
346.131106	2426.357758
346.522215	2417.535738
346.913260	2415.720923
347.304241	2418.997673
347.695159	2409.671538
348.086012	2415.620100
348.476802	2412.519790
348.867528	2407.050138
349.258191	2401.958573
349.648789	2411.486354
350.039324	2395.657131
350.429796	2404.857237
350.820203	2393.565052
351.210548	2410.629358
351.600828	2403.067627
351.991045	2401.530075
352.381198	2411.234296
352.771288	2407.075344
353.161314	2399.891700
353.551276	2401.252812
353.941175	2406.167937
354.331010	2401.504869
354.720782	2405.235323
355.110490	2405.084088
355.500135	2402.966804
355.889717	2409.419481
356.279235	2404.983265
356.668689	2395.052192
357.058080	2394.573283
357.447408	2405.689027
357.836672	2399.286762
358.225873	2404.756413
358.615010	2406.092319
359.004084	2413.628844
359.393095	2408.537279
359.782043	2408.159192
360.170927	2402.135013
360.559748	2407.957546
360.948505	2409.167423
361.337199	2407.478637
361.725830	2402.840775
362.114398	2411.284708
362.502903	2408.209604
362.891344	2410.326888
363.279722	2413.754873
363.668037	2407.579460
364.056289	2405.386558
364.444478	2412.595408
364.832603	2411.990469
365.220665	2411.536765
365.608665	2409.948802
365.996601	2423.131419
366.384474	2414.309400
366.772284	2416.577919
367.160031	2407.604665
367.547715	2409.444687
367.935336	2414.914338
368.322893	2410.931827
368.710388	2411.032650
369.097820	2414.032137
369.485189	2415.821746
369.872495	2411.889646
370.259738	2416.703948
370.646918	2412.343350
371.034035	2418.619587
371.421090	2418.468352
371.808081	2428.475042
372.195010	2428.953952
372.581875	2412.494585
372.968678	2424.442119
373.355418	2411.914852
373.742096	2414.258988
374.128710	2415.040367
374.515262	2418.443146
374.901751	2418.695204
375.288177	2415.796540
375.674540	2417.888619
376.060841	2421.089752
376.447079	2425.349527
376.833254	2422.980185
377.219367	2415.695717
377.605417	2428.046544
377.991404	2421.316604
378.377329	2425.349527
378.763191	2424.038827
379.148991	2425.097469
379.534727	2421.392221
379.920402	2417.082035
380.306013	2427.970927
380.691563	2420.560431
381.077049	2417.913825
381.462474	2428.727100
381.847835	2423.282654
382.233134	2424.240473
382.618371	2424.265679
383.003545	2419.426171
383.388657	2421.971954
383.773706	2426.508992
384.158693	2423.988415
384.543618	2428.601071
384.928480	2421.089752
385.313280	2427.870104
385.698017	2431.499735
386.082692	2430.869590
386.467305	2421.619073
386.851856	2428.953952
387.236344	2431.978644
387.620770	2424.240473
388.005133	2419.779052
388.389435	2417.787796
388.773674	2409.318658
389.157851	2423.811975
389.541965	2431.222471
389.926018	2427.466812
390.310008	2429.180804
390.693936	2421.745102
391.077802	2423.106213
391.461606	2428.147367
391.845348	2422.476069
392.229027	2425.475556
392.612645	2435.961156
392.996200	2423.358271
393.379694	2430.819179
393.763125	2420.762077
394.146494	2428.953952
394.529801	2424.139650
394.913047	2424.744588
395.296230	2428.096956
395.679351	2425.450350
396.062410	2431.852615
396.445408	2428.626277
396.828343	2428.298602
397.211217	2423.988415
397.594028	2428.071750
397.976778	2433.642225
398.359466	2426.508992
398.742092	2428.147367
399.124656	2430.541915
399.507158	2442.766713
399.889598	2431.575352
400.271977	2429.911771
400.654294	2427.466812
401.036549	2427.265165
401.418742	2432.835640
401.800874	2427.113931
402.182944	2442.060952
402.564952	2431.953438
402.946898	2428.802717
403.328783	2438.607762
403.710606	2435.683892
404.092367	2441.430808
404.474067	2434.574838
404.855705	2440.044490
405.237282	2439.691610
405.618797	2443.648915
406.000250	2433.112904
406.381642	2440.926692
406.762972	2427.517223
407.144240	2430.920002
407.525447	2437.171033
407.906593	2436.061979
408.287677	2431.146854
408.668700	2435.910744
409.049661	2429.558890
409.430560	2437.019798
409.811399	2438.002823
410.192176	2435.633481
410.572891	2437.322267
410.953545	2445.942640
411.334138	2432.281113
411.714669	2430.819179
412.095139	2442.287804
412.475547	2438.935437
412.855894	2434.070723
413.236180	2442.917948
413.616405	2447.757456
413.996568	2439.313523
414.376670	2434.297575
414.756711	2438.380910
415.136691	2442.035746
415.516609	2447.253340
415.896466	2439.691610
416.276262	2440.851075
416.655997	2434.801690
417.035670	2443.245623
417.415283	2441.279573
417.794834	2436.717329
418.174324	2442.313010
418.553753	2441.758483
418.933121	2445.110850
419.312428	2439.641198
419.691674	2449.975563
420.070859	2445.614965
420.449983	2445.287290
420.829045	2445.867023
421.208047	2436.213213
421.586988	2437.574325
421.965867	2445.413319
422.344686	2440.573812
422.723444	2443.951385
423.102141	2436.641712
423.480777	2439.515169
423.859352	2436.389654
424.237866	2438.103646
424.616319	2440.851075
424.994712	2438.355704
425.373044	2440.800663
425.751314	2435.104160
426.129524	2438.355704
426.507673	2440.044490
426.885762	2436.162802
427.263789	2455.268775
427.641756	2440.674635
428.019662	2439.918462
428.397508	2429.735331
428.775292	2447.429781
429.153016	2445.539348
429.530679	2451.739967
429.908282	2448.185954
430.285824	2449.093362
430.663305	2445.438525
431.040726	2447.051694
431.418086	2450.454473
431.795385	2445.766200
432.172624	2444.858792
432.549802	2444.657146
432.926920	2451.588733
433.303977	2446.471962
433.680974	2453.101079
434.057910	2445.161262
434.434786	2437.045004
434.811601	2454.739454
435.188355	2440.876281
435.565050	2447.555810
435.941683	2450.076387
436.318257	2452.395317
436.694770	2443.270829
437.071222	2438.910231
437.447614	2446.749225
437.823946	2449.168979
438.200218	2435.331012
438.576429	2452.244083
438.952580	2446.673608
439.328670	2453.101079
439.704700	2444.707558
440.080670	2451.135029
440.456580	2439.338729
440.832429	2446.119081
441.208218	2443.018771
441.583947	2451.513115
441.959616	2443.623710
442.335224	2442.111363
442.710773	2455.697273
443.086261	2449.521860
443.461689	2447.833073
443.837057	2453.504371
444.212365	2448.009513
444.587612	2443.573298
444.962800	2445.514142
445.337927	2439.489963
445.712995	2446.270315
446.088002	2440.725046
446.462949	2449.446242
446.837837	2447.379369
447.212664	2449.622683
447.587431	2452.697787
447.962139	2458.999229
448.336786	2447.858279
448.711374	2455.596450
449.085901	2443.749738
449.460369	2450.202415
449.834776	2456.327417
450.209124	2445.236879
450.583412	2452.067642
450.957640	2444.102619
451.331808	2450.908177
451.705917	2449.370625
452.079965	2446.749225
452.453954	2449.597477
452.827883	2442.514656
453.201752	2451.487910
453.575562	2449.093362
453.949311	2440.346960
454.323001	2452.823815
454.696632	2445.438525
455.070202	2453.882458
455.443713	2448.463217
455.817164	2455.117540
456.190556	2452.042437
456.563888	2456.655092
456.937160	2451.034206
457.310373	2449.874740
457.683526	2450.832560
458.056619	2451.992025
458.429653	2444.732763
458.802628	2449.042950
459.175542	2450.782148
459.548398	2445.993052
459.921194	2446.245110
460.293930	2450.882971
460.666607	2450.051181
461.039224	2455.848508
461.411782	2451.815585
461.784280	2447.076900
462.156719	2452.924638
462.529099	2453.756429
462.901419	2453.252313
463.273680	2445.287290
463.645882	2447.051694
464.018024	2444.909204
464.390106	2452.042437
464.762130	2454.714248
465.134094	2447.379369
465.505999	2450.454473
465.877845	2445.589760
466.249631	2454.588219
466.621358	2451.563527
466.993026	2454.613425
467.364634	2461.797069
467.736184	2452.722992
468.107674	2455.167952
468.479105	2453.227108
468.850477	2444.178237
469.221790	2451.739967
469.593043	2455.772890
469.964238	2453.832046
470.335373	2451.210646
470.706449	2461.217337
471.077467	2447.807867
471.448425	2451.992025
471.819324	2451.361881
472.190164	2453.050667
472.560945	2455.747685
472.931667	2453.428754
473.302330	2458.822788
473.672934	2454.159721
474.043479	2454.336162
474.413965	2443.800150
474.784393	2456.403035
475.154761	2451.361881
475.525070	2448.286777
475.895321	2447.933896
476.265513	2458.721965
476.635645	2451.916408
477.005719	2451.487910
477.375734	2452.521346
477.745691	2452.849021
478.115588	2455.924125
478.485427	2452.496140
478.855207	2452.622169
479.224928	2452.748198
479.594591	2457.587706
479.964194	2454.210133
480.333739	2456.856738
480.703226	2451.135029
481.072653	2457.007973
481.442022	2455.571244
481.811333	2446.698813
482.180584	2453.025462
482.549777	2453.731223
482.918912	2452.596963
483.287988	2445.564554
483.657005	2460.435958
484.025964	2454.487396
484.394864	2452.218877
484.763706	2458.268262
485.132489	2460.360340
485.501213	2454.789865
485.869879	2455.520833
486.238487	2453.075873
486.607036	2456.428240
486.975527	2454.563013
487.343959	2449.849535
487.712333	2460.234312
488.080648	2452.244083
488.448905	2459.049640
488.817104	2457.058385
489.185244	2455.369598
489.553326	2453.504371
489.921350	2451.412292
490.289315	2454.991512
490.657222	2453.453960
491.025070	2458.974023
491.392861	2454.739454
491.760593	2452.571758
492.128267	2456.377829
492.495883	2456.201388
492.863440	2455.344392
493.230939	2463.687502
493.598380	2456.806327
493.965763	2449.673094
494.333088	2454.159721
494.700354	2455.470421
495.067563	2456.755915
495.434713	2456.050154
495.801805	2457.184413
496.168839	2454.033692
496.535815	2457.738940
496.902733	2464.116000
497.269593	2450.353650
497.636395	2463.964765
498.003139	2449.950358
498.369825	2458.948817
498.736453	2448.286777
499.103023	2455.697273
499.469535	2454.336162
499.835989	2447.202929
500.202385	2457.285237
500.568723	2450.252827
500.935003	2453.932869
501.301226	2451.412292
501.667390	2459.125258
502.033497	2460.561987
502.399546	2465.577935
502.765537	2449.673094
503.131470	2461.519806
503.497345	2455.218363
503.863163	2462.149950
504.228923	2452.218877
504.594625	2464.998202
504.960269	2448.765687
505.325856	2463.863942
505.691385	2455.621656
506.056856	2453.680812
506.422270	2459.553756
506.787625	2465.124231
507.152924	2452.118054
507.518164	2461.973510
507.883347	2454.109310
508.248472	2469.333594
508.613540	2465.678758
508.978550	2457.940587
509.343503	2459.352110
509.708398	2451.210646
510.073236	2462.124744
510.438016	2451.966819
510.802738	2459.704990
511.167403	2461.595423
511.532010	2467.569190
511.896561	2464.947790
512.261053	2451.790379
512.625488	2462.250773
512.989866	2457.688529
513.354186	2455.898919
513.718449	2448.942127
514.082655	2461.519806
514.446803	2457.738940
514.810894	2471.702937
515.174927	2459.881431
515.538904	2463.057358
515.902822	2457.134002
516.266684	2459.957048
516.630488	2458.948817
516.994235	2457.864969
517.357925	2444.304265
517.721558	2455.898919
518.085133	2458.369085
518.448651	2459.352110
518.812112	2458.495113
519.175516	2454.563013
519.538863	2456.176183
519.902152	2463.611885
520.265385	2455.873713
520.628560	2459.755402
520.991678	2456.403035
521.354739	2456.075360
521.717743	2455.999742
522.080690	2444.858792
522.443580	2469.736887
522.806413	2460.612398
523.169189	2464.292440
523.531908	2458.142233
523.894569	2459.478138
524.257174	2457.688529
524.619722	2455.621656
524.982213	2454.512602
525.344647	2457.990998
525.707025	2457.940587
526.069345	2455.848508
526.431608	2454.109310
526.793815	2462.528037
527.155964	2461.570217
527.518057	2462.452419
527.880093	2455.117540
528.242072	2458.520319
528.603995	2461.746658
528.965860	2458.469908
529.327669	2458.772377
529.689421	2457.537294
530.051117	2454.235338
530.412755	2457.007973
530.774337	2459.906637
531.135862	2453.000256
531.497331	2457.562500
531.858743	2463.939560
532.220098	2456.302212
532.581396	2464.116000
532.942638	2453.201902
533.303824	2461.494600
533.664953	2453.227108
534.026025	2458.999229
534.387040	2471.828965
534.747999	2461.242542
535.108902	2456.176183
535.469748	2451.336675
535.830537	2467.594396
536.191270	2454.865483
536.551947	2456.403035
536.912567	2461.015690
537.273131	2458.621142
537.633638	2450.076387
537.994089	2464.821762
538.354483	2458.469908
538.714821	2457.864969
539.075103	2462.275979
539.435328	2459.024435
539.795497	2457.461677
540.155609	2464.393263
540.515665	2467.695219
540.875665	2459.074846
541.235609	2457.915381
541.595496	2459.780608
541.955328	2465.678758
542.315102	2459.377315
542.674821	2454.386573
543.034483	2453.176696
543.394090	2454.058898
543.753640	2458.873200
544.113134	2464.972996
544.472571	2460.158694
544.831953	2458.898406
545.191278	2463.939560
545.550548	2455.873713
545.909761	2466.712194
546.268918	2455.495627
546.628019	2462.679271
546.987064	2460.713221
547.346053	2453.781635
547.704986	2457.764146
548.063863	2462.805300
548.422684	2466.485342
548.781449	2452.521346
549.140158	2453.958075
549.498811	2463.107769
549.857408	2465.426700
550.215949	2464.922585
550.574434	2466.031638
550.932864	2459.578962
551.291237	2464.090794
551.649555	2457.663323
552.007817	2454.487396
552.366022	2464.468881
552.724173	2461.015690
553.082267	2466.359313
553.440305	2462.402008
553.798288	2463.511062
554.156215	2466.157667
554.514086	2454.638631
554.871902	2457.310442
555.229661	2454.991512
555.587365	2456.428240
555.945014	2462.528037
556.302606	2459.377315
556.660143	2466.485342
557.017625	2453.655606
557.375050	2457.007973
557.732421	2464.771350
558.089735	2462.124744
558.446994	2453.479165
558.804197	2459.377315
559.161345	2460.864456
559.518437	2465.477112
559.875474	2448.085131
560.232455	2456.075360
560.589381	2461.822275
560.946251	2462.729683
561.303065	2463.561473
561.659825	2463.284210
562.016528	2465.023408
562.373177	2463.158181
562.729770	2455.646862
563.086307	2471.047587
563.442789	2459.503344
563.799216	2463.637090
564.155587	2461.292954
564.511904	2460.158694
564.868164	2458.217850
565.224370	2461.998715
565.580520	2465.174642
565.936615	2455.344392
566.292654	2460.133488
566.648638	2456.957562
567.004567	2463.208592
567.360441	2461.040896
567.716260	2460.486369
568.072023	2453.781635
568.427732	2463.687502
568.783385	2457.537294
569.138982	2466.863429
569.494525	2464.317646
569.850013	2458.696760
570.205445	2467.342338
570.560823	2467.670013
570.916145	2456.982767
571.271412	2460.007460
571.626625	2463.637090
571.981782	2461.721452
572.336884	2454.235338
572.691931	2453.201902
573.046923	2456.050154
573.401860	2460.057871
573.756743	2459.226081
574.111570	2462.250773
574.466342	2462.301185
574.821059	2467.846454
575.175722	2459.629373
575.530330	2468.653038
575.884882	2453.428754
576.239380	2463.889148
576.593823	2464.947790
576.948211	2461.217337
577.302544	2461.368571
577.656823	2455.697273
578.011047	2470.089767
578.365216	2457.890175
578.719330	2470.971969
579.073389	2463.284210
579.427394	2456.755915
579.781344	2452.622169
580.135239	2472.559933
580.489080	2459.326904
580.842866	2465.149437
581.196597	2461.519806
581.550273	2459.654579
581.903895	2461.343365
582.257463	2461.116513
582.610975	2454.890688
582.964434	2456.050154
583.317837	2458.016204
583.671186	2464.972996
584.024481	2460.814044
584.377721	2462.124744
584.730906	2463.586679
585.084037	2459.679785
585.437113	2471.198821
585.790135	2464.519292
586.143103	2457.864969
586.496016	2463.964765
586.848874	2459.377315
587.201679	2467.468367
587.554428	2464.116000
587.907124	2469.762092
588.259765	2452.067642
588.612352	2464.242029
588.964884	2456.806327
589.317362	2464.695733
589.669786	2456.529063
590.022155	2468.048100
590.374470	2451.235852
590.726731	2464.620115
591.078937	2454.058898
591.431090	2467.392750
591.783188	2463.838737
592.135232	2462.578448
592.487222	2469.031125
592.839157	2456.529063
593.191038	2466.787812
593.542866	2468.274952
593.894639	2460.738427
594.246358	2458.343879
594.598022	2469.560446
594.949633	2468.073306
595.301190	2468.098512
595.652692	2464.418469
596.004141	2463.132975
596.355535	2466.611371
596.706876	2467.392750
597.058162	2454.815071
597.409395	2464.116000
597.760573	2453.327931
598.111698	2462.049127
598.462768	2466.460137
598.813785	2465.401494
599.164748	2458.444702
599.515657	2457.638117
599.866511	2460.486369
600.217312	2467.922071
600.568060	2458.974023
600.918753	2460.461163
601.269392	2463.309415
601.619978	2464.947790
601.970510	2465.451906
602.320988	2460.057871
602.671412	2459.503344
603.021783	2472.761579
603.372100	2465.930815
603.722363	2460.788838
604.072572	2467.922071
604.422728	2455.293981
604.772830	2458.822788
605.122878	2460.864456
605.472872	2461.444188
605.822813	2459.906637
606.172701	2461.570217
606.522534	2460.007460
606.872314	2453.050667
607.222041	2460.990485
607.571714	2454.613425
607.921333	2455.394804
608.270899	2459.654579
608.620411	2452.849021
608.969870	2456.881944
609.319276	2458.394290
609.668627	2456.755915
610.017926	2457.789352
610.367171	2460.486369
610.716362	2458.923612
611.065500	2470.644294
611.414585	2461.923098
611.763616	2460.133488
612.112594	2459.024435
612.461518	2466.132462
612.810389	2465.829992
613.159207	2458.318673
613.507971	2456.680298
613.856682	2461.292954
614.205340	2462.023921
614.553945	2462.754888
614.902496	2458.999229
615.250994	2463.259004
615.599439	2458.696760
615.947830	2446.850048
616.296169	2461.343365
616.644454	2463.132975
616.992686	2457.512088
617.340864	2462.981740
617.688990	2461.847481
618.037063	2466.712194
618.385082	2457.058385
618.733048	2456.604681
619.080961	2458.495113
619.428821	2454.235338
619.776628	2454.210133
620.124382	2462.830506
620.472083	2455.394804
620.819731	2467.796042
621.167326	2454.260544
621.514868	2467.745631
621.862357	2463.637090
622.209793	2461.318160
622.557176	2454.361367
622.904506	2451.387087
623.251783	2457.789352
623.599007	2461.948304
623.946179	2466.434931
624.293297	2464.368058
624.640363	2458.797583
624.987376	2460.309929
625.334336	2453.706017
625.681243	2457.890175
626.028097	2451.034206
626.374899	2453.983281
626.721647	2455.949331
627.068343	2464.368058
627.414987	2458.041410
627.761577	2458.621142
628.108115	2464.720938
628.454600	2460.259517
628.801032	2461.998715
629.147412	2463.914354
629.493739	2460.209106
629.840014	2456.655092
630.186236	2463.838737
630.532405	2460.587192
630.878521	2460.688015
631.224585	2463.032152
631.570597	2461.923098
631.916556	2461.418983
632.262462	2452.798610
632.608316	2465.048613
632.954117	2453.050667
633.299866	2453.579988
633.645562	2458.873200
633.991206	2456.428240
634.336797	2462.225567
634.682336	2457.990998
635.027823	2454.310956
635.373257	2456.604681
635.718639	2463.208592
636.063968	2455.646862
636.409245	2460.032665
636.754470	2463.662296
637.099642	2463.813531
637.444762	2467.695219
637.789829	2459.200875
638.134845	2461.469394
638.479808	2461.040896
638.824719	2459.226081
639.169577	2466.813017
639.514383	2457.789352
639.859137	2465.779581
640.203839	2464.620115
640.548489	2463.662296
640.893086	2467.518779
641.237632	2452.596963
641.582125	2458.268262
641.926566	2460.360340
642.270955	2456.125771
642.615292	2457.864969
642.959576	2460.561987
643.303809	2455.621656
643.647990	2458.545525
643.992118	2454.386573
644.336195	2461.797069
644.680219	2456.403035
645.024192	2466.334108
645.368112	2455.924125
645.711981	2461.469394
646.055797	2458.772377
646.399562	2455.470421
646.743274	2456.251800
647.086935	2464.191617
647.430544	2461.645835
647.774101	2460.209106
648.117606	2455.117540
648.461059	2460.259517
648.804460	2466.056844
649.147810	2460.788838
649.491108	2461.595423
649.834354	2460.032665
650.177548	2461.091308
650.520690	2462.704477
650.863781	2455.697273
651.206820	2451.185440
651.549807	2453.201902
651.892742	2460.662810
652.235626	2466.308902
652.578458	2460.839250
652.921238	2453.201902
653.263967	2457.386060
653.606644	2463.863942
653.949269	2455.798096
654.291843	2461.570217
654.634365	2457.789352
654.976836	2460.108283
655.319255	2457.083590
655.661622	2455.193158
656.003938	2457.890175
656.346203	2461.141719
656.688416	2460.360340
657.030577	2456.428240
657.372687	2458.142233
657.714746	2465.376288
658.056753	2466.989458
658.398708	2457.159208
658.740612	2456.125771
659.082465	2460.914867
659.424266	2454.663837
659.766016	2460.284723
660.107715	2455.621656
660.449362	2455.898919
660.790958	2464.166412
661.132503	2463.611885
661.473996	2468.577421
661.815438	2459.982254
662.156829	2455.117540
662.498168	2459.200875
662.839456	2454.638631
663.180693	2470.493060
663.521879	2462.704477
663.863013	2462.830506
664.204097	2458.444702
664.545129	2459.982254
664.886110	2461.923098
665.227040	2459.906637
665.567918	2459.805813
665.908746	2460.461163
666.249522	2461.721452
666.590248	2454.109310
666.930922	2467.720425
667.271545	2464.040383
667.612118	2460.637604
667.952639	2452.849021
668.293109	2465.325877
668.633528	2444.883998
668.973896	2465.603140
669.314213	2459.528550
669.654480	2460.965279
669.994695	2460.788838
670.334859	2462.250773
670.674973	2462.049127
671.015035	2457.587706
671.355047	2460.511575
671.695008	2461.645835
672.034918	2453.882458
672.374777	2461.444188
672.714585	2459.931842
673.054342	2459.906637
673.394049	2461.141719
673.733705	2458.621142
674.073310	2463.611885
674.412864	2461.343365
674.752368	2459.427727
675.091820	2467.871660
675.431223	2459.780608
675.770574	2461.368571
676.109875	2460.007460
676.449125	2459.629373
676.788324	2462.250773
677.127473	2456.705504
677.466571	2456.932356
677.805619	2455.697273
678.144616	2465.149437
678.483562	2455.722479
678.822458	2462.981740
679.161303	2458.369085
679.500098	2467.922071
679.838842	2461.066102
680.177535	2458.469908
680.516179	2462.376802
680.854771	2459.326904
681.193314	2459.226081
681.531805	2456.932356
681.870247	2461.343365
682.208638	2467.997688
682.546978	2454.563013
682.885268	2460.637604
683.223508	2465.451906
683.561697	2464.872173
683.899836	2454.184927
684.237925	2461.620629
684.575963	2454.915894
684.913951	2464.645321
685.251889	2457.713735
685.589776	2460.309929
685.927614	2453.630400
686.265401	2456.478652
686.603137	2460.209106
686.940824	2458.469908
687.278460	2457.562500
687.616046	2463.057358
687.953582	2448.891715
688.291068	2462.880917
688.628504	2452.722992
688.965889	2450.756942
689.303224	2458.923612
689.640510	2458.419496
689.977745	2463.561473
690.314930	2458.822788
690.652065	2456.831533
690.989150	2459.604167
691.326185	2458.469908
691.663170	2465.930815
692.000105	2458.495113
692.336990	2460.461163
692.673825	2457.738940
693.010610	2456.604681
693.347345	2456.831533
693.684030	2460.511575
694.020665	2460.940073
694.357251	2456.907150
694.693786	2457.940587
695.030272	2473.114460
695.366707	2470.266208
695.703093	2458.495113
696.039429	2461.545012
696.375716	2454.436985
696.711952	2457.738940
697.048139	2461.444188
697.384276	2462.956535
697.720363	2454.689042
698.056400	2463.536267
698.392388	2460.511575
698.728326	2461.746658
699.064214	2457.587706
699.400053	2465.124231
699.735842	2452.344906
700.071581	2448.311983
700.407270	2453.353137
700.742910	2461.192131
701.078501	2459.326904
701.414042	2457.360854
701.749533	2458.696760
702.084974	2455.999742
702.420366	2457.285237
702.755709	2452.924638
703.091002	2451.916408
703.426246	2459.805813
703.761440	2467.090281
704.096584	2457.612912
704.431679	2460.788838
704.766725	2454.689042
705.101721	2461.166925
705.436668	2458.293467
705.771565	2460.511575
706.106413	2459.629373
706.441212	2453.781635
706.775961	2466.308902
707.110661	2459.704990
707.445311	2457.562500
707.779913	2465.703963
708.114465	2457.789352
708.448967	2467.065075
708.783421	2458.595937
709.117825	2463.788325
709.452180	2462.855712
709.786485	2462.628860
710.120742	2457.587706
710.454949	2458.268262
710.789107	2456.453446
711.123216	2452.672581
711.457275	2451.160235
711.791286	2472.963225
712.125247	2454.991512
712.459159	2459.049640
712.793023	2462.225567
713.126837	2455.924125
713.460602	2452.849021
713.794318	2450.630913
714.127985	2461.998715
714.461602	2455.016717
714.795171	2461.897892
715.128691	2463.611885
715.462162	2458.066615
715.795584	2457.537294
716.128957	2457.058385
716.462281	2455.142746
716.795556	2451.387087
717.128782	2451.261058
717.461960	2459.276492
717.795088	2468.249746
718.128167	2458.192644
718.461198	2454.159721
718.794180	2465.930815
719.127113	2452.748198
719.459997	2452.118054
719.792833	2464.846967
720.125619	2454.436985
720.458357	2459.755402
720.791046	2454.588219
721.123686	2452.622169
721.456278	2460.108283
721.788821	2457.562500
722.121315	2458.646348
722.453761	2461.645835
722.786158	2453.201902
723.118506	2448.916921
723.450805	2460.133488
723.783056	2453.832046
724.115259	2451.865996
724.447412	2458.066615
724.779518	2449.496654
725.111574	2462.175156
725.443582	2452.748198
725.775542	2464.695733
726.107453	2462.351596
726.439315	2459.377315
726.771129	2454.109310
727.102895	2448.614452
727.434612	2453.958075
727.766281	2451.084617
728.097901	2450.983794
728.429473	2452.370112
728.760996	2455.142746
729.092471	2451.714762
729.423897	2449.219390
729.755276	2458.696760
730.086606	2457.890175
730.417887	2451.613938
730.749120	2454.084104
731.080305	2461.671040
731.411442	2457.285237
731.742530	2463.813531
732.073570	2457.360854
732.404562	2453.806840
732.735506	2459.553756
733.066401	2460.864456
733.397249	2462.023921
733.728048	2458.847994
734.058798	2453.126285
734.389501	2456.327417
734.720156	2461.923098
735.050762	2457.007973
735.381320	2455.546038
735.711831	2467.670013
736.042293	2462.528037
736.372707	2461.973510
736.703073	2455.571244
737.033391	2464.494087
737.363661	2455.672067
737.693883	2463.032152
738.024056	2458.192644
738.354182	2464.418469
738.684260	2456.529063
739.014290	2460.335135
739.344272	2452.496140
739.674207	2460.032665
740.004093	2445.287290
740.333931	2457.486883
740.663722	2453.025462
740.993464	2453.832046
741.323159	2451.538321
741.652806	2451.513115
741.982405	2460.083077
742.311956	2458.671554
742.641460	2454.058898
742.970915	2464.015177
743.300323	2452.546552
743.629683	2463.687502
743.958996	2456.604681
744.288260	2453.227108
744.617477	2450.656119
744.946647	2455.142746
745.275768	2466.787812
745.604842	2464.443675
745.933869	2458.066615
746.262847	2455.823302
746.591778	2456.024948
746.920662	2457.839763
747.249498	2457.234825
747.578286	2461.797069
747.907027	2461.746658
748.235720	2454.260544
748.564365	2466.182873
748.892963	2462.149950
749.221514	2455.495627
749.550017	2457.738940
749.878473	2458.243056
750.206881	2459.679785
750.535242	2461.620629
750.863555	2458.721965
751.191821	2460.688015
751.520039	2451.034206
751.848210	2461.217337
752.176334	2459.528550
752.504411	2465.275465
752.832440	2456.176183
753.160421	2451.815585
753.488356	2451.538321
753.816243	2461.393777
754.144082	2461.418983
754.471875	2462.200362
754.799620	2461.620629
755.127318	2452.042437
755.454969	2458.217850
755.782572	2455.344392
756.110129	2449.799123
756.437638	2458.595937
756.765100	2457.386060
757.092515	2458.243056
757.419882	2453.327931
757.747203	2453.579988
758.074477	2458.747171
758.401703	2459.528550
758.728882	2454.336162
759.056014	2457.738940
759.383099	2462.149950
759.710138	2452.647375
760.037129	2447.278546
760.364073	2462.704477
760.690970	2441.203956
761.017820	2456.125771
761.344623	2452.496140
761.671379	2461.570217
761.998088	2457.688529
762.324751	2460.940073
762.651366	2457.612912
762.977935	2459.200875
763.304456	2458.394290
763.630931	2463.939560
763.957359	2459.100052
764.283740	2453.504371
764.610074	2464.342852
764.936362	2452.143260
765.262602	2463.561473
765.588796	2449.748712
765.914943	2452.975050
766.241044	2458.318673
766.567097	2448.740481
766.893104	2450.429267
767.219064	2451.084617
767.544978	2455.898919
767.870845	2453.176696
768.196665	2460.057871
768.522438	2453.302725
768.848165	2455.243569
769.173846	2462.855712
769.499479	2447.454987
769.825066	2454.411779
770.150607	2456.554269
770.476101	2451.437498
770.801548	2456.932356
771.126949	2460.032665
771.452303	2463.309415
771.777611	2451.059412
772.102872	2456.554269
772.428087	2452.899433
772.753256	2460.612398
773.078378	2451.840790
773.403453	2461.192131
773.728482	2458.066615
774.053465	2465.401494
774.378401	2459.704990
774.703291	2453.529577
775.028135	2462.275979
775.352932	2452.218877
775.677683	2459.553756
776.002388	2455.546038
776.327046	2446.850048
776.651658	2451.765173
776.976224	2458.091821
777.300743	2462.754888
777.625216	2465.426700
777.949643	2463.611885
778.274024	2451.765173
778.598359	2458.343879
778.922647	2449.673094
779.246889	2464.670527
779.571086	2462.225567
779.895236	2461.267748
780.219339	2454.714248
780.543397	2447.253340
780.867409	2454.008487
781.191374	2451.412292
781.515294	2458.444702
781.839167	2454.689042
782.162995	2455.546038
782.486776	2460.158694
782.810511	2465.855198
783.134201	2453.907663
783.457844	2457.335648
783.781441	2458.091821
784.104993	2459.251287
784.428498	2452.143260
784.751958	2459.226081
785.075372	2457.083590
785.398739	2456.403035
785.722061	2452.244083
786.045337	2455.067129
786.368568	2461.292954
786.691752	2458.570731
787.014891	2458.822788
787.337983	2458.545525
787.661030	2459.125258
787.984031	2460.284723
788.306987	2449.572271
788.629897	2454.991512
788.952760	2454.411779
789.275579	2451.664350
789.598351	2460.637604
789.921078	2458.495113
790.243759	2451.185440
790.566395	2455.344392
790.888984	2456.302212
791.211529	2459.730196
791.534027	2460.486369
791.856480	2451.689556
792.178888	2459.074846
792.501249	2450.378856
792.823566	2454.008487
793.145836	2449.244596
793.468062	2460.536781
793.790241	2455.067129
794.112375	2464.242029
794.434464	2452.244083
794.756507	2455.394804
795.078505	2453.176696
795.400457	2450.908177
795.722364	2456.554269
796.044226	2458.041410
796.366042	2462.477625
796.687812	2456.352623
797.009538	2459.881431
797.331218	2451.084617
797.652852	2452.319700
797.974442	2452.143260
798.295986	2455.772890
798.617484	2450.656119
798.938938	2454.663837
799.260346	2460.183900
799.581709	2460.158694
799.903026	2459.528550
800.224299	2457.461677
800.545526	2452.849021
800.866708	2462.805300
801.187845	2457.890175
801.508936	2460.511575
801.829983	2459.604167
802.150984	2457.184413
802.471940	2459.251287
802.792851	2450.908177
803.113717	2462.074333
803.434538	2453.806840
803.755314	2462.906123
804.076045	2456.932356
804.396731	2463.763119
804.717372	2446.925665
805.037967	2461.973510
805.358518	2456.554269
805.679024	2449.395831
805.999485	2453.983281
806.319901	2453.403548
806.640272	2460.511575
806.960598	2461.217337
807.280879	2459.276492
807.601115	2458.318673
807.921306	2462.099538
808.241453	2456.529063
808.561554	2446.471962
808.881611	2445.136056
809.201623	2448.286777
809.521590	2450.353650
809.841513	2454.462190
810.161390	2458.016204
810.481223	2455.495627
810.801011	2456.403035
811.120755	2455.949331
811.440453	2462.326390
811.760107	2446.724019
812.079716	2458.369085
812.399281	2459.982254
812.718801	2450.908177
813.038276	2456.730710
813.357707	2458.646348
813.677093	2455.823302
813.996434	2460.108283
814.315731	2453.806840
814.634983	2460.007460
814.954191	2454.815071
815.273354	2459.251287
815.592473	2454.840277
815.911547	2459.100052
816.230577	2450.731737
816.549562	2455.092335
816.868502	2448.387600
817.187399	2458.117027
817.506250	2461.746658
817.825058	2448.463217
818.143821	2452.269288
818.462539	2461.066102
818.781213	2446.774431
819.099843	2459.276492
819.418429	2453.706017
819.736970	2451.916408
820.055466	2453.403548
820.373919	2462.175156
820.692327	2456.529063
821.010691	2461.897892
821.329011	2453.176696
821.647286	2461.292954
821.965517	2450.404062
822.283704	2453.630400
822.601847	2460.158694
822.919945	2455.898919
823.237999	2450.303238
823.556010	2453.630400
823.873976	2456.629887
824.191897	2441.859306
824.509775	2447.631427
824.827609	2451.034206
825.145398	2451.916408
825.463144	2457.940587
825.780845	2459.654579
826.098502	2457.360854
826.416116	2445.463731
826.733685	2450.555296
827.051210	2454.361367
827.368692	2460.435958
827.686129	2459.503344
828.003522	2457.537294
828.320872	2455.016717
828.638177	2453.403548
828.955439	2445.262085
829.272656	2456.453446
829.589830	2449.925152
829.906960	2457.461677
830.224046	2449.748712
830.541088	2446.950871
830.858086	2457.134002
831.175041	2448.816098
831.491952	2451.059412
831.808819	2459.931842
832.125642	2458.545525
832.442421	2450.378856
832.759157	2455.848508
833.075849	2453.781635
833.392497	2456.831533
833.709101	2460.158694
834.025662	2456.327417
834.342179	2458.217850
834.658653	2450.328444
834.975083	2455.092335
835.291469	2455.722479
835.607811	2447.177723
835.924110	2453.605194
836.240366	2451.084617
836.556578	2451.966819
836.872746	2462.301185
837.188871	2457.562500
837.504952	2453.680812
837.820990	2456.529063
838.136984	2449.370625
838.452935	2459.402521
838.768842	2446.144287
839.084706	2459.377315
839.400526	2452.798610
839.716303	2443.195212
840.032037	2442.161775
840.347727	2452.470935
840.663373	2457.537294
840.978977	2449.975563
841.294537	2460.057871
841.610054	2447.379369
841.925527	2460.662810
842.240957	2455.268775
842.556344	2457.688529
842.871687	2460.057871
843.186987	2452.168465
843.502244	2449.143773
843.817458	2462.679271
844.132629	2465.300671
844.447756	2452.017231
844.762840	2453.504371
845.077881	2457.436471
845.392879	2455.117540
845.707833	2450.857765
846.022745	2454.613425
846.337613	2451.160235
846.652438	2451.840790
846.967221	2457.033179
847.281960	2462.477625
847.596656	2453.806840
847.911309	2449.899946
848.225919	2456.881944
848.540485	2449.723506
848.855009	2458.217850
849.169490	2453.932869
849.483928	2458.343879
849.798323	2452.269288
850.112675	2458.595937
850.426984	2458.545525
850.741251	2464.116000
851.055474	2448.513629
851.369654	2449.446242
851.683792	2453.983281
851.997887	2457.864969
852.311938	2450.126798
852.625947	2464.846967
852.939914	2452.975050
853.253837	2462.275979
853.567718	2454.310956
853.881555	2461.494600
854.195350	2452.344906
854.509103	2455.193158
854.822812	2451.840790
855.136479	2454.134515
855.450103	2447.681838
855.763685	2457.764146
856.077224	2450.580502
856.390720	2450.656119
856.704173	2449.345419
857.017584	2454.361367
857.330953	2457.108796
857.644278	2445.665377
857.957561	2447.328958
858.270802	2453.756429
858.584000	2450.908177
858.897155	2448.967333
859.210268	2457.839763
859.523339	2450.530090
859.836367	2458.923612
860.149352	2453.227108
860.462295	2456.352623
860.775195	2454.991512
861.088054	2451.109823
861.400869	2456.428240
861.713642	2442.665890
862.026373	2453.756429
862.339062	2455.546038
862.651708	2455.722479
862.964312	2454.915894
863.276873	2460.637604
863.589392	2454.840277
863.901869	2451.966819
864.214303	2448.790892
864.526696	2453.882458
864.839045	2451.185440
865.151353	2448.160748
865.463619	2456.655092
865.775842	2455.470421
866.088023	2451.462704
866.400162	2450.378856
866.712258	2449.219390
867.024313	2447.001283
867.336325	2449.874740
867.648296	2463.057358
867.960224	2449.748712
868.272110	2458.444702
868.583954	2447.757456
868.895755	2451.235852
869.207515	2458.595937
869.519233	2452.420523
869.830909	2448.286777
870.142542	2460.688015
870.454134	2451.639144
870.765684	2456.831533
871.077191	2448.337188
871.388657	2454.436985
871.700081	2453.302725
872.011463	2447.555810
872.322803	2440.472988
872.634101	2446.068669
872.945357	2458.545525
873.256571	2448.765687
873.567744	2452.722992
873.878874	2458.797583
874.189963	2452.168465
874.501010	2455.067129
874.812015	2455.067129
875.122979	2458.469908
875.433900	2455.117540
875.744780	2457.184413
876.055618	2447.177723
876.366415	2451.235852
876.677169	2452.092848
876.987882	2455.218363
877.298554	2460.108283
877.609183	2448.412806
877.919771	2454.739454
878.230317	2451.840790
878.540822	2453.479165
878.851285	2448.564040
879.161707	2455.293981
879.472087	2443.422063
879.782425	2455.495627
880.092722	2449.874740
880.402977	2448.488423
880.713191	2444.909204
881.023363	2453.252313
881.333494	2451.437498
881.643583	2450.202415
881.953631	2451.210646
882.263637	2457.713735
882.573602	2456.907150
882.883526	2451.613938
883.193408	2461.645835
883.503248	2447.278546
883.813048	2459.755402
884.122806	2453.277519
884.432522	2453.781635
884.742197	2457.587706
885.051831	2454.537808
885.361424	2450.882971
885.670975	2454.411779
885.980485	2461.267748
886.289954	2453.302725
886.599382	2455.621656
886.908768	2447.303752
887.218113	2448.412806
887.527417	2448.690069
887.836680	2446.623196
888.145901	2439.187494
888.455082	2453.630400
888.764221	2457.688529
889.073319	2455.924125
889.382376	2453.529577
889.691392	2455.798096
890.000366	2456.907150
890.309300	2458.369085
890.618193	2457.537294
890.927044	2451.210646
891.235855	2453.983281
891.544625	2449.194185
891.853353	2461.192131
892.162041	2450.378856
892.470687	2455.092335
892.779293	2452.496140
893.087858	2454.487396
893.396381	2454.134515
893.704864	2460.536781
894.013306	2456.856738
894.321707	2457.083590
894.630068	2454.764660
894.938387	2446.169492
895.246665	2465.225054
895.554903	2454.411779
895.863100	2457.159208
896.171256	2444.707558
896.479371	2456.176183
896.787446	2453.453960
897.095480	2453.832046
897.403473	2452.294494
897.711425	2455.293981
898.019336	2449.244596
898.327207	2451.588733
898.635038	2459.831019
898.942827	2443.472475
899.250576	2458.117027
899.558284	2454.310956
899.865952	2457.940587
900.173579	2453.983281
900.481165	2452.344906
900.788711	2446.471962
901.096216	2449.068156
901.403681	2444.178237
901.711105	2448.337188
902.018489	2449.824329
902.325832	2452.370112
902.633135	2452.823815
902.940397	2448.337188
903.247619	2450.353650
903.554800	2462.628860
903.861941	2444.505912
904.169041	2461.292954
904.476101	2452.143260
904.783121	2451.714762
905.090100	2459.175669
905.397039	2461.545012
905.703938	2455.823302
906.010796	2457.738940
906.317614	2450.076387
906.624391	2449.647888
906.931129	2448.085131
907.237826	2453.378342
907.544483	2453.252313
907.851099	2449.320213
908.157675	2442.186981
908.464211	2447.782662
908.770707	2451.865996
909.077163	2450.731737
909.383578	2457.512088
909.689954	2455.369598
909.996289	2451.462704
910.302584	2456.024948
910.608839	2454.285750
910.915054	2452.218877
911.221229	2464.972996
911.527363	2451.865996
911.833458	2451.361881
912.139513	2445.337702
912.445527	2454.764660
912.751502	2455.722479
913.057436	2450.933383
913.363331	2455.772890
913.669186	2449.168979
913.975000	2452.294494
914.280775	2452.294494
914.586510	2451.790379
914.892205	2456.856738
915.197859	2450.479679
915.503475	2466.308902
915.809050	2461.620629
916.114585	2452.370112
916.420081	2450.479679
916.725536	2454.411779
917.030952	2452.697787
917.336328	2451.588733
917.641665	2446.068669
917.946961	2441.405602
918.252218	2448.185954
918.557435	2457.260031
918.862612	2453.605194
919.167750	2451.992025
919.472848	2453.605194
919.777906	2455.949331
920.082925	2451.109823
920.387904	2448.790892
920.692843	2455.041923
920.997743	2451.261058
921.302603	2452.319700
921.607423	2453.605194
921.912204	2453.025462
922.216946	2449.345419
922.521647	2451.034206
922.826310	2455.117540
923.130932	2455.848508
923.435516	2455.142746
923.740059	2461.519806
924.044564	2455.949331
924.349028	2453.554783
924.653454	2448.286777
924.957840	2449.773917
925.262186	2446.572785
925.566493	2452.622169
925.870761	2453.050667
926.174989	2452.697787
926.479178	2452.344906
926.783328	2458.847994
927.087438	2447.253340
927.391509	2448.891715
927.695541	2448.690069
927.999533	2447.530604
928.303486	2455.772890
928.607400	2451.361881
928.911275	2448.690069
929.215110	2450.756942
929.518906	2454.310956
929.822663	2452.773404
930.126381	2451.992025
930.430060	2446.976077
930.733699	2458.016204
931.037299	2445.539348
931.340861	2452.949844
931.644383	2454.058898
931.947866	2460.612398
932.251309	2456.352623
932.554714	2447.328958
932.858080	2451.084617
933.161407	2446.698813
933.464694	2451.714762
933.767943	2446.774431
934.071153	2446.245110
934.374323	2452.395317
934.677455	2449.673094
934.980548	2451.135029
935.283602	2448.185954
935.586617	2454.285750
935.889593	2446.597990
936.192530	2441.405602
936.495428	2456.655092
936.798287	2453.050667
937.101108	2448.059925
937.403890	2451.966819
937.706632	2459.175669
938.009336	2448.715275
938.312002	2459.654579
938.614628	2452.924638
938.917216	2459.150463
939.219765	2452.244083
939.522275	2453.832046
939.824747	2450.479679
940.127179	2447.581015
940.429573	2452.092848
940.731929	2447.681838
941.034246	2455.672067
941.336524	2457.890175
941.638763	2451.059412
941.940964	2447.555810
942.243126	2452.949844
942.545250	2446.371138
942.847335	2456.781121
943.149381	2448.589246
943.451389	2446.724019
943.753359	2451.563527
944.055290	2450.353650
944.357182	2451.437498
944.659036	2445.614965
944.960851	2449.673094
945.262628	2454.184927
945.564367	2457.461677
945.866067	2451.261058
946.167729	2448.085131
946.469352	2455.041923
946.770937	2446.144287
947.072484	2448.311983
947.373992	2453.655606
947.675462	2453.252313
947.976893	2445.967846
948.278286	2449.647888
948.579641	2446.522373
948.880958	2445.463731
949.182236	2454.638631
949.483476	2449.849535
949.784678	2456.982767
950.085841	2454.033692
950.386967	2449.673094
950.688054	2445.816612
950.989103	2451.840790
951.290114	2444.959615
951.591087	2448.311983
951.892021	2449.824329
952.192917	2449.395831
952.493776	2450.328444
952.794596	2450.454473
953.095378	2451.462704
953.396122	2447.404575
953.696828	2452.949844
953.997496	2459.251287
954.298126	2446.018258
954.598718	2456.478652
954.899272	2448.967333
955.199788	2458.041410
955.500266	2457.512088
955.800706	2447.379369
956.101108	2447.026488
956.401472	2449.773917
956.701798	2448.538835
957.002087	2454.714248
957.302337	2449.471448
957.602550	2451.739967
957.902724	2452.748198
958.202861	2453.151490
958.502960	2454.487396
958.803022	2452.067642
959.103045	2450.101592
959.403031	2453.857252
959.702979	2458.873200
960.002889	2451.664350
960.302762	2448.664863
960.602596	2448.816098
960.902393	2455.117540
961.202153	2454.235338
961.501875	2447.076900
961.801559	2444.127825
962.101205	2455.067129
962.400814	2456.529063
962.700385	2454.310956
962.999918	2448.664863
963.299414	2442.791919
963.598873	2450.025975
963.898293	2443.800150
964.197677	2455.974537
964.497022	2448.589246
964.796331	2455.697273
965.095601	2451.689556
965.394835	2448.261571
965.694030	2453.403548
965.993189	2460.864456
966.292309	2446.774431
966.591393	2456.655092
966.890439	2448.992538
967.189447	2448.009513
967.488419	2458.041410
967.787353	2451.084617
968.086249	2446.396344
968.385108	2453.479165
968.683930	2450.530090
968.982714	2458.394290
969.281462	2439.615992
969.580172	2447.933896
969.878844	2455.974537
970.177480	2440.170519
970.476078	2452.798610
970.774639	2449.219390
971.073162	2449.673094
971.371649	2454.890688
971.670098	2449.042950
971.968510	2455.167952
972.266885	2449.673094
972.565223	2449.547065
972.863524	2456.932356
973.161788	2441.405602
973.460014	2442.514656
973.758204	2455.117540
974.056356	2451.891202
974.354471	2460.612398
974.652550	2453.630400
974.950591	2452.798610
975.248595	2456.352623
975.546563	2452.168465
975.844493	2451.361881
976.142386	2449.723506
976.440243	2450.857765
976.738062	2451.210646
977.035845	2451.941613
977.333590	2449.143773
977.631299	2457.486883
977.928971	2446.547579
978.226606	2441.405602
978.524204	2443.144800
978.821765	2440.498194
979.119290	2454.386573
979.416777	2444.354677
979.714228	2461.393777
980.011642	2444.379883
980.309020	2453.479165
980.606360	2446.572785
980.903664	2450.908177
981.200931	2451.286263
981.498162	2452.924638
981.795356	2446.850048
982.092513	2447.782662
982.389633	2441.909717
982.686717	2451.689556
982.983764	2453.428754
983.280775	2454.941100
983.577749	2450.202415
983.874686	2453.075873
984.171587	2445.136056
984.468451	2445.816612
984.765279	2454.563013
985.062070	2450.933383
985.358824	2450.908177
985.655543	2444.027002
985.952224	2450.958588
986.248869	2449.269802
986.545478	2454.058898
986.842050	2456.150977
987.138586	2451.765173
987.435086	2456.428240
987.731549	2451.235852
988.027975	2448.236365
988.324366	2448.916921
988.620719	2450.378856
988.917037	2447.454987
989.213318	2442.086158
989.509563	2446.623196
989.805772	2452.344906
990.101944	2444.379883
990.398080	2454.184927
990.694180	2451.185440
990.990244	2449.748712
991.286271	2448.564040
991.582262	2446.623196
991.878217	2446.875254
992.174136	2452.017231
992.470019	2451.790379
992.765865	2445.942640
993.061676	2445.867023
993.357450	2456.655092
993.653188	2445.690583
993.948890	2454.386573
994.244556	2451.286263
994.540186	2446.169492
994.835780	2450.000769
995.131337	2449.295008
995.426859	2447.858279
995.722345	2442.262598
996.017795	2455.772890
996.313208	2447.732250
996.608586	2448.916921
996.903928	2453.075873
997.199234	2446.219904
997.494504	2452.546552
997.789738	2444.127825
998.084936	2447.959102
998.380099	2453.126285
998.675225	2443.119594
998.970316	2446.850048
999.265371	2447.303752
999.560390	2452.874227
999.855373	2448.362394
1000.150320	2448.639658
1000.445232	2456.251800
1000.740108	2454.613425
1001.034948	2449.824329
1001.329752	2455.394804
1001.624521	2442.615479
1001.919254	2448.362394
1002.213951	2449.168979
1002.508613	2452.496140
1002.803239	2458.444702
1003.097829	2453.277519
1003.392384	2445.186467
1003.686903	2447.933896
1003.981386	2451.059412
1004.275834	2452.244083
1004.570246	2441.758483
1004.864623	2448.362394
1005.158964	2449.647888
1005.453270	2453.630400
1005.747540	2446.396344
1006.041775	2452.143260
1006.335974	2448.085131
1006.630138	2440.951898
1006.924266	2461.192131
1007.218359	2447.732250
1007.512416	2458.898406
1007.806438	2444.707558
1008.100425	2445.362908
1008.394376	2442.086158
1008.688292	2454.714248
1008.982172	2445.614965
1009.276017	2454.689042
1009.569827	2454.966306
1009.863602	2445.917435
1010.157341	2458.847994
1010.451045	2446.572785
1010.744714	2457.260031
1011.038347	2453.302725
1011.331945	2449.673094
1011.625508	2447.404575
1011.919036	2460.410752
1012.212528	2448.790892
1012.505986	2443.875767
1012.799408	2448.841304
1013.092795	2456.705504
1013.386147	2453.806840
1013.679464	2449.194185
1013.972745	2454.436985
1014.265992	2450.252827
1014.559204	2445.010027
1014.852380	2448.463217
1015.145521	2455.420010
1015.438628	2444.102619
1015.731699	2449.547065
1016.024736	2457.864969
1016.317737	2446.219904
1016.610703	2443.774944
1016.903635	2451.639144
1017.196531	2450.404062
1017.489393	2447.933896
1017.782219	2454.714248
1018.075011	2455.520833
1018.367768	2452.168465
1018.660490	2449.168979
1018.953177	2449.168979
1019.245829	2449.168979
