Dividing Wavelength (nm)	Counts (n)	Slit_number_39_of_a_total_of_40	
326.493990	2028.308250
326.888308	2028.308250
327.282561	2028.308250
327.676750	2019.486231
328.070874	1991.255769
328.464933	2013.436846
328.858929	2028.308250
329.252859	2043.683769
329.646726	2055.530481
330.040528	2085.525346
330.434265	2088.045923
330.827938	2098.632346
331.221547	2121.569596
331.615091	2183.071673
332.008571	2169.460558
332.401986	2192.901923
332.795338	2213.318596
333.188625	2226.677654
333.581847	2248.606673
333.975006	2287.423558
334.368100	2281.878288
334.761129	2304.563481
335.154095	2311.621096
335.546996	2319.182827
335.939833	2339.599500
336.332606	2364.553212
336.725315	2411.183885
337.117960	2394.548077
337.510540	2396.816596
337.903056	2394.043962
338.295508	2399.337173
338.687896	2409.923596
339.080220	2404.630385
339.472480	2448.740481
339.864676	2407.403019
340.256807	2440.170519
340.648875	2442.691096
341.040879	2431.096442
341.432818	2429.332038
341.824694	2444.203442
342.216506	2468.905096
342.608253	2429.332038
342.999937	2437.145827
343.391557	2441.934923
343.783113	2439.414346
344.174605	2445.967846
344.566033	2449.748712
344.957397	2417.233269
345.348697	2433.112904
345.739934	2426.811462
346.131106	2416.225038
346.522215	2438.406115
346.913260	2425.551173
347.304241	2422.274423
347.695159	2423.282654
348.086012	2411.183885
348.476802	2407.655077
348.867528	2397.320712
349.258191	2430.844385
349.648789	2379.928731
350.039324	2415.468865
350.429796	2396.060423
350.820203	2431.348500
351.210548	2415.720923
351.600828	2426.307346
351.991045	2394.800135
352.381198	2413.704462
352.771288	2421.014135
353.161314	2420.005904
353.551276	2404.630385
353.941175	2368.586135
354.331010	2401.353635
354.720782	2422.778538
355.110490	2410.427712
355.500135	2400.345404
355.889717	2399.589231
356.279235	2396.060423
356.668689	2385.221942
357.058080	2417.233269
357.447408	2413.452404
357.836672	2412.696231
358.225873	2413.200346
358.615010	2415.216808
359.004084	2418.241500
359.393095	2424.290885
359.782043	2424.542942
360.170927	2428.827923
360.559748	2417.485327
360.948505	2433.364962
361.337199	2396.312481
361.725830	2415.720923
362.114398	2416.729154
362.502903	2416.729154
362.891344	2432.356731
363.279722	2435.885538
363.668037	2390.515154
364.056289	2439.918462
364.444478	2419.249731
364.832603	2422.022365
365.220665	2415.216808
365.608665	2456.050154
365.996601	2423.534712
366.384474	2425.551173
366.772284	2402.109808
367.160031	2422.526481
367.547715	2439.414346
367.935336	2447.480192
368.322893	2412.444173
368.710388	2418.241500
369.097820	2426.055288
369.485189	2439.162288
369.872495	2430.088212
370.259738	2425.551173
370.646918	2434.877308
371.034035	2419.501788
371.421090	2416.729154
371.808081	2435.381423
372.195010	2433.364962
372.581875	2409.167423
372.968678	2422.778538
373.355418	2430.592327
373.742096	2428.323808
374.128710	2400.597462
374.515262	2439.918462
374.901751	2427.063519
375.288177	2433.364962
375.674540	2420.762077
376.060841	2411.435942
376.447079	2406.142731
376.833254	2435.381423
377.219367	2436.893769
377.605417	2442.186981
377.991404	2421.770308
378.377329	2427.063519
378.763191	2432.356731
379.148991	2430.088212
379.534727	2424.290885
379.920402	2401.353635
380.306013	2424.795000
380.691563	2426.559404
381.077049	2447.984308
381.462474	2405.134500
381.847835	2421.518250
382.233134	2434.373192
382.618371	2453.529577
383.003545	2427.063519
383.388657	2428.071750
383.773706	2411.688000
384.158693	2436.893769
384.543618	2410.679769
384.928480	2442.943154
385.313280	2423.282654
385.698017	2437.145827
386.082692	2412.444173
386.467305	2428.827923
386.851856	2413.956519
387.236344	2447.228135
387.620770	2436.641712
388.005133	2420.005904
388.389435	2432.104673
388.773674	2416.981212
389.157851	2408.915365
389.541965	2434.625250
389.926018	2433.364962
390.310008	2413.704462
390.693936	2432.356731
391.077802	2436.893769
391.461606	2419.753846
391.845348	2443.699327
392.229027	2444.959615
392.612645	2445.715788
392.996200	2414.964750
393.379694	2436.893769
393.763125	2433.869077
394.146494	2436.641712
394.529801	2400.849519
394.913047	2421.770308
395.296230	2434.877308
395.679351	2459.578962
396.062410	2451.765173
396.445408	2424.290885
396.828343	2428.827923
397.211217	2455.546038
397.594028	2425.803231
397.976778	2433.869077
398.359466	2413.956519
398.742092	2421.518250
399.124656	2440.170519
399.507158	2418.241500
399.889598	2443.447269
400.271977	2445.715788
400.654294	2450.000769
401.036549	2428.071750
401.418742	2465.124231
401.800874	2440.422577
402.182944	2449.748712
402.564952	2457.058385
402.946898	2442.691096
403.328783	2458.570731
403.710606	2429.584096
404.092367	2415.468865
404.474067	2448.236365
404.855705	2426.307346
405.237282	2447.984308
405.618797	2423.030596
406.000250	2429.836154
406.381642	2460.587192
406.762972	2477.979173
407.144240	2411.940058
407.525447	2411.435942
407.906593	2447.732250
408.287677	2437.649942
408.668700	2446.976077
409.049661	2458.066615
409.430560	2430.592327
409.811399	2454.789865
410.192176	2433.364962
410.572891	2437.902000
410.953545	2450.504885
411.334138	2456.302212
411.714669	2418.493558
412.095139	2444.707558
412.475547	2470.669500
412.855894	2427.063519
413.236180	2451.765173
413.616405	2425.551173
413.996568	2437.902000
414.376670	2432.356731
414.756711	2469.661269
415.136691	2457.058385
415.516609	2432.608788
415.896466	2441.178750
416.276262	2437.397885
416.655997	2434.373192
417.035670	2439.162288
417.415283	2429.584096
417.794834	2439.414346
418.174324	2474.450365
418.553753	2445.463731
418.933121	2447.228135
419.312428	2454.285750
419.691674	2422.526481
420.070859	2451.765173
420.449983	2454.789865
420.829045	2464.872173
421.208047	2440.926692
421.586988	2455.041923
421.965867	2441.682865
422.344686	2451.765173
422.723444	2434.625250
423.102141	2444.203442
423.480777	2450.504885
423.859352	2430.088212
424.237866	2447.228135
424.616319	2447.480192
424.994712	2427.567635
425.373044	2462.099538
425.751314	2448.236365
426.129524	2441.934923
426.507673	2436.389654
426.885762	2435.633481
427.263789	2472.938019
427.641756	2437.397885
428.019662	2441.682865
428.397508	2434.877308
428.775292	2465.124231
429.153016	2468.148923
429.530679	2419.501788
429.908282	2457.310442
430.285824	2456.554269
430.663305	2481.003865
431.040726	2446.724019
431.418086	2438.910231
431.795385	2448.236365
432.172624	2449.496654
432.549802	2468.148923
432.926920	2442.439038
433.303977	2433.869077
433.680974	2460.335135
434.057910	2450.756942
434.434786	2465.880404
434.811601	2436.893769
435.188355	2461.595423
435.565050	2450.756942
435.941683	2449.496654
436.318257	2450.504885
436.694770	2462.855712
437.071222	2456.554269
437.447614	2450.252827
437.823946	2439.666404
438.200218	2446.219904
438.576429	2459.578962
438.952580	2472.181846
439.328670	2459.074846
439.704700	2457.562500
440.080670	2443.447269
440.456580	2445.211673
440.832429	2450.504885
441.208218	2444.707558
441.583947	2439.414346
441.959616	2451.261058
442.335224	2462.351596
442.710773	2458.318673
443.086261	2451.261058
443.461689	2467.896865
443.837057	2456.050154
444.212365	2447.984308
444.587612	2443.447269
444.962800	2432.356731
445.337927	2450.000769
445.712995	2442.186981
446.088002	2438.910231
446.462949	2475.458596
446.837837	2444.203442
447.212664	2476.466827
447.587431	2448.236365
447.962139	2474.198308
448.336786	2460.083077
448.711374	2469.409212
449.085901	2443.951385
449.460369	2476.970942
449.834776	2459.326904
450.209124	2457.310442
450.583412	2459.074846
450.957640	2442.691096
451.331808	2477.223000
451.705917	2439.918462
452.079965	2475.962712
452.453954	2442.691096
452.827883	2443.195212
453.201752	2445.967846
453.575562	2431.852615
453.949311	2456.806327
454.323001	2442.439038
454.696632	2459.326904
455.070202	2465.124231
455.443713	2467.896865
455.817164	2460.083077
456.190556	2451.765173
456.563888	2477.979173
456.937160	2463.611885
457.310373	2467.140692
457.683526	2451.261058
458.056619	2452.521346
458.429653	2461.343365
458.802628	2456.302212
459.175542	2476.718885
459.548398	2454.285750
459.921194	2448.488423
460.293930	2461.091308
460.666607	2441.682865
461.039224	2446.724019
461.411782	2498.143788
461.784280	2444.707558
462.156719	2448.488423
462.529099	2463.107769
462.901419	2456.302212
463.273680	2440.674635
463.645882	2455.293981
464.018024	2431.096442
464.390106	2453.781635
464.762130	2486.801192
465.134094	2440.926692
465.505999	2456.806327
465.877845	2429.836154
466.249631	2441.934923
466.621358	2439.162288
466.993026	2484.280615
467.364634	2468.148923
467.736184	2461.091308
468.107674	2459.831019
468.479105	2472.685962
468.850477	2449.496654
469.221790	2491.590288
469.593043	2451.765173
469.964238	2446.976077
470.335373	2448.740481
470.706449	2444.707558
471.077467	2460.083077
471.448425	2428.575865
471.819324	2452.269288
472.190164	2487.305308
472.560945	2423.786769
472.931667	2448.740481
473.302330	2467.896865
473.672934	2454.033692
474.043479	2482.264154
474.413965	2456.554269
474.784393	2455.546038
475.154761	2449.496654
475.525070	2441.430808
475.895321	2471.425673
476.265513	2471.929788
476.635645	2456.050154
477.005719	2424.795000
477.375734	2469.661269
477.745691	2437.145827
478.115588	2440.926692
478.485427	2475.206538
478.855207	2431.852615
479.224928	2437.397885
479.594591	2461.091308
479.964194	2467.140692
480.333739	2482.768269
480.703226	2454.789865
481.072653	2456.554269
481.442022	2443.195212
481.811333	2461.091308
482.180584	2446.724019
482.549777	2454.285750
482.918912	2463.107769
483.287988	2444.959615
483.657005	2456.554269
484.025964	2443.195212
484.394864	2468.400981
484.763706	2484.280615
485.132489	2482.516212
485.501213	2450.756942
485.869879	2463.359827
486.238487	2464.116000
486.607036	2448.992538
486.975527	2466.384519
487.343959	2453.529577
487.712333	2478.231231
488.080648	2457.562500
488.448905	2476.718885
488.817104	2461.847481
489.185244	2446.471962
489.553326	2478.483288
489.921350	2448.740481
490.289315	2471.929788
490.657222	2455.041923
491.025070	2459.578962
491.392861	2440.674635
491.760593	2469.409212
492.128267	2489.573827
492.495883	2476.466827
492.863440	2454.537808
493.230939	2441.430808
493.598380	2459.578962
493.965763	2454.285750
494.333088	2469.913327
494.700354	2481.003865
495.067563	2454.537808
495.434713	2445.463731
495.801805	2468.653038
496.168839	2442.691096
496.535815	2452.017231
496.902733	2476.466827
497.269593	2470.669500
497.636395	2455.293981
498.003139	2467.644808
498.369825	2465.880404
498.736453	2441.178750
499.103023	2467.392750
499.469535	2457.562500
499.835989	2454.285750
500.202385	2465.376288
500.568723	2460.587192
500.935003	2470.921558
501.301226	2454.789865
501.667390	2446.219904
502.033497	2437.649942
502.399546	2474.450365
502.765537	2470.921558
503.131470	2489.573827
503.497345	2463.863942
503.863163	2458.318673
504.228923	2457.814558
504.594625	2466.636577
504.960269	2501.168481
505.325856	2451.261058
505.691385	2465.376288
506.056856	2470.921558
506.422270	2456.806327
506.787625	2425.803231
507.152924	2466.384519
507.518164	2452.269288
507.883347	2465.628346
508.248472	2469.661269
508.613540	2456.050154
508.978550	2440.926692
509.343503	2488.313538
509.708398	2444.203442
510.073236	2463.107769
510.438016	2476.214769
510.802738	2463.611885
511.167403	2452.017231
511.532010	2448.488423
511.896561	2463.107769
512.261053	2467.644808
512.625488	2448.740481
512.989866	2481.760038
513.354186	2465.628346
513.718449	2457.310442
514.082655	2483.776500
514.446803	2435.885538
514.810894	2481.003865
515.174927	2464.620115
515.538904	2473.190077
515.902822	2473.190077
516.266684	2485.540904
516.630488	2451.261058
516.994235	2485.288846
517.357925	2444.455500
517.721558	2486.549135
518.085133	2469.661269
518.448651	2452.017231
518.812112	2468.400981
519.175516	2463.611885
519.538863	2444.959615
519.902152	2452.521346
520.265385	2470.669500
520.628560	2450.756942
520.991678	2453.025462
521.354739	2456.050154
521.717743	2474.702423
522.080690	2475.710654
522.443580	2431.852615
522.806413	2479.239462
523.169189	2445.967846
523.531908	2468.148923
523.894569	2472.938019
524.257174	2478.483288
524.619722	2454.285750
524.982213	2466.636577
525.344647	2476.466827
525.707025	2479.239462
526.069345	2446.471962
526.431608	2472.685962
526.793815	2484.784731
527.155964	2459.578962
527.518057	2481.255923
527.880093	2478.483288
528.242072	2451.009000
528.603995	2473.946250
528.965860	2455.546038
529.327669	2442.943154
529.689421	2444.707558
530.051117	2456.050154
530.412755	2482.768269
530.774337	2447.984308
531.135862	2481.760038
531.497331	2463.611885
531.858743	2472.938019
532.220098	2475.962712
532.581396	2456.806327
532.942638	2469.409212
533.303824	2462.099538
533.664953	2447.732250
534.026025	2448.992538
534.387040	2458.318673
534.747999	2474.702423
535.108902	2447.984308
535.469748	2463.107769
535.830537	2467.896865
536.191270	2467.140692
536.551947	2466.384519
536.912567	2452.269288
537.273131	2479.239462
537.633638	2459.578962
537.994089	2445.463731
538.354483	2463.107769
538.714821	2475.962712
539.075103	2467.644808
539.435328	2458.570731
539.795497	2449.748712
540.155609	2456.302212
540.515665	2451.765173
540.875665	2469.661269
541.235609	2449.748712
541.595496	2427.819692
541.955328	2475.962712
542.315102	2493.606750
542.674821	2464.872173
543.034483	2475.710654
543.394090	2469.409212
543.753640	2458.822788
544.113134	2472.181846
544.472571	2453.277519
544.831953	2478.735346
545.191278	2470.165385
545.550548	2468.905096
545.909761	2486.549135
546.268918	2472.181846
546.628019	2463.863942
546.987064	2477.727115
547.346053	2462.603654
547.704986	2445.967846
548.063863	2461.847481
548.422684	2454.285750
548.781449	2468.905096
549.140158	2496.883500
549.498811	2462.351596
549.857408	2469.409212
550.215949	2491.338231
550.574434	2475.962712
550.932864	2456.806327
551.291237	2484.280615
551.649555	2479.239462
552.007817	2458.570731
552.366022	2469.661269
552.724173	2464.368058
553.082267	2470.669500
553.440305	2485.792962
553.798288	2466.384519
554.156215	2447.480192
554.514086	2472.181846
554.871902	2473.442135
555.229661	2483.272385
555.587365	2449.244596
555.945014	2463.863942
556.302606	2454.285750
556.660143	2477.475058
557.017625	2470.921558
557.375050	2467.644808
557.732421	2483.776500
558.089735	2497.387615
558.446994	2465.628346
558.804197	2448.488423
559.161345	2459.074846
559.518437	2462.351596
559.875474	2485.540904
560.232455	2452.017231
560.589381	2464.368058
560.946251	2476.718885
561.303065	2462.099538
561.659825	2456.554269
562.016528	2473.190077
562.373177	2454.537808
562.729770	2456.554269
563.086307	2463.107769
563.442789	2450.252827
563.799216	2479.239462
564.155587	2451.765173
564.511904	2474.702423
564.868164	2445.967846
565.224370	2471.929788
565.580520	2460.335135
565.936615	2480.499750
566.292654	2440.422577
566.648638	2467.644808
567.004567	2478.231231
567.360441	2453.277519
567.716260	2428.071750
568.072023	2443.951385
568.427732	2448.992538
568.783385	2442.186981
569.138982	2480.247692
569.494525	2458.318673
569.850013	2441.934923
570.205445	2458.570731
570.560823	2460.587192
570.916145	2495.371154
571.271412	2496.127327
571.626625	2445.967846
571.981782	2456.302212
572.336884	2458.822788
572.691931	2476.214769
573.046923	2433.869077
573.401860	2472.433904
573.756743	2442.691096
574.111570	2463.359827
574.466342	2466.384519
574.821059	2446.724019
575.175722	2467.392750
575.530330	2481.003865
575.884882	2474.702423
576.239380	2458.822788
576.593823	2483.776500
576.948211	2469.157154
577.302544	2479.995635
577.656823	2455.798096
578.011047	2462.099538
578.365216	2456.302212
578.719330	2469.157154
579.073389	2475.962712
579.427394	2466.132462
579.781344	2472.433904
580.135239	2455.546038
580.489080	2451.513115
580.842866	2459.831019
581.196597	2470.165385
581.550273	2456.302212
581.903895	2488.565596
582.257463	2478.231231
582.610975	2461.595423
582.964434	2470.669500
583.317837	2475.710654
583.671186	2456.806327
584.024481	2463.611885
584.377721	2474.954481
584.730906	2495.371154
585.084037	2481.760038
585.437113	2496.127327
585.790135	2452.521346
586.143103	2454.033692
586.496016	2452.269288
586.848874	2465.880404
587.201679	2459.831019
587.554428	2455.798096
587.907124	2487.053250
588.259765	2441.430808
588.612352	2463.611885
588.964884	2452.521346
589.317362	2461.343365
589.669786	2453.025462
590.022155	2469.661269
590.374470	2458.318673
590.726731	2484.028558
591.078937	2475.206538
591.431090	2472.938019
591.783188	2483.776500
592.135232	2468.905096
592.487222	2445.211673
592.839157	2468.148923
593.191038	2480.247692
593.542866	2465.628346
593.894639	2471.173615
594.246358	2475.710654
594.598022	2452.269288
594.949633	2447.732250
595.301190	2484.784731
595.652692	2461.595423
596.004141	2478.987404
596.355535	2469.913327
596.706876	2464.368058
597.058162	2450.252827
597.409395	2483.776500
597.760573	2468.148923
598.111698	2490.834115
598.462768	2480.499750
598.813785	2481.760038
599.164748	2457.562500
599.515657	2505.201404
599.866511	2486.549135
600.217312	2475.710654
600.568060	2439.414346
600.918753	2490.582058
601.269392	2483.020327
601.619978	2488.313538
601.970510	2500.916423
602.320988	2468.400981
602.671412	2468.400981
603.021783	2475.710654
603.372100	2463.863942
603.722363	2454.033692
604.072572	2447.228135
604.422728	2441.178750
604.772830	2453.529577
605.122878	2441.682865
605.472872	2474.450365
605.822813	2492.598519
606.172701	2447.228135
606.522534	2473.694192
606.872314	2494.362923
607.222041	2436.893769
607.571714	2466.888635
607.921333	2460.083077
608.270899	2474.954481
608.620411	2447.984308
608.969870	2450.756942
609.319276	2478.231231
609.668627	2459.831019
610.017926	2464.620115
610.367171	2460.335135
610.716362	2484.784731
611.065500	2476.214769
611.414585	2464.368058
611.763616	2487.053250
612.112594	2487.305308
612.461518	2476.718885
612.810389	2446.471962
613.159207	2477.223000
613.507971	2466.888635
613.856682	2467.644808
614.205340	2489.069712
614.553945	2459.831019
614.902496	2470.417442
615.250994	2467.896865
615.599439	2450.504885
615.947830	2446.724019
616.296169	2451.765173
616.644454	2455.798096
616.992686	2496.127327
617.340864	2471.425673
617.688990	2453.781635
618.037063	2451.765173
618.385082	2467.896865
618.733048	2441.430808
619.080961	2463.107769
619.428821	2464.368058
619.776628	2454.537808
620.124382	2454.285750
620.472083	2492.094404
620.819731	2447.480192
621.167326	2462.855712
621.514868	2472.181846
621.862357	2465.880404
622.209793	2483.272385
622.557176	2479.491519
622.904506	2483.272385
623.251783	2463.359827
623.599007	2477.727115
623.946179	2442.943154
624.293297	2479.995635
624.640363	2451.009000
624.987376	2474.702423
625.334336	2462.099538
625.681243	2452.521346
626.028097	2476.718885
626.374899	2450.756942
626.721647	2471.425673
627.068343	2470.669500
627.414987	2479.239462
627.761577	2465.376288
628.108115	2474.702423
628.454600	2454.537808
628.801032	2464.116000
629.147412	2457.310442
629.493739	2465.880404
629.840014	2460.335135
630.186236	2469.913327
630.532405	2466.384519
630.878521	2453.781635
631.224585	2457.814558
631.570597	2458.066615
631.916556	2451.009000
632.262462	2476.214769
632.608316	2483.272385
632.954117	2461.343365
633.299866	2467.140692
633.645562	2489.825885
633.991206	2448.740481
634.336797	2496.127327
634.682336	2459.578962
635.027823	2468.905096
635.373257	2487.305308
635.718639	2483.776500
636.063968	2476.214769
636.409245	2494.110865
636.754470	2463.359827
637.099642	2468.905096
637.444762	2469.913327
637.789829	2459.578962
638.134845	2448.488423
638.479808	2480.247692
638.824719	2452.017231
639.169577	2440.674635
639.514383	2472.433904
639.859137	2478.483288
640.203839	2469.157154
640.548489	2457.310442
640.893086	2462.099538
641.237632	2467.140692
641.582125	2471.677731
641.926566	2445.211673
642.270955	2466.636577
642.615292	2474.198308
642.959576	2468.400981
643.303809	2461.091308
643.647990	2450.756942
643.992118	2454.789865
644.336195	2460.335135
644.680219	2476.466827
645.024192	2461.091308
645.368112	2471.929788
645.711981	2483.020327
646.055797	2460.335135
646.399562	2445.967846
646.743274	2483.020327
647.086935	2479.491519
647.430544	2491.086173
647.774101	2470.417442
648.117606	2457.058385
648.461059	2460.839250
648.804460	2448.488423
649.147810	2470.417442
649.491108	2453.277519
649.834354	2481.760038
650.177548	2478.231231
650.520690	2470.165385
650.863781	2468.653038
651.206820	2480.499750
651.549807	2445.967846
651.892742	2466.888635
652.235626	2507.974038
652.578458	2470.417442
652.921238	2474.702423
653.263967	2456.050154
653.606644	2463.359827
653.949269	2432.104673
654.291843	2498.899962
654.634365	2468.653038
654.976836	2466.888635
655.319255	2455.546038
655.661622	2459.326904
656.003938	2453.529577
656.346203	2474.954481
656.688416	2466.888635
657.030577	2455.041923
657.372687	2479.743577
657.714746	2475.458596
658.056753	2480.499750
658.398708	2449.496654
658.740612	2436.641712
659.082465	2464.620115
659.424266	2432.104673
659.766016	2462.855712
660.107715	2490.582058
660.449362	2447.732250
660.790958	2485.792962
661.132503	2466.636577
661.473996	2471.929788
661.815438	2471.677731
662.156829	2476.970942
662.498168	2456.050154
662.839456	2475.206538
663.180693	2463.863942
663.521879	2486.045019
663.863013	2463.359827
664.204097	2473.190077
664.545129	2464.620115
664.886110	2444.707558
665.227040	2459.074846
665.567918	2455.798096
665.908746	2462.603654
666.249522	2464.116000
666.590248	2477.979173
666.930922	2464.872173
667.271545	2471.173615
667.612118	2473.442135
667.952639	2441.430808
668.293109	2476.970942
668.633528	2486.045019
668.973896	2442.439038
669.314213	2459.074846
669.654480	2452.269288
669.994695	2440.170519
670.334859	2450.000769
670.674973	2465.124231
671.015035	2473.442135
671.355047	2460.839250
671.695008	2479.995635
672.034918	2464.368058
672.374777	2489.321769
672.714585	2452.017231
673.054342	2467.896865
673.394049	2467.896865
673.733705	2475.206538
674.073310	2468.148923
674.412864	2441.682865
674.752368	2476.718885
675.091820	2473.694192
675.431223	2458.822788
675.770574	2482.012096
676.109875	2452.521346
676.449125	2496.379385
676.788324	2464.368058
677.127473	2470.165385
677.466571	2458.318673
677.805619	2484.280615
678.144616	2470.417442
678.483562	2441.934923
678.822458	2461.847481
679.161303	2473.442135
679.500098	2453.025462
679.838842	2477.475058
680.177535	2467.392750
680.516179	2443.447269
680.854771	2450.252827
681.193314	2459.578962
681.531805	2439.666404
681.870247	2452.521346
682.208638	2466.132462
682.546978	2472.181846
682.885268	2454.537808
683.223508	2462.855712
683.561697	2463.107769
683.899836	2483.020327
684.237925	2488.817654
684.575963	2493.858808
684.913951	2464.872173
685.251889	2455.293981
685.589776	2481.507981
685.927614	2458.318673
686.265401	2476.466827
686.603137	2451.513115
686.940824	2473.190077
687.278460	2468.148923
687.616046	2460.587192
687.953582	2459.578962
688.291068	2471.677731
688.628504	2466.888635
688.965889	2451.261058
689.303224	2466.384519
689.640510	2454.033692
689.977745	2474.450365
690.314930	2456.050154
690.652065	2480.499750
690.989150	2442.943154
691.326185	2491.590288
691.663170	2457.814558
692.000105	2457.562500
692.336990	2467.644808
692.673825	2479.995635
693.010610	2457.814558
693.347345	2446.976077
693.684030	2473.190077
694.020665	2478.483288
694.357251	2464.368058
694.693786	2451.261058
695.030272	2443.951385
695.366707	2455.546038
695.703093	2452.521346
696.039429	2490.582058
696.375716	2459.831019
696.711952	2488.061481
697.048139	2450.252827
697.384276	2470.165385
697.720363	2452.269288
698.056400	2462.351596
698.392388	2467.392750
698.728326	2463.863942
699.064214	2473.694192
699.400053	2460.587192
699.735842	2461.847481
700.071581	2457.058385
700.407270	2454.789865
700.742910	2512.511077
701.078501	2470.921558
701.414042	2455.041923
701.749533	2459.326904
702.084974	2473.946250
702.420366	2469.409212
702.755709	2488.061481
703.091002	2442.691096
703.426246	2478.483288
703.761440	2472.433904
704.096584	2452.269288
704.431679	2462.603654
704.766725	2447.228135
705.101721	2454.537808
705.436668	2452.521346
705.771565	2499.152019
706.106413	2481.760038
706.441212	2448.740481
706.775961	2469.409212
707.110661	2456.554269
707.445311	2471.677731
707.779913	2464.872173
708.114465	2449.748712
708.448967	2432.608788
708.783421	2455.798096
709.117825	2500.160250
709.452180	2460.587192
709.786485	2449.244596
710.120742	2466.636577
710.454949	2474.702423
710.789107	2482.768269
711.123216	2436.893769
711.457275	2451.513115
711.791286	2469.913327
712.125247	2459.578962
712.459159	2469.409212
712.793023	2472.181846
713.126837	2471.677731
713.460602	2465.628346
713.794318	2487.053250
714.127985	2453.529577
714.461602	2481.255923
714.795171	2455.798096
715.128691	2473.190077
715.462162	2472.433904
715.795584	2478.987404
716.128957	2448.992538
716.462281	2464.116000
716.795556	2486.549135
717.128782	2443.447269
717.461960	2461.343365
717.795088	2469.157154
718.128167	2468.400981
718.461198	2456.554269
718.794180	2470.165385
719.127113	2437.145827
719.459997	2474.702423
719.792833	2462.351596
720.125619	2455.293981
720.458357	2465.124231
720.791046	2468.400981
721.123686	2445.211673
721.456278	2483.776500
721.788821	2470.669500
722.121315	2474.198308
722.453761	2465.628346
722.786158	2463.863942
723.118506	2457.562500
723.450805	2468.148923
723.783056	2483.524442
724.115259	2458.066615
724.447412	2465.124231
724.779518	2487.557365
725.111574	2429.079981
725.443582	2458.822788
725.775542	2487.557365
726.107453	2466.636577
726.439315	2458.066615
726.771129	2469.661269
727.102895	2436.641712
727.434612	2473.190077
727.766281	2473.694192
728.097901	2463.107769
728.429473	2465.628346
728.760996	2423.786769
729.092471	2471.929788
729.423897	2473.442135
729.755276	2469.157154
730.086606	2450.756942
730.417887	2466.636577
730.749120	2459.074846
731.080305	2453.529577
731.411442	2460.083077
731.742530	2477.727115
732.073570	2463.611885
732.404562	2464.872173
732.735506	2477.979173
733.066401	2466.636577
733.397249	2469.913327
733.728048	2450.252827
734.058798	2458.318673
734.389501	2463.359827
734.720156	2461.595423
735.050762	2476.214769
735.381320	2481.507981
735.711831	2467.644808
736.042293	2469.661269
736.372707	2451.261058
736.703073	2489.573827
737.033391	2464.116000
737.363661	2473.694192
737.693883	2449.748712
738.024056	2442.943154
738.354182	2471.929788
738.684260	2456.050154
739.014290	2483.272385
739.344272	2470.165385
739.674207	2460.335135
740.004093	2433.112904
740.333931	2452.521346
740.663722	2476.718885
740.993464	2460.587192
741.323159	2494.614981
741.652806	2450.000769
741.982405	2488.061481
742.311956	2446.724019
742.641460	2463.107769
742.970915	2472.685962
743.300323	2470.669500
743.629683	2440.926692
743.958996	2477.979173
744.288260	2439.918462
744.617477	2457.310442
744.946647	2471.677731
745.275768	2468.148923
745.604842	2443.699327
745.933869	2451.765173
746.262847	2466.132462
746.591778	2461.343365
746.920662	2467.392750
747.249498	2450.756942
747.578286	2455.546038
747.907027	2461.343365
748.235720	2454.285750
748.564365	2469.913327
748.892963	2453.529577
749.221514	2466.384519
749.550017	2437.902000
749.878473	2466.636577
750.206881	2451.765173
750.535242	2457.814558
750.863555	2435.885538
751.191821	2462.351596
751.520039	2460.587192
751.848210	2462.351596
752.176334	2471.425673
752.504411	2484.784731
752.832440	2468.653038
753.160421	2480.499750
753.488356	2470.669500
753.816243	2472.685962
754.144082	2476.214769
754.471875	2478.987404
754.799620	2470.921558
755.127318	2439.414346
755.454969	2479.743577
755.782572	2451.261058
756.110129	2461.343365
756.437638	2490.330000
756.765100	2444.707558
757.092515	2497.387615
757.419882	2451.513115
757.747203	2479.995635
758.074477	2457.562500
758.401703	2477.223000
758.728882	2453.781635
759.056014	2472.433904
759.383099	2463.107769
759.710138	2482.768269
760.037129	2459.326904
760.364073	2466.636577
760.690970	2440.422577
761.017820	2470.165385
761.344623	2461.847481
761.671379	2485.036788
761.998088	2476.970942
762.324751	2454.537808
762.651366	2456.806327
762.977935	2444.959615
763.304456	2458.318673
763.630931	2455.546038
763.957359	2469.157154
764.283740	2465.880404
764.610074	2465.124231
764.936362	2484.280615
765.262602	2464.116000
765.588796	2450.000769
765.914943	2440.422577
766.241044	2461.343365
766.567097	2459.578962
766.893104	2472.938019
767.219064	2436.389654
767.544978	2442.943154
767.870845	2438.406115
768.196665	2477.475058
768.522438	2436.137596
768.848165	2476.970942
769.173846	2453.781635
769.499479	2466.384519
769.825066	2454.033692
770.150607	2464.368058
770.476101	2461.847481
770.801548	2472.433904
771.126949	2463.611885
771.452303	2473.190077
771.777611	2446.471962
772.102872	2487.809423
772.428087	2486.045019
772.753256	2491.338231
773.078378	2456.554269
773.403453	2433.617019
773.728482	2457.562500
774.053465	2464.872173
774.378401	2477.979173
774.703291	2443.447269
775.028135	2462.351596
775.352932	2476.970942
775.677683	2453.277519
776.002388	2481.003865
776.327046	2449.496654
776.651658	2457.058385
776.976224	2441.682865
777.300743	2476.214769
777.625216	2433.364962
777.949643	2492.094404
778.274024	2465.376288
778.598359	2453.781635
778.922647	2463.359827
779.246889	2470.669500
779.571086	2461.847481
779.895236	2448.488423
780.219339	2473.190077
780.543397	2450.000769
780.867409	2442.439038
781.191374	2474.450365
781.515294	2459.074846
781.839167	2464.116000
782.162995	2458.570731
782.486776	2428.323808
782.810511	2488.565596
783.134201	2471.173615
783.457844	2467.392750
783.781441	2441.178750
784.104993	2497.387615
784.428498	2459.074846
784.751958	2456.554269
785.075372	2452.017231
785.398739	2462.351596
785.722061	2452.773404
786.045337	2477.727115
786.368568	2459.831019
786.691752	2450.000769
787.014891	2467.392750
787.337983	2469.157154
787.661030	2460.839250
787.984031	2459.578962
788.306987	2483.020327
788.629897	2458.570731
788.952760	2466.132462
789.275579	2450.252827
789.598351	2451.009000
789.921078	2456.302212
790.243759	2481.255923
790.566395	2455.293981
790.888984	2465.628346
791.211529	2466.132462
791.534027	2452.773404
791.856480	2429.584096
792.178888	2455.546038
792.501249	2476.970942
792.823566	2455.293981
793.145836	2466.636577
793.468062	2470.669500
793.790241	2469.913327
794.112375	2470.417442
794.434464	2459.831019
794.756507	2488.061481
795.078505	2454.789865
795.400457	2448.740481
795.722364	2463.863942
796.044226	2480.247692
796.366042	2457.058385
796.687812	2463.107769
797.009538	2463.863942
797.331218	2462.855712
797.652852	2455.293981
797.974442	2466.888635
798.295986	2458.066615
798.617484	2445.967846
798.938938	2470.921558
799.260346	2472.181846
799.581709	2455.041923
799.903026	2452.521346
800.224299	2461.091308
800.545526	2483.020327
800.866708	2473.694192
801.187845	2448.236365
801.508936	2468.905096
801.829983	2459.578962
802.150984	2473.694192
802.471940	2471.677731
802.792851	2463.611885
803.113717	2467.392750
803.434538	2481.507981
803.755314	2443.195212
804.076045	2477.475058
804.396731	2468.400981
804.717372	2465.880404
805.037967	2470.669500
805.358518	2453.277519
805.679024	2438.154058
805.999485	2448.992538
806.319901	2462.603654
806.640272	2445.463731
806.960598	2465.376288
807.280879	2480.247692
807.601115	2447.732250
807.921306	2478.735346
808.241453	2463.863942
808.561554	2438.910231
808.881611	2467.644808
809.201623	2458.822788
809.521590	2459.831019
809.841513	2438.406115
810.161390	2456.806327
810.481223	2463.359827
810.801011	2440.170519
811.120755	2449.496654
811.440453	2468.653038
811.760107	2458.570731
812.079716	2471.425673
812.399281	2424.795000
812.718801	2462.099538
813.038276	2469.661269
813.357707	2440.170519
813.677093	2467.392750
813.996434	2477.979173
814.315731	2471.173615
814.634983	2462.351596
814.954191	2445.715788
815.273354	2488.565596
815.592473	2453.781635
815.911547	2487.305308
816.230577	2463.611885
816.549562	2477.475058
816.868502	2455.546038
817.187399	2470.165385
817.506250	2456.050154
817.825058	2442.691096
818.143821	2455.293981
818.462539	2449.748712
818.781213	2440.170519
819.099843	2458.318673
819.418429	2472.685962
819.736970	2462.099538
820.055466	2464.368058
820.373919	2462.855712
820.692327	2471.425673
821.010691	2483.524442
821.329011	2473.946250
821.647286	2451.513115
821.965517	2496.379385
822.283704	2474.450365
822.601847	2448.992538
822.919945	2446.219904
823.237999	2456.806327
823.556010	2470.165385
823.873976	2470.669500
824.191897	2455.041923
824.509775	2465.880404
824.827609	2461.847481
825.145398	2458.822788
825.463144	2479.491519
825.780845	2468.653038
826.098502	2456.554269
826.416116	2460.839250
826.733685	2478.483288
827.051210	2462.099538
827.368692	2473.946250
827.686129	2459.831019
828.003522	2460.083077
828.320872	2453.529577
828.638177	2462.351596
828.955439	2476.970942
829.272656	2467.644808
829.589830	2459.074846
829.906960	2456.806327
830.224046	2469.157154
830.541088	2446.976077
830.858086	2450.756942
831.175041	2464.368058
831.491952	2480.499750
831.808819	2472.433904
832.125642	2457.814558
832.442421	2453.529577
832.759157	2455.293981
833.075849	2457.310442
833.392497	2492.850577
833.709101	2470.921558
834.025662	2463.611885
834.342179	2435.885538
834.658653	2468.148923
834.975083	2469.157154
835.291469	2462.855712
835.607811	2486.297077
835.924110	2449.244596
836.240366	2471.173615
836.556578	2447.228135
836.872746	2484.784731
837.188871	2472.181846
837.504952	2459.578962
837.820990	2458.570731
838.136984	2485.540904
838.452935	2467.896865
838.768842	2471.173615
839.084706	2470.165385
839.400526	2461.343365
839.716303	2428.827923
840.032037	2474.702423
840.347727	2451.513115
840.663373	2456.050154
840.978977	2459.326904
841.294537	2452.521346
841.610054	2457.310442
841.925527	2457.562500
842.240957	2465.376288
842.556344	2473.694192
842.871687	2462.855712
843.186987	2462.351596
843.502244	2456.302212
843.817458	2481.507981
844.132629	2455.546038
844.447756	2462.351596
844.762840	2474.702423
845.077881	2448.740481
845.392879	2466.384519
845.707833	2457.058385
846.022745	2486.045019
846.337613	2439.918462
846.652438	2447.480192
846.967221	2452.521346
847.281960	2473.442135
847.596656	2435.381423
847.911309	2461.847481
848.225919	2471.677731
848.540485	2472.938019
848.855009	2488.565596
849.169490	2485.036788
849.483928	2471.425673
849.798323	2457.310442
850.112675	2448.488423
850.426984	2431.096442
850.741251	2481.255923
851.055474	2468.905096
851.369654	2469.157154
851.683792	2475.458596
851.997887	2470.417442
852.311938	2436.389654
852.625947	2450.000769
852.939914	2451.009000
853.253837	2488.061481
853.567718	2458.066615
853.881555	2472.433904
854.195350	2439.666404
854.509103	2451.009000
854.822812	2479.491519
855.136479	2459.326904
855.450103	2441.178750
855.763685	2464.620115
856.077224	2460.839250
856.390720	2465.124231
856.704173	2476.718885
857.017584	2461.847481
857.330953	2423.282654
857.644278	2500.160250
857.957561	2450.756942
858.270802	2434.625250
858.584000	2486.549135
858.897155	2454.537808
859.210268	2445.463731
859.523339	2435.633481
859.836367	2468.400981
860.149352	2448.236365
860.462295	2470.165385
860.775195	2465.376288
861.088054	2458.570731
861.400869	2464.116000
861.713642	2456.050154
862.026373	2454.033692
862.339062	2464.368058
862.651708	2464.872173
862.964312	2455.041923
863.276873	2450.756942
863.589392	2469.157154
863.901869	2469.157154
864.214303	2481.255923
864.526696	2449.748712
864.839045	2465.628346
865.151353	2473.946250
865.463619	2453.025462
865.775842	2464.368058
866.088023	2446.724019
866.400162	2448.992538
866.712258	2456.806327
867.024313	2441.178750
867.336325	2457.310442
867.648296	2448.488423
867.960224	2461.847481
868.272110	2448.488423
868.583954	2472.433904
868.895755	2456.050154
869.207515	2480.499750
869.519233	2463.359827
869.830909	2458.570731
870.142542	2473.694192
870.454134	2438.154058
870.765684	2474.702423
871.077191	2458.822788
871.388657	2444.203442
871.700081	2428.323808
872.011463	2443.195212
872.322803	2469.409212
872.634101	2445.211673
872.945357	2462.099538
873.256571	2465.124231
873.567744	2435.885538
873.878874	2442.943154
874.189963	2443.699327
874.501010	2464.368058
874.812015	2460.587192
875.122979	2451.765173
875.433900	2461.847481
875.744780	2456.302212
876.055618	2449.244596
876.366415	2457.562500
876.677169	2482.768269
876.987882	2440.170519
877.298554	2452.521346
877.609183	2453.025462
877.919771	2450.756942
878.230317	2462.099538
878.540822	2441.934923
878.851285	2448.992538
879.161707	2446.976077
879.472087	2482.516212
879.782425	2475.458596
880.092722	2482.516212
880.402977	2459.831019
880.713191	2442.943154
881.023363	2473.946250
881.333494	2470.417442
881.643583	2462.603654
881.953631	2474.198308
882.263637	2455.041923
882.573602	2464.872173
882.883526	2463.107769
883.193408	2461.847481
883.503248	2467.896865
883.813048	2465.628346
884.122806	2452.017231
884.432522	2443.951385
884.742197	2482.768269
885.051831	2453.025462
885.361424	2482.264154
885.670975	2450.252827
885.980485	2466.132462
886.289954	2461.343365
886.599382	2477.475058
886.908768	2458.318673
887.218113	2451.513115
887.527417	2462.855712
887.836680	2454.033692
888.145901	2446.471962
888.455082	2467.644808
888.764221	2458.318673
889.073319	2449.748712
889.382376	2471.425673
889.691392	2465.628346
890.000366	2461.847481
890.309300	2465.124231
890.618193	2445.967846
890.927044	2439.162288
891.235855	2459.326904
891.544625	2472.685962
891.853353	2455.546038
892.162041	2469.157154
892.470687	2455.293981
892.779293	2448.488423
893.087858	2441.682865
893.396381	2459.074846
893.704864	2450.252827
894.013306	2440.170519
894.321707	2452.521346
894.630068	2443.699327
894.938387	2482.768269
895.246665	2456.806327
895.554903	2474.954481
895.863100	2468.400981
896.171256	2467.896865
896.479371	2457.814558
896.787446	2472.181846
897.095480	2452.773404
897.403473	2469.157154
897.711425	2455.546038
898.019336	2469.409212
898.327207	2461.595423
898.635038	2476.466827
898.942827	2444.707558
899.250576	2457.814558
899.558284	2429.332038
899.865952	2470.921558
900.173579	2478.987404
900.481165	2463.359827
900.788711	2465.124231
901.096216	2471.173615
901.403681	2465.628346
901.711105	2493.102635
902.018489	2453.781635
902.325832	2451.513115
902.633135	2454.285750
902.940397	2457.562500
903.247619	2451.513115
903.554800	2476.466827
903.861941	2448.992538
904.169041	2461.847481
904.476101	2475.206538
904.783121	2439.918462
905.090100	2457.058385
905.397039	2470.417442
905.703938	2445.967846
906.010796	2464.872173
906.317614	2444.707558
906.624391	2468.653038
906.931129	2454.537808
907.237826	2441.178750
907.544483	2468.905096
907.851099	2443.699327
908.157675	2456.302212
908.464211	2443.195212
908.770707	2478.987404
909.077163	2463.611885
909.383578	2475.710654
909.689954	2467.896865
909.996289	2462.099538
910.302584	2465.628346
910.608839	2491.842346
910.915054	2464.368058
911.221229	2459.831019
911.527363	2451.009000
911.833458	2442.691096
912.139513	2463.863942
912.445527	2428.827923
912.751502	2451.765173
913.057436	2474.702423
913.363331	2466.636577
913.669186	2466.888635
913.975000	2437.902000
914.280775	2457.310442
914.586510	2443.699327
914.892205	2463.107769
915.197859	2442.943154
915.503475	2479.239462
915.809050	2466.384519
916.114585	2476.970942
916.420081	2448.488423
916.725536	2455.546038
917.030952	2487.305308
917.336328	2465.880404
917.641665	2459.831019
917.946961	2478.483288
918.252218	2452.521346
918.557435	2470.669500
918.862612	2477.223000
919.167750	2478.735346
919.472848	2469.157154
919.777906	2463.359827
920.082925	2442.439038
920.387904	2440.926692
920.692843	2450.504885
920.997743	2452.773404
921.302603	2464.620115
921.607423	2466.132462
921.912204	2456.302212
922.216946	2490.582058
922.521647	2475.458596
922.826310	2423.030596
923.130932	2454.537808
923.435516	2442.186981
923.740059	2466.384519
924.044564	2436.641712
924.349028	2484.532673
924.653454	2454.285750
924.957840	2485.540904
925.262186	2462.855712
925.566493	2466.384519
925.870761	2453.025462
926.174989	2475.206538
926.479178	2448.236365
926.783328	2463.611885
927.087438	2471.173615
927.391509	2475.962712
927.695541	2454.285750
927.999533	2445.967846
928.303486	2433.364962
928.607400	2482.768269
928.911275	2451.261058
929.215110	2453.277519
929.518906	2494.867038
929.822663	2480.499750
930.126381	2432.860846
930.430060	2464.116000
930.733699	2451.261058
931.037299	2456.554269
931.340861	2461.091308
931.644383	2456.050154
931.947866	2448.488423
932.251309	2455.041923
932.554714	2485.540904
932.858080	2449.748712
933.161407	2419.753846
933.464694	2470.165385
933.767943	2468.653038
934.071153	2475.710654
934.374323	2472.938019
934.677455	2439.918462
934.980548	2473.442135
935.283602	2447.732250
935.586617	2481.003865
935.889593	2444.707558
936.192530	2463.107769
936.495428	2447.480192
936.798287	2462.351596
937.101108	2434.373192
937.403890	2466.132462
937.706632	2436.389654
938.009336	2455.041923
938.312002	2468.400981
938.614628	2471.173615
938.917216	2457.562500
939.219765	2472.433904
939.522275	2449.748712
939.824747	2471.677731
940.127179	2479.995635
940.429573	2472.938019
940.731929	2426.811462
941.034246	2431.096442
941.336524	2438.406115
941.638763	2456.806327
941.940964	2451.009000
942.243126	2472.938019
942.545250	2449.496654
942.847335	2443.195212
943.149381	2460.335135
943.451389	2435.381423
943.753359	2470.165385
944.055290	2473.190077
944.357182	2448.236365
944.659036	2452.017231
944.960851	2473.442135
945.262628	2479.743577
945.564367	2465.124231
945.866067	2443.951385
946.167729	2457.310442
946.469352	2454.033692
946.770937	2475.206538
947.072484	2458.066615
947.373992	2444.455500
947.675462	2452.521346
947.976893	2458.318673
948.278286	2461.343365
948.579641	2440.170519
948.880958	2469.409212
949.182236	2447.732250
949.483476	2452.269288
949.784678	2468.148923
950.085841	2458.066615
950.386967	2444.707558
950.688054	2458.318673
950.989103	2457.310442
951.290114	2451.513115
951.591087	2428.071750
951.892021	2440.170519
952.192917	2450.504885
952.493776	2461.343365
952.794596	2472.433904
953.095378	2431.852615
953.396122	2438.406115
953.696828	2448.740481
953.997496	2459.074846
954.298126	2445.967846
954.598718	2452.773404
954.899272	2464.368058
955.199788	2440.674635
955.500266	2465.628346
955.800706	2445.463731
956.101108	2433.364962
956.401472	2469.409212
956.701798	2463.863942
957.002087	2496.883500
957.302337	2459.326904
957.602550	2448.236365
957.902724	2447.228135
958.202861	2463.611885
958.502960	2455.041923
958.803022	2460.083077
959.103045	2456.554269
959.403031	2466.132462
959.702979	2459.578962
960.002889	2448.740481
960.302762	2458.570731
960.602596	2439.414346
960.902393	2445.463731
961.202153	2446.471962
961.501875	2481.003865
961.801559	2446.219904
962.101205	2427.567635
962.400814	2437.145827
962.700385	2449.748712
962.999918	2463.359827
963.299414	2426.559404
963.598873	2466.636577
963.898293	2431.852615
964.197677	2460.083077
964.497022	2467.392750
964.796331	2465.880404
965.095601	2441.682865
965.394835	2488.565596
965.694030	2473.694192
965.993189	2439.918462
966.292309	2454.537808
966.591393	2449.244596
966.890439	2462.099538
967.189447	2465.628346
967.488419	2440.674635
967.787353	2465.124231
968.086249	2457.814558
968.385108	2466.384519
968.683930	2467.896865
968.982714	2460.587192
969.281462	2467.140692
969.580172	2446.976077
969.878844	2455.041923
970.177480	2411.435942
970.476078	2444.707558
970.774639	2470.921558
971.073162	2459.326904
971.371649	2479.491519
971.670098	2447.732250
971.968510	2478.231231
972.266885	2466.888635
972.565223	2467.392750
972.863524	2460.839250
973.161788	2466.384519
973.460014	2464.116000
973.758204	2442.439038
974.056356	2427.315577
974.354471	2473.694192
974.652550	2478.483288
974.950591	2434.373192
975.248595	2471.425673
975.546563	2440.674635
975.844493	2474.954481
976.142386	2431.600558
976.440243	2457.058385
976.738062	2456.302212
977.035845	2463.359827
977.333590	2468.400981
977.631299	2459.074846
977.928971	2459.578962
978.226606	2461.595423
978.524204	2469.409212
978.821765	2460.083077
979.119290	2435.381423
979.416777	2449.244596
979.714228	2480.247692
980.011642	2444.203442
980.309020	2452.773404
980.606360	2472.938019
980.903664	2435.885538
981.200931	2439.666404
981.498162	2443.447269
981.795356	2488.061481
982.092513	2449.496654
982.389633	2474.450365
982.686717	2457.562500
982.983764	2447.732250
983.280775	2426.811462
983.577749	2456.554269
983.874686	2439.666404
984.171587	2482.516212
984.468451	2447.228135
984.765279	2454.285750
985.062070	2455.798096
985.358824	2434.373192
985.655543	2435.381423
985.952224	2457.562500
986.248869	2449.496654
986.545478	2455.798096
986.842050	2448.992538
987.138586	2436.137596
987.435086	2488.061481
987.731549	2479.743577
988.027975	2462.855712
988.324366	2452.269288
988.620719	2449.244596
988.917037	2449.244596
989.213318	2481.003865
989.509563	2434.625250
989.805772	2463.863942
990.101944	2471.677731
990.398080	2476.214769
990.694180	2468.905096
990.990244	2451.261058
991.286271	2431.348500
991.582262	2475.206538
991.878217	2468.905096
992.174136	2433.112904
992.470019	2459.326904
992.765865	2469.157154
993.061676	2461.847481
993.357450	2451.513115
993.653188	2458.822788
993.948890	2460.083077
994.244556	2459.578962
994.540186	2460.587192
994.835780	2477.727115
995.131337	2463.863942
995.426859	2459.074846
995.722345	2440.422577
996.017795	2445.463731
996.313208	2483.272385
996.608586	2454.789865
996.903928	2459.326904
997.199234	2457.562500
997.494504	2428.575865
997.789738	2431.852615
998.084936	2459.326904
998.380099	2445.463731
998.675225	2453.781635
998.970316	2454.789865
999.265371	2464.872173
999.560390	2485.792962
999.855373	2446.724019
1000.150320	2456.806327
1000.445232	2466.384519
1000.740108	2471.173615
1001.034948	2486.045019
1001.329752	2451.513115
1001.624521	2462.351596
1001.919254	2462.603654
1002.213951	2445.463731
1002.508613	2453.277519
1002.803239	2452.017231
1003.097829	2456.302212
1003.392384	2431.096442
1003.686903	2482.264154
1003.981386	2453.025462
1004.275834	2452.773404
1004.570246	2439.666404
1004.864623	2428.575865
1005.158964	2476.466827
1005.453270	2427.819692
1005.747540	2450.756942
1006.041775	2458.822788
1006.335974	2458.066615
1006.630138	2434.373192
1006.924266	2451.261058
1007.218359	2447.732250
1007.512416	2456.050154
1007.806438	2469.409212
1008.100425	2450.252827
1008.394376	2438.154058
1008.688292	2462.099538
1008.982172	2429.836154
1009.276017	2469.157154
1009.569827	2437.649942
1009.863602	2446.471962
1010.157341	2444.455500
1010.451045	2475.458596
1010.744714	2446.471962
1011.038347	2462.855712
1011.331945	2446.219904
1011.625508	2417.737385
1011.919036	2434.625250
1012.212528	2453.529577
1012.505986	2455.041923
1012.799408	2469.157154
1013.092795	2443.699327
1013.386147	2444.959615
1013.679464	2469.913327
1013.972745	2442.943154
1014.265992	2475.206538
1014.559204	2453.025462
1014.852380	2449.748712
1015.145521	2434.121135
1015.438628	2438.154058
1015.731699	2429.584096
1016.024736	2466.384519
1016.317737	2462.603654
1016.610703	2460.587192
1016.903635	2477.223000
1017.196531	2415.216808
1017.489393	2453.277519
1017.782219	2465.628346
1018.075011	2439.414346
1018.367768	2460.083077
1018.660490	2460.335135
1018.953177	2460.335135
1019.245829	2460.335135
