Dividing Wavelength (nm)	Counts (n)	Slit_number_17_of_a_total_of_40	
326.493990	2032.794877
326.888308	2032.794877
327.282561	2032.794877
327.676750	2016.159069
328.070874	2017.242917
328.464933	2025.359175
328.858929	2039.323171
329.252859	2050.186858
329.646726	2057.975440
330.040528	2079.702813
330.434265	2090.843763
330.827938	2118.469287
331.221547	2136.037708
331.615091	2149.825263
332.008571	2168.553150
332.401986	2198.699250
332.795338	2220.023331
333.188625	2229.828375
333.581847	2250.976015
333.975006	2268.519231
334.368100	2282.407610
334.761129	2296.850515
335.154095	2322.106696
335.546996	2335.642194
335.939833	2347.791375
336.332606	2362.083046
336.725315	2373.652494
337.117960	2390.086656
337.510540	2398.051679
337.903056	2411.309913
338.295508	2410.125242
338.687896	2422.526481
339.080220	2429.357244
339.472480	2433.062492
339.864676	2437.171033
340.256807	2442.388627
340.648875	2441.708071
341.040879	2436.188008
341.432818	2443.724533
341.824694	2444.833587
342.216506	2436.339242
342.608253	2433.364962
342.999937	2445.362908
343.391557	2431.197265
343.783113	2437.902000
344.174605	2444.757969
344.566033	2431.877821
344.957397	2429.886565
345.348697	2436.389654
345.739934	2425.752819
346.131106	2423.610329
346.522215	2433.264138
346.913260	2428.550660
347.304241	2429.004363
347.695159	2423.181831
348.086012	2421.619073
348.476802	2420.232756
348.867528	2417.409710
349.258191	2408.738925
349.648789	2422.400452
350.039324	2414.485840
350.429796	2403.168450
350.820203	2409.167423
351.210548	2409.394275
351.600828	2420.787283
351.991045	2404.932854
352.381198	2412.141704
352.771288	2406.041908
353.161314	2407.629871
353.551276	2403.269273
353.941175	2410.427712
354.331010	2404.151475
354.720782	2403.748183
355.110490	2410.377300
355.500135	2413.528021
355.889717	2409.772362
356.279235	2405.941085
356.668689	2410.402506
357.058080	2403.975035
357.447408	2412.973494
357.836672	2418.317117
358.225873	2412.444173
358.615010	2415.065573
359.004084	2410.856210
359.393095	2414.082548
359.782043	2423.030596
360.170927	2421.543456
360.559748	2415.317631
360.948505	2418.115471
361.337199	2420.434402
361.725830	2416.804771
362.114398	2423.433888
362.502903	2417.686973
362.891344	2418.997673
363.279722	2425.173087
363.668037	2421.215781
364.056289	2419.905081
364.444478	2425.979671
364.832603	2422.778538
365.220665	2419.400965
365.608665	2428.323808
365.996601	2421.694690
366.384474	2425.601585
366.772284	2423.081008
367.160031	2420.333579
367.547715	2414.712692
367.935336	2425.828437
368.322893	2424.391708
368.710388	2415.720923
369.097820	2422.148394
369.485189	2416.250244
369.872495	2423.383477
370.259738	2427.088725
370.646918	2428.550660
371.034035	2421.946748
371.421090	2437.473502
371.808081	2429.810948
372.195010	2425.752819
372.581875	2424.542942
372.968678	2430.441092
373.355418	2426.256935
373.742096	2432.054262
374.128710	2430.617533
374.515262	2427.996133
374.901751	2431.650969
375.288177	2438.103646
375.674540	2432.003850
376.060841	2424.996646
376.447079	2438.078440
376.833254	2429.962183
377.219367	2427.769281
377.605417	2421.619073
377.991404	2430.920002
378.377329	2427.265165
378.763191	2424.139650
379.148991	2433.465785
379.534727	2432.482760
379.920402	2428.727100
380.306013	2435.028542
380.691563	2439.086671
381.077049	2426.786256
381.462474	2423.660740
381.847835	2434.776485
382.233134	2433.163315
382.618371	2434.952925
383.003545	2429.659713
383.388657	2430.743562
383.773706	2433.793460
384.158693	2434.398398
384.543618	2433.869077
384.928480	2437.070210
385.313280	2444.027002
385.698017	2431.650969
386.082692	2437.876794
386.467305	2440.674635
386.851856	2440.422577
387.236344	2443.951385
387.620770	2436.213213
388.005133	2427.844898
388.389435	2440.472988
388.773674	2432.003850
389.157851	2434.322781
389.541965	2438.481733
389.926018	2442.060952
390.310008	2440.145313
390.693936	2442.464244
391.077802	2441.834100
391.461606	2440.346960
391.845348	2440.120108
392.229027	2447.732250
392.612645	2446.824842
392.996200	2440.926692
393.379694	2433.314550
393.763125	2435.583069
394.146494	2443.951385
394.529801	2444.808381
394.913047	2440.599017
395.296230	2441.329985
395.679351	2448.362394
396.062410	2435.204983
396.445408	2440.346960
396.828343	2436.792946
397.211217	2452.344906
397.594028	2443.573298
397.976778	2444.480706
398.359466	2448.412806
398.742092	2444.077413
399.124656	2447.883485
399.507158	2442.313010
399.889598	2448.236365
400.271977	2446.345933
400.654294	2450.404062
401.036549	2445.993052
401.418742	2438.859819
401.800874	2448.337188
402.182944	2451.513115
402.564952	2452.622169
402.946898	2447.530604
403.328783	2451.639144
403.710606	2455.142746
404.092367	2458.646348
404.474067	2450.303238
404.855705	2448.614452
405.237282	2456.529063
405.618797	2454.941100
406.000250	2462.553242
406.381642	2453.000256
406.762972	2454.084104
407.144240	2455.243569
407.525447	2447.253340
407.906593	2442.892742
408.287677	2453.101079
408.668700	2451.286263
409.049661	2457.537294
409.430560	2450.983794
409.811399	2458.293467
410.192176	2453.932869
410.572891	2458.595937
410.953545	2460.083077
411.334138	2457.713735
411.714669	2464.342852
412.095139	2466.132462
412.475547	2459.704990
412.855894	2454.563013
413.236180	2454.008487
413.616405	2459.175669
413.996568	2463.359827
414.376670	2452.092848
414.756711	2462.049127
415.136691	2467.846454
415.516609	2458.318673
415.896466	2475.509008
416.276262	2459.024435
416.655997	2462.175156
417.035670	2467.796042
417.415283	2472.156640
417.794834	2469.610858
418.174324	2460.688015
418.553753	2468.426187
418.933121	2474.803246
419.312428	2471.148410
419.691674	2468.400981
420.070859	2473.694192
420.449983	2465.779581
420.829045	2483.045533
421.208047	2474.853658
421.586988	2474.626806
421.965867	2482.037302
422.344686	2477.701910
422.723444	2479.441108
423.102141	2485.389669
423.480777	2483.474031
423.859352	2483.095944
424.237866	2493.354692
424.616319	2492.548108
424.994712	2501.042452
425.373044	2498.295023
425.751314	2506.839779
426.129524	2509.108298
426.507673	2520.173631
426.885762	2523.803262
427.263789	2530.306350
427.641756	2538.699871
428.019662	2554.982798
428.397508	2564.334138
428.775292	2574.240006
429.153016	2586.137129
429.530679	2598.613985
429.908282	2624.046606
430.285824	2636.674696
430.663305	2671.433452
431.040726	2682.019875
431.418086	2705.965356
431.795385	2741.656725
432.172624	2782.137190
432.549802	2810.392858
432.926920	2846.991635
433.303977	2884.044115
433.680974	2941.966973
434.057910	2988.522029
434.434786	3030.993750
434.811601	3088.210846
435.188355	3182.354394
435.565050	3238.412025
435.941683	3290.537556
436.318257	3409.962490
436.694770	3482.479488
437.071222	3595.703804
437.447614	3627.866365
437.823946	3718.859192
438.200218	3829.663754
438.576429	3903.491452
438.952580	4029.570710
439.328670	4145.945746
439.704700	4287.274494
440.080670	4362.009600
440.456580	4550.095050
440.832429	4688.600752
441.208218	4721.922779
441.583947	4895.388883
441.959616	5045.237181
442.335224	5218.930137
442.710773	5388.690992
443.086261	5616.601558
443.461689	5651.335108
443.837057	5833.598025
444.212365	6097.149548
444.587612	6267.263285
444.962800	6352.332756
445.337927	6582.814310
445.712995	6471.152752
446.088002	7037.249123
446.462949	7269.243023
446.837837	7456.042979
447.212664	7602.639733
447.587431	8436.219727
447.962139	9404.474146
448.336786	10291.944075
448.711374	10193.263488
449.085901	9374.328046
449.460369	9502.600206
449.834776	9577.763810
450.209124	10482.096398
450.583412	10582.944681
450.957640	10982.128448
451.331808	10749.453992
451.705917	10422.913252
452.079965	10561.847452
452.453954	10854.335198
452.827883	10957.351177
453.201752	11016.887204
453.575562	11221.910931
453.949311	11790.679113
454.323001	11930.470310
454.696632	11964.498098
455.070202	12695.087319
455.443713	12903.463413
455.817164	13250.723296
456.190556	13613.207463
456.563888	13502.327285
456.937160	13842.705992
457.310373	13236.708888
457.683526	13511.250127
458.056619	13564.207448
458.429653	13623.743475
458.802628	13912.601590
459.175542	13991.268796
459.548398	14573.648094
459.921194	15249.969294
460.293930	15490.003835
460.666607	16362.098244
461.039224	17182.344387
461.411782	17505.633583
461.784280	17048.451340
462.156719	16909.517140
462.529099	16724.103502
462.901419	16112.661952
463.273680	15562.067129
463.645882	15593.649958
464.018024	15445.969356
464.390106	15712.999275
464.762130	16674.750606
465.134094	18184.803035
465.505999	20252.356667
465.877845	22404.047158
466.249631	23119.664152
466.621358	22429.378956
466.993026	21414.443452
467.364634	20369.261025
467.736184	19359.543115
468.107674	18583.054188
468.479105	18084.988188
468.850477	17635.871792
469.221790	16879.597892
469.593043	16001.806979
469.964238	15438.382419
470.335373	15225.998608
470.706449	15613.461692
471.077467	16184.422777
471.448425	17748.844050
471.819324	18873.449856
472.190164	18151.380185
472.560945	16581.564877
472.931667	15181.812894
473.302330	14548.795206
473.672934	14015.516746
474.043479	13954.947283
474.413965	13509.057225
474.784393	13159.780881
475.154761	13226.903844
475.525070	13048.169735
475.895321	12679.484948
476.265513	12643.743167
476.635645	12727.627967
477.005719	12455.380454
477.375734	12345.130419
477.745691	12306.691621
478.115588	12452.204527
478.485427	12698.011188
478.855207	13357.167260
479.224928	13811.652485
479.594591	14045.309965
479.964194	13579.280498
480.333739	13354.823123
480.703226	13031.332281
481.072653	12928.946446
481.442022	12765.436621
481.811333	12574.502919
482.180584	12044.576827
482.549777	11636.243365
482.918912	11269.146542
483.287988	10956.242123
483.657005	10559.024406
484.025964	10221.771213
484.394864	9964.848808
484.763706	9645.869798
485.132489	9272.219475
485.501213	9016.280094
485.869879	8788.596381
486.238487	8549.544865
486.607036	8344.974842
486.975527	8061.157881
487.343959	7904.882112
487.712333	7695.875873
488.080648	7510.563058
488.448905	7347.834612
488.817104	7149.061915
489.185244	7076.091213
489.553326	7041.760956
489.921350	7166.806777
490.289315	7318.293450
490.657222	7233.173567
491.025070	7077.780000
491.392861	6804.297404
491.760593	6486.578683
492.128267	6173.069325
492.495883	5876.321804
492.863440	5592.706488
493.230939	5343.723900
493.598380	5143.867356
493.965763	4985.071010
494.333088	4824.913552
494.700354	4682.652190
495.067563	4564.714396
495.434713	4457.539465
495.801805	4351.776058
496.168839	4255.893312
496.535815	4146.096981
496.902733	4063.270823
497.269593	3969.076863
497.636395	3899.055237
498.003139	3828.504288
498.369825	3748.980087
498.736453	3695.115358
499.103023	3619.245992
499.469535	3563.238773
499.835989	3508.643077
500.202385	3441.066410
500.568723	3395.065881
500.935003	3358.290663
501.301226	3313.525217
501.667390	3283.883233
502.033497	3256.560179
502.399546	3217.793706
502.765537	3163.828154
503.131470	3139.504587
503.497345	3121.961371
503.863163	3072.457240
504.228923	3056.199519
504.594625	3042.336346
504.960269	3006.594565
505.325856	2986.606390
505.691385	2959.837863
506.056856	2945.042077
506.422270	2936.371292
506.787625	2903.124883
507.152924	2898.058523
507.518164	2873.230840
507.883347	2857.326000
508.248472	2845.756552
508.613540	2840.488546
508.978550	2827.860456
509.343503	2810.241623
509.708398	2804.923206
510.073236	2787.304373
510.438016	2781.557458
510.802738	2772.558998
511.167403	2770.618154
511.532010	2749.445308
511.896561	2744.126890
512.261053	2732.280179
512.625488	2719.122767
512.989866	2714.787375
513.354186	2712.115563
513.718449	2696.891279
514.082655	2698.428831
514.446803	2689.884075
514.810894	2685.624300
515.174927	2672.819769
515.538904	2668.711229
515.902822	2663.871721
516.266684	2658.880979
516.630488	2657.116575
516.994235	2644.967394
517.357925	2639.472537
517.721558	2635.540437
518.085133	2632.919037
518.448651	2616.157200
518.812112	2616.207612
519.175516	2619.887654
519.538863	2602.344438
519.902152	2613.687035
520.265385	2609.528083
520.628560	2598.588779
520.991678	2590.800196
521.354739	2590.144846
521.717743	2586.061512
522.080690	2587.296594
522.443580	2586.565627
522.806413	2578.373752
523.169189	2570.181877
523.531908	2577.441138
523.894569	2568.341856
524.257174	2568.140210
524.619722	2560.502862
524.982213	2561.057388
525.344647	2567.005950
525.707025	2560.805331
526.069345	2559.746688
526.431608	2552.008517
526.793815	2554.226625
527.155964	2555.688560
527.518057	2553.999773
527.880093	2552.134546
528.242072	2545.858310
528.603995	2549.084648
528.965860	2549.765204
529.327669	2544.547610
529.689421	2537.288348
530.051117	2540.817156
530.412755	2540.035777
530.774337	2543.136087
531.135862	2539.708102
531.497331	2530.709642
531.858743	2542.758000
532.220098	2536.078471
532.581396	2534.742565
532.942638	2543.438556
533.303824	2531.138140
533.664953	2535.952442
534.026025	2533.532688
534.387040	2530.129910
534.747999	2530.129910
535.108902	2531.339787
535.469748	2537.237937
535.830537	2521.509537
536.191270	2540.086188
536.551947	2533.557894
536.912567	2527.886596
537.273131	2526.827954
537.633638	2532.474046
537.994089	2536.380940
538.354483	2535.171063
538.714821	2521.181862
539.075103	2528.945238
539.435328	2522.946265
539.795497	2527.760567
540.155609	2537.767258
540.515665	2535.095446
540.875665	2529.524971
541.235609	2529.550177
541.595496	2537.212731
541.955328	2537.943698
542.315102	2538.473019
542.674821	2535.372710
543.034483	2527.659744
543.394090	2535.750796
543.753640	2522.492562
544.113134	2523.223529
544.472571	2530.810465
544.831953	2524.080525
545.191278	2531.869108
545.550548	2523.979702
545.909761	2527.558921
546.268918	2530.180321
546.628019	2521.433919
546.987064	2527.155629
547.346053	2526.500279
547.704986	2526.147398
548.063863	2521.333096
548.422684	2528.390712
548.781449	2524.458612
549.140158	2523.500792
549.498811	2519.669515
549.857408	2517.300173
550.215949	2523.803262
550.574434	2522.114475
550.932864	2525.214785
551.291237	2521.282685
551.649555	2521.307890
552.007817	2517.098527
552.366022	2512.712723
552.724173	2515.208094
553.082267	2514.804802
553.440305	2518.585667
553.798288	2510.847496
554.156215	2515.409740
554.514086	2514.300687
554.871902	2515.082065
555.229661	2508.478154
555.587365	2516.165913
555.945014	2514.451921
556.302606	2509.108298
556.660143	2513.796571
557.017625	2506.260046
557.375050	2508.377331
557.732421	2503.386588
558.089735	2511.553258
558.446994	2508.503360
558.804197	2511.956550
559.161345	2508.125273
559.518437	2508.226096
559.875474	2512.359842
560.232455	2515.031654
560.589381	2504.041938
560.946251	2513.141221
561.303065	2509.612413
561.659825	2512.032167
562.016528	2502.731238
562.373177	2505.453462
562.729770	2512.460665
563.086307	2499.731752
563.442789	2501.269304
563.799216	2506.688544
564.155587	2500.891217
564.511904	2500.210662
564.868164	2505.277021
565.224370	2507.948833
565.580520	2503.210148
565.936615	2506.612927
566.292654	2502.252329
566.648638	2506.965808
567.004567	2504.243585
567.360441	2507.091837
567.716260	2505.604696
568.072023	2498.496669
568.427732	2508.679800
568.783385	2498.673110
569.138982	2510.519821
569.494525	2507.898421
569.850013	2498.370640
570.205445	2500.235867
570.560823	2502.554798
570.916145	2500.538337
571.271412	2500.210662
571.626625	2494.136071
571.981782	2505.503873
572.336884	2497.236381
572.691931	2500.714777
573.046923	2506.007988
573.401860	2490.304794
573.756743	2502.453975
574.111570	2497.942142
574.466342	2500.034221
574.821059	2502.327946
575.175722	2500.866012
575.530330	2496.984323
575.884882	2498.244612
576.239380	2501.042452
576.593823	2500.538337
576.948211	2503.512617
577.302544	2505.327433
577.656823	2500.059427
578.011047	2495.169508
578.365216	2502.529592
578.719330	2497.538850
579.073389	2502.554798
579.427394	2491.791935
579.781344	2495.043479
580.135239	2498.194200
580.489080	2505.176198
580.842866	2500.009015
581.196597	2498.874756
581.550273	2490.607263
581.903895	2499.404077
582.257463	2507.469923
582.610975	2498.017760
582.964434	2506.310458
583.317837	2499.429283
583.671186	2505.100581
584.024481	2495.900475
584.377721	2502.655621
584.730906	2496.606237
585.084037	2494.362923
585.437113	2505.125787
585.790135	2498.723521
586.143103	2489.145329
586.496016	2497.085146
586.848874	2501.042452
587.201679	2495.976092
587.554428	2495.547594
587.907124	2505.226610
588.259765	2494.186483
588.612352	2495.043479
588.964884	2503.159737
589.317362	2492.245638
589.669786	2507.520335
590.022155	2491.111379
590.374470	2501.319715
590.726731	2489.372181
591.078937	2492.926194
591.431090	2496.404590
591.783188	2499.832575
592.135232	2499.807369
592.487222	2499.530106
592.839157	2492.825371
593.191038	2501.823831
593.542866	2490.128354
593.894639	2501.143275
594.246358	2500.084633
594.598022	2499.353665
594.949633	2503.764675
595.301190	2497.412821
595.652692	2493.909219
596.004141	2499.126813
596.355535	2496.228150
596.706876	2502.680827
597.058162	2494.035248
597.409395	2497.614467
597.760573	2490.279588
598.111698	2496.581031
598.462768	2496.782677
598.813785	2495.219919
599.164748	2494.438540
599.515657	2498.068171
599.866511	2495.749240
600.217312	2500.210662
600.568060	2497.992554
600.918753	2500.462719
601.269392	2490.506440
601.619978	2496.933912
601.970510	2495.093890
602.320988	2500.815600
602.671412	2498.194200
603.021783	2497.236381
603.372100	2494.362923
603.722363	2501.672596
604.072572	2501.798625
604.422728	2503.285765
604.772830	2494.665392
605.122878	2504.470437
605.472872	2497.034735
605.822813	2502.101094
606.172701	2491.665906
606.522534	2501.672596
606.872314	2493.581544
607.222041	2498.118583
607.571714	2492.674137
607.921333	2488.288333
608.270899	2496.253356
608.620411	2480.726602
608.969870	2496.555825
609.319276	2496.782677
609.668627	2495.547594
610.017926	2492.119610
610.367171	2501.118069
610.716362	2501.899448
611.065500	2495.421565
611.414585	2498.194200
611.763616	2504.621671
612.112594	2495.976092
612.461518	2497.236381
612.810389	2497.034735
613.159207	2498.698315
613.507971	2499.882987
613.856682	2501.773419
614.205340	2501.370127
614.553945	2498.143788
614.902496	2491.086173
615.250994	2505.075375
615.599439	2501.017246
615.947830	2498.194200
616.296169	2496.379385
616.644454	2511.301200
616.992686	2491.464260
617.340864	2497.185969
617.688990	2495.169508
618.037063	2497.740496
618.385082	2493.455515
618.733048	2502.857267
619.080961	2508.478154
619.428821	2499.303254
619.776628	2502.227123
620.124382	2505.251815
620.472083	2494.388129
620.819731	2497.135558
621.167326	2505.680313
621.514868	2498.899962
621.862357	2513.267250
622.209793	2500.437513
622.557176	2504.445231
622.904506	2497.412821
623.251783	2498.395846
623.599007	2497.034735
623.946179	2499.076402
624.293297	2510.040912
624.640363	2494.690598
624.987376	2491.892758
625.334336	2495.421565
625.681243	2504.470437
626.028097	2486.902015
626.374899	2499.177225
626.721647	2500.009015
627.068343	2505.050169
627.414987	2493.531133
627.761577	2500.059427
628.108115	2494.438540
628.454600	2496.076915
628.801032	2501.798625
629.147412	2491.817140
629.493739	2493.757985
629.840014	2503.537823
630.186236	2494.060454
630.532405	2501.193687
630.878521	2494.841833
631.224585	2502.983296
631.570597	2489.372181
631.916556	2496.883500
632.262462	2502.000271
632.608316	2492.321256
632.954117	2497.790908
633.299866	2498.244612
633.645562	2493.959631
633.991206	2496.807883
634.336797	2499.681340
634.682336	2497.034735
635.027823	2499.303254
635.373257	2495.673623
635.718639	2493.631956
636.063968	2493.228663
636.409245	2499.076402
636.754470	2501.017246
637.099642	2498.799138
637.444762	2487.683394
637.789829	2503.109325
638.134845	2495.144302
638.479808	2496.051710
638.824719	2493.153046
639.169577	2488.994094
639.514383	2489.346975
639.859137	2498.874756
640.203839	2499.782163
640.548489	2490.834115
640.893086	2497.463233
641.237632	2492.220433
641.582125	2486.624752
641.926566	2486.019813
642.270955	2492.850577
642.615292	2491.313025
642.959576	2489.851090
643.303809	2488.943683
643.647990	2489.800679
643.992118	2499.025990
644.336195	2495.194713
644.680219	2490.203971
645.024192	2496.782677
645.368112	2493.329487
645.711981	2490.657675
646.055797	2489.473004
646.399562	2493.682367
646.743274	2500.059427
647.086935	2494.060454
647.430544	2496.303767
647.774101	2494.715804
648.117606	2498.471463
648.461059	2499.504900
648.804460	2489.473004
649.147810	2500.135044
649.491108	2485.188023
649.834354	2491.615494
650.177548	2496.732265
650.520690	2488.313538
650.863781	2493.329487
651.206820	2492.548108
651.549807	2493.757985
651.892742	2492.497696
652.235626	2490.531646
652.578458	2494.741010
652.921238	2490.330000
653.263967	2493.354692
653.606644	2486.347488
653.949269	2494.060454
654.291843	2488.086687
654.634365	2502.277535
654.976836	2487.708600
655.319255	2492.850577
655.661622	2491.111379
656.003938	2493.228663
656.346203	2487.859835
656.688416	2489.170535
657.030577	2486.700369
657.372687	2490.960144
657.714746	2493.127840
658.056753	2495.522388
658.398708	2498.547081
658.740612	2490.128354
659.082465	2485.490492
659.424266	2487.179279
659.766016	2483.675677
660.107715	2491.060967
660.449362	2484.583085
660.790958	2487.658188
661.132503	2491.363437
661.473996	2494.614981
661.815438	2488.994094
662.156829	2494.211688
662.498168	2494.312512
662.839456	2491.968375
663.180693	2489.145329
663.521879	2498.068171
663.863013	2493.505927
664.204097	2495.648417
664.545129	2497.110352
664.886110	2492.371667
665.227040	2497.362410
665.567918	2490.682881
665.908746	2490.556852
666.249522	2493.531133
666.590248	2490.077942
666.930922	2490.153560
667.271545	2492.800165
667.612118	2496.858294
667.952639	2491.766729
668.293109	2490.430823
668.633528	2487.154073
668.973896	2491.640700
669.314213	2490.153560
669.654480	2498.068171
669.994695	2490.985350
670.334859	2492.749754
670.674973	2494.438540
671.015035	2488.389156
671.355047	2481.029071
671.695008	2494.917450
672.034918	2482.062508
672.374777	2491.010556
672.714585	2491.035762
673.054342	2491.262613
673.394049	2490.027531
673.733705	2495.018273
674.073310	2490.279588
674.412864	2490.682881
674.752368	2490.556852
675.091820	2491.514671
675.431223	2498.799138
675.770574	2485.490492
676.109875	2480.071252
676.449125	2480.726602
676.788324	2489.246152
677.127473	2486.725575
677.466571	2482.969915
677.805619	2488.691625
678.144616	2494.060454
678.483562	2496.707060
678.822458	2496.959117
679.161303	2485.767756
679.500098	2487.733806
679.838842	2496.933912
680.177535	2480.348515
680.516179	2490.808910
680.854771	2490.909733
681.193314	2493.304281
681.531805	2490.355206
681.870247	2494.665392
682.208638	2491.766729
682.546978	2494.993067
682.885268	2482.869092
683.223508	2487.885040
683.561697	2488.716831
683.899836	2496.707060
684.237925	2487.885040
684.575963	2497.185969
684.913951	2485.969402
685.251889	2489.220946
685.589776	2490.153560
685.927614	2495.345948
686.265401	2486.448312
686.603137	2490.506440
686.940824	2500.261073
687.278460	2486.826398
687.616046	2497.916937
687.953582	2495.219919
688.291068	2488.489979
688.628504	2497.438027
688.965889	2494.211688
689.303224	2489.800679
689.640510	2497.614467
689.977745	2487.103662
690.314930	2487.406131
690.652065	2484.028558
690.989150	2484.709113
691.326185	2485.717344
691.663170	2483.373208
692.000105	2481.760038
692.336990	2489.473004
692.673825	2484.961171
693.010610	2486.423106
693.347345	2478.382465
693.684030	2480.096458
694.020665	2473.240488
694.357251	2487.582571
694.693786	2484.608290
695.030272	2483.978146
695.366707	2484.784731
695.703093	2485.188023
696.039429	2482.087713
696.375716	2482.062508
696.711952	2473.694192
697.048139	2491.413848
697.384276	2479.289873
697.720363	2488.288333
698.056400	2481.029071
698.392388	2483.095944
698.728326	2477.500263
699.064214	2482.314565
699.400053	2483.297590
699.735842	2477.701910
700.071581	2481.684421
700.407270	2481.029071
700.742910	2479.541931
701.078501	2487.280102
701.414042	2480.928248
701.749533	2481.886067
702.084974	2481.281129
702.420366	2484.683908
702.755709	2483.196767
703.091002	2480.877837
703.426246	2480.676190
703.761440	2479.945223
704.096584	2477.273412
704.431679	2472.685962
704.766725	2486.095431
705.101721	2480.222487
705.436668	2473.190077
705.771565	2478.407671
706.106413	2483.121150
706.441212	2478.105202
706.775961	2473.845427
707.110661	2474.147896
707.445311	2476.139152
707.779913	2480.096458
708.114465	2477.601087
708.448967	2479.037815
708.783421	2478.634523
709.117825	2486.927221
709.452180	2481.003865
709.786485	2477.802733
710.120742	2481.911273
710.454949	2480.650985
710.789107	2479.920017
711.123216	2479.214256
711.457275	2483.700883
711.791286	2476.189563
712.125247	2482.012096
712.459159	2482.793475
712.793023	2486.700369
713.126837	2482.843887
713.460602	2480.020840
713.794318	2480.777013
714.127985	2479.718371
714.461602	2477.676704
714.795171	2484.482262
715.128691	2475.761065
715.462162	2486.977633
715.795584	2476.340798
716.128957	2485.036788
716.462281	2477.575881
716.795556	2475.004892
717.128782	2485.818167
717.461960	2482.692652
717.795088	2477.273412
718.128167	2481.155100
718.461198	2476.794502
718.794180	2482.793475
719.127113	2478.987404
719.459997	2470.845940
719.792833	2476.214769
720.125619	2480.373721
720.458357	2483.600060
720.791046	2469.358800
721.123686	2480.424133
721.456278	2476.265181
721.788821	2477.449852
722.121315	2467.014663
722.453761	2486.019813
722.786158	2478.659729
723.118506	2471.350056
723.450805	2468.905096
723.783056	2483.751294
724.115259	2468.980713
724.447412	2475.887094
724.779518	2467.014663
725.111574	2481.911273
725.443582	2471.501290
725.775542	2478.785758
726.107453	2473.618575
726.439315	2474.803246
726.771129	2475.912300
727.102895	2476.139152
727.434612	2473.366517
727.766281	2469.610858
728.097901	2477.525469
728.429473	2472.131435
728.760996	2473.467340
729.092471	2477.096971
729.423897	2471.476085
729.755276	2468.678244
730.086606	2479.894812
730.417887	2475.710654
730.749120	2482.289360
731.080305	2479.642754
731.411442	2479.541931
731.742530	2477.903556
732.073570	2481.659215
732.404562	2481.230717
732.735506	2472.131435
733.066401	2482.541417
733.397249	2479.567137
733.728048	2474.021867
734.058798	2480.146869
734.389501	2474.248719
734.720156	2474.878863
735.050762	2472.988431
735.381320	2477.601087
735.711831	2475.332567
736.042293	2480.071252
736.372707	2464.746144
736.703073	2480.499750
737.033391	2468.451392
737.363661	2479.970429
737.693883	2476.416415
738.024056	2489.120123
738.354182	2472.685962
738.684260	2478.332054
739.014290	2469.005919
739.344272	2477.827938
739.674207	2483.751294
740.004093	2472.711167
740.333931	2474.223513
740.663722	2476.466827
740.993464	2469.283183
741.323159	2473.467340
741.652806	2465.653552
741.982405	2479.642754
742.311956	2466.737400
742.641460	2481.886067
742.970915	2467.291927
743.300323	2466.107256
743.629683	2465.829992
743.958996	2475.181333
744.288260	2473.719398
744.617477	2471.929788
744.946647	2476.618062
745.275768	2469.711681
745.604842	2470.392237
745.933869	2478.180819
746.262847	2475.912300
746.591778	2469.762092
746.920662	2472.761579
747.249498	2467.065075
747.578286	2471.652525
747.907027	2473.870633
748.235720	2472.433904
748.564365	2467.140692
748.892963	2471.753348
749.221514	2467.417956
749.550017	2480.726602
749.878473	2477.122177
750.206881	2471.022381
750.535242	2472.912813
750.863555	2477.500263
751.191821	2482.692652
751.520039	2465.678758
751.848210	2472.786785
752.176334	2473.265694
752.504411	2473.416929
752.832440	2467.518779
753.160421	2471.828965
753.488356	2469.106742
753.816243	2477.701910
754.144082	2463.637090
754.471875	2470.392237
754.799620	2465.905610
755.127318	2475.156127
755.454969	2475.937506
755.782572	2475.231744
756.110129	2466.031638
756.437638	2469.585652
756.765100	2467.972483
757.092515	2473.769810
757.419882	2472.912813
757.747203	2479.642754
758.074477	2467.720425
758.401703	2471.753348
758.728882	2475.181333
759.056014	2473.467340
759.383099	2472.232258
759.710138	2470.341825
760.037129	2462.023921
760.364073	2468.174129
760.690970	2468.123717
761.017820	2473.341312
761.344623	2474.374748
761.671379	2475.030098
761.998088	2479.894812
762.324751	2468.224540
762.651366	2476.366004
762.977935	2495.471977
763.304456	2483.927735
763.630931	2484.683908
763.957359	2479.642754
764.283740	2478.458083
764.610074	2484.078969
764.936362	2490.657675
765.262602	2480.449338
765.588796	2469.358800
765.914943	2476.038329
766.241044	2463.511062
766.567097	2466.409725
766.893104	2473.190077
767.219064	2476.466827
767.544978	2478.659729
767.870845	2474.954481
768.196665	2478.206025
768.522438	2465.880404
768.848165	2473.139665
769.173846	2466.737400
769.499479	2477.878350
769.825066	2471.047587
770.150607	2467.796042
770.476101	2469.736887
770.801548	2472.736373
771.126949	2470.669500
771.452303	2466.863429
771.777611	2463.259004
772.102872	2464.242029
772.428087	2464.897379
772.753256	2466.888635
773.078378	2460.486369
773.403453	2469.308388
773.728482	2473.265694
774.053465	2468.930302
774.378401	2465.930815
774.703291	2459.578962
775.028135	2471.123204
775.352932	2464.292440
775.677683	2471.602113
776.002388	2462.754888
776.327046	2454.512602
776.651658	2459.175669
776.976224	2455.873713
777.300743	2467.443162
777.625216	2463.082563
777.949643	2461.671040
778.274024	2464.418469
778.598359	2457.915381
778.922647	2465.981227
779.246889	2463.334621
779.571086	2469.963738
779.895236	2470.114973
780.219339	2476.340798
780.543397	2460.713221
780.867409	2464.645321
781.191374	2471.450879
781.515294	2467.745631
781.839167	2463.284210
782.162995	2469.081537
782.486776	2475.735860
782.810511	2461.267748
783.134201	2463.460650
783.457844	2468.048100
783.781441	2464.342852
784.104993	2463.939560
784.428498	2460.007460
784.751958	2470.644294
785.075372	2459.326904
785.398739	2455.697273
785.722061	2471.299644
786.045337	2467.821248
786.368568	2465.804787
786.691752	2466.636577
787.014891	2462.099538
787.337983	2465.577935
787.661030	2472.358287
787.984031	2456.024948
788.306987	2469.510035
788.629897	2463.334621
788.952760	2469.661269
789.275579	2460.032665
789.598351	2459.301698
789.921078	2464.771350
790.243759	2470.392237
790.566395	2470.241002
790.888984	2460.587192
791.211529	2466.863429
791.534027	2461.872687
791.856480	2464.771350
792.178888	2461.015690
792.501249	2459.704990
792.823566	2470.316619
793.145836	2459.100052
793.468062	2465.199848
793.790241	2461.418983
794.112375	2460.612398
794.434464	2465.149437
794.756507	2466.712194
795.078505	2463.032152
795.400457	2468.300158
795.722364	2456.302212
796.044226	2462.023921
796.366042	2469.762092
796.687812	2472.988431
797.009538	2469.560446
797.331218	2464.846967
797.652852	2469.812504
797.974442	2462.301185
798.295986	2465.779581
798.617484	2460.889662
798.938938	2463.712708
799.260346	2469.005919
799.581709	2466.686988
799.903026	2465.225054
800.224299	2457.814558
800.545526	2468.350569
800.866708	2467.770837
801.187845	2462.855712
801.508936	2465.477112
801.829983	2471.526496
802.150984	2459.175669
802.471940	2463.284210
802.792851	2469.283183
803.113717	2469.661269
803.434538	2464.015177
803.755314	2458.167438
804.076045	2468.224540
804.396731	2469.031125
804.717372	2464.166412
805.037967	2464.771350
805.358518	2473.921044
805.679024	2462.502831
805.999485	2463.561473
806.319901	2461.696246
806.640272	2457.512088
806.960598	2460.335135
807.280879	2469.358800
807.601115	2460.536781
807.921306	2467.619602
808.241453	2462.603654
808.561554	2453.277519
808.881611	2457.335648
809.201623	2456.655092
809.521590	2456.277006
809.841513	2464.645321
810.161390	2459.629373
810.481223	2463.838737
810.801011	2463.939560
811.120755	2450.378856
811.440453	2471.702937
811.760107	2466.989458
812.079716	2462.275979
812.399281	2466.485342
812.718801	2466.989458
813.038276	2464.418469
813.357707	2462.427213
813.677093	2462.351596
813.996434	2464.972996
814.315731	2457.713735
814.634983	2461.595423
814.954191	2455.420010
815.273354	2469.409212
815.592473	2460.940073
815.911547	2458.721965
816.230577	2460.839250
816.549562	2458.142233
816.868502	2471.576908
817.187399	2461.696246
817.506250	2461.040896
817.825058	2459.528550
818.143821	2463.838737
818.462539	2465.023408
818.781213	2464.746144
819.099843	2467.342338
819.418429	2456.529063
819.736970	2469.409212
820.055466	2469.686475
820.373919	2462.931329
820.692327	2478.382465
821.010691	2482.264154
821.329011	2490.052737
821.647286	2496.984323
821.965517	2519.946779
822.283704	2514.981242
822.601847	2532.625281
822.919945	2528.012625
823.237999	2511.855727
823.556010	2509.914883
823.873976	2506.562515
824.191897	2495.421565
824.509775	2486.927221
824.827609	2481.659215
825.145398	2477.096971
825.463144	2481.255923
825.780845	2476.391210
826.098502	2486.523929
826.416116	2481.079483
826.733685	2503.815087
827.051210	2487.885040
827.368692	2483.070738
827.686129	2483.272385
828.003522	2487.179279
828.320872	2474.299131
828.638177	2480.449338
828.955439	2477.500263
829.272656	2466.359313
829.589830	2469.862915
829.906960	2458.469908
830.224046	2472.837196
830.541088	2474.878863
830.858086	2464.544498
831.175041	2472.131435
831.491952	2460.839250
831.808819	2471.324850
832.125642	2465.401494
832.442421	2464.998202
832.759157	2472.660756
833.075849	2466.989458
833.392497	2471.450879
833.709101	2480.146869
834.025662	2473.341312
834.342179	2475.030098
834.658653	2471.602113
834.975083	2476.214769
835.291469	2479.037815
835.607811	2467.392750
835.924110	2473.744604
836.240366	2464.998202
836.556578	2460.486369
836.872746	2462.275979
837.188871	2466.157667
837.504952	2453.151490
837.820990	2463.737913
838.136984	2469.661269
838.452935	2466.258490
838.768842	2468.476598
839.084706	2458.041410
839.400526	2464.292440
839.716303	2471.954994
840.032037	2465.956021
840.347727	2458.268262
840.663373	2466.056844
840.978977	2450.000769
841.294537	2456.755915
841.610054	2461.872687
841.925527	2460.536781
842.240957	2462.376802
842.556344	2460.209106
842.871687	2460.486369
843.186987	2459.704990
843.502244	2461.746658
843.817458	2462.427213
844.132629	2456.403035
844.447756	2461.066102
844.762840	2458.117027
845.077881	2455.268775
845.392879	2462.654065
845.707833	2456.554269
846.022745	2456.680298
846.337613	2461.897892
846.652438	2460.839250
846.967221	2459.276492
847.281960	2457.890175
847.596656	2465.174642
847.911309	2453.806840
848.225919	2452.823815
848.540485	2462.049127
848.855009	2460.688015
849.169490	2458.797583
849.483928	2459.881431
849.798323	2453.983281
850.112675	2464.166412
850.426984	2459.352110
850.741251	2460.612398
851.055474	2449.370625
851.369654	2464.645321
851.683792	2459.553756
851.997887	2460.209106
852.311938	2454.159721
852.625947	2455.142746
852.939914	2458.117027
853.253837	2460.083077
853.567718	2462.704477
853.881555	2463.989971
854.195350	2453.000256
854.509103	2463.006946
854.822812	2453.151490
855.136479	2468.627833
855.450103	2462.099538
855.763685	2457.285237
856.077224	2461.519806
856.390720	2456.100565
856.704173	2454.890688
857.017584	2464.292440
857.330953	2450.177210
857.644278	2463.435444
857.957561	2465.401494
858.270802	2458.066615
858.584000	2458.621142
858.897155	2464.670527
859.210268	2467.443162
859.523339	2457.033179
859.836367	2459.150463
860.149352	2461.015690
860.462295	2456.453446
860.775195	2454.411779
861.088054	2455.520833
861.400869	2460.637604
861.713642	2451.261058
862.026373	2455.898919
862.339062	2459.931842
862.651708	2460.940073
862.964312	2463.359827
863.276873	2463.511062
863.589392	2470.291413
863.901869	2460.788838
864.214303	2455.319187
864.526696	2456.982767
864.839045	2456.251800
865.151353	2465.250260
865.463619	2465.754375
865.775842	2462.931329
866.088023	2463.208592
866.400162	2458.595937
866.712258	2463.989971
867.024313	2452.949844
867.336325	2463.385033
867.648296	2453.126285
867.960224	2455.243569
868.272110	2469.106742
868.583954	2455.319187
868.895755	2460.108283
869.207515	2462.805300
869.519233	2465.930815
869.830909	2465.325877
870.142542	2456.352623
870.454134	2453.101079
870.765684	2456.503858
871.077191	2453.706017
871.388657	2465.577935
871.700081	2453.479165
872.011463	2459.629373
872.322803	2463.561473
872.634101	2455.974537
872.945357	2455.823302
873.256571	2466.737400
873.567744	2453.126285
873.878874	2458.091821
874.189963	2464.166412
874.501010	2457.436471
874.812015	2459.150463
875.122979	2461.620629
875.433900	2460.914867
875.744780	2464.594910
876.055618	2460.940073
876.366415	2465.956021
876.677169	2463.536267
876.987882	2459.074846
877.298554	2455.672067
877.609183	2460.839250
877.919771	2462.931329
878.230317	2457.738940
878.540822	2467.291927
878.851285	2461.217337
879.161707	2460.183900
879.472087	2462.931329
879.782425	2462.679271
880.092722	2472.534727
880.402977	2477.500263
880.713191	2474.853658
881.023363	2477.727115
881.333494	2490.355206
881.643583	2486.649958
881.953631	2488.540390
882.263637	2486.448312
882.573602	2488.162304
882.883526	2489.498210
883.193408	2487.456542
883.503248	2476.164358
883.813048	2478.634523
884.122806	2472.181846
884.432522	2473.668987
884.742197	2466.006433
885.051831	2476.718885
885.361424	2469.358800
885.670975	2466.082050
885.980485	2465.199848
886.289954	2469.131948
886.599382	2463.611885
886.908768	2454.386573
887.218113	2456.907150
887.527417	2454.411779
887.836680	2466.535754
888.145901	2464.216823
888.455082	2457.310442
888.764221	2455.520833
889.073319	2467.367544
889.382376	2464.015177
889.691392	2460.435958
890.000366	2463.359827
890.309300	2456.705504
890.618193	2462.275979
890.927044	2466.586165
891.235855	2456.881944
891.544625	2458.747171
891.853353	2457.915381
892.162041	2461.519806
892.470687	2470.493060
892.779293	2460.662810
893.087858	2460.561987
893.396381	2465.124231
893.704864	2463.939560
894.013306	2460.814044
894.321707	2467.367544
894.630068	2470.871146
894.938387	2473.290900
895.246665	2463.284210
895.554903	2471.450879
895.863100	2463.334621
896.171256	2461.746658
896.479371	2461.166925
896.787446	2470.341825
897.095480	2457.915381
897.403473	2456.529063
897.711425	2467.745631
898.019336	2459.251287
898.327207	2460.183900
898.635038	2457.713735
898.942827	2470.669500
899.250576	2451.865996
899.558284	2454.058898
899.865952	2464.015177
900.173579	2451.992025
900.481165	2456.604681
900.788711	2457.864969
901.096216	2457.335648
901.403681	2450.580502
901.711105	2457.386060
902.018489	2454.689042
902.325832	2460.007460
902.633135	2456.781121
902.940397	2459.150463
903.247619	2450.605708
903.554800	2463.107769
903.861941	2468.955508
904.169041	2464.620115
904.476101	2468.476598
904.783121	2464.947790
905.090100	2461.418983
905.397039	2469.661269
905.703938	2464.897379
906.010796	2459.629373
906.317614	2467.417956
906.624391	2458.066615
906.931129	2463.334621
907.237826	2462.326390
907.544483	2467.896865
907.851099	2453.983281
908.157675	2465.804787
908.464211	2455.873713
908.770707	2450.227621
909.077163	2458.621142
909.383578	2455.546038
909.689954	2460.007460
909.996289	2457.234825
910.302584	2463.536267
910.608839	2464.746144
910.915054	2456.503858
911.221229	2458.898406
911.527363	2455.067129
911.833458	2457.386060
912.139513	2465.502317
912.445527	2459.629373
912.751502	2466.107256
913.057436	2462.427213
913.363331	2462.124744
913.669186	2464.695733
913.975000	2458.318673
914.280775	2460.688015
914.586510	2463.788325
914.892205	2455.949331
915.197859	2459.755402
915.503475	2470.039356
915.809050	2464.040383
916.114585	2474.173102
916.420081	2468.804273
916.725536	2474.727629
917.030952	2464.191617
917.336328	2476.819708
917.641665	2463.183387
917.946961	2456.957562
918.252218	2455.293981
918.557435	2455.218363
918.862612	2460.788838
919.167750	2461.570217
919.472848	2461.645835
919.777906	2463.057358
920.082925	2465.703963
920.387904	2467.644808
920.692843	2462.931329
920.997743	2456.730710
921.302603	2460.183900
921.607423	2458.066615
921.912204	2459.301698
922.216946	2463.964765
922.521647	2459.755402
922.826310	2454.285750
923.130932	2464.746144
923.435516	2451.714762
923.740059	2453.378342
924.044564	2453.428754
924.349028	2458.923612
924.653454	2459.654579
924.957840	2456.251800
925.262186	2459.024435
925.566493	2462.502831
925.870761	2460.309929
926.174989	2461.519806
926.479178	2459.024435
926.783328	2456.806327
927.087438	2458.671554
927.391509	2464.040383
927.695541	2453.025462
927.999533	2459.578962
928.303486	2462.376802
928.607400	2456.201388
928.911275	2457.260031
929.215110	2458.948817
929.518906	2457.890175
929.822663	2450.328444
930.126381	2454.613425
930.430060	2458.469908
930.733699	2455.117540
931.037299	2454.184927
931.340861	2454.563013
931.644383	2463.006946
931.947866	2461.545012
932.251309	2454.663837
932.554714	2454.815071
932.858080	2455.016717
933.161407	2456.150977
933.464694	2456.730710
933.767943	2450.278033
934.071153	2456.176183
934.374323	2445.614965
934.677455	2450.555296
934.980548	2455.747685
935.283602	2452.672581
935.586617	2458.167438
935.889593	2461.494600
936.192530	2461.771863
936.495428	2449.017744
936.798287	2457.461677
937.101108	2452.092848
937.403890	2463.208592
937.706632	2447.807867
938.009336	2457.688529
938.312002	2457.436471
938.614628	2459.478138
938.917216	2460.940073
939.219765	2457.990998
939.522275	2461.671040
939.824747	2450.832560
940.127179	2453.327931
940.429573	2459.629373
940.731929	2457.486883
941.034246	2447.707044
941.336524	2455.924125
941.638763	2449.723506
941.940964	2465.376288
942.243126	2456.403035
942.545250	2456.554269
942.847335	2450.731737
943.149381	2467.518779
943.451389	2453.025462
943.753359	2456.403035
944.055290	2452.596963
944.357182	2450.076387
944.659036	2452.370112
944.960851	2457.285237
945.262628	2463.989971
945.564367	2455.369598
945.866067	2454.487396
946.167729	2452.697787
946.469352	2462.880917
946.770937	2454.411779
947.072484	2454.613425
947.373992	2454.739454
947.675462	2452.546552
947.976893	2459.957048
948.278286	2452.067642
948.579641	2451.639144
948.880958	2451.588733
949.182236	2456.478652
949.483476	2457.335648
949.784678	2460.007460
950.085841	2454.336162
950.386967	2460.209106
950.688054	2454.235338
950.989103	2457.940587
951.290114	2452.370112
951.591087	2462.402008
951.892021	2454.033692
952.192917	2461.267748
952.493776	2450.782148
952.794596	2454.235338
953.095378	2466.233285
953.396122	2457.486883
953.696828	2466.082050
953.997496	2456.176183
954.298126	2456.150977
954.598718	2458.217850
954.899272	2456.100565
955.199788	2461.545012
955.500266	2453.983281
955.800706	2451.588733
956.101108	2454.789865
956.401472	2449.899946
956.701798	2452.849021
957.002087	2450.656119
957.302337	2454.361367
957.602550	2451.336675
957.902724	2452.294494
958.202861	2453.075873
958.502960	2455.420010
958.803022	2455.873713
959.103045	2457.587706
959.403031	2454.336162
959.702979	2452.798610
960.002889	2455.445215
960.302762	2456.201388
960.602596	2455.974537
960.902393	2456.226594
961.202153	2455.293981
961.501875	2453.151490
961.801559	2450.958588
962.101205	2455.747685
962.400814	2461.217337
962.700385	2452.168465
962.999918	2453.630400
963.299414	2439.414346
963.598873	2453.075873
963.898293	2452.143260
964.197677	2456.403035
964.497022	2451.840790
964.796331	2456.226594
965.095601	2457.260031
965.394835	2460.536781
965.694030	2461.217337
965.993189	2453.958075
966.292309	2460.133488
966.591393	2451.084617
966.890439	2452.470935
967.189447	2457.663323
967.488419	2459.352110
967.787353	2456.907150
968.086249	2457.007973
968.385108	2445.791406
968.683930	2448.538835
968.982714	2450.958588
969.281462	2456.655092
969.580172	2461.746658
969.878844	2454.663837
970.177480	2455.848508
970.476078	2456.529063
970.774639	2449.244596
971.073162	2449.320213
971.371649	2447.328958
971.670098	2454.436985
971.968510	2447.807867
972.266885	2458.217850
972.565223	2456.377829
972.863524	2455.949331
973.161788	2450.152004
973.460014	2446.698813
973.758204	2450.958588
974.056356	2449.950358
974.354471	2456.655092
974.652550	2454.789865
974.950591	2457.209619
975.248595	2455.142746
975.546563	2456.050154
975.844493	2449.925152
976.142386	2463.611885
976.440243	2460.965279
976.738062	2464.116000
977.035845	2450.530090
977.333590	2451.639144
977.631299	2462.528037
977.928971	2451.891202
978.226606	2446.623196
978.524204	2446.824842
978.821765	2446.421550
979.119290	2459.654579
979.416777	2458.091821
979.714228	2459.175669
980.011642	2448.790892
980.309020	2456.453446
980.606360	2456.856738
980.903664	2450.630913
981.200931	2458.520319
981.498162	2454.890688
981.795356	2457.461677
982.092513	2451.714762
982.389633	2457.436471
982.686717	2463.964765
982.983764	2448.967333
983.280775	2456.277006
983.577749	2455.924125
983.874686	2462.099538
984.171587	2451.387087
984.468451	2458.772377
984.765279	2447.454987
985.062070	2453.504371
985.358824	2449.824329
985.655543	2454.663837
985.952224	2457.335648
986.248869	2452.218877
986.545478	2459.856225
986.842050	2456.579475
987.138586	2446.219904
987.435086	2455.772890
987.731549	2455.596450
988.027975	2461.645835
988.324366	2455.218363
988.620719	2443.144800
988.917037	2453.201902
989.213318	2452.874227
989.509563	2453.806840
989.805772	2461.040896
990.101944	2444.783175
990.398080	2455.420010
990.694180	2460.032665
990.990244	2453.403548
991.286271	2457.940587
991.582262	2447.681838
991.878217	2448.816098
992.174136	2451.109823
992.470019	2463.208592
992.765865	2457.587706
993.061676	2450.504885
993.357450	2451.714762
993.653188	2446.320727
993.948890	2456.403035
994.244556	2447.303752
994.540186	2451.815585
994.835780	2460.637604
995.131337	2455.848508
995.426859	2460.108283
995.722345	2460.713221
996.017795	2455.016717
996.313208	2454.361367
996.608586	2454.714248
996.903928	2460.083077
997.199234	2454.991512
997.494504	2450.000769
997.789738	2446.623196
998.084936	2454.991512
998.380099	2455.747685
998.675225	2460.612398
998.970316	2449.597477
999.265371	2452.017231
999.560390	2460.536781
999.855373	2448.337188
1000.150320	2460.814044
1000.445232	2452.924638
1000.740108	2454.109310
1001.034948	2454.991512
1001.329752	2453.832046
1001.624521	2451.286263
1001.919254	2463.889148
1002.213951	2446.194698
1002.508613	2459.704990
1002.803239	2456.251800
1003.097829	2453.428754
1003.392384	2460.511575
1003.686903	2458.595937
1003.981386	2455.420010
1004.275834	2453.227108
1004.570246	2446.623196
1004.864623	2464.821762
1005.158964	2452.445729
1005.453270	2450.252827
1005.747540	2452.319700
1006.041775	2450.429267
1006.335974	2452.269288
1006.630138	2451.135029
1006.924266	2453.075873
1007.218359	2450.681325
1007.512416	2452.294494
1007.806438	2450.202415
1008.100425	2447.530604
1008.394376	2457.990998
1008.688292	2446.194698
1008.982172	2462.099538
1009.276017	2456.226594
1009.569827	2449.370625
1009.863602	2450.706531
1010.157341	2449.874740
1010.451045	2458.142233
1010.744714	2457.738940
1011.038347	2448.564040
1011.331945	2449.219390
1011.625508	2451.639144
1011.919036	2445.312496
1012.212528	2454.487396
1012.505986	2448.185954
1012.799408	2461.645835
1013.092795	2451.941613
1013.386147	2451.941613
1013.679464	2452.748198
1013.972745	2449.295008
1014.265992	2454.184927
1014.559204	2450.177210
1014.852380	2449.597477
1015.145521	2452.899433
1015.438628	2451.916408
1015.731699	2458.822788
1016.024736	2451.059412
1016.317737	2451.009000
1016.610703	2452.218877
1016.903635	2452.370112
1017.196531	2452.849021
1017.489393	2457.058385
1017.782219	2447.480192
1018.075011	2454.285750
1018.367768	2461.469394
1018.660490	2455.218363
1018.953177	2455.218363
1019.245829	2455.218363
