Dividing Wavelength (nm)	Counts (n)	Slit_number_15_of_a_total_of_40	
326.493990	2161.646769
326.888308	2161.646769
327.282561	2161.646769
327.676750	2128.627212
328.070874	2116.024327
328.464933	2127.198885
328.858929	2144.590865
329.252859	2159.546288
329.646726	2177.694442
330.040528	2187.524692
330.434265	2211.722231
330.827938	2212.646442
331.221547	2234.239385
331.615091	2264.738365
332.008571	2286.247288
332.401986	2297.253808
332.795338	2316.326173
333.188625	2341.699981
333.581847	2357.243538
333.975006	2371.694846
334.368100	2389.086827
334.761129	2417.233269
335.154095	2426.055288
335.546996	2447.312154
335.939833	2468.148923
336.332606	2468.569019
336.725315	2480.331712
337.117960	2503.016904
337.510540	2506.629731
337.903056	2520.072808
338.295508	2543.682212
338.687896	2521.165058
339.080220	2536.960673
339.472480	2553.512462
339.864676	2542.589962
340.256807	2546.538865
340.648875	2544.774462
341.040879	2551.664038
341.432818	2566.283385
341.824694	2551.159923
342.216506	2556.033038
342.608253	2548.555327
342.999937	2549.983654
343.391557	2542.085846
343.783113	2552.924327
344.174605	2552.588250
344.566033	2550.655808
344.957397	2528.138654
345.348697	2546.706904
345.739934	2532.087558
346.131106	2539.985365
346.522215	2539.817327
346.913260	2532.507654
347.304241	2545.026519
347.695159	2535.784404
348.086012	2532.759712
348.476802	2534.608135
348.867528	2519.400654
349.258191	2536.708615
349.648789	2521.585154
350.039324	2533.431865
350.429796	2518.224385
350.820203	2540.741538
351.210548	2513.603327
351.600828	2524.441808
351.991045	2530.155115
352.381198	2530.491192
352.771288	2516.123904
353.161314	2523.433577
353.551276	2510.074519
353.941175	2522.425346
354.331010	2528.726788
354.720782	2515.619788
355.110490	2519.736731
355.500135	2521.501135
355.889717	2505.621500
356.279235	2532.843731
356.668689	2517.804288
357.058080	2518.224385
357.447408	2532.591673
357.836672	2536.960673
358.225873	2510.914712
358.615010	2531.079327
359.004084	2519.736731
359.393095	2515.031654
359.782043	2509.822462
360.170927	2539.061154
360.559748	2514.023423
360.948505	2534.104019
361.337199	2538.136942
361.725830	2514.359500
362.114398	2517.132135
362.502903	2530.407173
362.891344	2523.349558
363.279722	2515.535769
363.668037	2528.642769
364.056289	2537.044692
364.444478	2527.550519
364.832603	2544.270346
365.220665	2539.397231
365.608665	2509.990500
365.996601	2532.591673
366.384474	2533.011769
366.772284	2536.960673
367.160031	2533.011769
367.547715	2539.817327
367.935336	2547.883173
368.322893	2552.588250
368.710388	2542.758000
369.097820	2548.135231
369.485189	2528.726788
369.872495	2528.726788
370.259738	2544.606423
370.646918	2552.840308
371.034035	2542.589962
371.421090	2540.153404
371.808081	2549.059442
372.195010	2545.194558
372.581875	2553.428442
372.968678	2540.657519
373.355418	2539.397231
373.742096	2550.487769
374.128710	2555.949019
374.515262	2543.850250
374.901751	2540.741538
375.288177	2533.599904
375.674540	2551.580019
376.060841	2533.935981
376.447079	2536.036462
376.833254	2535.952442
377.219367	2541.161635
377.605417	2544.690442
377.991404	2536.036462
378.377329	2555.612942
378.763191	2521.585154
379.148991	2555.780981
379.534727	2553.764519
379.920402	2548.051212
380.306013	2542.001827
380.691563	2519.820750
381.077049	2527.970615
381.462474	2549.311500
381.847835	2538.304981
382.233134	2542.842019
382.618371	2538.893115
383.003545	2541.161635
383.388657	2548.471308
383.773706	2544.102308
384.158693	2540.573500
384.543618	2537.296750
384.928480	2539.985365
385.313280	2553.344423
385.698017	2530.491192
386.082692	2549.395519
386.467305	2542.505942
386.851856	2564.939077
387.236344	2542.337904
387.620770	2549.731596
388.005133	2546.118769
388.389435	2543.682212
388.773674	2542.926038
389.157851	2540.909577
389.541965	2540.153404
389.926018	2558.805673
390.310008	2547.463077
390.693936	2525.029942
391.077802	2553.344423
391.461606	2555.865000
391.845348	2550.403750
392.229027	2562.082423
392.612645	2553.932558
392.996200	2550.571788
393.379694	2543.178096
393.763125	2567.459654
394.146494	2570.232288
394.529801	2550.151692
394.913047	2548.387288
395.296230	2556.033038
395.679351	2546.958962
396.062410	2546.622885
396.445408	2538.725077
396.828343	2572.164731
397.211217	2555.276865
397.594028	2550.151692
397.976778	2558.721654
398.359466	2556.789212
398.742092	2561.074192
399.124656	2558.385577
399.507158	2552.588250
399.889598	2560.906154
400.271977	2556.369115
400.654294	2559.561846
401.036549	2559.645865
401.418742	2552.168154
401.800874	2558.469596
402.182944	2562.166442
402.564952	2559.729885
402.946898	2563.174673
403.328783	2554.772750
403.710606	2553.260404
404.092367	2538.220962
404.474067	2558.133519
404.855705	2549.647577
405.237282	2548.807385
405.618797	2560.654096
406.000250	2536.036462
406.381642	2547.127000
406.762972	2553.176385
407.144240	2562.418500
407.525447	2553.176385
407.906593	2564.771038
408.287677	2559.561846
408.668700	2569.476115
409.049661	2573.256981
409.430560	2564.687019
409.811399	2563.090654
410.192176	2568.047788
410.572891	2562.586538
410.953545	2558.721654
411.334138	2558.721654
411.714669	2556.369115
412.095139	2553.596481
412.475547	2565.863288
412.855894	2554.856769
413.236180	2557.293327
413.616405	2578.046077
413.996568	2563.762808
414.376670	2556.537154
414.756711	2573.509038
415.136691	2565.863288
415.516609	2569.140038
415.896466	2544.438385
416.276262	2569.476115
416.655997	2562.754577
417.035670	2558.721654
417.415283	2563.678788
417.794834	2574.769327
418.174324	2564.939077
418.553753	2563.258692
418.933121	2554.940788
419.312428	2565.611231
419.691674	2562.502519
420.070859	2559.561846
420.449983	2566.535442
420.829045	2560.318019
421.208047	2564.939077
421.586988	2565.443192
421.965867	2570.736404
422.344686	2570.484346
422.723444	2581.994981
423.102141	2551.159923
423.480777	2578.634212
423.859352	2561.914385
424.237866	2561.578308
424.616319	2566.871519
424.994712	2573.845115
425.373044	2564.266923
425.751314	2550.067673
426.129524	2576.113635
426.507673	2571.996692
426.885762	2577.457942
427.263789	2581.406846
427.641756	2570.316308
428.019662	2580.650673
428.397508	2566.703481
428.775292	2577.794019
429.153016	2574.853346
429.530679	2568.972000
429.908282	2559.309788
430.285824	2573.845115
430.663305	2575.357462
431.040726	2575.945596
431.418086	2574.937365
431.795385	2583.507327
432.172624	2580.314596
432.549802	2581.406846
432.926920	2580.398615
433.303977	2568.803962
433.680974	2575.021385
434.057910	2590.144846
434.434786	2579.474404
434.811601	2588.800538
435.188355	2585.775846
435.565050	2576.449712
435.941683	2590.817000
436.318257	2592.833462
436.694770	2585.019673
437.071222	2587.204173
437.447614	2582.835173
437.823946	2584.011442
438.200218	2592.833462
438.576429	2593.169538
438.952580	2597.706577
439.328670	2588.128385
439.704700	2586.363981
440.080670	2613.754250
440.456580	2587.792308
440.832429	2610.897596
441.208218	2613.586212
441.583947	2604.008019
441.959616	2596.026192
442.335224	2616.694923
442.710773	2615.434635
443.086261	2608.797115
443.461689	2622.408231
443.837057	2610.141423
444.212365	2621.568038
444.587612	2636.859538
444.962800	2638.203846
445.337927	2640.304327
445.712995	2666.350288
446.088002	2650.470654
446.462949	2662.485404
446.837837	2683.994327
447.212664	2685.506673
447.587431	2713.317038
447.962139	2734.573904
448.336786	2762.636327
448.711374	2780.364385
449.085901	2766.081115
449.460369	2771.122269
449.834776	2782.800942
450.209124	2823.130173
450.583412	2854.553365
450.957640	2900.175808
451.331808	2906.729308
451.705917	2904.544808
452.079965	2921.936788
452.453954	2964.366500
452.827883	2967.223154
453.201752	2994.445385
453.575562	3039.563712
453.949311	3095.016404
454.323001	3111.568192
454.696632	3149.040769
455.070202	3235.916654
455.443713	3296.830596
455.817164	3353.291519
456.190556	3420.758962
456.563888	3442.267885
456.937160	3532.504538
457.310373	3521.329981
457.683526	3592.242212
458.056619	3647.694904
458.429653	3698.946635
458.802628	3753.223058
459.175542	3855.726519
459.548398	3977.050288
459.921194	4123.243750
460.293930	4229.107981
460.666607	4451.338846
461.039224	4661.386923
461.411782	4812.705558
461.784280	4858.748096
462.156719	4963.604096
462.529099	4993.430923
462.901419	4999.228250
463.273680	5018.552673
463.645882	5067.115788
464.018024	5168.611019
464.390106	5286.153923
464.762130	5551.738712
465.134094	5897.561865
465.505999	6526.361788
465.877845	7251.111673
466.249631	7780.600865
466.621358	7908.058038
466.993026	7903.857077
467.364634	7854.453769
467.736184	7712.629308
468.107674	7662.721885
468.479105	7693.136846
468.850477	7781.273019
469.221790	7719.098788
469.593043	7609.789769
469.964238	7576.938250
470.335373	7670.367635
470.706449	7929.314904
471.077467	8114.913385
471.448425	8962.331346
471.819324	9854.699596
472.190164	10212.033385
472.560945	9812.521942
472.931667	9290.510462
473.302330	9127.345115
473.672934	8998.879712
474.043479	9199.097538
474.413965	9146.669538
474.784393	9157.844096
475.154761	9426.537596
475.525070	9542.316096
475.895321	9515.009846
476.265513	9730.267115
476.635645	10030.719885
477.005719	10062.395135
477.375734	10235.306712
477.745691	10393.178846
478.115588	10738.833962
478.485427	11132.380038
478.855207	11738.914865
479.224928	12288.400635
479.594591	12990.969442
479.964194	13102.462962
480.333739	13386.616000
480.703226	13442.992904
481.072653	13548.353019
481.442022	13672.617462
481.811333	13896.276654
482.180584	13697.655192
482.549777	13591.286846
482.918912	13455.847846
483.287988	13407.536788
483.657005	13255.461981
484.025964	13084.902942
484.394864	13100.866596
484.763706	13026.593596
485.132489	12760.756750
485.501213	12662.790327
485.869879	12707.236500
486.238487	12500.465173
486.607036	12540.962442
486.975527	12306.548788
487.343959	12293.777865
487.712333	12286.216135
488.080648	12163.043942
488.448905	12183.376596
488.817104	12066.337808
489.185244	12113.976712
489.553326	12152.541538
489.921350	12504.330058
490.289315	13090.784288
490.657222	13349.647538
491.025070	13454.167462
491.392861	13178.500365
491.760593	12871.158019
492.128267	12327.049481
492.495883	11906.029115
492.863440	11459.046808
493.230939	10980.977385
493.598380	10561.889462
493.965763	10344.699750
494.333088	10058.950346
494.700354	9766.899500
495.067563	9536.770827
495.434713	9380.074962
495.801805	9223.295077
496.168839	9010.894462
496.535815	8792.612500
496.902733	8620.289058
497.269593	8379.237885
497.636395	8255.477558
498.003139	8131.969288
498.369825	7885.708923
498.736453	7781.693115
499.103023	7548.707788
499.469535	7395.708769
499.835989	7238.508788
500.202385	7028.124635
500.568723	6896.886596
500.935003	6732.881058
501.301226	6569.211596
501.667390	6502.416308
502.033497	6424.530481
502.399546	6224.648731
502.765537	6016.281038
503.131470	5934.110231
503.497345	5826.061500
503.863163	5583.918077
504.228923	5524.012365
504.594625	5391.009923
504.960269	5255.486904
505.325856	5177.601077
505.691385	5005.445673
506.056856	4911.596192
506.422270	4827.745000
506.787625	4674.073827
507.152924	4612.319692
507.518164	4512.000731
507.883347	4390.592942
508.248472	4301.952654
508.613540	4264.228019
508.978550	4163.993077
509.343503	4082.998538
509.708398	4017.547558
510.073236	3951.088346
510.438016	3890.006365
510.802738	3803.550577
511.167403	3746.501519
511.532010	3688.780308
511.896561	3644.082077
512.261053	3634.419865
512.625488	3544.099192
512.989866	3483.017212
513.354186	3428.908827
513.718449	3375.640635
514.082655	3338.504135
514.446803	3333.715038
514.810894	3297.418731
515.174927	3236.924885
515.538904	3198.612115
515.902822	3163.156000
516.266684	3139.966692
516.630488	3125.599404
516.994235	3082.245481
517.357925	3051.074346
517.721558	3019.819192
518.085133	3016.290385
518.448651	2994.025288
518.812112	2977.893596
519.175516	2944.958058
519.538863	2926.137750
519.902152	2919.332192
520.265385	2904.208731
520.628560	2877.826692
520.991678	2872.197404
521.354739	2864.719692
521.717743	2842.622635
522.080690	2840.186077
522.443580	2830.859942
522.806413	2820.441558
523.169189	2802.797519
523.531908	2804.561923
523.894569	2793.135308
524.257174	2771.122269
524.619722	2768.685712
524.982213	2765.661019
525.344647	2759.695654
525.707025	2749.865404
526.069345	2752.722058
526.431608	2737.094481
526.793815	2739.278981
527.155964	2711.720673
527.518057	2705.923346
527.880093	2714.577327
528.242072	2698.781712
528.603995	2704.495019
528.965860	2698.949750
529.327669	2706.931577
529.689421	2704.326981
530.051117	2679.625327
530.412755	2670.383212
530.774337	2673.828000
531.135862	2673.575942
531.497331	2678.449058
531.858743	2672.231635
532.220098	2685.674712
532.581396	2656.436019
532.942638	2657.948365
533.303824	2650.302615
533.664953	2664.081769
534.026025	2675.004269
534.387040	2662.989519
534.747999	2661.057077
535.108902	2627.281346
535.469748	2645.513519
535.830537	2651.983000
536.191270	2640.220308
536.551947	2638.960019
536.912567	2652.151038
537.273131	2638.791981
537.633638	2639.380115
537.994089	2646.773808
538.354483	2640.472365
538.714821	2629.549865
539.075103	2637.699731
539.435328	2627.785462
539.795497	2620.475788
540.155609	2640.724423
540.515665	2633.162692
540.875665	2625.432923
541.235609	2614.594442
541.595496	2619.299519
541.955328	2636.607481
542.315102	2622.156173
542.674821	2628.625654
543.034483	2621.904115
543.394090	2594.513846
543.753640	2613.838269
544.113134	2610.309462
544.472571	2605.604385
544.831953	2613.166115
545.191278	2620.643827
545.550548	2604.008019
545.909761	2621.231962
546.268918	2605.100269
546.628019	2618.627365
546.987064	2629.465846
547.346053	2618.459327
547.704986	2609.301231
548.063863	2599.723038
548.422684	2605.604385
548.781449	2611.233673
549.140158	2620.307750
549.498811	2604.848212
549.857408	2610.057404
550.215949	2598.882846
550.574434	2602.663712
550.932864	2606.696635
551.291237	2612.577981
551.649555	2611.149654
552.007817	2628.457615
552.366022	2614.678462
552.724173	2606.444577
553.082267	2603.839981
553.440305	2608.377019
553.798288	2596.530308
554.156215	2600.311173
554.514086	2600.227154
554.871902	2600.395192
555.229661	2607.872904
555.587365	2610.057404
555.945014	2604.092038
556.302606	2609.721327
556.660143	2600.815288
557.017625	2606.024481
557.375050	2611.233673
557.732421	2600.563231
558.089735	2609.217212
558.446994	2610.981615
558.804197	2605.436346
559.161345	2601.487442
559.518437	2599.639019
559.875474	2610.561519
560.232455	2605.688404
560.589381	2606.444577
560.946251	2615.602673
561.303065	2600.143135
561.659825	2612.325923
562.016528	2605.100269
562.373177	2595.270019
562.729770	2618.207269
563.086307	2615.686692
563.442789	2609.049173
563.799216	2589.136615
564.155587	2597.874615
564.511904	2604.932231
564.868164	2610.729558
565.224370	2610.141423
565.580520	2595.942173
565.936615	2597.370500
566.292654	2604.008019
566.648638	2601.067346
567.004567	2596.530308
567.360441	2614.594442
567.716260	2593.085519
568.072023	2589.136615
568.427732	2609.553288
568.783385	2589.136615
569.138982	2604.260077
569.494525	2603.587923
569.850013	2608.377019
570.205445	2590.648962
570.560823	2609.301231
570.916145	2603.419885
571.271412	2589.640731
571.626625	2598.210692
571.981782	2596.530308
572.336884	2596.782365
572.691931	2601.991558
573.046923	2597.202462
573.401860	2601.487442
573.756743	2602.159596
574.111570	2605.520365
574.466342	2598.630788
574.821059	2612.998077
575.175722	2600.899308
575.530330	2599.975096
575.884882	2609.133192
576.239380	2604.428115
576.593823	2595.942173
576.948211	2596.698346
577.302544	2600.815288
577.656823	2598.462750
578.011047	2593.169538
578.365216	2596.530308
578.719330	2593.085519
579.073389	2603.251846
579.427394	2608.293000
579.781344	2616.526885
580.135239	2594.093750
580.489080	2593.253558
580.842866	2600.899308
581.196597	2605.100269
581.550273	2599.386962
581.903895	2584.179481
582.257463	2593.001500
582.610975	2609.217212
582.964434	2602.999788
583.317837	2613.670231
583.671186	2601.571462
584.024481	2596.698346
584.377721	2602.915769
584.730906	2583.591346
585.084037	2581.658904
585.437113	2606.612615
585.790135	2606.276538
586.143103	2597.622558
586.496016	2599.555000
586.848874	2582.079000
587.201679	2593.505615
587.554428	2596.278250
587.907124	2601.487442
588.259765	2588.212404
588.612352	2595.354038
588.964884	2605.856442
589.317362	2610.561519
589.669786	2600.311173
590.022155	2593.841692
590.374470	2602.663712
590.726731	2586.784077
591.078937	2596.194231
591.431090	2588.044365
591.783188	2593.085519
592.135232	2590.648962
592.487222	2587.288192
592.839157	2598.798827
593.191038	2604.260077
593.542866	2572.500808
593.894639	2578.550192
594.246358	2602.411654
594.598022	2611.989846
594.949633	2590.564942
595.301190	2601.823519
595.652692	2598.126673
596.004141	2574.265212
596.355535	2592.413365
596.706876	2611.149654
597.058162	2598.714808
597.409395	2604.512135
597.760573	2592.749442
598.111698	2593.337577
598.462768	2584.011442
598.813785	2597.370500
599.164748	2596.026192
599.515657	2584.347519
599.866511	2597.538538
600.217312	2592.581404
600.568060	2583.087231
600.918753	2593.841692
601.269392	2593.673654
601.619978	2598.462750
601.970510	2602.915769
602.320988	2597.370500
602.671412	2593.757673
603.021783	2601.487442
603.372100	2590.732981
603.722363	2597.538538
604.072572	2596.530308
604.422728	2597.622558
604.772830	2606.528596
605.122878	2593.505615
605.472872	2594.261788
605.822813	2596.362269
606.172701	2603.755962
606.522534	2600.479212
606.872314	2591.321115
607.222041	2587.624269
607.571714	2606.780654
607.921333	2593.421596
608.270899	2601.487442
608.620411	2595.690115
608.969870	2580.986750
609.319276	2586.868096
609.668627	2600.899308
610.017926	2593.169538
610.367171	2581.574885
610.716362	2585.019673
611.065500	2607.200750
611.414585	2592.749442
611.763616	2600.815288
612.112594	2602.747731
612.461518	2590.060827
612.810389	2583.591346
613.159207	2589.808769
613.507971	2597.118442
613.856682	2589.808769
614.205340	2579.894500
614.553945	2601.235385
614.902496	2592.497385
615.250994	2598.630788
615.599439	2588.884558
615.947830	2577.121865
616.296169	2589.136615
616.644454	2589.976808
616.992686	2597.370500
617.340864	2586.111923
617.688990	2594.933942
618.037063	2592.077288
618.385082	2601.487442
618.733048	2590.732981
619.080961	2579.474404
619.428821	2596.698346
619.776628	2605.520365
620.124382	2586.448000
620.472083	2593.589635
620.819731	2594.849923
621.167326	2592.665423
621.514868	2600.731269
621.862357	2608.293000
622.209793	2593.589635
622.557176	2583.423308
622.904506	2600.647250
623.251783	2583.003212
623.599007	2593.757673
623.946179	2607.704865
624.293297	2595.606096
624.640363	2609.217212
624.987376	2605.436346
625.334336	2590.396904
625.681243	2602.327635
626.028097	2591.573173
626.374899	2582.583115
626.721647	2588.296423
627.068343	2588.716519
627.414987	2588.128385
627.761577	2584.683596
628.108115	2584.683596
628.454600	2577.457942
628.801032	2591.825231
629.147412	2598.798827
629.493739	2591.153077
629.840014	2601.151365
630.186236	2577.710000
630.532405	2596.446288
630.878521	2593.505615
631.224585	2587.876327
631.570597	2587.456231
631.916556	2606.276538
632.262462	2582.079000
632.608316	2587.372212
632.954117	2571.660615
633.299866	2593.337577
633.645562	2598.294712
633.991206	2577.794019
634.336797	2581.994981
634.682336	2589.304654
635.027823	2578.550192
635.373257	2592.749442
635.718639	2591.825231
636.063968	2578.802250
636.409245	2578.298135
636.754470	2577.205885
637.099642	2586.868096
637.444762	2588.212404
637.789829	2581.322827
638.134845	2590.228865
638.479808	2573.929135
638.824719	2595.270019
639.169577	2589.724750
639.514383	2587.456231
639.859137	2590.901019
640.203839	2592.245327
640.548489	2579.390385
640.893086	2584.935654
641.237632	2588.128385
641.582125	2580.986750
641.926566	2586.868096
642.270955	2575.273442
642.615292	2583.843404
642.959576	2607.620846
643.303809	2593.337577
643.647990	2597.286481
643.992118	2591.993269
644.336195	2567.123577
644.680219	2606.780654
645.024192	2578.382154
645.368112	2586.532019
645.711981	2596.530308
646.055797	2580.230577
646.399562	2583.423308
646.743274	2589.136615
647.086935	2595.942173
647.430544	2592.161308
647.774101	2582.751154
648.117606	2604.260077
648.461059	2601.823519
648.804460	2616.442865
649.147810	2580.314596
649.491108	2582.499096
649.834354	2593.925712
650.177548	2600.059115
650.520690	2569.896212
650.863781	2584.347519
651.206820	2595.186000
651.549807	2583.591346
651.892742	2588.968577
652.235626	2588.212404
652.578458	2586.952115
652.921238	2586.027904
653.263967	2592.497385
653.606644	2592.665423
653.949269	2594.093750
654.291843	2578.886269
654.634365	2589.892788
654.976836	2613.838269
655.319255	2591.825231
655.661622	2597.622558
656.003938	2592.749442
656.346203	2576.617750
656.688416	2588.212404
657.030577	2594.009731
657.372687	2572.668846
657.714746	2598.966865
658.056753	2588.968577
658.398708	2596.026192
658.740612	2589.976808
659.082465	2593.589635
659.424266	2591.405135
659.766016	2593.085519
660.107715	2594.009731
660.449362	2591.573173
660.790958	2592.077288
661.132503	2587.120154
661.473996	2592.665423
661.815438	2602.075577
662.156829	2579.474404
662.498168	2592.581404
662.839456	2579.390385
663.180693	2605.268308
663.521879	2601.487442
663.863013	2590.396904
664.204097	2578.718231
664.545129	2586.700058
664.886110	2581.322827
665.227040	2585.775846
665.567918	2575.357462
665.908746	2591.489154
666.249522	2575.105404
666.590248	2584.851635
666.930922	2575.609519
667.271545	2588.044365
667.612118	2591.573173
667.952639	2583.591346
668.293109	2586.448000
668.633528	2590.817000
668.973896	2585.523788
669.314213	2576.281673
669.654480	2601.991558
669.994695	2603.167827
670.334859	2581.238808
670.674973	2583.507327
671.015035	2587.120154
671.355047	2578.298135
671.695008	2581.406846
672.034918	2582.919192
672.374777	2562.754577
672.714585	2580.062538
673.054342	2591.069058
673.394049	2585.187712
673.733705	2590.732981
674.073310	2584.515558
674.412864	2585.187712
674.752368	2589.136615
675.091820	2581.574885
675.431223	2584.179481
675.770574	2597.790596
676.109875	2597.454519
676.449125	2583.507327
676.788324	2587.036135
677.127473	2595.270019
677.466571	2586.111923
677.805619	2590.396904
678.144616	2595.522077
678.483562	2588.884558
678.822458	2587.708288
679.161303	2579.642442
679.500098	2592.329346
679.838842	2581.826942
680.177535	2589.304654
680.516179	2590.396904
680.854771	2598.966865
681.193314	2605.184288
681.531805	2598.042654
681.870247	2589.808769
682.208638	2586.027904
682.546978	2605.016250
682.885268	2603.251846
683.223508	2591.237096
683.561697	2594.429827
683.899836	2577.541962
684.237925	2595.522077
684.575963	2590.144846
684.913951	2592.245327
685.251889	2596.530308
685.589776	2589.388673
685.927614	2584.179481
686.265401	2590.144846
686.603137	2605.856442
686.940824	2574.937365
687.278460	2591.489154
687.616046	2591.405135
687.953582	2584.011442
688.291068	2589.640731
688.628504	2589.388673
688.965889	2585.691827
689.303224	2584.179481
689.640510	2591.489154
689.977745	2594.093750
690.314930	2587.120154
690.652065	2575.525500
690.989150	2589.304654
691.326185	2600.731269
691.663170	2592.749442
692.000105	2587.372212
692.336990	2576.113635
692.673825	2590.312885
693.010610	2589.724750
693.347345	2597.538538
693.684030	2597.706577
694.020665	2576.029615
694.357251	2591.993269
694.693786	2590.817000
695.030272	2589.472692
695.366707	2592.329346
695.703093	2571.660615
696.039429	2581.238808
696.375716	2586.616038
696.711952	2585.187712
697.048139	2580.314596
697.384276	2594.849923
697.720363	2580.146558
698.056400	2590.648962
698.392388	2592.413365
698.728326	2590.648962
699.064214	2586.363981
699.400053	2582.667135
699.735842	2586.363981
700.071581	2574.097173
700.407270	2577.710000
700.742910	2578.298135
701.078501	2578.382154
701.414042	2579.474404
701.749533	2582.919192
702.084974	2590.985038
702.420366	2582.247038
702.755709	2583.927423
703.091002	2585.271731
703.426246	2585.103692
703.761440	2581.910962
704.096584	2576.617750
704.431679	2586.532019
704.766725	2590.480923
705.101721	2589.976808
705.436668	2578.634212
705.771565	2576.617750
706.106413	2580.314596
706.441212	2583.171250
706.775961	2585.439769
707.110661	2587.540250
707.445311	2588.800538
707.779913	2573.256981
708.114465	2581.238808
708.448967	2583.171250
708.783421	2586.700058
709.117825	2588.548481
709.452180	2581.910962
709.786485	2589.220635
710.120742	2577.541962
710.454949	2575.357462
710.789107	2588.296423
711.123216	2589.304654
711.457275	2586.868096
711.791286	2598.798827
712.125247	2582.583115
712.459159	2599.134904
712.793023	2577.878038
713.126837	2589.892788
713.460602	2593.253558
713.794318	2587.288192
714.127985	2597.790596
714.461602	2578.382154
714.795171	2594.597865
715.128691	2567.375635
715.462162	2584.011442
715.795584	2579.810481
716.128957	2581.910962
716.462281	2580.986750
716.795556	2581.322827
717.128782	2585.271731
717.461960	2588.212404
717.795088	2589.640731
718.128167	2578.298135
718.461198	2587.120154
718.794180	2576.953827
719.127113	2581.154788
719.459997	2585.439769
719.792833	2590.480923
720.125619	2566.031327
720.458357	2583.507327
720.791046	2588.800538
721.123686	2585.607808
721.456278	2586.279962
721.788821	2573.593058
722.121315	2588.548481
722.453761	2600.563231
722.786158	2579.474404
723.118506	2597.034423
723.450805	2584.515558
723.783056	2581.238808
724.115259	2588.800538
724.447412	2577.541962
724.779518	2569.644154
725.111574	2583.171250
725.443582	2578.130096
725.775542	2570.904442
726.107453	2586.868096
726.439315	2589.808769
726.771129	2598.378731
727.102895	2582.835173
727.434612	2574.685308
727.766281	2569.392096
728.097901	2583.423308
728.429473	2575.777558
728.760996	2596.110212
729.092471	2559.309788
729.423897	2573.256981
729.755276	2585.943885
730.086606	2573.509038
730.417887	2584.011442
730.749120	2587.540250
731.080305	2570.232288
731.411442	2579.558423
731.742530	2565.023096
732.073570	2569.140038
732.404562	2588.044365
732.735506	2581.994981
733.066401	2599.807058
733.397249	2565.443192
733.728048	2565.863288
734.058798	2594.093750
734.389501	2583.927423
734.720156	2582.247038
735.050762	2583.675365
735.381320	2586.700058
735.711831	2584.347519
736.042293	2577.541962
736.372707	2583.675365
736.703073	2589.136615
737.033391	2579.642442
737.363661	2588.380442
737.693883	2584.935654
738.024056	2577.121865
738.354182	2568.719942
738.684260	2604.848212
739.014290	2579.390385
739.344272	2589.388673
739.674207	2582.163019
740.004093	2568.131808
740.333931	2588.380442
740.663722	2591.405135
740.993464	2586.279962
741.323159	2580.734692
741.652806	2587.792308
741.982405	2591.573173
742.311956	2584.263500
742.641460	2594.093750
742.970915	2579.810481
743.300323	2569.392096
743.629683	2585.439769
743.958996	2576.449712
744.288260	2570.736404
744.617477	2577.373923
744.946647	2582.919192
745.275768	2574.517269
745.604842	2585.943885
745.933869	2580.650673
746.262847	2577.962058
746.591778	2576.197654
746.920662	2574.853346
747.249498	2579.054308
747.578286	2571.324538
747.907027	2576.029615
748.235720	2587.960346
748.564365	2580.818712
748.892963	2581.658904
749.221514	2567.207596
749.550017	2572.500808
749.878473	2566.871519
750.206881	2569.812192
750.535242	2594.597865
750.863555	2584.347519
751.191821	2582.415077
751.520039	2575.189423
751.848210	2572.164731
752.176334	2589.052596
752.504411	2583.003212
752.832440	2581.406846
753.160421	2587.708288
753.488356	2591.069058
753.816243	2573.509038
754.144082	2564.182904
754.471875	2565.527212
754.799620	2579.558423
755.127318	2577.373923
755.454969	2587.792308
755.782572	2575.945596
756.110129	2592.917481
756.437638	2579.474404
756.765100	2586.027904
757.092515	2580.902731
757.419882	2578.130096
757.747203	2585.523788
758.074477	2575.525500
758.401703	2586.111923
758.728882	2571.912673
759.056014	2590.396904
759.383099	2584.683596
759.710138	2585.019673
760.037129	2589.472692
760.364073	2588.800538
760.690970	2574.181192
761.017820	2582.751154
761.344623	2581.574885
761.671379	2570.316308
761.998088	2594.177769
762.324751	2565.695250
762.651366	2587.372212
762.977935	2578.634212
763.304456	2589.892788
763.630931	2575.609519
763.957359	2588.128385
764.283740	2596.110212
764.610074	2585.439769
764.936362	2586.616038
765.262602	2591.993269
765.588796	2583.339288
765.914943	2588.800538
766.241044	2571.912673
766.567097	2572.080712
766.893104	2578.214115
767.219064	2590.732981
767.544978	2573.761096
767.870845	2563.174673
768.196665	2583.255269
768.522438	2588.968577
768.848165	2575.021385
769.173846	2580.566654
769.499479	2587.036135
769.825066	2589.724750
770.150607	2571.240519
770.476101	2576.869808
770.801548	2574.853346
771.126949	2582.667135
771.452303	2583.927423
771.777611	2570.568365
772.102872	2583.927423
772.428087	2571.576596
772.753256	2583.675365
773.078378	2571.492577
773.403453	2586.363981
773.728482	2580.230577
774.053465	2579.054308
774.378401	2577.037846
774.703291	2579.222346
775.028135	2574.433250
775.352932	2572.920904
775.677683	2567.375635
776.002388	2575.945596
776.327046	2571.828654
776.651658	2565.359173
776.976224	2577.962058
777.300743	2580.818712
777.625216	2574.769327
777.949643	2574.769327
778.274024	2582.583115
778.598359	2584.767615
778.922647	2567.879750
779.246889	2582.667135
779.571086	2588.548481
779.895236	2576.533731
780.219339	2576.533731
780.543397	2591.993269
780.867409	2573.256981
781.191374	2577.878038
781.515294	2566.031327
781.839167	2574.853346
782.162995	2583.507327
782.486776	2575.441481
782.810511	2583.339288
783.134201	2576.869808
783.457844	2570.064250
783.781441	2566.451423
784.104993	2575.021385
784.428498	2563.342712
784.751958	2576.533731
785.075372	2578.214115
785.398739	2563.174673
785.722061	2567.879750
786.045337	2563.594769
786.368568	2572.248750
786.691752	2579.978519
787.014891	2570.736404
787.337983	2586.700058
787.661030	2592.413365
787.984031	2560.822135
788.306987	2555.696962
788.629897	2570.064250
788.952760	2571.744635
789.275579	2578.802250
789.598351	2568.635923
789.921078	2580.146558
790.243759	2581.490865
790.566395	2581.910962
790.888984	2571.072481
791.211529	2576.869808
791.534027	2578.550192
791.856480	2568.972000
792.178888	2587.120154
792.501249	2568.803962
792.823566	2578.802250
793.145836	2581.070769
793.468062	2566.955538
793.790241	2567.795731
794.112375	2581.322827
794.434464	2574.517269
794.756507	2557.713423
795.078505	2573.845115
795.400457	2573.929135
795.722364	2553.680500
796.044226	2574.685308
796.366042	2571.072481
796.687812	2573.761096
797.009538	2582.919192
797.331218	2565.443192
797.652852	2582.583115
797.974442	2570.316308
798.295986	2573.088942
798.617484	2589.640731
798.938938	2569.728173
799.260346	2567.123577
799.581709	2586.111923
799.903026	2578.802250
800.224299	2583.591346
800.545526	2568.467885
800.866708	2583.675365
801.187845	2571.408558
801.508936	2569.980231
801.829983	2572.836885
802.150984	2569.560135
802.471940	2583.507327
802.792851	2561.242231
803.113717	2581.238808
803.434538	2567.123577
803.755314	2573.593058
804.076045	2571.996692
804.396731	2576.449712
804.717372	2574.097173
805.037967	2575.021385
805.358518	2575.945596
805.679024	2565.443192
805.999485	2574.265212
806.319901	2580.314596
806.640272	2577.037846
806.960598	2580.230577
807.280879	2583.759385
807.601115	2573.341000
807.921306	2585.439769
808.241453	2569.056019
808.561554	2578.382154
808.881611	2570.736404
809.201623	2563.930846
809.521590	2576.281673
809.841513	2557.545385
810.161390	2587.540250
810.481223	2574.097173
810.801011	2554.940788
811.120755	2583.423308
811.440453	2585.859865
811.760107	2572.332769
812.079716	2568.299846
812.399281	2569.308077
812.718801	2572.920904
813.038276	2586.532019
813.357707	2565.275154
813.677093	2582.079000
813.996434	2568.215827
814.315731	2572.920904
814.634983	2566.115346
814.954191	2583.087231
815.273354	2577.962058
815.592473	2569.476115
815.911547	2582.835173
816.230577	2587.540250
816.549562	2577.457942
816.868502	2561.662327
817.187399	2572.080712
817.506250	2565.947308
817.825058	2587.372212
818.143821	2577.121865
818.462539	2580.902731
818.781213	2572.080712
819.099843	2581.910962
819.418429	2581.658904
819.736970	2584.347519
820.055466	2574.937365
820.373919	2575.189423
820.692327	2573.088942
821.010691	2577.205885
821.329011	2604.176058
821.647286	2597.874615
821.965517	2604.176058
822.283704	2614.678462
822.601847	2621.063923
822.919945	2624.676750
823.237999	2615.014538
823.556010	2617.283058
823.873976	2618.543346
824.191897	2596.530308
824.509775	2601.319404
824.827609	2604.260077
825.145398	2591.993269
825.463144	2586.952115
825.780845	2583.087231
826.098502	2590.228865
826.416116	2581.658904
826.733685	2588.464462
827.051210	2595.101981
827.368692	2601.823519
827.686129	2602.747731
828.003522	2592.245327
828.320872	2583.171250
828.638177	2596.782365
828.955439	2576.113635
829.272656	2592.581404
829.589830	2585.103692
829.906960	2570.988462
830.224046	2584.767615
830.541088	2572.584827
830.858086	2582.835173
831.175041	2577.541962
831.491952	2570.652385
831.808819	2576.029615
832.125642	2564.098885
832.442421	2575.609519
832.759157	2568.299846
833.075849	2583.675365
833.392497	2580.818712
833.709101	2593.673654
834.025662	2581.742923
834.342179	2597.706577
834.658653	2582.751154
834.975083	2577.205885
835.291469	2600.059115
835.607811	2580.482635
835.924110	2577.205885
836.240366	2567.291615
836.556578	2579.138327
836.872746	2567.207596
837.188871	2577.794019
837.504952	2570.064250
837.820990	2574.097173
838.136984	2570.820423
838.452935	2569.224058
838.768842	2575.777558
839.084706	2577.373923
839.400526	2571.240519
839.716303	2565.947308
840.032037	2587.876327
840.347727	2576.533731
840.663373	2587.120154
840.978977	2573.929135
841.294537	2570.064250
841.610054	2570.316308
841.925527	2576.197654
842.240957	2568.803962
842.556344	2574.433250
842.871687	2567.627692
843.186987	2571.828654
843.502244	2552.504231
843.817458	2567.543673
844.132629	2558.805673
844.447756	2582.583115
844.762840	2575.189423
845.077881	2578.970288
845.392879	2570.652385
845.707833	2583.423308
846.022745	2574.685308
846.337613	2572.164731
846.652438	2573.088942
846.967221	2574.265212
847.281960	2569.056019
847.596656	2574.853346
847.911309	2580.230577
848.225919	2573.425019
848.540485	2578.550192
848.855009	2576.617750
849.169490	2585.859865
849.483928	2571.744635
849.798323	2582.079000
850.112675	2582.583115
850.426984	2574.097173
850.741251	2560.149981
851.055474	2570.400327
851.369654	2584.767615
851.683792	2571.072481
851.997887	2566.787500
852.311938	2577.373923
852.625947	2566.955538
852.939914	2578.802250
853.253837	2568.131808
853.567718	2569.224058
853.881555	2566.535442
854.195350	2581.658904
854.509103	2573.088942
854.822812	2570.736404
855.136479	2569.644154
855.450103	2561.074192
855.763685	2577.962058
856.077224	2568.131808
856.390720	2574.601288
856.704173	2580.818712
857.017584	2564.687019
857.330953	2569.476115
857.644278	2570.064250
857.957561	2585.523788
858.270802	2557.125288
858.584000	2570.484346
858.897155	2567.039558
859.210268	2556.369115
859.523339	2568.383865
859.836367	2582.667135
860.149352	2569.812192
860.462295	2569.896212
860.775195	2569.476115
861.088054	2577.289904
861.400869	2568.803962
861.713642	2581.742923
862.026373	2575.105404
862.339062	2576.113635
862.651708	2559.225769
862.964312	2570.148269
863.276873	2563.006635
863.589392	2565.275154
863.901869	2571.912673
864.214303	2567.543673
864.526696	2553.680500
864.839045	2577.037846
865.151353	2575.609519
865.463619	2567.207596
865.775842	2566.451423
866.088023	2581.826942
866.400162	2568.047788
866.712258	2581.742923
867.024313	2561.578308
867.336325	2568.635923
867.648296	2580.650673
867.960224	2578.634212
868.272110	2566.871519
868.583954	2574.517269
868.895755	2571.324538
869.207515	2570.568365
869.519233	2576.197654
869.830909	2570.232288
870.142542	2571.660615
870.454134	2560.234000
870.765684	2572.080712
871.077191	2556.033038
871.388657	2579.726462
871.700081	2572.248750
872.011463	2564.603000
872.322803	2575.609519
872.634101	2560.906154
872.945357	2570.652385
873.256571	2572.500808
873.567744	2577.373923
873.878874	2571.912673
874.189963	2560.486058
874.501010	2567.879750
874.812015	2575.609519
875.122979	2557.797442
875.433900	2573.761096
875.744780	2566.031327
876.055618	2582.415077
876.366415	2566.619462
876.677169	2571.576596
876.987882	2563.006635
877.298554	2561.578308
877.609183	2569.140038
877.919771	2571.492577
878.230317	2571.828654
878.540822	2582.751154
878.851285	2572.332769
879.161707	2561.326250
879.472087	2570.232288
879.782425	2579.558423
880.092722	2571.408558
880.402977	2593.337577
880.713191	2578.466173
881.023363	2596.278250
881.333494	2580.818712
881.643583	2587.792308
881.953631	2596.530308
882.263637	2579.054308
882.573602	2595.690115
882.883526	2595.438058
883.193408	2574.433250
883.503248	2585.775846
883.813048	2569.392096
884.122806	2586.784077
884.432522	2586.532019
884.742197	2582.835173
885.051831	2583.255269
885.361424	2585.271731
885.670975	2569.140038
885.980485	2573.256981
886.289954	2573.761096
886.599382	2579.054308
886.908768	2569.308077
887.218113	2555.612942
887.527417	2581.658904
887.836680	2583.087231
888.145901	2571.912673
888.455082	2556.621173
888.764221	2559.645865
889.073319	2567.375635
889.382376	2567.627692
889.691392	2566.703481
890.000366	2564.350942
890.309300	2562.754577
890.618193	2580.062538
890.927044	2565.695250
891.235855	2576.449712
891.544625	2552.672269
891.853353	2560.402038
892.162041	2561.662327
892.470687	2569.560135
892.779293	2582.499096
893.087858	2565.359173
893.396381	2568.972000
893.704864	2576.449712
894.013306	2572.500808
894.321707	2584.011442
894.630068	2570.316308
894.938387	2588.296423
895.246665	2571.156500
895.554903	2576.281673
895.863100	2584.095462
896.171256	2574.769327
896.479371	2570.484346
896.787446	2574.181192
897.095480	2574.349231
897.403473	2575.609519
897.711425	2569.476115
898.019336	2583.003212
898.327207	2578.550192
898.635038	2584.851635
898.942827	2561.410269
899.250576	2576.449712
899.558284	2565.527212
899.865952	2578.718231
900.173579	2575.609519
900.481165	2559.057731
900.788711	2564.182904
901.096216	2578.130096
901.403681	2568.551904
901.711105	2559.897923
902.018489	2577.121865
902.325832	2574.937365
902.633135	2566.115346
902.940397	2577.962058
903.247619	2563.510750
903.554800	2576.365692
903.861941	2561.662327
904.169041	2572.920904
904.476101	2581.910962
904.783121	2586.868096
905.090100	2589.388673
905.397039	2582.499096
905.703938	2581.994981
906.010796	2579.978519
906.317614	2566.787500
906.624391	2579.726462
906.931129	2582.079000
907.237826	2569.224058
907.544483	2566.703481
907.851099	2573.509038
908.157675	2579.306365
908.464211	2566.199365
908.770707	2567.459654
909.077163	2566.115346
909.383578	2561.746346
909.689954	2567.795731
909.996289	2564.434962
910.302584	2577.205885
910.608839	2569.476115
910.915054	2575.693538
911.221229	2565.611231
911.527363	2571.492577
911.833458	2569.644154
912.139513	2564.518981
912.445527	2565.275154
912.751502	2556.033038
913.057436	2557.461365
913.363331	2568.383865
913.669186	2592.749442
913.975000	2570.400327
914.280775	2572.248750
914.586510	2566.955538
914.892205	2563.090654
915.197859	2583.759385
915.503475	2577.037846
915.809050	2580.650673
916.114585	2574.937365
916.420081	2580.230577
916.725536	2580.230577
917.030952	2591.825231
917.336328	2593.169538
917.641665	2582.751154
917.946961	2575.861577
918.252218	2563.426731
918.557435	2571.828654
918.862612	2591.909250
919.167750	2578.046077
919.472848	2573.341000
919.777906	2580.566654
920.082925	2564.855058
920.387904	2564.518981
920.692843	2565.611231
920.997743	2594.009731
921.302603	2583.339288
921.607423	2579.306365
921.912204	2566.199365
922.216946	2568.299846
922.521647	2563.510750
922.826310	2572.752865
923.130932	2567.291615
923.435516	2573.929135
923.740059	2565.191135
924.044564	2580.062538
924.349028	2570.652385
924.653454	2567.963769
924.957840	2578.382154
925.262186	2568.972000
925.566493	2571.240519
925.870761	2569.644154
926.174989	2573.677077
926.479178	2578.802250
926.783328	2577.962058
927.087438	2554.772750
927.391509	2566.619462
927.695541	2577.794019
927.999533	2570.484346
928.303486	2564.518981
928.607400	2564.687019
928.911275	2566.871519
929.215110	2562.922615
929.518906	2564.266923
929.822663	2562.754577
930.126381	2568.635923
930.430060	2577.878038
930.733699	2558.889692
931.037299	2561.326250
931.340861	2564.687019
931.644383	2561.914385
931.947866	2567.963769
932.251309	2579.138327
932.554714	2549.143462
932.858080	2576.533731
933.161407	2582.751154
933.464694	2570.904442
933.767943	2552.084135
934.071153	2586.868096
934.374323	2544.942500
934.677455	2559.477827
934.980548	2563.006635
935.283602	2546.454846
935.586617	2569.224058
935.889593	2560.654096
936.192530	2570.400327
936.495428	2572.920904
936.798287	2572.164731
937.101108	2563.258692
937.403890	2562.250462
937.706632	2564.014865
938.009336	2552.588250
938.312002	2574.349231
938.614628	2571.072481
938.917216	2569.812192
939.219765	2567.627692
939.522275	2581.574885
939.824747	2571.408558
940.127179	2560.990173
940.429573	2570.904442
940.731929	2576.953827
941.034246	2555.444904
941.336524	2563.090654
941.638763	2563.930846
941.940964	2560.402038
942.243126	2572.332769
942.545250	2575.021385
942.847335	2549.395519
943.149381	2575.357462
943.451389	2571.912673
943.753359	2553.932558
944.055290	2561.494288
944.357182	2558.805673
944.659036	2571.408558
944.960851	2568.299846
945.262628	2558.553615
945.564367	2564.182904
945.866067	2562.586538
946.167729	2586.868096
946.469352	2563.342712
946.770937	2560.822135
947.072484	2582.835173
947.373992	2564.098885
947.675462	2589.304654
947.976893	2554.436673
948.278286	2557.965481
948.579641	2566.367404
948.880958	2566.619462
949.182236	2567.627692
949.483476	2564.518981
949.784678	2570.484346
950.085841	2548.891404
950.386967	2567.795731
950.688054	2568.215827
950.989103	2565.107115
951.290114	2562.250462
951.591087	2572.416788
951.892021	2563.846827
952.192917	2571.828654
952.493776	2561.242231
952.794596	2565.527212
953.095378	2553.512462
953.396122	2560.318019
953.696828	2561.578308
953.997496	2575.105404
954.298126	2573.425019
954.598718	2569.812192
954.899272	2560.654096
955.199788	2561.326250
955.500266	2560.990173
955.800706	2561.158212
956.101108	2572.332769
956.401472	2574.013154
956.701798	2567.375635
957.002087	2554.772750
957.302337	2555.444904
957.602550	2563.006635
957.902724	2556.537154
958.202861	2567.123577
958.502960	2557.797442
958.803022	2559.393808
959.103045	2574.937365
959.403031	2569.476115
959.702979	2557.545385
960.002889	2571.240519
960.302762	2568.383865
960.602596	2559.981942
960.902393	2584.263500
961.202153	2558.049500
961.501875	2561.914385
961.801559	2549.311500
962.101205	2575.105404
962.400814	2565.443192
962.700385	2560.149981
962.999918	2557.461365
963.299414	2551.664038
963.598873	2577.794019
963.898293	2571.744635
964.197677	2560.234000
964.497022	2562.166442
964.796331	2560.822135
965.095601	2562.754577
965.394835	2586.448000
965.694030	2563.678788
965.993189	2560.149981
966.292309	2562.922615
966.591393	2559.897923
966.890439	2572.752865
967.189447	2563.510750
967.488419	2559.477827
967.787353	2562.670558
968.086249	2554.772750
968.385108	2551.327962
968.683930	2576.617750
968.982714	2564.434962
969.281462	2569.056019
969.580172	2555.528923
969.878844	2567.963769
970.177480	2564.434962
970.476078	2565.779269
970.774639	2582.415077
971.073162	2580.902731
971.371649	2565.443192
971.670098	2555.192846
971.968510	2576.113635
972.266885	2563.258692
972.565223	2548.051212
972.863524	2566.115346
973.161788	2566.703481
973.460014	2553.680500
973.758204	2555.780981
974.056356	2567.543673
974.354471	2578.214115
974.652550	2570.148269
974.950591	2564.350942
975.248595	2569.980231
975.546563	2561.662327
975.844493	2569.728173
976.142386	2556.117058
976.440243	2543.934269
976.738062	2549.227481
977.035845	2560.065962
977.333590	2562.082423
977.631299	2547.799154
977.928971	2553.680500
978.226606	2563.258692
978.524204	2552.924327
978.821765	2571.492577
979.119290	2580.650673
979.416777	2561.494288
979.714228	2578.298135
980.011642	2555.780981
980.309020	2546.706904
980.606360	2569.476115
980.903664	2561.746346
981.200931	2567.039558
981.498162	2562.754577
981.795356	2568.467885
982.092513	2558.805673
982.389633	2565.611231
982.686717	2568.047788
982.983764	2560.149981
983.280775	2562.418500
983.577749	2561.830365
983.874686	2561.074192
984.171587	2570.400327
984.468451	2575.861577
984.765279	2557.881462
985.062070	2577.121865
985.358824	2575.693538
985.655543	2557.125288
985.952224	2559.057731
986.248869	2574.601288
986.545478	2568.131808
986.842050	2563.258692
987.138586	2565.863288
987.435086	2583.171250
987.731549	2557.377346
988.027975	2560.065962
988.324366	2566.115346
988.620719	2541.749769
988.917037	2559.729885
989.213318	2569.056019
989.509563	2574.685308
989.805772	2571.996692
990.101944	2543.766231
990.398080	2563.342712
990.694180	2571.408558
990.990244	2567.711712
991.286271	2563.930846
991.582262	2565.443192
991.878217	2568.635923
992.174136	2568.887981
992.470019	2568.887981
992.765865	2568.047788
993.061676	2545.698673
993.357450	2568.635923
993.653188	2546.622885
993.948890	2574.937365
994.244556	2556.537154
994.540186	2580.818712
994.835780	2561.998404
995.131337	2555.360885
995.426859	2564.266923
995.722345	2570.064250
996.017795	2575.357462
996.313208	2577.373923
996.608586	2548.723365
996.903928	2570.232288
997.199234	2560.486058
997.494504	2558.469596
997.789738	2563.678788
998.084936	2559.981942
998.380099	2551.075904
998.675225	2573.256981
998.970316	2570.400327
999.265371	2567.039558
999.560390	2551.664038
999.855373	2553.428442
1000.150320	2565.359173
1000.445232	2574.013154
1000.740108	2566.115346
1001.034948	2569.560135
1001.329752	2566.451423
1001.624521	2556.537154
1001.919254	2580.482635
1002.213951	2561.410269
1002.508613	2554.016577
1002.803239	2575.021385
1003.097829	2569.644154
1003.392384	2562.838596
1003.686903	2570.064250
1003.981386	2569.812192
1004.275834	2565.275154
1004.570246	2560.065962
1004.864623	2557.377346
1005.158964	2557.377346
1005.453270	2554.856769
1005.747540	2568.635923
1006.041775	2567.375635
1006.335974	2567.627692
1006.630138	2576.197654
1006.924266	2562.418500
1007.218359	2568.215827
1007.512416	2563.090654
1007.806438	2559.561846
1008.100425	2564.771038
1008.394376	2565.947308
1008.688292	2554.688731
1008.982172	2569.308077
1009.276017	2572.416788
1009.569827	2559.729885
1009.863602	2559.141750
1010.157341	2573.088942
1010.451045	2560.402038
1010.744714	2558.301558
1011.038347	2570.064250
1011.331945	2560.570077
1011.625508	2560.402038
1011.919036	2553.680500
1012.212528	2568.803962
1012.505986	2556.621173
1012.799408	2556.873231
1013.092795	2556.201077
1013.386147	2554.268635
1013.679464	2551.916096
1013.972745	2554.352654
1014.265992	2567.795731
1014.559204	2559.981942
1014.852380	2555.192846
1015.145521	2555.696962
1015.438628	2572.668846
1015.731699	2569.560135
1016.024736	2566.619462
1016.317737	2562.838596
1016.610703	2562.754577
1016.903635	2556.873231
1017.196531	2556.033038
1017.489393	2561.242231
1017.782219	2559.729885
1018.075011	2560.318019
1018.367768	2577.289904
1018.660490	2552.504231
1018.953177	2552.504231
1019.245829	2552.504231
