Dividing Wavelength (nm)	Counts (n)	Slit_number_20_of_a_total_of_40	
326.493990	2048.044367
326.888308	2048.044367
327.282561	2048.044367
327.676750	2021.779956
328.070874	2021.553104
328.464933	2023.670388
328.858929	2035.139013
329.252859	2054.244987
329.646726	2059.059288
330.040528	2072.972873
330.434265	2095.607654
330.827938	2110.630292
331.221547	2139.264046
331.615091	2150.858700
332.008571	2181.660150
332.401986	2201.371062
332.795338	2224.535163
333.188625	2240.465210
333.581847	2254.101531
333.975006	2271.695158
334.368100	2291.884979
334.761129	2303.630867
335.154095	2320.821202
335.546996	2336.373162
335.939833	2346.531087
336.332606	2366.065558
336.725315	2379.903525
337.117960	2374.786754
337.510540	2386.129350
337.903056	2402.588717
338.295508	2407.201373
338.687896	2416.552713
339.080220	2425.677202
339.472480	2429.735331
339.864676	2435.784715
340.256807	2425.853642
340.648875	2438.557350
341.040879	2437.649942
341.432818	2434.952925
341.824694	2445.942640
342.216506	2435.129365
342.608253	2436.717329
342.999937	2432.255908
343.391557	2437.070210
343.783113	2432.583583
344.174605	2436.465271
344.566033	2435.835127
344.957397	2444.027002
345.348697	2422.602098
345.739934	2429.810948
346.131106	2416.829977
346.522215	2431.449323
346.913260	2408.058369
347.304241	2422.450863
347.695159	2424.593354
348.086012	2412.040881
348.476802	2420.232756
348.867528	2417.661767
349.258191	2403.370096
349.648789	2415.872158
350.039324	2407.478637
350.429796	2411.158679
350.820203	2411.284708
351.210548	2409.621127
351.600828	2416.754360
351.991045	2405.562998
352.381198	2416.729154
352.771288	2412.721437
353.161314	2408.285221
353.551276	2401.303223
353.941175	2406.546023
354.331010	2415.393248
354.720782	2406.672052
355.110490	2406.571229
355.500135	2407.024933
355.889717	2406.772875
356.279235	2414.258988
356.668689	2407.100550
357.058080	2410.931827
357.447408	2414.586663
357.836672	2410.377300
358.225873	2406.672052
358.615010	2411.738412
359.004084	2405.714233
359.393095	2407.201373
359.782043	2415.594894
360.170927	2415.015162
360.559748	2410.604152
360.948505	2409.469892
361.337199	2410.226065
361.725830	2413.200346
362.114398	2416.325862
362.502903	2414.082548
362.891344	2418.342323
363.279722	2420.585637
363.668037	2423.509506
364.056289	2419.098496
364.444478	2415.771335
364.832603	2427.895310
365.220665	2422.854156
365.608665	2414.838721
365.996601	2422.450863
366.384474	2416.829977
366.772284	2418.922056
367.160031	2426.735844
367.547715	2422.753333
367.935336	2420.081521
368.322893	2419.627817
368.710388	2412.217321
369.097820	2414.788310
369.485189	2414.939544
369.872495	2420.762077
370.259738	2431.978644
370.646918	2424.139650
371.034035	2422.400452
371.421090	2423.030596
371.808081	2421.190575
372.195010	2416.073804
372.581875	2427.214754
372.968678	2430.214240
373.355418	2425.047058
373.742096	2427.945721
374.128710	2425.576379
374.515262	2435.683892
374.901751	2429.911771
375.288177	2430.289858
375.674540	2430.945208
376.060841	2430.516710
376.447079	2426.357758
376.833254	2428.626277
377.219367	2429.432862
377.605417	2423.383477
377.991404	2416.225038
378.377329	2429.206010
378.763191	2433.062492
379.148991	2431.625763
379.534727	2429.710125
379.920402	2429.004363
380.306013	2429.558890
380.691563	2442.565067
381.077049	2435.431835
381.462474	2429.432862
381.847835	2426.912285
382.233134	2438.179263
382.618371	2430.541915
383.003545	2431.197265
383.388657	2440.271342
383.773706	2433.138110
384.158693	2435.280600
384.543618	2429.332038
384.928480	2437.750765
385.313280	2437.851588
385.698017	2439.742021
386.082692	2441.329985
386.467305	2438.910231
386.851856	2432.331525
387.236344	2428.979158
387.620770	2441.456013
388.005133	2432.255908
388.389435	2436.112390
388.773674	2435.935950
389.157851	2436.792946
389.541965	2434.045517
389.926018	2435.910744
390.310008	2443.069183
390.693936	2434.297575
391.077802	2442.791919
391.461606	2444.858792
391.845348	2441.355190
392.229027	2444.480706
392.612645	2449.143773
392.996200	2442.741508
393.379694	2446.245110
393.763125	2433.516196
394.146494	2445.640171
394.529801	2453.479165
394.913047	2437.902000
395.296230	2440.725046
395.679351	2439.011054
396.062410	2444.783175
396.445408	2439.842844
396.828343	2452.949844
397.211217	2445.993052
397.594028	2444.657146
397.976778	2444.808381
398.359466	2456.529063
398.742092	2446.547579
399.124656	2444.102619
399.507158	2452.949844
399.889598	2450.630913
400.271977	2450.504885
400.654294	2450.933383
401.036549	2454.285750
401.418742	2457.638117
401.800874	2454.991512
402.182944	2458.822788
402.564952	2453.101079
402.946898	2465.653552
403.328783	2462.250773
403.710606	2459.755402
404.092367	2450.454473
404.474067	2463.385033
404.855705	2468.123717
405.237282	2459.856225
405.618797	2466.031638
406.000250	2474.374748
406.381642	2475.635037
406.762972	2466.031638
407.144240	2475.685448
407.525447	2482.667446
407.906593	2485.792962
408.287677	2496.480208
408.668700	2504.999758
409.049661	2513.468896
409.430560	2524.483817
409.811399	2540.665921
410.192176	2553.571275
410.572891	2566.451423
410.953545	2585.204515
411.334138	2600.101125
411.714669	2636.674696
412.095139	2651.697335
412.475547	2684.439629
412.855894	2710.754452
413.236180	2756.049219
413.616405	2781.683487
413.996568	2815.257571
414.376670	2872.600696
414.756711	2909.804412
415.136691	2951.041050
415.516609	3027.414531
415.896466	3082.438725
416.276262	3171.188238
416.655997	3259.685694
417.035670	3347.376565
417.415283	3461.609112
417.794834	3557.466652
418.174324	3621.640540
418.553753	3701.341183
418.933121	3848.996579
419.312428	3936.863890
419.691674	4011.800642
420.070859	4183.199873
420.449983	4247.524996
420.829045	4444.180408
421.208047	4520.226213
421.586988	4691.953119
421.965867	4858.613665
422.344686	4977.786542
422.723444	5212.099373
423.102141	5065.427002
423.480777	5414.174025
423.859352	5432.347385
424.237866	5793.924144
424.616319	5858.324885
424.994712	6121.901613
425.373044	6187.940729
425.751314	6493.711915
426.129524	6363.599735
426.507673	6772.008813
426.885762	6804.877137
427.263789	6943.836542
427.641756	7118.915815
428.019662	7249.506906
428.397508	7358.748710
428.775292	7534.785802
429.153016	7630.189638
429.530679	7731.390802
429.908282	7837.633119
430.285824	7807.688665
430.663305	8126.415617
431.040726	8059.343065
431.418086	8055.335348
431.795385	8325.137902
432.172624	8538.303092
432.549802	8401.839058
432.926920	8524.969240
433.303977	8514.332406
433.680974	8606.257846
434.057910	8721.347388
434.434786	8737.504287
434.811601	8689.436885
435.188355	9052.626813
435.565050	8912.205473
435.941683	8863.381898
436.318257	9182.461731
436.694770	9062.205006
437.071222	9257.045602
437.447614	8880.168940
437.823946	8820.154004
438.200218	8815.793406
438.576429	8663.727000
438.952580	8696.494500
439.328670	8603.434800
439.704700	8645.452817
440.080670	8442.470758
440.456580	8529.682719
440.832429	8483.480544
441.208218	8093.421265
441.583947	8095.210875
441.959616	8020.879062
442.335224	7980.625448
442.710773	7921.013804
443.086261	7967.190773
443.461689	7637.524517
443.837057	7583.281702
444.212365	7629.962787
444.587612	7496.120152
444.962800	7263.672548
445.337927	7233.148362
445.712995	6796.609644
446.088002	7099.986283
446.462949	7000.297465
446.837837	6885.686833
447.212664	6742.240800
447.587431	7109.614887
447.962139	7568.964825
448.336786	7925.954135
448.711374	7537.785288
449.085901	6703.474327
449.460369	6484.839485
449.834776	6282.311129
450.209124	6512.994329
450.583412	6294.309075
450.957640	6272.783348
451.331808	5938.176762
451.705917	5588.270273
452.079965	5427.734729
452.453954	5332.053629
452.827883	5189.162123
453.201752	5041.506727
453.575562	4944.842602
453.949311	4901.110592
454.323001	4796.758708
454.696632	4650.716481
455.070202	4663.268954
455.443713	4572.805448
455.817164	4507.875387
456.190556	4437.626908
456.563888	4300.053819
456.937160	4225.923652
457.310373	4016.312475
457.683526	3948.231692
458.056619	3830.394721
458.429653	3738.292840
458.802628	3692.216694
459.175542	3616.271712
459.548398	3600.366871
459.921194	3593.208433
460.293930	3565.154412
460.666607	3581.916248
461.039224	3581.185281
461.411782	3519.657998
461.784280	3404.795308
462.156719	3317.432112
462.529099	3247.712954
462.901419	3144.092037
463.273680	3072.835327
463.645882	3032.884183
464.018024	2990.034375
464.390106	2953.057512
464.762130	2971.684575
465.134094	3006.241685
465.505999	3059.098183
465.877845	3082.514342
466.249631	3073.843558
466.621358	3001.402177
466.993026	2941.639298
467.364634	2893.496279
467.736184	2848.453569
468.107674	2808.880512
468.479105	2785.489558
468.850477	2758.821854
469.221790	2742.917013
469.593043	2714.232848
469.964238	2695.681402
470.335373	2685.321831
470.706449	2687.918025
471.077467	2684.742098
471.448425	2702.461754
471.819324	2709.040460
472.190164	2696.462781
472.560945	2671.357835
472.931667	2641.967908
473.302330	2629.238994
473.672934	2614.770883
474.043479	2616.182406
474.413965	2609.553288
474.784393	2610.536313
475.154761	2601.915940
475.525070	2594.707090
475.895321	2583.792992
476.265513	2580.642271
476.635645	2587.498240
477.005719	2576.281673
477.375734	2574.643298
477.745691	2572.878894
478.115588	2572.324367
478.485427	2574.038360
478.855207	2582.583115
479.224928	2588.178796
479.594591	2583.944227
479.964194	2579.255954
480.333739	2580.087744
480.703226	2569.022412
481.072653	2571.467371
481.442022	2573.231775
481.811333	2562.141237
482.180584	2552.764690
482.549777	2554.881975
482.918912	2544.421581
483.287988	2550.118085
483.657005	2545.505429
484.025964	2540.968390
484.394864	2534.440096
484.763706	2535.246681
485.132489	2524.811492
485.501213	2532.020342
485.869879	2525.970958
486.238487	2529.373737
486.607036	2530.155115
486.975527	2515.661798
487.343959	2513.998217
487.712333	2519.241017
488.080648	2517.400996
488.448905	2512.737929
488.817104	2514.880419
489.185244	2522.215298
489.553326	2519.770338
489.921350	2528.768798
490.289315	2516.594412
490.657222	2531.364992
491.025070	2525.340813
491.392861	2529.121679
491.760593	2516.039885
492.128267	2521.459125
492.495883	2512.158196
492.863440	2512.586694
493.230939	2513.544513
493.598380	2503.537823
493.965763	2510.948319
494.333088	2499.530106
494.700354	2506.764162
495.067563	2506.436487
495.434713	2505.604696
495.801805	2509.309944
496.168839	2521.005421
496.535815	2504.041938
496.902733	2505.226610
497.269593	2500.689571
497.636395	2493.984837
498.003139	2506.587721
498.369825	2495.900475
498.736453	2501.924654
499.103023	2503.638646
499.469535	2506.436487
499.835989	2505.957577
500.202385	2513.166427
500.568723	2500.235867
500.935003	2492.018787
501.301226	2501.874242
501.667390	2503.184942
502.033497	2506.386075
502.399546	2506.713750
502.765537	2499.252842
503.131470	2505.831548
503.497345	2503.613440
503.863163	2504.520848
504.228923	2496.984323
504.594625	2504.798112
504.960269	2494.110865
505.325856	2504.646877
505.691385	2489.699856
506.056856	2505.655108
506.422270	2500.815600
506.787625	2505.377844
507.152924	2507.343894
507.518164	2505.050169
507.883347	2501.773419
508.248472	2502.428769
508.613540	2498.244612
508.978550	2504.167967
509.343503	2502.428769
509.708398	2499.630929
510.073236	2503.739469
510.438016	2503.689058
510.802738	2504.092350
511.167403	2501.067658
511.532010	2500.084633
511.896561	2497.463233
512.261053	2501.546567
512.625488	2501.798625
512.989866	2498.673110
513.354186	2500.563542
513.718449	2504.117556
514.082655	2501.672596
514.446803	2502.277535
514.810894	2505.907165
515.174927	2501.193687
515.538904	2504.999758
515.902822	2499.983810
516.266684	2500.840806
516.630488	2500.412308
516.994235	2499.580517
517.357925	2508.074862
517.721558	2507.848010
518.085133	2509.057887
518.448651	2499.202431
518.812112	2502.857267
519.175516	2502.025477
519.538863	2499.076402
519.902152	2503.865498
520.265385	2506.738956
520.628560	2498.295023
520.991678	2507.469923
521.354739	2511.981756
521.717743	2507.469923
522.080690	2510.822290
522.443580	2517.199350
522.806413	2512.233813
523.169189	2508.604183
523.531908	2505.604696
523.894569	2504.520848
524.257174	2507.772392
524.619722	2507.217865
524.982213	2509.940088
525.344647	2508.604183
525.707025	2504.823317
526.069345	2512.158196
526.431608	2519.064577
526.793815	2516.947292
527.155964	2522.164887
527.518057	2511.981756
527.880093	2517.300173
528.242072	2513.947806
528.603995	2512.032167
528.965860	2521.358302
529.327669	2511.654081
529.689421	2519.316635
530.051117	2515.712210
530.412755	2513.594925
530.774337	2508.654594
531.135862	2507.621158
531.497331	2512.359842
531.858743	2515.838238
532.220098	2511.124760
532.581396	2513.267250
532.942638	2511.275994
533.303824	2509.562002
533.664953	2510.267763
534.026025	2507.520335
534.387040	2509.259533
534.747999	2502.655621
535.108902	2506.386075
535.469748	2506.285252
535.830537	2510.242558
536.191270	2505.352638
536.551947	2499.303254
536.912567	2504.016733
537.273131	2506.991013
537.633638	2494.942656
537.994089	2502.327946
538.354483	2499.782163
538.714821	2501.395333
539.075103	2507.999244
539.435328	2502.554798
539.795497	2496.303767
540.155609	2501.042452
540.515665	2495.875269
540.875665	2508.957063
541.235609	2503.134531
541.595496	2495.850063
541.955328	2494.892244
542.315102	2494.614981
542.674821	2505.201404
543.034483	2494.993067
543.394090	2500.563542
543.753640	2510.368587
544.113134	2504.319202
544.472571	2495.245125
544.831953	2503.008502
545.191278	2506.537310
545.550548	2489.498210
545.909761	2504.823317
546.268918	2499.252842
546.628019	2508.226096
546.987064	2501.748213
547.346053	2503.689058
547.704986	2492.195227
548.063863	2495.421565
548.422684	2491.060967
548.781449	2512.107785
549.140158	2494.388129
549.498811	2493.682367
549.857408	2487.053250
550.215949	2502.227123
550.574434	2497.916937
550.932864	2499.958604
551.291237	2505.050169
551.649555	2496.102121
552.007817	2502.378358
552.366022	2498.925167
552.724173	2501.521362
553.082267	2498.042965
553.440305	2496.883500
553.798288	2509.133504
554.156215	2497.916937
554.514086	2494.236894
554.871902	2493.707573
555.229661	2503.689058
555.587365	2492.144815
555.945014	2499.630929
556.302606	2497.664879
556.660143	2500.109838
557.017625	2496.202944
557.375050	2499.303254
557.732421	2495.219919
558.089735	2500.185456
558.446994	2492.800165
558.804197	2503.890704
559.161345	2496.228150
559.518437	2497.488438
559.875474	2505.806342
560.232455	2498.572287
560.589381	2504.067144
560.946251	2499.908192
561.303065	2499.882987
561.659825	2494.867038
562.016528	2502.000271
562.373177	2507.495129
562.729770	2497.942142
563.086307	2502.655621
563.442789	2499.278048
563.799216	2504.167967
564.155587	2502.101094
564.511904	2499.908192
564.868164	2493.808396
565.224370	2506.083606
565.580520	2512.511077
565.936615	2506.713750
566.292654	2495.320742
566.648638	2499.908192
567.004567	2500.084633
567.360441	2496.883500
567.716260	2502.378358
568.072023	2499.076402
568.427732	2503.563029
568.783385	2504.949346
569.138982	2501.823831
569.494525	2501.949860
569.850013	2496.606237
570.205445	2501.319715
570.560823	2498.295023
570.916145	2510.091323
571.271412	2493.959631
571.626625	2502.252329
571.981782	2499.958604
572.336884	2501.143275
572.691931	2493.531133
573.046923	2494.211688
573.401860	2492.396873
573.756743	2496.177738
574.111570	2500.185456
574.466342	2508.074862
574.821059	2500.034221
575.175722	2501.622185
575.530330	2492.951400
575.884882	2500.261073
576.239380	2497.110352
576.593823	2505.302227
576.948211	2487.532160
577.302544	2496.681854
577.656823	2502.504387
578.011047	2501.823831
578.365216	2497.412821
578.719330	2499.429283
579.073389	2502.025477
579.427394	2492.119610
579.781344	2488.767242
580.135239	2502.453975
580.489080	2503.739469
580.842866	2498.244612
581.196597	2499.832575
581.550273	2498.723521
581.903895	2497.362410
582.257463	2496.581031
582.610975	2506.134017
582.964434	2493.934425
583.317837	2508.679800
583.671186	2502.706033
584.024481	2495.900475
584.377721	2489.019300
584.730906	2506.738956
585.084037	2491.867552
585.437113	2500.588748
585.790135	2502.403563
586.143103	2499.278048
586.496016	2494.514158
586.848874	2497.538850
587.201679	2499.152019
587.554428	2492.573313
587.907124	2494.236894
588.259765	2498.622698
588.612352	2494.564569
588.964884	2495.976092
589.317362	2503.563029
589.669786	2490.859321
590.022155	2491.413848
590.374470	2489.926708
590.726731	2498.345435
591.078937	2490.934938
591.431090	2502.680827
591.783188	2498.093377
592.135232	2491.439054
592.487222	2502.882473
592.839157	2491.086173
593.191038	2489.901502
593.542866	2499.706546
593.894639	2499.857781
594.246358	2494.186483
594.598022	2490.758498
594.949633	2488.893271
595.301190	2497.311998
595.652692	2498.773933
596.004141	2494.488952
596.355535	2490.254383
596.706876	2494.488952
597.058162	2493.808396
597.409395	2486.322283
597.760573	2485.918990
598.111698	2483.549648
598.462768	2495.547594
598.813785	2484.709113
599.164748	2490.834115
599.515657	2488.162304
599.866511	2486.095431
600.217312	2488.918477
600.568060	2494.262100
600.918753	2493.581544
601.269392	2492.648931
601.619978	2491.691112
601.970510	2491.640700
602.320988	2493.279075
602.671412	2492.472490
603.021783	2493.203458
603.372100	2492.951400
603.722363	2487.204485
604.072572	2487.053250
604.422728	2494.312512
604.772830	2494.085660
605.122878	2493.606750
605.472872	2482.314565
605.822813	2491.766729
606.172701	2490.027531
606.522534	2487.053250
606.872314	2490.859321
607.222041	2498.723521
607.571714	2493.379898
607.921333	2481.709627
608.270899	2489.069712
608.620411	2488.641213
608.969870	2493.001812
609.319276	2486.801192
609.668627	2500.336690
610.017926	2493.228663
610.367171	2496.807883
610.716362	2486.095431
611.065500	2486.675163
611.414585	2489.649444
611.763616	2491.086173
612.112594	2496.228150
612.461518	2491.413848
612.810389	2487.154073
613.159207	2487.355719
613.507971	2488.968888
613.856682	2494.665392
614.205340	2489.775473
614.553945	2493.253869
614.902496	2480.978660
615.250994	2491.262613
615.599439	2491.917963
615.947830	2492.976606
616.296169	2497.589262
616.644454	2486.297077
616.992686	2491.186996
617.340864	2493.959631
617.688990	2495.093890
618.037063	2491.514671
618.385082	2488.641213
618.733048	2486.952427
619.080961	2494.010042
619.428821	2486.599546
619.776628	2494.388129
620.124382	2485.742550
620.472083	2491.237408
620.819731	2488.464773
621.167326	2493.531133
621.514868	2489.876296
621.862357	2492.296050
622.209793	2497.337204
622.557176	2489.447798
622.904506	2483.095944
623.251783	2481.835656
623.599007	2494.514158
623.946179	2490.153560
624.293297	2490.405617
624.640363	2486.120637
624.987376	2479.491519
625.334336	2480.928248
625.681243	2484.305821
626.028097	2476.844913
626.374899	2495.648417
626.721647	2477.752321
627.068343	2483.196767
627.414987	2487.431337
627.761577	2490.330000
628.108115	2488.011069
628.454600	2485.566110
628.801032	2495.497183
629.147412	2482.667446
629.493739	2478.029585
629.840014	2479.012610
630.186236	2494.640187
630.532405	2481.583598
630.878521	2493.984837
631.224585	2490.153560
631.570597	2486.649958
631.916556	2485.036788
632.262462	2492.875783
632.608316	2488.994094
632.954117	2481.608804
633.299866	2481.911273
633.645562	2486.826398
633.991206	2478.735346
634.336797	2482.516212
634.682336	2487.002838
635.027823	2481.054277
635.373257	2495.497183
635.718639	2490.203971
636.063968	2485.742550
636.409245	2490.103148
636.754470	2483.978146
637.099642	2483.801706
637.444762	2483.927735
637.789829	2485.162817
638.134845	2492.422079
638.479808	2484.885554
638.824719	2482.213742
639.169577	2480.777013
639.514383	2484.305821
639.859137	2489.422592
640.203839	2482.541417
640.548489	2481.760038
640.893086	2479.768783
641.237632	2485.843373
641.582125	2485.087200
641.926566	2485.742550
642.270955	2484.809937
642.615292	2476.113946
642.959576	2482.692652
643.303809	2469.333594
643.647990	2479.239462
643.992118	2487.557365
644.336195	2485.918990
644.680219	2483.095944
645.024192	2476.744090
645.368112	2480.121663
645.711981	2479.037815
646.055797	2477.979173
646.399562	2484.356233
646.743274	2481.457569
647.086935	2478.659729
647.430544	2486.902015
647.774101	2479.088227
648.117606	2478.155613
648.461059	2481.079483
648.804460	2478.206025
649.147810	2485.540904
649.491108	2482.541417
649.834354	2481.381952
650.177548	2483.978146
650.520690	2480.575367
650.863781	2486.347488
651.206820	2476.819708
651.549807	2483.852117
651.892742	2475.055304
652.235626	2479.920017
652.578458	2478.105202
652.921238	2479.541931
653.263967	2480.524956
653.606644	2483.196767
653.949269	2485.591315
654.291843	2482.516212
654.634365	2491.262613
654.976836	2480.777013
655.319255	2478.382465
655.661622	2475.811477
656.003938	2481.785244
656.346203	2478.407671
656.688416	2479.466313
657.030577	2479.441108
657.372687	2480.903042
657.714746	2474.752835
658.056753	2477.424646
658.398708	2480.877837
658.740612	2477.575881
659.082465	2473.643781
659.424266	2477.475058
659.766016	2463.284210
660.107715	2476.214769
660.449362	2469.913327
660.790958	2487.305308
661.132503	2482.869092
661.473996	2471.627319
661.815438	2488.086687
662.156829	2482.818681
662.498168	2486.675163
662.839456	2476.164358
663.180693	2474.425160
663.521879	2476.970942
663.863013	2477.953967
664.204097	2469.283183
664.545129	2480.575367
664.886110	2476.492033
665.227040	2478.558906
665.567918	2481.306335
665.908746	2474.979687
666.249522	2482.264154
666.590248	2477.021354
666.930922	2477.298617
667.271545	2476.844913
667.612118	2477.374235
667.952639	2476.517238
668.293109	2471.803760
668.633528	2476.870119
668.973896	2478.936992
669.314213	2476.643267
669.654480	2481.709627
669.994695	2482.743063
670.334859	2478.105202
670.674973	2474.778040
671.015035	2483.196767
671.355047	2471.249233
671.695008	2483.171562
672.034918	2477.046560
672.374777	2478.231231
672.714585	2477.424646
673.054342	2469.787298
673.394049	2472.131435
673.733705	2475.987917
674.073310	2479.844400
674.412864	2470.921558
674.752368	2475.987917
675.091820	2469.106742
675.431223	2484.557879
675.770574	2470.215796
676.109875	2479.693165
676.449125	2473.442135
676.788324	2472.232258
677.127473	2472.081023
677.466571	2469.031125
677.805619	2478.180819
678.144616	2473.366517
678.483562	2479.390696
678.822458	2481.709627
679.161303	2472.257463
679.500098	2476.668473
679.838842	2473.719398
680.177535	2477.475058
680.516179	2475.912300
680.854771	2473.895838
681.193314	2480.877837
681.531805	2472.660756
681.870247	2481.356746
682.208638	2485.288846
682.546978	2475.408185
682.885268	2474.576394
683.223508	2487.179279
683.561697	2474.752835
683.899836	2471.904583
684.237925	2473.492546
684.575963	2475.156127
684.913951	2475.887094
685.251889	2472.333081
685.589776	2471.551702
685.927614	2483.801706
686.265401	2478.533700
686.603137	2473.341312
686.940824	2478.836169
687.278460	2480.121663
687.616046	2481.281129
687.953582	2478.584112
688.291068	2470.795529
688.628504	2477.449852
688.965889	2472.307875
689.303224	2482.163331
689.640510	2476.088740
689.977745	2478.659729
690.314930	2474.021867
690.652065	2473.114460
690.989150	2474.450365
691.326185	2472.333081
691.663170	2475.080510
692.000105	2480.953454
692.336990	2470.719912
692.673825	2471.627319
693.010610	2463.586679
693.347345	2473.694192
693.684030	2475.559419
694.020665	2469.434417
694.357251	2467.720425
694.693786	2470.946763
695.030272	2473.517752
695.366707	2465.426700
695.703093	2473.190077
696.039429	2468.804273
696.375716	2471.198821
696.711952	2477.349029
697.048139	2477.827938
697.384276	2475.962712
697.720363	2474.929275
698.056400	2475.509008
698.392388	2479.718371
698.728326	2473.366517
699.064214	2473.391723
699.400053	2477.424646
699.735842	2479.037815
700.071581	2468.627833
700.407270	2476.693679
700.742910	2481.155100
701.078501	2478.533700
701.414042	2472.938019
701.749533	2473.467340
702.084974	2472.358287
702.420366	2467.191104
702.755709	2467.468367
703.091002	2467.216310
703.426246	2465.552729
703.761440	2467.468367
704.096584	2473.064048
704.431679	2470.266208
704.766725	2468.022894
705.101721	2470.568677
705.436668	2479.088227
705.771565	2471.753348
706.106413	2476.113946
706.441212	2465.678758
706.775961	2471.602113
707.110661	2472.408698
707.445311	2464.191617
707.779913	2473.416929
708.114465	2463.359827
708.448967	2469.484829
708.783421	2467.317133
709.117825	2471.602113
709.452180	2476.340798
709.786485	2469.661269
710.120742	2470.014150
710.454949	2463.813531
710.789107	2464.544498
711.123216	2464.116000
711.457275	2476.920531
711.791286	2473.921044
712.125247	2480.046046
712.459159	2472.509521
712.793023	2472.232258
713.126837	2467.947277
713.460602	2479.289873
713.794318	2474.399954
714.127985	2479.390696
714.461602	2478.105202
714.795171	2473.719398
715.128691	2472.131435
715.462162	2464.292440
715.795584	2469.913327
716.128957	2468.048100
716.462281	2474.173102
716.795556	2472.282669
717.128782	2466.308902
717.461960	2469.585652
717.795088	2475.735860
718.128167	2467.417956
718.461198	2474.399954
718.794180	2468.602627
719.127113	2464.065588
719.459997	2470.518265
719.792833	2465.451906
720.125619	2473.921044
720.458357	2471.173615
720.791046	2471.954994
721.123686	2470.215796
721.456278	2465.981227
721.788821	2464.191617
722.121315	2467.770837
722.453761	2470.316619
722.786158	2467.594396
723.118506	2473.366517
723.450805	2461.192131
723.783056	2476.315592
724.115259	2465.829992
724.447412	2463.889148
724.779518	2475.509008
725.111574	2479.264667
725.443582	2471.072792
725.775542	2467.972483
726.107453	2473.668987
726.439315	2472.711167
726.771129	2468.501804
727.102895	2462.780094
727.434612	2469.686475
727.766281	2460.234312
728.097901	2470.921558
728.429473	2470.644294
728.760996	2461.545012
729.092471	2465.577935
729.423897	2475.786271
729.755276	2471.526496
730.086606	2467.770837
730.417887	2475.660242
730.749120	2481.457569
731.080305	2475.710654
731.411442	2477.853144
731.742530	2478.508494
732.073570	2466.434931
732.404562	2463.637090
732.735506	2480.222487
733.066401	2482.037302
733.397249	2465.376288
733.728048	2466.107256
734.058798	2466.409725
734.389501	2469.056331
734.720156	2461.545012
735.050762	2468.148923
735.381320	2474.273925
735.711831	2466.132462
736.042293	2467.392750
736.372707	2466.686988
736.703073	2462.402008
737.033391	2469.459623
737.363661	2467.871660
737.693883	2476.693679
738.024056	2471.929788
738.354182	2467.115487
738.684260	2468.375775
739.014290	2474.626806
739.344272	2473.492546
739.674207	2458.318673
740.004093	2470.215796
740.333931	2471.803760
740.663722	2467.518779
740.993464	2464.317646
741.323159	2463.460650
741.652806	2470.064562
741.982405	2474.173102
742.311956	2467.317133
742.641460	2469.283183
742.970915	2467.039869
743.300323	2465.124231
743.629683	2467.468367
743.958996	2465.880404
744.288260	2468.552215
744.617477	2468.879890
744.946647	2462.679271
745.275768	2468.249746
745.604842	2460.385546
745.933869	2472.484315
746.262847	2464.746144
746.591778	2464.947790
746.920662	2460.965279
747.249498	2471.350056
747.578286	2467.619602
747.907027	2477.953967
748.235720	2462.906123
748.564365	2470.039356
748.892963	2478.256437
749.221514	2464.292440
749.550017	2470.946763
749.878473	2467.518779
750.206881	2477.601087
750.535242	2463.989971
750.863555	2471.173615
751.191821	2464.720938
751.520039	2468.854685
751.848210	2459.528550
752.176334	2469.837710
752.504411	2465.325877
752.832440	2458.545525
753.160421	2460.511575
753.488356	2465.199848
753.816243	2473.870633
754.144082	2473.316106
754.471875	2469.610858
754.799620	2470.669500
755.127318	2466.283696
755.454969	2469.232771
755.782572	2461.040896
756.110129	2474.601600
756.437638	2466.308902
756.765100	2468.098512
757.092515	2468.148923
757.419882	2472.232258
757.747203	2468.048100
758.074477	2466.813017
758.401703	2465.401494
758.728882	2455.369598
759.056014	2469.762092
759.383099	2466.510548
759.710138	2471.778554
760.037129	2458.142233
760.364073	2464.216823
760.690970	2462.275979
761.017820	2466.586165
761.344623	2467.896865
761.671379	2466.964252
761.998088	2457.033179
762.324751	2472.862402
762.651366	2467.417956
762.977935	2466.434931
763.304456	2466.334108
763.630931	2475.256950
763.957359	2470.820735
764.283740	2464.418469
764.610074	2477.853144
764.936362	2463.712708
765.262602	2476.441621
765.588796	2465.502317
765.914943	2465.149437
766.241044	2472.963225
766.567097	2465.325877
766.893104	2465.149437
767.219064	2461.822275
767.544978	2455.571244
767.870845	2465.956021
768.196665	2475.433390
768.522438	2463.763119
768.848165	2470.417442
769.173846	2462.175156
769.499479	2465.401494
769.825066	2456.201388
770.150607	2464.242029
770.476101	2458.293467
770.801548	2465.048613
771.126949	2469.862915
771.452303	2464.065588
771.777611	2467.014663
772.102872	2465.023408
772.428087	2471.501290
772.753256	2455.646862
773.078378	2469.131948
773.403453	2466.283696
773.728482	2468.879890
774.053465	2472.585138
774.378401	2464.620115
774.703291	2465.451906
775.028135	2463.863942
775.352932	2469.207565
775.677683	2463.284210
776.002388	2466.611371
776.327046	2468.501804
776.651658	2465.451906
776.976224	2460.587192
777.300743	2461.696246
777.625216	2465.275465
777.949643	2468.325363
778.274024	2451.941613
778.598359	2462.275979
778.922647	2463.611885
779.246889	2458.016204
779.571086	2460.814044
779.895236	2463.082563
780.219339	2464.494087
780.543397	2473.820221
780.867409	2469.031125
781.191374	2466.107256
781.515294	2460.738427
781.839167	2461.393777
782.162995	2460.788838
782.486776	2459.528550
782.810511	2458.923612
783.134201	2473.618575
783.457844	2469.409212
783.781441	2457.461677
784.104993	2455.873713
784.428498	2465.426700
784.751958	2458.797583
785.075372	2458.747171
785.398739	2458.898406
785.722061	2458.847994
786.045337	2464.443675
786.368568	2460.965279
786.691752	2459.175669
787.014891	2466.611371
787.337983	2463.334621
787.661030	2460.738427
787.984031	2464.418469
788.306987	2472.131435
788.629897	2458.595937
788.952760	2460.158694
789.275579	2461.973510
789.598351	2463.309415
789.921078	2459.730196
790.243759	2465.401494
790.566395	2456.251800
790.888984	2459.326904
791.211529	2471.778554
791.534027	2465.829992
791.856480	2466.560960
792.178888	2466.485342
792.501249	2464.443675
792.823566	2458.671554
793.145836	2456.957562
793.468062	2457.764146
793.790241	2458.293467
794.112375	2468.804273
794.434464	2467.745631
794.756507	2464.116000
795.078505	2462.679271
795.400457	2466.208079
795.722364	2468.980713
796.044226	2476.643267
796.366042	2462.275979
796.687812	2476.139152
797.009538	2454.008487
797.331218	2466.384519
797.652852	2459.326904
797.974442	2460.486369
798.295986	2459.856225
798.617484	2457.612912
798.938938	2457.386060
799.260346	2462.149950
799.581709	2461.318160
799.903026	2465.502317
800.224299	2468.350569
800.545526	2468.476598
800.866708	2457.638117
801.187845	2460.688015
801.508936	2463.208592
801.829983	2459.805813
802.150984	2462.729683
802.471940	2468.426187
802.792851	2458.293467
803.113717	2469.106742
803.434538	2463.611885
803.755314	2456.705504
804.076045	2460.133488
804.396731	2461.469394
804.717372	2463.939560
805.037967	2456.176183
805.358518	2461.015690
805.679024	2463.763119
805.999485	2469.736887
806.319901	2461.469394
806.640272	2461.973510
806.960598	2457.461677
807.280879	2461.192131
807.601115	2460.839250
807.921306	2461.847481
808.241453	2459.074846
808.561554	2451.135029
808.881611	2467.695219
809.201623	2454.159721
809.521590	2468.678244
809.841513	2459.578962
810.161390	2458.192644
810.481223	2459.301698
810.801011	2463.233798
811.120755	2462.704477
811.440453	2457.537294
811.760107	2453.504371
812.079716	2463.989971
812.399281	2466.737400
812.718801	2461.469394
813.038276	2458.167438
813.357707	2464.368058
813.677093	2462.729683
813.996434	2464.594910
814.315731	2460.965279
814.634983	2457.285237
814.954191	2458.974023
815.273354	2467.846454
815.592473	2458.041410
815.911547	2464.720938
816.230577	2466.611371
816.549562	2461.343365
816.868502	2463.158181
817.187399	2457.209619
817.506250	2451.865996
817.825058	2460.612398
818.143821	2468.728656
818.462539	2461.746658
818.781213	2463.611885
819.099843	2463.939560
819.418429	2458.545525
819.736970	2473.795015
820.055466	2462.729683
820.373919	2464.872173
820.692327	2459.982254
821.010691	2475.483802
821.329011	2479.264667
821.647286	2489.775473
821.965517	2494.236894
822.283704	2490.052737
822.601847	2497.286792
822.919945	2501.521362
823.237999	2484.356233
823.556010	2476.239975
823.873976	2474.904069
824.191897	2472.307875
824.509775	2474.601600
824.827609	2475.080510
825.145398	2468.829479
825.463144	2473.139665
825.780845	2475.231744
826.098502	2472.433904
826.416116	2476.038329
826.733685	2475.004892
827.051210	2479.743577
827.368692	2474.122690
827.686129	2474.299131
828.003522	2471.274438
828.320872	2474.878863
828.638177	2465.073819
828.955439	2476.870119
829.272656	2466.334108
829.589830	2462.754888
829.906960	2462.376802
830.224046	2459.730196
830.541088	2461.166925
830.858086	2471.224027
831.175041	2459.427727
831.491952	2470.694706
831.808819	2458.797583
832.125642	2469.459623
832.442421	2461.545012
832.759157	2460.990485
833.075849	2471.097998
833.392497	2477.550675
833.709101	2465.603140
834.025662	2463.460650
834.342179	2472.887608
834.658653	2468.048100
834.975083	2464.065588
835.291469	2468.602627
835.607811	2464.821762
835.924110	2465.577935
836.240366	2465.199848
836.556578	2452.622169
836.872746	2466.964252
837.188871	2452.975050
837.504952	2459.100052
837.820990	2458.192644
838.136984	2462.603654
838.452935	2459.780608
838.768842	2460.763633
839.084706	2457.612912
839.400526	2460.158694
839.716303	2468.627833
840.032037	2453.101079
840.347727	2464.242029
840.663373	2457.486883
840.978977	2457.789352
841.294537	2457.234825
841.610054	2469.988944
841.925527	2464.418469
842.240957	2463.309415
842.556344	2465.729169
842.871687	2459.427727
843.186987	2457.789352
843.502244	2456.806327
843.817458	2464.494087
844.132629	2461.973510
844.447756	2462.830506
844.762840	2467.493573
845.077881	2458.318673
845.392879	2455.218363
845.707833	2460.889662
846.022745	2461.746658
846.337613	2457.940587
846.652438	2459.679785
846.967221	2454.966306
847.281960	2464.368058
847.596656	2464.670527
847.911309	2462.250773
848.225919	2457.411265
848.540485	2453.932869
848.855009	2462.275979
849.169490	2457.436471
849.483928	2464.998202
849.798323	2458.621142
850.112675	2456.781121
850.426984	2460.889662
850.741251	2455.167952
851.055474	2453.579988
851.369654	2465.905610
851.683792	2450.227621
851.997887	2467.266721
852.311938	2459.276492
852.625947	2460.688015
852.939914	2459.780608
853.253837	2453.680812
853.567718	2462.502831
853.881555	2455.268775
854.195350	2464.695733
854.509103	2459.528550
854.822812	2458.495113
855.136479	2456.856738
855.450103	2467.039869
855.763685	2465.048613
856.077224	2456.377829
856.390720	2458.797583
856.704173	2460.057871
857.017584	2452.722992
857.330953	2457.638117
857.644278	2460.461163
857.957561	2457.537294
858.270802	2454.663837
858.584000	2463.259004
858.897155	2459.704990
859.210268	2457.537294
859.523339	2462.830506
859.836367	2463.586679
860.149352	2448.488423
860.462295	2462.049127
860.775195	2457.033179
861.088054	2457.940587
861.400869	2462.250773
861.713642	2466.334108
862.026373	2471.097998
862.339062	2453.882458
862.651708	2452.823815
862.964312	2452.697787
863.276873	2455.823302
863.589392	2466.384519
863.901869	2462.124744
864.214303	2457.209619
864.526696	2460.335135
864.839045	2459.150463
865.151353	2459.528550
865.463619	2456.932356
865.775842	2460.889662
866.088023	2450.958588
866.400162	2457.940587
866.712258	2453.227108
867.024313	2455.772890
867.336325	2465.451906
867.648296	2462.855712
867.960224	2451.992025
868.272110	2459.578962
868.583954	2459.805813
868.895755	2461.141719
869.207515	2463.863942
869.519233	2458.268262
869.830909	2461.242542
870.142542	2460.108283
870.454134	2456.856738
870.765684	2454.184927
871.077191	2459.200875
871.388657	2456.554269
871.700081	2449.345419
872.011463	2460.839250
872.322803	2456.831533
872.634101	2457.486883
872.945357	2452.571758
873.256571	2465.477112
873.567744	2451.714762
873.878874	2461.923098
874.189963	2453.529577
874.501010	2460.183900
874.812015	2459.226081
875.122979	2460.209106
875.433900	2456.629887
875.744780	2458.595937
876.055618	2451.311469
876.366415	2460.108283
876.677169	2453.529577
876.987882	2457.738940
877.298554	2465.124231
877.609183	2460.788838
877.919771	2467.241515
878.230317	2465.426700
878.540822	2456.856738
878.851285	2463.838737
879.161707	2459.100052
879.472087	2471.904583
879.782425	2459.074846
880.092722	2461.822275
880.402977	2466.661783
880.713191	2477.399440
881.023363	2479.340285
881.333494	2476.214769
881.643583	2481.734833
881.953631	2482.037302
882.263637	2473.164871
882.573602	2470.039356
882.883526	2471.249233
883.193408	2468.451392
883.503248	2468.224540
883.813048	2471.350056
884.122806	2467.165898
884.432522	2474.853658
884.742197	2463.989971
885.051831	2461.847481
885.361424	2463.107769
885.670975	2461.620629
885.980485	2465.401494
886.289954	2461.570217
886.599382	2466.157667
886.908768	2460.839250
887.218113	2455.495627
887.527417	2465.149437
887.836680	2450.378856
888.145901	2466.107256
888.455082	2457.965792
888.764221	2461.519806
889.073319	2454.512602
889.382376	2457.612912
889.691392	2460.889662
890.000366	2456.781121
890.309300	2463.914354
890.618193	2456.655092
890.927044	2469.636063
891.235855	2458.999229
891.544625	2455.798096
891.853353	2456.781121
892.162041	2459.528550
892.470687	2457.209619
892.779293	2466.560960
893.087858	2461.116513
893.396381	2461.292954
893.704864	2457.940587
894.013306	2467.770837
894.321707	2458.671554
894.630068	2474.122690
894.938387	2453.706017
895.246665	2468.375775
895.554903	2465.325877
895.863100	2459.377315
896.171256	2460.486369
896.479371	2468.375775
896.787446	2468.098512
897.095480	2448.337188
897.403473	2458.268262
897.711425	2445.161262
898.019336	2458.646348
898.327207	2468.905096
898.635038	2457.360854
898.942827	2464.544498
899.250576	2459.931842
899.558284	2465.174642
899.865952	2457.184413
900.173579	2453.882458
900.481165	2459.629373
900.788711	2462.603654
901.096216	2458.570731
901.403681	2457.612912
901.711105	2455.898919
902.018489	2461.418983
902.325832	2462.376802
902.633135	2452.244083
902.940397	2458.091821
903.247619	2449.673094
903.554800	2456.201388
903.861941	2460.335135
904.169041	2464.090794
904.476101	2469.056331
904.783121	2466.913840
905.090100	2461.040896
905.397039	2459.982254
905.703938	2458.268262
906.010796	2463.158181
906.317614	2459.881431
906.624391	2457.512088
906.931129	2464.065588
907.237826	2458.369085
907.544483	2459.604167
907.851099	2456.856738
908.157675	2454.588219
908.464211	2459.528550
908.770707	2462.074333
909.077163	2463.385033
909.383578	2461.217337
909.689954	2454.436985
909.996289	2460.486369
910.302584	2461.267748
910.608839	2458.192644
910.915054	2459.780608
911.221229	2462.654065
911.527363	2463.032152
911.833458	2454.310956
912.139513	2454.789865
912.445527	2456.579475
912.751502	2459.881431
913.057436	2453.579988
913.363331	2456.251800
913.669186	2456.655092
913.975000	2459.326904
914.280775	2457.789352
914.586510	2462.452419
914.892205	2452.975050
915.197859	2462.528037
915.503475	2460.360340
915.809050	2458.545525
916.114585	2463.032152
916.420081	2460.662810
916.725536	2460.108283
917.030952	2455.999742
917.336328	2458.646348
917.641665	2469.257977
917.946961	2460.814044
918.252218	2469.762092
918.557435	2450.278033
918.862612	2469.812504
919.167750	2467.543985
919.472848	2463.838737
919.777906	2458.822788
920.082925	2460.007460
920.387904	2463.863942
920.692843	2459.377315
920.997743	2454.865483
921.302603	2458.066615
921.607423	2457.713735
921.912204	2457.814558
922.216946	2463.788325
922.521647	2462.175156
922.826310	2462.553242
923.130932	2450.807354
923.435516	2461.847481
923.740059	2452.748198
924.044564	2460.234312
924.349028	2456.176183
924.653454	2448.362394
924.957840	2463.586679
925.262186	2460.511575
925.566493	2454.361367
925.870761	2451.765173
926.174989	2450.555296
926.479178	2461.847481
926.783328	2445.640171
927.087438	2459.654579
927.391509	2456.453446
927.695541	2455.898919
927.999533	2456.201388
928.303486	2451.160235
928.607400	2453.554783
928.911275	2459.755402
929.215110	2458.142233
929.518906	2457.461677
929.822663	2462.729683
930.126381	2460.209106
930.430060	2462.880917
930.733699	2456.453446
931.037299	2453.403548
931.340861	2452.975050
931.644383	2454.210133
931.947866	2454.386573
932.251309	2458.671554
932.554714	2455.571244
932.858080	2453.353137
933.161407	2450.832560
933.464694	2451.689556
933.767943	2455.621656
934.071153	2462.754888
934.374323	2452.849021
934.677455	2444.682352
934.980548	2454.336162
935.283602	2456.075360
935.586617	2454.361367
935.889593	2459.150463
936.192530	2453.605194
936.495428	2457.159208
936.798287	2455.041923
937.101108	2460.209106
937.403890	2448.211160
937.706632	2456.604681
938.009336	2455.873713
938.312002	2463.132975
938.614628	2449.824329
938.917216	2461.091308
939.219765	2457.612912
939.522275	2457.587706
939.824747	2461.217337
940.127179	2455.243569
940.429573	2451.109823
940.731929	2465.451906
941.034246	2460.335135
941.336524	2455.546038
941.638763	2461.040896
941.940964	2448.942127
942.243126	2455.999742
942.545250	2466.813017
942.847335	2453.479165
943.149381	2453.000256
943.451389	2457.990998
943.753359	2452.571758
944.055290	2457.789352
944.357182	2459.881431
944.659036	2466.334108
944.960851	2453.075873
945.262628	2456.075360
945.564367	2459.100052
945.866067	2456.176183
946.167729	2451.966819
946.469352	2453.857252
946.770937	2460.385546
947.072484	2456.629887
947.373992	2454.134515
947.675462	2457.007973
947.976893	2449.899946
948.278286	2459.200875
948.579641	2449.698300
948.880958	2445.867023
949.182236	2472.559933
949.483476	2451.009000
949.784678	2460.814044
950.085841	2461.948304
950.386967	2455.949331
950.688054	2453.277519
950.989103	2458.041410
951.290114	2451.311469
951.591087	2450.832560
951.892021	2448.513629
952.192917	2463.536267
952.493776	2460.057871
952.794596	2450.983794
953.095378	2456.251800
953.396122	2456.680298
953.696828	2462.981740
953.997496	2457.789352
954.298126	2455.344392
954.598718	2447.253340
954.899272	2459.805813
955.199788	2455.041923
955.500266	2456.957562
955.800706	2455.142746
956.101108	2453.882458
956.401472	2457.335648
956.701798	2464.443675
957.002087	2453.630400
957.302337	2460.410752
957.602550	2452.092848
957.902724	2455.243569
958.202861	2453.101079
958.502960	2450.656119
958.803022	2459.100052
959.103045	2447.076900
959.403031	2451.361881
959.702979	2455.016717
960.002889	2454.941100
960.302762	2452.975050
960.602596	2458.545525
960.902393	2461.923098
961.202153	2460.688015
961.501875	2457.058385
961.801559	2452.722992
962.101205	2456.680298
962.400814	2458.797583
962.700385	2448.992538
962.999918	2460.259517
963.299414	2449.168979
963.598873	2450.605708
963.898293	2450.706531
964.197677	2458.923612
964.497022	2456.201388
964.796331	2454.789865
965.095601	2450.731737
965.394835	2456.125771
965.694030	2453.151490
965.993189	2453.176696
966.292309	2452.975050
966.591393	2463.208592
966.890439	2448.992538
967.189447	2455.646862
967.488419	2449.421037
967.787353	2453.882458
968.086249	2453.050667
968.385108	2452.244083
968.683930	2457.285237
968.982714	2445.589760
969.281462	2457.007973
969.580172	2450.051181
969.878844	2443.951385
970.177480	2446.572785
970.476078	2456.629887
970.774639	2465.653552
971.073162	2448.488423
971.371649	2452.975050
971.670098	2452.849021
971.968510	2456.529063
972.266885	2447.454987
972.565223	2460.662810
972.863524	2458.343879
973.161788	2454.159721
973.460014	2454.890688
973.758204	2449.042950
974.056356	2458.192644
974.354471	2452.773404
974.652550	2450.530090
974.950591	2455.193158
975.248595	2447.001283
975.546563	2453.731223
975.844493	2455.722479
976.142386	2454.310956
976.440243	2452.949844
976.738062	2450.504885
977.035845	2446.093875
977.333590	2456.730710
977.631299	2453.630400
977.928971	2456.629887
978.226606	2447.782662
978.524204	2451.588733
978.821765	2447.152517
979.119290	2448.790892
979.416777	2449.698300
979.714228	2452.067642
980.011642	2447.051694
980.309020	2453.605194
980.606360	2452.218877
980.903664	2453.479165
981.200931	2452.294494
981.498162	2455.016717
981.795356	2442.212187
982.092513	2454.613425
982.389633	2460.662810
982.686717	2457.260031
982.983764	2455.672067
983.280775	2453.554783
983.577749	2445.564554
983.874686	2460.889662
984.171587	2453.832046
984.468451	2458.923612
984.765279	2456.831533
985.062070	2450.076387
985.358824	2453.025462
985.655543	2457.411265
985.952224	2460.561987
986.248869	2457.890175
986.545478	2448.412806
986.842050	2459.452933
987.138586	2448.538835
987.435086	2450.177210
987.731549	2454.184927
988.027975	2452.647375
988.324366	2456.377829
988.620719	2447.379369
988.917037	2441.582042
989.213318	2453.756429
989.509563	2460.486369
989.805772	2459.982254
990.101944	2455.193158
990.398080	2453.504371
990.694180	2459.251287
990.990244	2452.874227
991.286271	2454.462190
991.582262	2450.983794
991.878217	2457.663323
992.174136	2454.663837
992.470019	2450.555296
992.765865	2456.125771
993.061676	2452.647375
993.357450	2449.799123
993.653188	2447.253340
993.948890	2454.436985
994.244556	2455.369598
994.540186	2450.429267
994.835780	2452.118054
995.131337	2454.537808
995.426859	2452.546552
995.722345	2454.689042
996.017795	2452.218877
996.313208	2455.041923
996.608586	2454.411779
996.903928	2458.394290
997.199234	2455.924125
997.494504	2464.015177
997.789738	2449.244596
998.084936	2456.907150
998.380099	2454.235338
998.675225	2448.034719
998.970316	2451.891202
999.265371	2452.294494
999.560390	2456.655092
999.855373	2461.998715
1000.150320	2448.438012
1000.445232	2455.974537
1000.740108	2458.999229
1001.034948	2452.269288
1001.329752	2446.572785
1001.624521	2452.697787
1001.919254	2453.983281
1002.213951	2453.832046
1002.508613	2457.864969
1002.803239	2453.050667
1003.097829	2447.505398
1003.392384	2456.781121
1003.686903	2459.352110
1003.981386	2458.797583
1004.275834	2454.159721
1004.570246	2449.068156
1004.864623	2450.656119
1005.158964	2452.470935
1005.453270	2453.302725
1005.747540	2445.993052
1006.041775	2453.630400
1006.335974	2454.764660
1006.630138	2455.621656
1006.924266	2458.646348
1007.218359	2458.142233
1007.512416	2458.318673
1007.806438	2449.622683
1008.100425	2448.942127
1008.394376	2454.436985
1008.688292	2452.017231
1008.982172	2451.790379
1009.276017	2463.132975
1009.569827	2447.404575
1009.863602	2451.185440
1010.157341	2441.632454
1010.451045	2451.765173
1010.744714	2454.386573
1011.038347	2455.344392
1011.331945	2456.428240
1011.625508	2451.387087
1011.919036	2449.950358
1012.212528	2460.057871
1012.505986	2452.874227
1012.799408	2454.033692
1013.092795	2460.738427
1013.386147	2450.983794
1013.679464	2452.168465
1013.972745	2460.461163
1014.265992	2453.176696
1014.559204	2456.881944
1014.852380	2452.269288
1015.145521	2453.605194
1015.438628	2455.974537
1015.731699	2458.192644
1016.024736	2455.218363
1016.317737	2457.209619
1016.610703	2451.891202
1016.903635	2447.959102
1017.196531	2454.764660
1017.489393	2448.589246
1017.782219	2455.873713
1018.075011	2450.227621
1018.367768	2458.318673
1018.660490	2448.034719
1018.953177	2448.034719
1019.245829	2448.034719
