Dividing Wavelength (nm)	Counts (n)	Slit_number_11_of_a_total_of_40	
326.493990	2043.683769
326.888308	2043.683769
327.282561	2043.683769
327.676750	2027.047962
328.070874	2023.519154
328.464933	2030.324712
328.858929	2027.047962
329.252859	2029.568538
329.646726	2078.719788
330.040528	2066.621019
330.434265	2085.525346
330.827938	2099.388519
331.221547	2141.230096
331.615091	2166.687923
332.008571	2172.989365
332.401986	2195.926615
332.795338	2210.041846
333.188625	2212.814481
333.581847	2255.664288
333.975006	2257.932808
334.368100	2263.478077
334.761129	2316.914308
335.154095	2343.128308
335.546996	2341.111846
335.939833	2366.569673
336.332606	2384.465769
336.725315	2394.548077
337.117960	2406.646846
337.510540	2392.027500
337.903056	2444.959615
338.295508	2406.646846
338.687896	2430.592327
339.080220	2426.307346
339.472480	2463.107769
339.864676	2443.951385
340.256807	2431.348500
340.648875	2433.869077
341.040879	2456.806327
341.432818	2462.603654
341.824694	2438.910231
342.216506	2435.129365
342.608253	2463.611885
342.999937	2464.872173
343.391557	2455.293981
343.783113	2458.066615
344.174605	2438.910231
344.566033	2462.351596
344.957397	2441.934923
345.348697	2459.074846
345.739934	2440.674635
346.131106	2435.885538
346.522215	2433.364962
346.913260	2423.786769
347.304241	2436.641712
347.695159	2423.282654
348.086012	2414.712692
348.476802	2439.162288
348.867528	2403.622154
349.258191	2417.737385
349.648789	2441.682865
350.039324	2432.356731
350.429796	2438.910231
350.820203	2435.885538
351.210548	2400.597462
351.600828	2439.162288
351.991045	2414.208577
352.381198	2417.233269
352.771288	2413.452404
353.161314	2410.175654
353.551276	2434.373192
353.941175	2402.109808
354.331010	2427.819692
354.720782	2428.323808
355.110490	2418.745615
355.500135	2407.403019
355.889717	2421.518250
356.279235	2451.513115
356.668689	2437.902000
357.058080	2427.819692
357.447408	2462.603654
357.836672	2415.216808
358.225873	2420.257962
358.615010	2429.332038
359.004084	2398.076885
359.393095	2418.493558
359.782043	2456.554269
360.170927	2417.989442
360.559748	2413.200346
360.948505	2432.860846
361.337199	2444.959615
361.725830	2441.430808
362.114398	2414.208577
362.502903	2452.773404
362.891344	2445.463731
363.279722	2415.216808
363.668037	2403.622154
364.056289	2441.682865
364.444478	2419.501788
364.832603	2421.266192
365.220665	2431.096442
365.608665	2450.756942
365.996601	2427.819692
366.384474	2451.513115
366.772284	2431.348500
367.160031	2438.910231
367.547715	2451.009000
367.935336	2449.748712
368.322893	2428.323808
368.710388	2455.798096
369.097820	2431.096442
369.485189	2424.795000
369.872495	2414.964750
370.259738	2444.455500
370.646918	2458.066615
371.034035	2412.948288
371.421090	2426.307346
371.808081	2453.025462
372.195010	2440.674635
372.581875	2472.938019
372.968678	2441.178750
373.355418	2413.704462
373.742096	2428.323808
374.128710	2438.910231
374.515262	2428.323808
374.901751	2435.129365
375.288177	2435.633481
375.674540	2435.885538
376.060841	2433.869077
376.447079	2436.137596
376.833254	2464.620115
377.219367	2436.641712
377.605417	2461.091308
377.991404	2435.885538
378.377329	2436.389654
378.763191	2426.559404
379.148991	2424.290885
379.534727	2464.620115
379.920402	2431.852615
380.306013	2444.455500
380.691563	2454.033692
381.077049	2446.724019
381.462474	2414.460635
381.847835	2435.633481
382.233134	2462.351596
382.618371	2441.178750
383.003545	2461.595423
383.388657	2444.707558
383.773706	2474.450365
384.158693	2444.455500
384.543618	2441.178750
384.928480	2438.406115
385.313280	2443.447269
385.698017	2473.442135
386.082692	2436.137596
386.467305	2467.140692
386.851856	2446.724019
387.236344	2453.277519
387.620770	2456.554269
388.005133	2432.356731
388.389435	2426.559404
388.773674	2440.926692
389.157851	2463.107769
389.541965	2451.765173
389.926018	2466.888635
390.310008	2481.003865
390.693936	2444.959615
391.077802	2441.430808
391.461606	2464.872173
391.845348	2435.885538
392.229027	2465.628346
392.612645	2432.356731
392.996200	2445.967846
393.379694	2460.839250
393.763125	2448.488423
394.146494	2456.050154
394.529801	2456.806327
394.913047	2479.239462
395.296230	2437.902000
395.679351	2430.340269
396.062410	2448.488423
396.445408	2448.236365
396.828343	2438.910231
397.211217	2449.496654
397.594028	2457.058385
397.976778	2454.033692
398.359466	2449.748712
398.742092	2446.219904
399.124656	2457.310442
399.507158	2440.674635
399.889598	2449.496654
400.271977	2443.447269
400.654294	2454.033692
401.036549	2447.732250
401.418742	2446.471962
401.800874	2437.145827
402.182944	2469.661269
402.564952	2446.976077
402.946898	2466.132462
403.328783	2438.910231
403.710606	2446.976077
404.092367	2456.806327
404.474067	2432.860846
404.855705	2470.921558
405.237282	2469.157154
405.618797	2481.255923
406.000250	2458.318673
406.381642	2478.231231
406.762972	2438.154058
407.144240	2470.417442
407.525447	2439.666404
407.906593	2449.496654
408.287677	2449.244596
408.668700	2449.748712
409.049661	2462.351596
409.430560	2440.674635
409.811399	2465.628346
410.192176	2454.285750
410.572891	2452.269288
410.953545	2464.620115
411.334138	2462.351596
411.714669	2465.124231
412.095139	2499.908192
412.475547	2450.252827
412.855894	2448.488423
413.236180	2452.773404
413.616405	2492.094404
413.996568	2469.661269
414.376670	2422.778538
414.756711	2458.570731
415.136691	2472.938019
415.516609	2471.173615
415.896466	2459.831019
416.276262	2454.285750
416.655997	2461.595423
417.035670	2455.041923
417.415283	2475.458596
417.794834	2487.809423
418.174324	2460.839250
418.553753	2457.562500
418.933121	2444.959615
419.312428	2484.784731
419.691674	2516.544000
420.070859	2467.392750
420.449983	2459.074846
420.829045	2445.967846
421.208047	2478.231231
421.586988	2469.409212
421.965867	2459.578962
422.344686	2472.685962
422.723444	2464.368058
423.102141	2489.573827
423.480777	2472.938019
423.859352	2470.165385
424.237866	2489.069712
424.616319	2473.190077
424.994712	2470.165385
425.373044	2476.466827
425.751314	2454.537808
426.129524	2445.967846
426.507673	2462.351596
426.885762	2470.921558
427.263789	2454.537808
427.641756	2480.499750
428.019662	2465.124231
428.397508	2481.003865
428.775292	2485.288846
429.153016	2473.190077
429.530679	2469.913327
429.908282	2475.962712
430.285824	2454.537808
430.663305	2472.685962
431.040726	2486.297077
431.418086	2494.614981
431.795385	2467.896865
432.172624	2490.077942
432.549802	2465.124231
432.926920	2476.466827
433.303977	2480.247692
433.680974	2477.223000
434.057910	2486.297077
434.434786	2486.297077
434.811601	2496.883500
435.188355	2450.252827
435.565050	2492.850577
435.941683	2492.346462
436.318257	2478.987404
436.694770	2463.359827
437.071222	2469.913327
437.447614	2467.140692
437.823946	2490.834115
438.200218	2457.310442
438.576429	2492.850577
438.952580	2461.343365
439.328670	2486.549135
439.704700	2463.863942
440.080670	2491.086173
440.456580	2482.012096
440.832429	2485.036788
441.208218	2474.198308
441.583947	2467.896865
441.959616	2483.776500
442.335224	2468.905096
442.710773	2462.099538
443.086261	2468.148923
443.461689	2487.053250
443.837057	2493.354692
444.212365	2476.214769
444.587612	2458.066615
444.962800	2475.458596
445.337927	2462.351596
445.712995	2459.831019
446.088002	2482.516212
446.462949	2466.636577
446.837837	2531.163346
447.212664	2469.913327
447.587431	2489.825885
447.962139	2481.003865
448.336786	2489.321769
448.711374	2505.957577
449.085901	2490.330000
449.460369	2471.425673
449.834776	2486.801192
450.209124	2474.450365
450.583412	2468.400981
450.957640	2469.913327
451.331808	2485.288846
451.705917	2503.437000
452.079965	2477.223000
452.453954	2468.653038
452.827883	2472.938019
453.201752	2477.979173
453.575562	2501.672596
453.949311	2488.061481
454.323001	2499.404077
454.696632	2501.672596
455.070202	2489.573827
455.443713	2486.297077
455.817164	2468.653038
456.190556	2500.664365
456.563888	2483.020327
456.937160	2493.354692
457.310373	2503.184942
457.683526	2477.475058
458.056619	2496.379385
458.429653	2491.590288
458.802628	2504.949346
459.175542	2504.697288
459.548398	2491.086173
459.921194	2524.861904
460.293930	2482.516212
460.666607	2538.220962
461.039224	2496.631442
461.411782	2535.448327
461.784280	2505.201404
462.156719	2518.056346
462.529099	2531.415404
462.901419	2519.568692
463.273680	2517.048115
463.645882	2506.965808
464.018024	2497.639673
464.390106	2497.387615
464.762130	2509.738442
465.134094	2523.601615
465.505999	2523.601615
465.877845	2528.138654
466.249631	2541.749769
466.621358	2551.327962
466.993026	2552.588250
467.364634	2560.654096
467.736184	2518.056346
468.107674	2521.837212
468.479105	2516.039885
468.850477	2526.878365
469.221790	2546.790923
469.593043	2544.774462
469.964238	2505.705519
470.335373	2535.448327
470.706449	2575.525500
471.077467	2524.861904
471.448425	2537.716846
471.819324	2555.612942
472.190164	2555.612942
472.560945	2524.609846
472.931667	2556.117058
473.302330	2523.349558
473.672934	2579.558423
474.043479	2542.001827
474.413965	2552.336192
474.784393	2569.476115
475.154761	2549.059442
475.525070	2552.588250
475.895321	2560.906154
476.265513	2563.426731
476.635645	2575.273442
477.005719	2569.728173
477.375734	2550.067673
477.745691	2573.004923
478.115588	2589.640731
478.485427	2611.569750
478.855207	2624.424692
479.224928	2625.432923
479.594591	2626.189096
479.964194	2623.668519
480.333739	2644.085192
480.703226	2643.076962
481.072653	2651.142808
481.442022	2703.066692
481.811333	2671.307423
482.180584	2686.935000
482.549777	2680.129442
482.918912	2713.653115
483.287988	2744.404154
483.657005	2724.995712
484.025964	2735.330077
484.394864	2722.475135
484.763706	2774.651077
485.132489	2791.034827
485.501213	2802.629481
485.869879	2811.199442
486.238487	2845.983404
486.607036	2869.928885
486.975527	2854.301308
487.343959	2882.027654
487.712333	2926.893923
488.080648	2950.839404
488.448905	2995.957731
488.817104	2997.218019
489.185244	3073.339442
489.553326	3138.622385
489.921350	3199.620346
490.289315	3305.988692
490.657222	3403.535019
491.025070	3499.569000
491.392861	3539.898231
491.760593	3583.252154
492.128267	3579.723346
492.495883	3593.586519
492.863440	3652.063904
493.230939	3624.337558
493.598380	3696.174000
493.965763	3712.557750
494.333088	3765.237808
494.700354	3835.561904
495.067563	3942.434365
495.434713	3999.903519
495.801805	4065.690577
496.168839	4144.584635
496.535815	4215.916962
496.902733	4292.290442
497.269593	4421.596038
497.636395	4468.478769
498.003139	4630.047750
498.369825	4697.095096
498.736453	4833.206250
499.103023	4941.843115
499.469535	5040.649731
499.835989	5156.848327
500.202385	5290.690962
500.568723	5413.443058
500.935003	5549.050096
501.301226	5670.037788
501.667390	5899.914404
502.033497	6114.919615
502.399546	6233.638788
502.765537	6305.727288
503.131470	6529.806577
503.497345	6714.060750
503.863163	6759.431135
504.228923	7015.269692
504.594625	7210.614404
504.960269	7414.781135
505.325856	7654.235942
505.691385	7763.881038
506.056856	7968.047769
506.422270	8187.590019
506.787625	8412.929596
507.152924	8626.170404
507.518164	8830.337135
507.883347	8973.253846
508.248472	9269.673692
508.613540	9561.808558
508.978550	9867.050423
509.343503	10058.362212
509.708398	10388.809846
510.073236	10612.889135
510.438016	10904.015769
510.802738	11074.910885
511.167403	11403.090000
511.532010	11712.112731
511.896561	12065.497615
512.261053	12498.532731
512.625488	12652.792038
512.989866	12997.606962
513.354186	13191.943442
513.718449	13420.811827
514.082655	13868.466288
514.446803	14096.074385
514.810894	14488.024096
515.174927	14794.526250
515.538904	14984.325692
515.902822	15471.049096
516.266684	15596.069712
516.630488	16067.669654
516.994235	16274.861077
517.357925	16801.913712
517.721558	17144.208058
518.085133	17509.691712
518.448651	17904.414058
518.812112	18106.312269
519.175516	18335.936827
519.538863	18871.559423
519.902152	19179.069808
520.265385	19642.351846
520.628560	20003.298462
520.991678	20174.193577
521.354739	20529.846981
521.717743	20995.145481
522.080690	21199.312212
522.443580	21860.711596
522.806413	22161.920538
523.169189	22418.515269
523.531908	22720.984500
523.894569	23035.048385
524.257174	23467.579385
524.619722	23932.877885
524.982213	24044.539442
525.344647	24466.231962
525.707025	24768.449135
526.069345	25209.550096
526.431608	25538.485385
526.793815	25903.716981
527.155964	26164.596692
527.518057	26342.297365
527.880093	26681.819077
528.242072	27239.622750
528.603995	27253.990038
528.965860	27578.640346
529.327669	27907.575635
529.689421	28117.791750
530.051117	28365.816519
530.412755	28706.346462
530.774337	28982.853750
531.135862	29116.948442
531.497331	29510.662558
531.858743	29620.811769
532.220098	30002.427115
532.581396	30034.690500
532.942638	30274.397365
533.303824	30685.503462
533.664953	30759.356365
534.026025	30782.293615
534.387040	31322.705308
534.747999	31458.312346
535.108902	31687.936904
535.469748	31667.772288
535.830537	31978.307365
536.191270	32163.821827
536.551947	32180.961750
536.912567	32516.954654
537.273131	32727.674885
537.633638	32474.861019
537.994089	32868.575135
538.354483	32616.517442
538.714821	33068.456885
539.075103	33452.088692
539.435328	33452.340750
539.795497	33569.799635
540.155609	33487.628827
540.515665	34031.065212
540.875665	33812.783250
541.235609	34138.693846
541.595496	34033.585788
541.955328	34626.425481
542.315102	34306.060154
542.674821	33953.935558
543.034483	34291.188750
543.394090	34230.190788
543.753640	34082.989096
544.113134	34881.255808
544.472571	34275.309115
544.831953	35171.374212
545.191278	34579.542750
545.550548	34383.693923
545.909761	34720.190942
546.268918	34799.841173
546.628019	34905.201288
546.987064	34616.847288
547.346053	34121.049808
547.704986	34811.435827
548.063863	34131.888288
548.422684	34346.893500
548.781449	34314.126000
549.140158	34377.896596
549.498811	34204.732962
549.857408	33733.385077
550.215949	34333.786500
550.574434	34082.232923
550.932864	33761.615538
551.291237	34301.271058
551.649555	33581.646346
552.007817	33927.217442
552.366022	33454.861327
552.724173	33380.000192
553.082267	33557.196750
553.440305	33867.983885
553.798288	33069.465115
554.156215	33181.882846
554.514086	33092.906481
554.871902	32925.288115
555.229661	32615.005096
555.587365	32379.835269
555.945014	32338.497808
556.302606	32056.697308
556.660143	32104.336212
557.017625	31963.435962
557.375050	31570.730077
557.732421	31762.798038
558.089735	31473.687865
558.446994	31278.343154
558.804197	31383.199154
559.161345	31030.066327
559.518437	30406.727654
559.875474	30568.800750
560.232455	30250.956000
560.589381	30249.443654
560.946251	29774.566962
561.303065	30176.598981
561.659825	29762.468192
562.016528	29174.417596
562.373177	28994.952519
562.729770	28974.535846
563.086307	28337.081942
563.442789	28466.639596
563.799216	28351.449231
564.155587	27931.269058
564.511904	27689.293673
564.868164	27597.292615
565.224370	27245.924192
565.580520	26998.655596
565.936615	26956.309904
566.292654	26651.068038
566.648638	26363.722269
567.004567	26215.512346
567.360441	25867.168615
567.716260	25663.758058
568.072023	25568.480250
568.427732	25300.542923
568.783385	24780.043788
569.138982	24801.720750
569.494525	24571.592077
569.850013	24337.430481
570.205445	23925.316154
570.560823	23771.560962
570.916145	23362.723385
571.271412	23079.410538
571.626625	22809.708808
571.981782	22491.612000
572.336884	22280.387654
572.691931	22221.910269
573.046923	21740.732135
573.401860	21487.414154
573.756743	21111.092019
574.111570	20879.451000
574.466342	20638.735904
574.821059	20501.112404
575.175722	20068.833462
575.530330	19879.034019
575.884882	19506.492750
576.239380	19252.166538
576.593823	18894.748731
576.948211	18702.680769
577.302544	18280.232077
577.656823	18098.246423
578.011047	17930.123942
578.365216	17724.192808
578.719330	17380.638173
579.073389	17063.801654
579.427394	16933.739885
579.781344	16688.235692
580.135239	16377.700615
580.489080	16175.046231
580.842866	15874.845519
581.196597	15770.745692
581.550273	15604.639673
581.903895	15303.178673
582.257463	15224.032558
582.610975	14897.113731
582.964434	14751.424385
583.317837	14555.323500
583.671186	14247.813115
584.024481	14156.064115
584.377721	13892.159712
584.730906	13792.848981
585.084037	13636.321154
585.437113	13358.553577
585.790135	13261.007250
586.143103	12925.518462
586.496016	12758.404212
586.848874	12615.739558
587.201679	12423.419538
587.554428	12198.332019
587.907124	12031.217769
588.259765	11901.660115
588.612352	11812.179635
588.964884	11528.110615
589.317362	11459.298865
589.669786	11338.059115
590.022155	11077.179404
590.374470	11068.609442
590.726731	10798.907712
591.078937	10620.450865
591.431090	10436.700808
591.783188	10298.573192
592.135232	10098.691442
592.487222	9924.267519
592.839157	9877.132731
593.191038	9716.571981
593.542866	9526.772538
593.894639	9355.877423
594.246358	9232.621212
594.598022	9066.515192
594.949633	8949.560423
595.301190	8837.142692
595.652692	8700.275365
596.004141	8591.134385
596.355535	8397.049962
596.706876	8266.988192
597.058162	8128.104404
597.409395	8085.758712
597.760573	7967.795712
598.111698	7838.490115
598.462768	7675.408788
598.813785	7633.315154
599.164748	7455.614481
599.515657	7408.227635
599.866511	7294.045500
600.217312	7176.334558
600.568060	6987.543346
600.918753	6989.055692
601.269392	6933.350942
601.619978	6789.930115
601.970510	6738.510346
602.320988	6666.421846
602.671412	6620.547346
603.021783	6502.836404
603.372100	6401.005096
603.722363	6344.796231
604.072572	6268.674808
604.422728	6226.077058
604.772830	6100.552327
605.122878	6064.760135
605.472872	5965.449404
605.822813	5884.790942
606.172701	5806.401000
606.522534	5735.572788
606.872314	5724.482250
607.222041	5569.970885
607.571714	5574.507923
607.921333	5461.081962
608.270899	5425.037712
608.620411	5373.870000
608.969870	5299.260923
609.319276	5273.046923
609.668627	5204.487231
610.017926	5185.078788
610.367171	5145.505731
610.716362	5097.866827
611.065500	5045.942942
611.414585	4926.719654
611.763616	4964.780365
612.112594	4871.771077
612.461518	4837.239173
612.810389	4787.331750
613.159207	4762.882154
613.507971	4738.684615
613.856682	4727.342019
614.205340	4614.168115
614.553945	4632.316269
614.902496	4545.608423
615.250994	4500.490096
615.599439	4509.564173
615.947830	4430.418058
616.296169	4442.264769
616.644454	4400.423192
616.992686	4355.808981
617.340864	4343.962269
617.688990	4326.570288
618.037063	4331.359385
618.385082	4290.778096
618.733048	4205.834654
619.080961	4215.916962
619.428821	4171.050692
619.776628	4176.848019
620.124382	4104.759519
620.472083	4094.929269
620.819731	4039.476577
621.167326	3986.796519
621.514868	3978.982731
621.862357	3876.143192
622.209793	3872.614385
622.557176	3812.372596
622.904506	3755.911673
623.251783	3725.160635
623.599007	3729.697673
623.946179	3660.633865
624.293297	3617.784058
624.640363	3605.433231
624.987376	3575.690423
625.334336	3531.580327
625.681243	3513.432173
626.028097	3475.623519
626.374899	3429.749019
626.721647	3452.686269
627.068343	3407.063827
627.414987	3387.403327
627.761577	3390.932135
628.108115	3362.449615
628.454600	3353.627596
628.801032	3317.583346
629.147412	3304.476346
629.493739	3311.029846
629.840014	3250.283942
630.186236	3278.514404
630.532405	3272.465019
630.878521	3243.226327
631.224585	3215.247923
631.570597	3196.091538
631.916556	3207.686192
632.262462	3186.261288
632.608316	3179.203673
632.954117	3161.811692
633.299866	3156.518481
633.645562	3153.493788
633.991206	3102.326077
634.336797	3088.967019
634.682336	3114.928962
635.027823	3076.112077
635.373257	3045.108981
635.718639	3032.506096
636.063968	3000.494769
636.409245	3004.779750
636.754470	2987.387769
637.099642	2979.573981
637.444762	2962.938173
637.789829	2956.384673
638.134845	2944.285904
638.479808	2942.521500
638.824719	2935.715942
639.169577	2924.121288
639.514383	2929.666558
639.859137	2911.014288
640.203839	2905.973135
640.548489	2897.655231
640.893086	2885.556462
641.237632	2861.863038
641.582125	2876.482385
641.926566	2853.797192
642.270955	2854.553365
642.615292	2839.681962
642.959576	2833.632577
643.303809	2828.843481
643.647990	2809.435038
643.992118	2835.649038
644.336195	2811.703558
644.680219	2815.736481
645.024192	2821.533808
645.368112	2782.968981
645.711981	2809.939154
646.055797	2786.497788
646.399562	2788.766308
646.743274	2801.369192
647.086935	2812.711788
647.430544	2811.451500
647.774101	2804.393885
648.117606	2809.182981
648.461059	2779.944288
648.804460	2771.878442
649.147810	2777.675769
649.491108	2747.428846
649.834354	2761.796135
650.177548	2741.883577
650.520690	2749.949423
650.863781	2733.817731
651.206820	2712.140769
651.549807	2707.099615
651.892742	2722.223077
652.235626	2724.491596
652.578458	2714.157231
652.921238	2706.091385
653.263967	2695.252904
653.606644	2700.294058
653.949269	2714.913404
654.291843	2692.480269
654.634365	2683.406192
654.976836	2669.795077
655.319255	2659.712769
655.661622	2673.323885
656.003938	2670.551250
656.346203	2683.658250
656.688416	2650.386635
657.030577	2643.833135
657.372687	2670.803308
657.714746	2665.762154
658.056753	2647.614000
658.398708	2680.129442
658.740612	2650.638692
659.082465	2629.465846
659.424266	2643.076962
659.766016	2633.750827
660.107715	2633.498769
660.449362	2626.441154
660.790958	2623.920577
661.132503	2617.115019
661.473996	2625.684981
661.815438	2619.635596
662.156829	2613.082096
662.498168	2621.147942
662.839456	2602.747731
663.180693	2626.441154
663.521879	2600.479212
663.863013	2633.750827
664.204097	2610.057404
664.545129	2607.788885
664.886110	2591.909250
665.227040	2611.065635
665.567918	2611.065635
665.908746	2599.975096
666.249522	2610.813577
666.590248	2621.400000
666.930922	2611.569750
667.271545	2632.238481
667.612118	2631.986423
667.952639	2599.218923
668.293109	2564.687019
668.633528	2581.322827
668.973896	2592.917481
669.314213	2592.917481
669.654480	2585.103692
669.994695	2603.251846
670.334859	2604.512135
670.674973	2574.265212
671.015035	2575.525500
671.355047	2546.034750
671.695008	2582.835173
672.034918	2583.843404
672.374777	2585.607808
672.714585	2566.451423
673.054342	2562.166442
673.394049	2571.492577
673.733705	2576.785788
674.073310	2573.761096
674.412864	2564.939077
674.752368	2543.514173
675.091820	2535.196269
675.431223	2561.662327
675.770574	2578.550192
676.109875	2564.182904
676.449125	2563.678788
676.788324	2540.741538
677.127473	2548.555327
677.466571	2551.075904
677.805619	2564.939077
678.144616	2546.034750
678.483562	2533.179808
678.822458	2553.848538
679.161303	2534.188038
679.500098	2539.985365
679.838842	2517.300173
680.177535	2561.158212
680.516179	2548.807385
680.854771	2531.667462
681.193314	2541.497712
681.531805	2522.089269
681.870247	2558.385577
682.208638	2531.667462
682.546978	2569.728173
682.885268	2546.034750
683.223508	2558.637635
683.561697	2532.927750
683.899836	2541.245654
684.237925	2533.179808
684.575963	2532.171577
684.913951	2555.865000
685.251889	2537.212731
685.589776	2557.881462
685.927614	2535.448327
686.265401	2534.188038
686.603137	2556.117058
686.940824	2557.125288
687.278460	2549.563558
687.616046	2534.440096
687.953582	2567.207596
688.291068	2565.695250
688.628504	2559.897923
688.965889	2550.823846
689.303224	2535.196269
689.640510	2530.407173
689.977745	2526.374250
690.314930	2537.968904
690.652065	2507.721981
690.989150	2556.873231
691.326185	2536.960673
691.663170	2516.796058
692.000105	2502.176712
692.336990	2510.998731
692.673825	2529.146885
693.010610	2486.801192
693.347345	2538.977135
693.684030	2545.782692
694.020665	2513.771365
694.357251	2499.908192
694.693786	2521.837212
695.030272	2511.502846
695.366707	2506.461692
695.703093	2530.155115
696.039429	2501.168481
696.375716	2506.209635
696.711952	2500.664365
697.048139	2528.894827
697.384276	2509.738442
697.720363	2511.754904
698.056400	2529.651000
698.392388	2502.176712
698.728326	2486.297077
699.064214	2508.982269
699.400053	2506.713750
699.735842	2512.763135
700.071581	2525.366019
700.407270	2507.217865
700.742910	2530.911288
701.078501	2500.412308
701.414042	2509.234327
701.749533	2521.333096
702.084974	2513.267250
702.420366	2521.837212
702.755709	2473.694192
703.091002	2513.267250
703.426246	2481.507981
703.761440	2530.911288
704.096584	2501.168481
704.431679	2488.313538
704.766725	2517.552231
705.101721	2491.842346
705.436668	2521.837212
705.771565	2530.659231
706.106413	2478.987404
706.441212	2500.916423
706.775961	2502.932885
707.110661	2512.259019
707.445311	2504.697288
707.779913	2475.710654
708.114465	2498.395846
708.448967	2524.357788
708.783421	2501.420538
709.117825	2531.667462
709.452180	2506.713750
709.786485	2506.461692
710.120742	2493.102635
710.454949	2488.817654
710.789107	2507.469923
711.123216	2509.234327
711.457275	2516.039885
711.791286	2507.721981
712.125247	2534.440096
712.459159	2472.938019
712.793023	2510.746673
713.126837	2493.858808
713.460602	2469.913327
713.794318	2522.341327
714.127985	2491.842346
714.461602	2506.965808
714.795171	2508.730212
715.128691	2489.825885
715.462162	2501.672596
715.795584	2505.453462
716.128957	2510.998731
716.462281	2523.601615
716.795556	2523.601615
717.128782	2488.313538
717.461960	2491.590288
717.795088	2488.565596
718.128167	2496.883500
718.461198	2498.395846
718.794180	2487.809423
719.127113	2493.606750
719.459997	2500.412308
719.792833	2508.226096
720.125619	2506.965808
720.458357	2493.606750
720.791046	2514.023423
721.123686	2489.321769
721.456278	2483.272385
721.788821	2517.804288
722.121315	2493.354692
722.453761	2493.354692
722.786158	2484.532673
723.118506	2516.291942
723.450805	2497.891731
723.783056	2495.119096
724.115259	2507.469923
724.447412	2494.362923
724.779518	2487.053250
725.111574	2505.705519
725.443582	2516.544000
725.775542	2477.979173
726.107453	2502.176712
726.439315	2501.168481
726.771129	2516.039885
727.102895	2493.102635
727.434612	2489.573827
727.766281	2476.970942
728.097901	2494.614981
728.429473	2516.039885
728.760996	2487.557365
729.092471	2468.400981
729.423897	2510.998731
729.755276	2496.883500
730.086606	2509.990500
730.417887	2498.647904
730.749120	2520.576923
731.080305	2514.023423
731.411442	2492.598519
731.742530	2497.891731
732.073570	2513.519308
732.404562	2476.466827
732.735506	2508.478154
733.066401	2504.949346
733.397249	2488.817654
733.728048	2507.721981
734.058798	2511.754904
734.389501	2502.932885
734.720156	2502.428769
735.050762	2512.259019
735.381320	2496.379385
735.711831	2488.565596
736.042293	2513.519308
736.372707	2509.990500
736.703073	2482.768269
737.033391	2495.119096
737.363661	2470.417442
737.693883	2497.639673
738.024056	2504.445231
738.354182	2493.354692
738.684260	2484.784731
739.014290	2506.461692
739.344272	2510.998731
739.674207	2503.437000
740.004093	2522.089269
740.333931	2470.669500
740.663722	2504.193173
740.993464	2486.549135
741.323159	2472.433904
741.652806	2506.965808
741.982405	2506.209635
742.311956	2495.875269
742.641460	2484.280615
742.970915	2509.234327
743.300323	2523.349558
743.629683	2487.305308
743.958996	2500.160250
744.288260	2473.946250
744.617477	2511.250788
744.946647	2469.913327
745.275768	2493.606750
745.604842	2484.028558
745.933869	2507.217865
746.262847	2479.239462
746.591778	2487.305308
746.920662	2485.792962
747.249498	2513.519308
747.578286	2493.858808
747.907027	2489.573827
748.235720	2489.069712
748.564365	2499.152019
748.892963	2484.028558
749.221514	2483.272385
749.550017	2512.259019
749.878473	2478.231231
750.206881	2465.628346
750.535242	2477.475058
750.863555	2518.560462
751.191821	2471.677731
751.520039	2486.801192
751.848210	2492.598519
752.176334	2482.264154
752.504411	2506.965808
752.832440	2483.272385
753.160421	2492.346462
753.488356	2498.647904
753.816243	2496.127327
754.144082	2493.102635
754.471875	2468.148923
754.799620	2477.727115
755.127318	2476.970942
755.454969	2500.160250
755.782572	2501.168481
756.110129	2481.255923
756.437638	2484.532673
756.765100	2502.932885
757.092515	2474.954481
757.419882	2486.297077
757.747203	2484.784731
758.074477	2490.834115
758.401703	2489.825885
758.728882	2496.631442
759.056014	2482.516212
759.383099	2488.817654
759.710138	2462.603654
760.037129	2494.110865
760.364073	2473.190077
760.690970	2515.787827
761.017820	2501.168481
761.344623	2490.582058
761.671379	2500.160250
761.998088	2502.680827
762.324751	2506.965808
762.651366	2476.466827
762.977935	2472.433904
763.304456	2531.415404
763.630931	2539.733308
763.957359	2499.152019
764.283740	2498.143788
764.610074	2492.598519
764.936362	2512.006962
765.262602	2487.557365
765.588796	2473.694192
765.914943	2508.730212
766.241044	2481.507981
766.567097	2458.570731
766.893104	2484.028558
767.219064	2495.371154
767.544978	2470.669500
767.870845	2483.524442
768.196665	2482.768269
768.522438	2491.086173
768.848165	2499.404077
769.173846	2504.445231
769.499479	2473.946250
769.825066	2503.437000
770.150607	2504.445231
770.476101	2481.507981
770.801548	2491.086173
771.126949	2480.751808
771.452303	2469.157154
771.777611	2458.318673
772.102872	2474.450365
772.428087	2507.974038
772.753256	2488.061481
773.078378	2485.036788
773.403453	2523.601615
773.728482	2474.702423
774.053465	2484.280615
774.378401	2476.970942
774.703291	2473.694192
775.028135	2507.974038
775.352932	2491.842346
775.677683	2490.077942
776.002388	2462.351596
776.327046	2489.321769
776.651658	2448.992538
776.976224	2482.768269
777.300743	2500.412308
777.625216	2484.784731
777.949643	2482.516212
778.274024	2495.371154
778.598359	2485.540904
778.922647	2470.165385
779.246889	2460.335135
779.571086	2487.809423
779.895236	2455.041923
780.219339	2481.760038
780.543397	2493.354692
780.867409	2476.970942
781.191374	2491.086173
781.515294	2500.160250
781.839167	2469.157154
782.162995	2463.611885
782.486776	2486.045019
782.810511	2456.302212
783.134201	2465.376288
783.457844	2493.858808
783.781441	2478.987404
784.104993	2474.450365
784.428498	2461.091308
784.751958	2471.677731
785.075372	2484.028558
785.398739	2468.653038
785.722061	2486.045019
786.045337	2478.483288
786.368568	2461.343365
786.691752	2505.705519
787.014891	2506.965808
787.337983	2484.532673
787.661030	2469.157154
787.984031	2493.606750
788.306987	2505.705519
788.629897	2514.275481
788.952760	2465.880404
789.275579	2465.376288
789.598351	2451.009000
789.921078	2472.433904
790.243759	2458.318673
790.566395	2457.814558
790.888984	2513.015192
791.211529	2482.768269
791.534027	2485.792962
791.856480	2465.376288
792.178888	2474.198308
792.501249	2480.751808
792.823566	2467.896865
793.145836	2481.255923
793.468062	2461.847481
793.790241	2477.223000
794.112375	2495.119096
794.434464	2435.381423
794.756507	2483.524442
795.078505	2473.946250
795.400457	2466.636577
795.722364	2463.863942
796.044226	2498.899962
796.366042	2485.288846
796.687812	2471.425673
797.009538	2485.792962
797.331218	2494.867038
797.652852	2469.913327
797.974442	2492.598519
798.295986	2465.376288
798.617484	2485.036788
798.938938	2479.995635
799.260346	2468.653038
799.581709	2490.330000
799.903026	2477.223000
800.224299	2483.272385
800.545526	2476.970942
800.866708	2493.606750
801.187845	2485.540904
801.508936	2500.664365
801.829983	2501.168481
802.150984	2497.387615
802.471940	2479.743577
802.792851	2473.694192
803.113717	2457.814558
803.434538	2486.297077
803.755314	2501.420538
804.076045	2466.636577
804.396731	2466.132462
804.717372	2466.636577
805.037967	2454.789865
805.358518	2488.565596
805.679024	2503.437000
805.999485	2480.751808
806.319901	2492.094404
806.640272	2472.433904
806.960598	2459.326904
807.280879	2476.214769
807.601115	2475.962712
807.921306	2484.532673
808.241453	2472.938019
808.561554	2466.132462
808.881611	2470.165385
809.201623	2460.335135
809.521590	2492.094404
809.841513	2460.839250
810.161390	2485.036788
810.481223	2453.529577
810.801011	2482.264154
811.120755	2479.491519
811.440453	2478.231231
811.760107	2477.727115
812.079716	2490.077942
812.399281	2486.045019
812.718801	2476.214769
813.038276	2473.946250
813.357707	2488.817654
813.677093	2485.036788
813.996434	2480.499750
814.315731	2458.822788
814.634983	2462.099538
814.954191	2479.239462
815.273354	2486.549135
815.592473	2469.913327
815.911547	2506.713750
816.230577	2495.875269
816.549562	2472.938019
816.868502	2458.822788
817.187399	2457.562500
817.506250	2469.913327
817.825058	2485.036788
818.143821	2462.099538
818.462539	2488.817654
818.781213	2469.157154
819.099843	2485.288846
819.418429	2478.987404
819.736970	2474.198308
820.055466	2475.206538
820.373919	2469.913327
820.692327	2508.730212
821.010691	2480.247692
821.329011	2512.763135
821.647286	2523.349558
821.965517	2566.199365
822.283704	2538.725077
822.601847	2609.553288
822.919945	2608.040942
823.237999	2596.950404
823.556010	2546.286808
823.873976	2548.303269
824.191897	2515.535769
824.509775	2518.056346
824.827609	2507.974038
825.145398	2514.023423
825.463144	2508.730212
825.780845	2496.127327
826.098502	2502.428769
826.416116	2496.631442
826.733685	2527.130423
827.051210	2510.494615
827.368692	2505.453462
827.686129	2511.250788
828.003522	2507.469923
828.320872	2505.453462
828.638177	2513.015192
828.955439	2490.582058
829.272656	2477.979173
829.589830	2498.395846
829.906960	2483.272385
830.224046	2479.491519
830.541088	2464.368058
830.858086	2477.979173
831.175041	2459.326904
831.491952	2487.305308
831.808819	2482.768269
832.125642	2457.562500
832.442421	2489.573827
832.759157	2468.400981
833.075849	2487.809423
833.392497	2485.288846
833.709101	2507.217865
834.025662	2489.321769
834.342179	2509.234327
834.658653	2493.102635
834.975083	2482.768269
835.291469	2494.362923
835.607811	2486.549135
835.924110	2506.209635
836.240366	2497.135558
836.556578	2498.395846
836.872746	2485.036788
837.188871	2486.297077
837.504952	2467.896865
837.820990	2500.160250
838.136984	2474.702423
838.452935	2489.069712
838.768842	2466.888635
839.084706	2494.614981
839.400526	2477.475058
839.716303	2469.913327
840.032037	2470.165385
840.347727	2484.028558
840.663373	2481.255923
840.978977	2482.768269
841.294537	2475.962712
841.610054	2484.784731
841.925527	2485.288846
842.240957	2458.318673
842.556344	2479.239462
842.871687	2484.532673
843.186987	2481.003865
843.502244	2458.822788
843.817458	2472.181846
844.132629	2454.789865
844.447756	2489.573827
844.762840	2467.644808
845.077881	2465.124231
845.392879	2469.157154
845.707833	2466.132462
846.022745	2468.905096
846.337613	2476.718885
846.652438	2472.685962
846.967221	2486.549135
847.281960	2469.157154
847.596656	2447.732250
847.911309	2476.718885
848.225919	2456.050154
848.540485	2463.107769
848.855009	2474.198308
849.169490	2472.685962
849.483928	2492.850577
849.798323	2474.450365
850.112675	2494.362923
850.426984	2446.724019
850.741251	2474.954481
851.055474	2454.537808
851.369654	2488.313538
851.683792	2463.107769
851.997887	2495.623212
852.311938	2474.450365
852.625947	2486.801192
852.939914	2468.400981
853.253837	2506.461692
853.567718	2455.041923
853.881555	2444.959615
854.195350	2472.685962
854.509103	2456.806327
854.822812	2490.582058
855.136479	2466.132462
855.450103	2480.499750
855.763685	2451.009000
856.077224	2479.743577
856.390720	2500.916423
856.704173	2444.707558
857.017584	2461.595423
857.330953	2468.905096
857.644278	2475.710654
857.957561	2504.445231
858.270802	2445.211673
858.584000	2492.094404
858.897155	2470.417442
859.210268	2465.880404
859.523339	2467.140692
859.836367	2486.801192
860.149352	2482.012096
860.462295	2466.132462
860.775195	2467.896865
861.088054	2489.321769
861.400869	2477.475058
861.713642	2503.689058
862.026373	2489.321769
862.339062	2485.288846
862.651708	2482.012096
862.964312	2481.255923
863.276873	2456.806327
863.589392	2484.028558
863.901869	2469.157154
864.214303	2494.110865
864.526696	2502.176712
864.839045	2472.685962
865.151353	2465.124231
865.463619	2469.913327
865.775842	2461.343365
866.088023	2482.264154
866.400162	2483.524442
866.712258	2458.822788
867.024313	2459.074846
867.336325	2461.091308
867.648296	2463.863942
867.960224	2471.425673
868.272110	2464.872173
868.583954	2478.735346
868.895755	2471.173615
869.207515	2477.979173
869.519233	2482.768269
869.830909	2476.214769
870.142542	2461.847481
870.454134	2467.644808
870.765684	2495.371154
871.077191	2479.239462
871.388657	2443.447269
871.700081	2478.735346
872.011463	2467.896865
872.322803	2468.653038
872.634101	2465.880404
872.945357	2470.165385
873.256571	2459.074846
873.567744	2459.074846
873.878874	2469.157154
874.189963	2482.012096
874.501010	2473.190077
874.812015	2483.524442
875.122979	2486.045019
875.433900	2443.195212
875.744780	2491.086173
876.055618	2462.603654
876.366415	2475.710654
876.677169	2472.181846
876.987882	2472.181846
877.298554	2491.338231
877.609183	2472.181846
877.919771	2458.318673
878.230317	2471.677731
878.540822	2482.768269
878.851285	2489.069712
879.161707	2486.801192
879.472087	2473.946250
879.782425	2486.045019
880.092722	2466.132462
880.402977	2511.250788
880.713191	2514.527538
881.023363	2532.423635
881.333494	2481.760038
881.643583	2508.730212
881.953631	2506.461692
882.263637	2533.935981
882.573602	2510.494615
882.883526	2470.417442
883.193408	2510.746673
883.503248	2501.672596
883.813048	2499.908192
884.122806	2526.122192
884.432522	2477.727115
884.742197	2507.721981
885.051831	2493.354692
885.361424	2471.677731
885.670975	2491.338231
885.980485	2487.305308
886.289954	2483.020327
886.599382	2483.776500
886.908768	2476.718885
887.218113	2498.899962
887.527417	2505.201404
887.836680	2461.847481
888.145901	2480.499750
888.455082	2467.392750
888.764221	2484.532673
889.073319	2455.293981
889.382376	2484.028558
889.691392	2498.647904
890.000366	2478.231231
890.309300	2460.839250
890.618193	2494.614981
890.927044	2477.979173
891.235855	2472.938019
891.544625	2472.433904
891.853353	2461.595423
892.162041	2476.214769
892.470687	2478.987404
892.779293	2465.628346
893.087858	2475.962712
893.396381	2472.181846
893.704864	2482.264154
894.013306	2502.680827
894.321707	2507.721981
894.630068	2492.598519
894.938387	2528.894827
895.246665	2492.850577
895.554903	2479.239462
895.863100	2483.776500
896.171256	2452.017231
896.479371	2494.362923
896.787446	2476.970942
897.095480	2484.280615
897.403473	2490.330000
897.711425	2475.962712
898.019336	2477.223000
898.327207	2458.570731
898.635038	2462.855712
898.942827	2461.847481
899.250576	2482.768269
899.558284	2466.636577
899.865952	2464.368058
900.173579	2480.499750
900.481165	2475.710654
900.788711	2471.173615
901.096216	2469.913327
901.403681	2469.409212
901.711105	2473.190077
902.018489	2458.822788
902.325832	2460.839250
902.633135	2473.442135
902.940397	2465.124231
903.247619	2474.198308
903.554800	2447.732250
903.861941	2472.181846
904.169041	2462.603654
904.476101	2471.677731
904.783121	2466.132462
905.090100	2495.371154
905.397039	2483.272385
905.703938	2481.003865
906.010796	2468.653038
906.317614	2480.499750
906.624391	2473.694192
906.931129	2500.664365
907.237826	2474.702423
907.544483	2466.384519
907.851099	2485.288846
908.157675	2507.721981
908.464211	2489.321769
908.770707	2473.190077
909.077163	2436.893769
909.383578	2484.028558
909.689954	2470.417442
909.996289	2473.442135
910.302584	2479.743577
910.608839	2496.379385
910.915054	2472.181846
911.221229	2480.499750
911.527363	2484.280615
911.833458	2468.653038
912.139513	2476.214769
912.445527	2473.442135
912.751502	2479.239462
913.057436	2473.946250
913.363331	2472.938019
913.669186	2455.798096
913.975000	2468.905096
914.280775	2458.822788
914.586510	2488.565596
914.892205	2454.285750
915.197859	2488.061481
915.503475	2475.206538
915.809050	2487.557365
916.114585	2487.053250
916.420081	2463.863942
916.725536	2491.086173
917.030952	2506.209635
917.336328	2452.269288
917.641665	2467.896865
917.946961	2478.483288
918.252218	2460.083077
918.557435	2495.371154
918.862612	2477.475058
919.167750	2486.549135
919.472848	2461.595423
919.777906	2487.557365
920.082925	2482.264154
920.387904	2467.896865
920.692843	2472.685962
920.997743	2468.148923
921.302603	2489.321769
921.607423	2486.801192
921.912204	2487.809423
922.216946	2489.069712
922.521647	2491.842346
922.826310	2481.255923
923.130932	2441.178750
923.435516	2459.074846
923.740059	2482.264154
924.044564	2471.677731
924.349028	2483.272385
924.653454	2461.091308
924.957840	2456.302212
925.262186	2471.929788
925.566493	2469.157154
925.870761	2476.466827
926.174989	2487.305308
926.479178	2455.041923
926.783328	2476.466827
927.087438	2458.822788
927.391509	2455.293981
927.695541	2469.157154
927.999533	2484.532673
928.303486	2462.603654
928.607400	2451.009000
928.911275	2464.368058
929.215110	2461.595423
929.518906	2470.165385
929.822663	2476.718885
930.126381	2470.165385
930.430060	2460.587192
930.733699	2451.261058
931.037299	2451.513115
931.340861	2464.620115
931.644383	2455.798096
931.947866	2479.995635
932.251309	2493.354692
932.554714	2471.677731
932.858080	2461.343365
933.161407	2497.387615
933.464694	2477.727115
933.767943	2473.442135
934.071153	2471.425673
934.374323	2487.053250
934.677455	2453.025462
934.980548	2451.765173
935.283602	2469.157154
935.586617	2474.702423
935.889593	2472.685962
936.192530	2439.918462
936.495428	2464.368058
936.798287	2466.636577
937.101108	2449.496654
937.403890	2484.028558
937.706632	2484.280615
938.009336	2448.488423
938.312002	2454.537808
938.614628	2472.938019
938.917216	2466.132462
939.219765	2476.466827
939.522275	2446.976077
939.824747	2458.570731
940.127179	2479.743577
940.429573	2441.934923
940.731929	2491.086173
941.034246	2481.003865
941.336524	2466.384519
941.638763	2491.842346
941.940964	2481.507981
942.243126	2513.015192
942.545250	2472.938019
942.847335	2490.330000
943.149381	2453.781635
943.451389	2475.710654
943.753359	2501.420538
944.055290	2478.735346
944.357182	2489.321769
944.659036	2462.099538
944.960851	2421.014135
945.262628	2459.326904
945.564367	2484.280615
945.866067	2449.244596
946.167729	2449.748712
946.469352	2480.247692
946.770937	2470.417442
947.072484	2466.636577
947.373992	2471.929788
947.675462	2446.724019
947.976893	2453.781635
948.278286	2459.326904
948.579641	2483.272385
948.880958	2434.121135
949.182236	2481.507981
949.483476	2453.277519
949.784678	2480.499750
950.085841	2484.028558
950.386967	2456.554269
950.688054	2470.417442
950.989103	2490.834115
951.290114	2458.570731
951.591087	2490.077942
951.892021	2462.351596
952.192917	2441.430808
952.493776	2484.784731
952.794596	2444.455500
953.095378	2445.463731
953.396122	2470.165385
953.696828	2490.077942
953.997496	2458.822788
954.298126	2456.554269
954.598718	2473.946250
954.899272	2461.595423
955.199788	2469.913327
955.500266	2455.546038
955.800706	2485.792962
956.101108	2489.573827
956.401472	2458.570731
956.701798	2455.546038
957.002087	2461.343365
957.302337	2465.628346
957.602550	2472.938019
957.902724	2477.223000
958.202861	2468.653038
958.502960	2475.962712
958.803022	2451.513115
959.103045	2476.466827
959.403031	2441.178750
959.702979	2484.784731
960.002889	2463.611885
960.302762	2459.326904
960.602596	2454.285750
960.902393	2459.578962
961.202153	2432.860846
961.501875	2464.368058
961.801559	2444.707558
962.101205	2469.409212
962.400814	2468.653038
962.700385	2470.165385
962.999918	2467.140692
963.299414	2470.165385
963.598873	2452.521346
963.898293	2438.910231
964.197677	2468.905096
964.497022	2450.756942
964.796331	2474.702423
965.095601	2465.628346
965.394835	2450.000769
965.694030	2476.970942
965.993189	2473.694192
966.292309	2456.554269
966.591393	2476.970942
966.890439	2477.223000
967.189447	2462.855712
967.488419	2455.546038
967.787353	2442.691096
968.086249	2444.959615
968.385108	2452.773404
968.683930	2481.003865
968.982714	2458.318673
969.281462	2456.806327
969.580172	2453.277519
969.878844	2463.611885
970.177480	2475.710654
970.476078	2425.803231
970.774639	2472.433904
971.073162	2473.442135
971.371649	2445.967846
971.670098	2475.458596
971.968510	2484.028558
972.266885	2467.896865
972.565223	2467.140692
972.863524	2482.768269
973.161788	2470.669500
973.460014	2466.132462
973.758204	2463.863942
974.056356	2456.806327
974.354471	2441.682865
974.652550	2488.565596
974.950591	2442.186981
975.248595	2484.784731
975.546563	2458.822788
975.844493	2460.587192
976.142386	2473.694192
976.440243	2441.682865
976.738062	2463.359827
977.035845	2487.053250
977.333590	2440.674635
977.631299	2484.028558
977.928971	2436.389654
978.226606	2441.430808
978.524204	2467.644808
978.821765	2445.715788
979.119290	2463.359827
979.416777	2461.847481
979.714228	2487.557365
980.011642	2437.902000
980.309020	2458.822788
980.606360	2461.847481
980.903664	2471.425673
981.200931	2473.190077
981.498162	2482.264154
981.795356	2459.831019
982.092513	2455.041923
982.389633	2453.781635
982.686717	2450.504885
982.983764	2440.926692
983.280775	2463.863942
983.577749	2484.532673
983.874686	2452.017231
984.171587	2482.264154
984.468451	2467.896865
984.765279	2446.724019
985.062070	2476.466827
985.358824	2466.888635
985.655543	2462.855712
985.952224	2470.417442
986.248869	2466.132462
986.545478	2455.798096
986.842050	2434.877308
987.138586	2469.661269
987.435086	2465.376288
987.731549	2461.847481
988.027975	2482.012096
988.324366	2451.009000
988.620719	2473.190077
988.917037	2448.740481
989.213318	2447.732250
989.509563	2458.066615
989.805772	2479.743577
990.101944	2465.880404
990.398080	2442.439038
990.694180	2463.359827
990.990244	2470.669500
991.286271	2459.831019
991.582262	2442.691096
991.878217	2457.058385
992.174136	2452.521346
992.470019	2459.578962
992.765865	2475.962712
993.061676	2451.009000
993.357450	2473.442135
993.653188	2464.620115
993.948890	2465.124231
994.244556	2452.773404
994.540186	2477.475058
994.835780	2469.409212
995.131337	2462.351596
995.426859	2466.132462
995.722345	2453.277519
996.017795	2443.447269
996.313208	2487.557365
996.608586	2448.992538
996.903928	2468.148923
997.199234	2452.269288
997.494504	2471.929788
997.789738	2472.938019
998.084936	2489.321769
998.380099	2452.017231
998.675225	2454.285750
998.970316	2450.756942
999.265371	2477.475058
999.560390	2445.967846
999.855373	2460.839250
1000.150320	2469.913327
1000.445232	2456.050154
1000.740108	2478.231231
1001.034948	2476.970942
1001.329752	2468.400981
1001.624521	2468.653038
1001.919254	2465.880404
1002.213951	2447.984308
1002.508613	2485.036788
1002.803239	2448.236365
1003.097829	2463.359827
1003.392384	2476.718885
1003.686903	2443.951385
1003.981386	2461.847481
1004.275834	2462.855712
1004.570246	2443.699327
1004.864623	2455.293981
1005.158964	2459.074846
1005.453270	2468.905096
1005.747540	2474.450365
1006.041775	2463.359827
1006.335974	2436.893769
1006.630138	2434.373192
1006.924266	2481.760038
1007.218359	2481.003865
1007.512416	2478.735346
1007.806438	2460.335135
1008.100425	2472.685962
1008.394376	2459.578962
1008.688292	2465.376288
1008.982172	2453.277519
1009.276017	2470.165385
1009.569827	2457.814558
1009.863602	2483.524442
1010.157341	2458.822788
1010.451045	2468.148923
1010.744714	2442.186981
1011.038347	2455.293981
1011.331945	2456.050154
1011.625508	2447.228135
1011.919036	2440.926692
1012.212528	2450.504885
1012.505986	2443.699327
1012.799408	2463.359827
1013.092795	2464.368058
1013.386147	2471.929788
1013.679464	2462.351596
1013.972745	2453.529577
1014.265992	2460.335135
1014.559204	2458.822788
1014.852380	2458.066615
1015.145521	2463.611885
1015.438628	2425.047058
1015.731699	2461.595423
1016.024736	2474.198308
1016.317737	2468.653038
1016.610703	2462.351596
1016.903635	2458.318673
1017.196531	2471.173615
1017.489393	2464.116000
1017.782219	2460.083077
1018.075011	2448.992538
1018.367768	2470.921558
1018.660490	2451.009000
1018.953177	2451.009000
1019.245829	2451.009000
