Dividing Wavelength (nm)	Counts (n)	Slit_number_23_of_a_total_of_40	
326.493990	2046.355581
326.888308	2046.355581
327.282561	2046.355581
327.676750	2016.234687
328.070874	2015.428102
328.464933	2023.015038
328.858929	2036.374096
329.252859	2044.792823
329.646726	2052.001673
330.040528	2071.284087
330.434265	2087.894688
330.827938	2110.302617
331.221547	2135.483181
331.615091	2154.412713
332.008571	2175.711588
332.401986	2193.229598
332.795338	2211.402958
333.188625	2235.751731
333.581847	2243.615931
333.975006	2274.543410
334.368100	2290.675102
334.761129	2299.673562
335.154095	2320.821202
335.546996	2335.138079
335.939833	2349.858248
336.332606	2363.519775
336.725315	2369.115456
337.117960	2382.852600
337.510540	2402.689540
337.903056	2404.756413
338.295508	2406.898904
338.687896	2416.804771
339.080220	2415.670512
339.472480	2428.853129
339.864676	2435.356217
340.256807	2435.003337
340.648875	2430.667944
341.040879	2436.263625
341.432818	2437.070210
341.824694	2443.043977
342.216506	2430.113417
342.608253	2430.466298
342.999937	2437.171033
343.391557	2435.179777
343.783113	2435.129365
344.174605	2437.599531
344.566033	2434.095929
344.957397	2429.180804
345.348697	2418.443146
345.739934	2426.534198
346.131106	2421.114958
346.522215	2416.376273
346.913260	2417.939031
347.304241	2421.619073
347.695159	2415.897363
348.086012	2416.502302
348.476802	2416.073804
348.867528	2405.058883
349.258191	2411.385531
349.648789	2406.344377
350.039324	2407.755900
350.429796	2402.992010
350.820203	2400.849519
351.210548	2417.636562
351.600828	2405.310940
351.991045	2405.764644
352.381198	2412.418967
352.771288	2403.899417
353.161314	2400.925137
353.551276	2402.714746
353.941175	2408.461662
354.331010	2403.672565
354.720782	2406.394788
355.110490	2396.917419
355.500135	2414.334606
355.889717	2409.822773
356.279235	2402.235837
356.668689	2407.982752
357.058080	2410.276477
357.447408	2412.696231
357.836672	2414.838721
358.225873	2415.166396
358.615010	2403.294479
359.004084	2414.737898
359.393095	2407.503842
359.782043	2409.318658
360.170927	2412.544996
360.559748	2413.679256
360.948505	2408.285221
361.337199	2414.359812
361.725830	2415.872158
362.114398	2410.553740
362.502903	2416.300656
362.891344	2413.679256
363.279722	2412.494585
363.668037	2420.459608
364.056289	2417.560944
364.444478	2421.467838
364.832603	2413.275963
365.220665	2422.627304
365.608665	2420.812488
365.996601	2410.553740
366.384474	2424.795000
366.772284	2419.400965
367.160031	2421.190575
367.547715	2420.409196
367.935336	2418.291912
368.322893	2418.014648
368.710388	2411.511560
369.097820	2417.510533
369.485189	2410.553740
369.872495	2423.131419
370.259738	2409.243040
370.646918	2416.426685
371.034035	2420.283167
371.421090	2424.316090
371.808081	2429.659713
372.195010	2423.055802
372.581875	2418.947262
372.968678	2428.374219
373.355418	2424.215267
373.742096	2425.475556
374.128710	2417.686973
374.515262	2424.341296
374.901751	2422.224012
375.288177	2436.440065
375.674540	2429.483273
376.060841	2422.980185
376.447079	2428.727100
376.833254	2436.692123
377.219367	2431.978644
377.605417	2426.937490
377.991404	2430.037800
378.377329	2429.710125
378.763191	2432.507965
379.148991	2430.214240
379.534727	2434.196752
379.920402	2430.995619
380.306013	2423.963210
380.691563	2433.415373
381.077049	2441.304779
381.462474	2436.465271
381.847835	2425.500762
382.233134	2427.441606
382.618371	2435.583069
383.003545	2431.020825
383.388657	2441.506425
383.773706	2434.927719
384.158693	2425.097469
384.543618	2435.078954
384.928480	2432.810435
385.313280	2438.103646
385.698017	2445.438525
386.082692	2438.179263
386.467305	2431.953438
386.851856	2444.808381
387.236344	2434.196752
387.620770	2435.003337
388.005133	2440.019285
388.389435	2439.817638
388.773674	2441.834100
389.157851	2448.614452
389.541965	2448.059925
389.926018	2450.706531
390.310008	2459.881431
390.693936	2448.740481
391.077802	2447.303752
391.461606	2460.057871
391.845348	2456.705504
392.229027	2466.485342
392.612645	2472.358287
392.996200	2480.625779
393.379694	2494.564569
393.763125	2500.009015
394.146494	2520.602129
394.529801	2532.952956
394.913047	2549.109854
395.296230	2571.669017
395.679351	2591.253900
396.062410	2619.055863
396.445408	2642.976138
396.828343	2672.139213
397.211217	2707.023998
397.594028	2732.834706
397.976778	2771.853237
398.359466	2814.778662
398.742092	2862.745240
399.124656	2918.601225
399.507158	2978.036429
399.889598	3037.118752
400.271977	3111.198508
400.654294	3165.315294
401.036549	3257.845673
401.418742	3319.272133
401.800874	3433.328238
402.182944	3529.841129
402.564952	3655.391065
402.946898	3692.468752
403.328783	3780.058800
403.710606	3891.518712
404.092367	4016.312475
404.474067	4178.536806
404.855705	4203.944221
405.237282	4266.656175
405.618797	4439.240077
406.000250	4579.258125
406.381642	4752.346142
406.762972	4811.302437
407.144240	4822.166123
407.525447	4972.392508
407.906593	5018.493860
408.287677	5157.402854
408.668700	5285.574190
409.049661	5323.105581
409.430560	5430.255306
409.811399	5476.936390
410.192176	5598.730667
410.572891	5678.330487
410.953545	5888.344956
411.334138	5750.116517
411.714669	5996.326471
412.095139	5799.595442
412.475547	5981.631508
412.855894	5966.180371
413.236180	6111.416013
413.616405	5997.662377
413.996568	6106.274037
414.376670	6085.731335
414.756711	6058.887190
415.136691	6139.596063
415.516609	6183.907806
415.896466	6203.341454
416.276262	6252.543115
416.655997	6386.234515
417.035670	6364.431525
417.415283	6548.282406
417.794834	6550.450102
418.174324	6402.366208
418.553753	6338.772052
418.933121	6431.252019
419.312428	6317.473177
419.691674	6205.962854
420.070859	6279.412465
420.449983	6102.493171
420.829045	6172.565210
421.208047	6018.431931
421.586988	6054.602210
421.965867	6037.789962
422.344686	5958.139731
422.723444	6000.460217
423.102141	5581.187452
423.480777	5759.669504
423.859352	5547.512544
424.237866	5697.335637
424.616319	5518.324263
424.994712	5554.217279
425.373044	5403.890071
425.751314	5415.182256
426.129524	5142.254187
426.507673	5203.151325
426.885762	5046.497469
427.263789	4963.394048
427.641756	4884.172315
428.019662	4774.552425
428.397508	4666.898585
428.775292	4586.466975
429.153016	4479.846571
429.530679	4374.108369
429.908282	4270.260600
430.285824	4139.770333
430.663305	4116.454996
431.040726	3976.008450
431.418086	3863.817571
431.795385	3817.615396
432.172624	3769.623612
432.549802	3642.989827
432.926920	3585.344233
433.303977	3488.276815
433.680974	3424.405396
434.057910	3370.364227
434.434786	3298.628608
434.811601	3241.411512
435.188355	3215.273129
435.565050	3150.116215
435.941683	3086.471648
436.318257	3060.459294
436.694770	3013.022037
437.071222	2985.043633
437.447614	2903.402146
437.823946	2873.256046
438.200218	2839.102229
438.576429	2791.538942
438.952580	2776.768362
439.328670	2757.208685
439.704700	2726.407235
440.080670	2689.707635
440.456580	2682.801254
440.832429	2671.030160
441.208218	2633.876856
441.583947	2628.659262
441.959616	2618.576954
442.335224	2604.738987
442.710773	2603.151023
443.086261	2590.346492
443.461689	2571.870663
443.837057	2565.140723
444.212365	2571.164902
444.587612	2557.125288
444.962800	2555.083621
445.337927	2538.069727
445.712995	2528.163860
446.088002	2543.539379
446.462949	2542.304296
446.837837	2532.171577
447.212664	2530.407173
447.587431	2520.501306
447.962139	2545.581046
448.336786	2538.069727
448.711374	2533.179808
449.085901	2517.527025
449.460369	2509.158710
449.834776	2510.746673
450.209124	2511.679287
450.583412	2514.678773
450.957640	2506.411281
451.331808	2509.284738
451.705917	2503.789881
452.079965	2503.033708
452.453954	2492.472490
452.827883	2486.221460
453.201752	2498.219406
453.575562	2486.775987
453.949311	2485.011583
454.323001	2499.807369
454.696632	2482.163331
455.070202	2497.765702
455.443713	2485.666933
455.817164	2489.699856
456.190556	2494.211688
456.563888	2486.851604
456.937160	2487.330513
457.310373	2483.398413
457.683526	2480.424133
458.056619	2479.995635
458.429653	2477.878350
458.802628	2482.591829
459.175542	2490.783704
459.548398	2475.584625
459.921194	2481.860862
460.293930	2488.011069
460.666607	2484.809937
461.039224	2488.187510
461.411782	2483.852117
461.784280	2483.927735
462.156719	2484.583085
462.529099	2487.632983
462.901419	2478.760552
463.273680	2472.635550
463.645882	2482.692652
464.018024	2483.801706
464.390106	2476.340798
464.762130	2485.616521
465.134094	2483.877323
465.505999	2495.497183
465.877845	2490.657675
466.249631	2496.152533
466.621358	2506.184429
466.993026	2492.396873
467.364634	2498.547081
467.736184	2488.590802
468.107674	2493.077429
468.479105	2486.397900
468.850477	2480.953454
469.221790	2487.481748
469.593043	2490.808910
469.964238	2485.112406
470.335373	2478.558906
470.706449	2488.263127
471.077467	2487.532160
471.448425	2488.111892
471.819324	2491.237408
472.190164	2490.985350
472.560945	2491.010556
472.931667	2485.137612
473.302330	2486.372694
473.672934	2492.749754
474.043479	2481.558392
474.413965	2481.684421
474.784393	2489.523415
475.154761	2482.642240
475.525070	2486.523929
475.895321	2483.826912
476.265513	2491.665906
476.635645	2493.304281
477.005719	2485.364463
477.375734	2479.995635
477.745691	2488.137098
478.115588	2482.642240
478.485427	2496.782677
478.855207	2490.657675
479.224928	2493.505927
479.594591	2495.295537
479.964194	2488.263127
480.333739	2498.269817
480.703226	2500.185456
481.072653	2498.194200
481.442022	2496.908706
481.811333	2490.657675
482.180584	2490.884527
482.549777	2495.018273
482.918912	2497.589262
483.287988	2485.465287
483.657005	2494.362923
484.025964	2499.857781
484.394864	2493.153046
484.763706	2489.094917
485.132489	2487.683394
485.501213	2488.187510
485.869879	2485.364463
486.238487	2497.891731
486.607036	2486.045019
486.975527	2485.137612
487.343959	2487.885040
487.712333	2492.573313
488.080648	2489.548621
488.448905	2493.228663
488.817104	2500.765188
489.185244	2494.665392
489.553326	2493.153046
489.921350	2499.000785
490.289315	2504.898935
490.657222	2494.690598
491.025070	2499.731752
491.392861	2502.252329
491.760593	2495.976092
492.128267	2491.842346
492.495883	2498.320229
492.863440	2487.834629
493.230939	2494.892244
493.598380	2495.497183
493.965763	2489.775473
494.333088	2494.690598
494.700354	2491.867552
495.067563	2502.857267
495.434713	2496.253356
495.801805	2497.110352
496.168839	2494.488952
496.535815	2500.563542
496.902733	2496.757471
497.269593	2491.817140
497.636395	2498.118583
498.003139	2495.320742
498.369825	2496.530619
498.736453	2491.867552
499.103023	2497.614467
499.469535	2497.564056
499.835989	2493.783190
500.202385	2486.473517
500.568723	2488.918477
500.935003	2496.959117
501.301226	2481.129894
501.667390	2487.658188
502.033497	2490.405617
502.399546	2494.867038
502.765537	2496.379385
503.131470	2494.690598
503.497345	2493.909219
503.863163	2488.212715
504.228923	2491.539877
504.594625	2489.044506
504.960269	2499.252842
505.325856	2494.262100
505.691385	2503.008502
506.056856	2491.615494
506.422270	2501.596979
506.787625	2494.614981
507.152924	2486.725575
507.518164	2496.051710
507.883347	2496.480208
508.248472	2497.942142
508.613540	2494.186483
508.978550	2493.707573
509.343503	2489.926708
509.708398	2488.061481
510.073236	2489.624238
510.438016	2506.486898
510.802738	2494.110865
511.167403	2489.321769
511.532010	2501.168481
511.896561	2504.092350
512.261053	2497.866525
512.625488	2497.715290
512.989866	2497.488438
513.354186	2502.075888
513.718449	2500.261073
514.082655	2501.596979
514.446803	2502.655621
514.810894	2498.471463
515.174927	2500.311485
515.538904	2509.435973
515.902822	2506.310458
516.266684	2498.320229
516.630488	2503.437000
516.994235	2505.453462
517.357925	2497.387615
517.721558	2502.756444
518.085133	2501.672596
518.448651	2498.118583
518.812112	2495.774446
519.175516	2495.068685
519.538863	2492.875783
519.902152	2495.623212
520.265385	2505.932371
520.628560	2512.485871
520.991678	2500.916423
521.354739	2497.816113
521.717743	2495.598006
522.080690	2498.320229
522.443580	2495.345948
522.806413	2498.975579
523.169189	2498.219406
523.531908	2504.369613
523.894569	2502.252329
524.257174	2495.345948
524.619722	2498.194200
524.982213	2494.715804
525.344647	2490.506440
525.707025	2498.068171
526.069345	2490.531646
526.431608	2496.807883
526.793815	2494.690598
527.155964	2491.186996
527.518057	2500.361896
527.880093	2496.581031
528.242072	2498.975579
528.603995	2491.086173
528.965860	2492.447285
529.327669	2493.606750
529.689421	2491.136585
530.051117	2491.363437
530.412755	2494.867038
530.774337	2492.043992
531.135862	2501.269304
531.497331	2491.791935
531.858743	2498.244612
532.220098	2485.288846
532.581396	2494.136071
532.942638	2492.069198
533.303824	2494.514158
533.664953	2497.412821
534.026025	2491.035762
534.387040	2487.859835
534.747999	2481.255923
535.108902	2501.773419
535.469748	2485.918990
535.830537	2498.471463
536.191270	2498.622698
536.551947	2485.036788
536.912567	2485.087200
537.273131	2484.709113
537.633638	2485.944196
537.994089	2492.321256
538.354483	2496.530619
538.714821	2486.498723
539.075103	2486.523929
539.435328	2488.061481
539.795497	2486.750781
540.155609	2494.816627
540.515665	2495.749240
540.875665	2489.750267
541.235609	2494.514158
541.595496	2485.238435
541.955328	2494.539363
542.315102	2489.674650
542.674821	2484.557879
543.034483	2495.320742
543.394090	2486.826398
543.753640	2486.523929
544.113134	2491.313025
544.472571	2496.303767
544.831953	2494.589775
545.191278	2487.759012
545.550548	2487.557365
545.909761	2488.237921
546.268918	2496.152533
546.628019	2483.474031
546.987064	2484.683908
547.346053	2486.297077
547.704986	2477.323823
548.063863	2484.507467
548.422684	2490.355206
548.781449	2481.583598
549.140158	2487.254896
549.498811	2487.784217
549.857408	2479.642754
550.215949	2490.884527
550.574434	2488.943683
550.932864	2486.473517
551.291237	2497.211175
551.649555	2480.600573
552.007817	2493.178252
552.366022	2491.237408
552.724173	2487.859835
553.082267	2491.817140
553.440305	2488.288333
553.798288	2496.681854
554.156215	2488.187510
554.514086	2483.574854
554.871902	2484.457056
555.229661	2486.171048
555.587365	2490.783704
555.945014	2481.029071
556.302606	2483.700883
556.660143	2484.204998
557.017625	2480.575367
557.375050	2483.826912
557.732421	2486.574340
558.089735	2490.531646
558.446994	2487.355719
558.804197	2490.456029
559.161345	2486.019813
559.518437	2484.709113
559.875474	2479.844400
560.232455	2481.986890
560.589381	2486.952427
560.946251	2491.035762
561.303065	2489.548621
561.659825	2485.843373
562.016528	2482.516212
562.373177	2492.069198
562.729770	2486.725575
563.086307	2485.893785
563.442789	2487.406131
563.799216	2485.792962
564.155587	2480.247692
564.511904	2487.935452
564.868164	2485.288846
565.224370	2482.692652
565.580520	2477.575881
565.936615	2486.523929
566.292654	2493.304281
566.648638	2484.683908
567.004567	2486.019813
567.360441	2485.515698
567.716260	2478.256437
568.072023	2487.759012
568.427732	2481.432363
568.783385	2481.760038
569.138982	2489.573827
569.494525	2491.943169
569.850013	2478.332054
570.205445	2484.784731
570.560823	2481.583598
570.916145	2489.069712
571.271412	2473.013637
571.626625	2488.641213
571.981782	2492.144815
572.336884	2480.424133
572.691931	2483.121150
573.046923	2477.802733
573.401860	2475.685448
573.756743	2485.162817
574.111570	2480.676190
574.466342	2488.263127
574.821059	2480.852631
575.175722	2482.591829
575.530330	2481.029071
575.884882	2486.977633
576.239380	2488.212715
576.593823	2478.155613
576.948211	2490.178765
577.302544	2483.297590
577.656823	2485.540904
578.011047	2474.752835
578.365216	2485.011583
578.719330	2487.859835
579.073389	2482.390183
579.427394	2487.355719
579.781344	2480.550162
580.135239	2485.540904
580.489080	2484.305821
580.842866	2488.590802
581.196597	2481.054277
581.550273	2482.591829
581.903895	2485.137612
582.257463	2487.985863
582.610975	2486.322283
582.964434	2487.708600
583.317837	2484.809937
583.671186	2492.724548
584.024481	2478.760552
584.377721	2479.491519
584.730906	2483.045533
585.084037	2484.154587
585.437113	2483.751294
585.790135	2493.808396
586.143103	2483.524442
586.496016	2490.531646
586.848874	2484.709113
587.201679	2486.423106
587.554428	2482.112919
587.907124	2477.853144
588.259765	2478.155613
588.612352	2477.248206
588.964884	2481.961685
589.317362	2482.465800
589.669786	2472.761579
590.022155	2476.492033
590.374470	2475.912300
590.726731	2475.055304
591.078937	2473.744604
591.431090	2485.490492
591.783188	2480.726602
592.135232	2486.070225
592.487222	2478.634523
592.839157	2487.456542
593.191038	2474.425160
593.542866	2486.977633
593.894639	2479.113433
594.246358	2485.314052
594.598022	2486.019813
594.949633	2467.569190
595.301190	2478.634523
595.652692	2478.684935
596.004141	2479.491519
596.355535	2477.046560
596.706876	2483.297590
597.058162	2477.953967
597.409395	2475.357773
597.760573	2484.809937
598.111698	2475.256950
598.462768	2486.423106
598.813785	2480.020840
599.164748	2471.980200
599.515657	2477.399440
599.866511	2484.154587
600.217312	2489.321769
600.568060	2478.306848
600.918753	2476.013123
601.269392	2476.340798
601.619978	2482.491006
601.970510	2484.431850
602.320988	2477.878350
602.671412	2478.533700
603.021783	2470.795529
603.372100	2472.660756
603.722363	2482.642240
604.072572	2487.078456
604.422728	2481.734833
604.772830	2476.492033
605.122878	2478.710140
605.472872	2478.432877
605.822813	2476.844913
606.172701	2474.475571
606.522534	2468.098512
606.872314	2479.340285
607.222041	2476.517238
607.571714	2479.541931
607.921333	2461.847481
608.270899	2477.575881
608.620411	2479.567137
608.969870	2475.130921
609.319276	2487.053250
609.668627	2476.668473
610.017926	2476.744090
610.367171	2475.735860
610.716362	2476.794502
611.065500	2480.071252
611.414585	2470.896352
611.763616	2472.232258
612.112594	2481.407158
612.461518	2478.483288
612.810389	2485.843373
613.159207	2470.997175
613.507971	2479.743577
613.856682	2472.383492
614.205340	2475.408185
614.553945	2481.936479
614.902496	2469.837710
615.250994	2477.827938
615.599439	2475.761065
615.947830	2480.953454
616.296169	2478.760552
616.644454	2478.962198
616.992686	2474.500777
617.340864	2468.174129
617.688990	2472.887608
618.037063	2478.054790
618.385082	2474.021867
618.733048	2484.583085
619.080961	2478.483288
619.428821	2482.743063
619.776628	2479.567137
620.124382	2472.963225
620.472083	2481.507981
620.819731	2481.230717
621.167326	2484.532673
621.514868	2474.047073
621.862357	2477.349029
622.209793	2481.634010
622.557176	2480.625779
622.904506	2489.473004
623.251783	2475.181333
623.599007	2477.953967
623.946179	2476.895325
624.293297	2479.163844
624.640363	2474.702423
624.987376	2478.584112
625.334336	2469.283183
625.681243	2479.920017
626.028097	2476.214769
626.374899	2479.642754
626.721647	2471.198821
627.068343	2480.903042
627.414987	2477.449852
627.761577	2471.954994
628.108115	2481.129894
628.454600	2464.468881
628.801032	2469.736887
629.147412	2472.837196
629.493739	2467.443162
629.840014	2472.862402
630.186236	2469.031125
630.532405	2470.845940
630.878521	2462.855712
631.224585	2479.239462
631.570597	2472.459110
631.916556	2480.146869
632.262462	2479.567137
632.608316	2478.962198
632.954117	2473.795015
633.299866	2473.164871
633.645562	2481.760038
633.991206	2475.887094
634.336797	2479.088227
634.682336	2472.181846
635.027823	2486.423106
635.373257	2476.769296
635.718639	2477.298617
636.063968	2475.080510
636.409245	2474.500777
636.754470	2480.020840
637.099642	2475.055304
637.444762	2473.542958
637.789829	2472.207052
638.134845	2469.938533
638.479808	2474.979687
638.824719	2470.291413
639.169577	2480.650985
639.514383	2475.660242
639.859137	2478.911787
640.203839	2472.181846
640.548489	2472.433904
640.893086	2471.728142
641.237632	2471.702937
641.582125	2466.611371
641.926566	2469.182360
642.270955	2466.031638
642.615292	2468.955508
642.959576	2476.013123
643.303809	2467.216310
643.647990	2473.038842
643.992118	2474.097485
644.336195	2464.418469
644.680219	2473.719398
645.024192	2473.795015
645.368112	2472.081023
645.711981	2469.384006
646.055797	2478.004379
646.399562	2474.702423
646.743274	2472.408698
647.086935	2470.896352
647.430544	2470.619088
647.774101	2470.014150
648.117606	2474.399954
648.461059	2473.416929
648.804460	2477.096971
649.147810	2474.122690
649.491108	2473.820221
649.834354	2473.921044
650.177548	2472.660756
650.520690	2475.937506
650.863781	2477.651498
651.206820	2470.215796
651.549807	2466.132462
651.892742	2472.408698
652.235626	2475.282156
652.578458	2469.762092
652.921238	2469.610858
653.263967	2468.602627
653.606644	2461.973510
653.949269	2477.475058
654.291843	2465.628346
654.634365	2476.466827
654.976836	2473.190077
655.319255	2479.617548
655.661622	2466.813017
656.003938	2466.661783
656.346203	2474.425160
656.688416	2468.325363
657.030577	2480.046046
657.372687	2474.198308
657.714746	2473.391723
658.056753	2468.501804
658.398708	2473.492546
658.740612	2473.568163
659.082465	2473.215283
659.424266	2469.711681
659.766016	2471.501290
660.107715	2471.980200
660.449362	2473.517752
660.790958	2472.862402
661.132503	2474.021867
661.473996	2461.494600
661.815438	2467.644808
662.156829	2465.199848
662.498168	2470.619088
662.839456	2473.921044
663.180693	2466.510548
663.521879	2474.374748
663.863013	2467.342338
664.204097	2477.071765
664.545129	2469.837710
664.886110	2475.836683
665.227040	2467.821248
665.567918	2473.643781
665.908746	2468.400981
666.249522	2471.602113
666.590248	2470.089767
666.930922	2479.995635
667.271545	2469.762092
667.612118	2466.863429
667.952639	2471.551702
668.293109	2464.368058
668.633528	2465.502317
668.973896	2465.603140
669.314213	2471.047587
669.654480	2468.300158
669.994695	2468.148923
670.334859	2473.467340
670.674973	2472.585138
671.015035	2475.282156
671.355047	2467.266721
671.695008	2472.055817
672.034918	2472.030612
672.374777	2468.879890
672.714585	2460.612398
673.054342	2467.972483
673.394049	2472.660756
673.733705	2475.861888
674.073310	2469.686475
674.412864	2467.090281
674.752368	2467.317133
675.091820	2472.837196
675.431223	2466.056844
675.770574	2468.148923
676.109875	2469.459623
676.449125	2458.217850
676.788324	2470.593883
677.127473	2470.039356
677.466571	2468.829479
677.805619	2470.114973
678.144616	2478.533700
678.483562	2461.519806
678.822458	2476.214769
679.161303	2478.810963
679.500098	2458.999229
679.838842	2467.644808
680.177535	2477.525469
680.516179	2468.627833
680.854771	2468.854685
681.193314	2466.712194
681.531805	2465.930815
681.870247	2463.032152
682.208638	2469.283183
682.546978	2474.425160
682.885268	2475.534213
683.223508	2477.953967
683.561697	2474.097485
683.899836	2473.467340
684.237925	2471.551702
684.575963	2476.996148
684.913951	2480.524956
685.251889	2471.299644
685.589776	2469.787298
685.927614	2466.384519
686.265401	2462.754888
686.603137	2467.417956
686.940824	2464.922585
687.278460	2472.181846
687.616046	2472.106229
687.953582	2471.627319
688.291068	2466.888635
688.628504	2475.181333
688.965889	2468.930302
689.303224	2464.796556
689.640510	2473.240488
689.977745	2473.467340
690.314930	2460.940073
690.652065	2471.576908
690.989150	2473.870633
691.326185	2461.545012
691.663170	2466.233285
692.000105	2463.536267
692.336990	2467.947277
692.673825	2463.561473
693.010610	2468.804273
693.347345	2463.435444
693.684030	2470.341825
694.020665	2465.880404
694.357251	2460.385546
694.693786	2477.323823
695.030272	2472.433904
695.366707	2467.241515
695.703093	2468.148923
696.039429	2467.291927
696.375716	2468.829479
696.711952	2473.215283
697.048139	2468.678244
697.384276	2464.267235
697.720363	2461.973510
698.056400	2462.250773
698.392388	2463.359827
698.728326	2465.829992
699.064214	2464.015177
699.400053	2467.241515
699.735842	2466.334108
700.071581	2469.308388
700.407270	2463.233798
700.742910	2468.879890
701.078501	2461.620629
701.414042	2469.157154
701.749533	2468.123717
702.084974	2464.040383
702.420366	2466.485342
702.755709	2465.981227
703.091002	2464.670527
703.426246	2471.728142
703.761440	2461.166925
704.096584	2464.998202
704.431679	2454.260544
704.766725	2469.787298
705.101721	2460.335135
705.436668	2470.694706
705.771565	2468.804273
706.106413	2472.862402
706.441212	2463.057358
706.775961	2465.981227
707.110661	2471.728142
707.445311	2460.940073
707.779913	2467.720425
708.114465	2466.409725
708.448967	2471.148410
708.783421	2467.367544
709.117825	2461.948304
709.452180	2475.509008
709.786485	2468.804273
710.120742	2462.729683
710.454949	2458.948817
710.789107	2460.284723
711.123216	2467.065075
711.457275	2458.948817
711.791286	2464.191617
712.125247	2473.694192
712.459159	2466.863429
712.793023	2469.560446
713.126837	2469.081537
713.460602	2460.057871
713.794318	2466.964252
714.127985	2470.367031
714.461602	2468.174129
714.795171	2468.350569
715.128691	2467.367544
715.462162	2462.023921
715.795584	2457.134002
716.128957	2478.231231
716.462281	2465.401494
716.795556	2465.401494
717.128782	2459.957048
717.461960	2467.115487
717.795088	2464.393263
718.128167	2463.057358
718.461198	2462.351596
718.794180	2465.426700
719.127113	2462.023921
719.459997	2475.483802
719.792833	2468.350569
720.125619	2470.694706
720.458357	2463.586679
720.791046	2464.922585
721.123686	2467.165898
721.456278	2467.871660
721.788821	2464.972996
722.121315	2462.981740
722.453761	2463.989971
722.786158	2467.644808
723.118506	2471.450879
723.450805	2467.216310
723.783056	2470.367031
724.115259	2463.410238
724.447412	2466.359313
724.779518	2458.369085
725.111574	2465.880404
725.443582	2453.453960
725.775542	2457.890175
726.107453	2468.577421
726.439315	2461.721452
726.771129	2475.080510
727.102895	2461.645835
727.434612	2464.468881
727.766281	2455.193158
728.097901	2467.594396
728.429473	2466.485342
728.760996	2467.896865
729.092471	2471.778554
729.423897	2463.107769
729.755276	2467.443162
730.086606	2464.720938
730.417887	2461.998715
730.749120	2471.375262
731.080305	2463.410238
731.411442	2473.870633
731.742530	2462.754888
732.073570	2473.442135
732.404562	2457.562500
732.735506	2464.519292
733.066401	2465.250260
733.397249	2464.846967
733.728048	2465.577935
734.058798	2459.881431
734.389501	2463.536267
734.720156	2468.325363
735.050762	2461.166925
735.381320	2465.577935
735.711831	2459.226081
736.042293	2463.057358
736.372707	2472.938019
736.703073	2460.335135
737.033391	2460.738427
737.363661	2463.460650
737.693883	2471.627319
738.024056	2463.460650
738.354182	2459.780608
738.684260	2473.870633
739.014290	2466.182873
739.344272	2468.148923
739.674207	2468.728656
740.004093	2467.342338
740.333931	2461.267748
740.663722	2460.511575
740.993464	2462.502831
741.323159	2463.485856
741.652806	2469.661269
741.982405	2459.553756
742.311956	2466.913840
742.641460	2463.385033
742.970915	2459.957048
743.300323	2460.612398
743.629683	2461.040896
743.958996	2460.587192
744.288260	2460.940073
744.617477	2470.114973
744.946647	2466.384519
745.275768	2466.535754
745.604842	2461.645835
745.933869	2465.250260
746.262847	2454.890688
746.591778	2467.644808
746.920662	2465.225054
747.249498	2458.570731
747.578286	2469.283183
747.907027	2461.393777
748.235720	2463.511062
748.564365	2463.410238
748.892963	2464.242029
749.221514	2457.285237
749.550017	2470.871146
749.878473	2467.518779
750.206881	2462.805300
750.535242	2457.007973
750.863555	2471.097998
751.191821	2459.654579
751.520039	2460.662810
751.848210	2456.705504
752.176334	2467.342338
752.504411	2461.645835
752.832440	2464.317646
753.160421	2461.973510
753.488356	2464.519292
753.816243	2461.696246
754.144082	2453.605194
754.471875	2463.611885
754.799620	2455.571244
755.127318	2456.705504
755.454969	2456.100565
755.782572	2460.814044
756.110129	2461.116513
756.437638	2464.746144
756.765100	2461.696246
757.092515	2457.562500
757.419882	2459.957048
757.747203	2461.948304
758.074477	2464.065588
758.401703	2453.756429
758.728882	2461.570217
759.056014	2466.107256
759.383099	2470.795529
759.710138	2461.872687
760.037129	2451.412292
760.364073	2461.166925
760.690970	2462.301185
761.017820	2468.905096
761.344623	2466.082050
761.671379	2463.763119
761.998088	2463.082563
762.324751	2466.157667
762.651366	2467.947277
762.977935	2470.770323
763.304456	2466.964252
763.630931	2469.938533
763.957359	2463.032152
764.283740	2469.837710
764.610074	2470.518265
764.936362	2464.116000
765.262602	2457.864969
765.588796	2470.518265
765.914943	2457.990998
766.241044	2462.931329
766.567097	2458.923612
766.893104	2465.124231
767.219064	2456.881944
767.544978	2465.174642
767.870845	2457.033179
768.196665	2453.025462
768.522438	2457.940587
768.848165	2464.670527
769.173846	2461.519806
769.499479	2459.553756
769.825066	2464.569704
770.150607	2461.066102
770.476101	2455.898919
770.801548	2455.117540
771.126949	2459.755402
771.452303	2452.672581
771.777611	2455.672067
772.102872	2450.530090
772.428087	2449.723506
772.753256	2462.099538
773.078378	2458.091821
773.403453	2454.663837
773.728482	2465.073819
774.053465	2462.326390
774.378401	2458.520319
774.703291	2462.200362
775.028135	2460.259517
775.352932	2461.822275
775.677683	2464.846967
776.002388	2455.974537
776.327046	2457.285237
776.651658	2453.781635
776.976224	2465.577935
777.300743	2462.654065
777.625216	2458.797583
777.949643	2464.040383
778.274024	2461.192131
778.598359	2457.310442
778.922647	2464.821762
779.246889	2457.663323
779.571086	2456.327417
779.895236	2464.947790
780.219339	2451.664350
780.543397	2465.073819
780.867409	2461.141719
781.191374	2459.175669
781.515294	2463.132975
781.839167	2454.084104
782.162995	2470.467854
782.486776	2461.166925
782.810511	2463.989971
783.134201	2455.293981
783.457844	2460.385546
783.781441	2459.402521
784.104993	2463.536267
784.428498	2457.486883
784.751958	2465.754375
785.075372	2459.654579
785.398739	2454.537808
785.722061	2463.385033
786.045337	2459.755402
786.368568	2453.176696
786.691752	2466.661783
787.014891	2464.494087
787.337983	2460.889662
787.661030	2454.865483
787.984031	2467.317133
788.306987	2456.150977
788.629897	2457.386060
788.952760	2457.209619
789.275579	2460.990485
789.598351	2467.241515
789.921078	2458.243056
790.243759	2464.015177
790.566395	2458.847994
790.888984	2461.746658
791.211529	2462.578448
791.534027	2462.780094
791.856480	2460.889662
792.178888	2454.739454
792.501249	2459.301698
792.823566	2460.335135
793.145836	2451.865996
793.468062	2455.243569
793.790241	2456.150977
794.112375	2453.579988
794.434464	2450.504885
794.756507	2451.412292
795.078505	2457.310442
795.400457	2452.370112
795.722364	2466.334108
796.044226	2463.132975
796.366042	2460.738427
796.687812	2460.914867
797.009538	2470.140179
797.331218	2470.316619
797.652852	2464.594910
797.974442	2466.560960
798.295986	2459.402521
798.617484	2459.226081
798.938938	2456.302212
799.260346	2461.671040
799.581709	2454.991512
799.903026	2468.804273
800.224299	2466.586165
800.545526	2458.999229
800.866708	2456.957562
801.187845	2468.552215
801.508936	2460.688015
801.829983	2464.267235
802.150984	2454.134515
802.471940	2452.571758
802.792851	2457.260031
803.113717	2467.266721
803.434538	2465.376288
803.755314	2459.049640
804.076045	2454.235338
804.396731	2454.689042
804.717372	2450.303238
805.037967	2463.914354
805.358518	2461.822275
805.679024	2462.023921
805.999485	2462.124744
806.319901	2455.848508
806.640272	2458.721965
806.960598	2457.310442
807.280879	2462.074333
807.601115	2452.244083
807.921306	2454.134515
808.241453	2455.092335
808.561554	2461.973510
808.881611	2457.713735
809.201623	2453.882458
809.521590	2460.435958
809.841513	2453.932869
810.161390	2461.166925
810.481223	2467.392750
810.801011	2458.696760
811.120755	2453.655606
811.440453	2453.479165
811.760107	2457.890175
812.079716	2464.972996
812.399281	2462.729683
812.718801	2454.764660
813.038276	2455.621656
813.357707	2457.990998
813.677093	2457.940587
813.996434	2456.680298
814.315731	2462.427213
814.634983	2458.444702
814.954191	2457.713735
815.273354	2454.714248
815.592473	2463.460650
815.911547	2460.738427
816.230577	2452.168465
816.549562	2460.965279
816.868502	2456.806327
817.187399	2461.923098
817.506250	2459.276492
817.825058	2464.544498
818.143821	2458.873200
818.462539	2459.931842
818.781213	2462.402008
819.099843	2463.132975
819.418429	2464.494087
819.736970	2464.620115
820.055466	2466.661783
820.373919	2463.309415
820.692327	2465.426700
821.010691	2464.821762
821.329011	2478.432877
821.647286	2472.887608
821.965517	2484.658702
822.283704	2478.079996
822.601847	2493.127840
822.919945	2488.868065
823.237999	2483.448825
823.556010	2479.970429
823.873976	2474.601600
824.191897	2478.659729
824.509775	2458.595937
824.827609	2475.181333
825.145398	2460.360340
825.463144	2467.997688
825.780845	2464.746144
826.098502	2468.527010
826.416116	2468.527010
826.733685	2472.181846
827.051210	2474.299131
827.368692	2469.232771
827.686129	2467.947277
828.003522	2471.501290
828.320872	2467.493573
828.638177	2462.603654
828.955439	2462.175156
829.272656	2459.528550
829.589830	2461.066102
829.906960	2460.461163
830.224046	2459.251287
830.541088	2462.452419
830.858086	2463.511062
831.175041	2464.216823
831.491952	2465.779581
831.808819	2459.301698
832.125642	2456.604681
832.442421	2459.251287
832.759157	2459.175669
833.075849	2464.771350
833.392497	2457.839763
833.709101	2449.269802
834.025662	2458.797583
834.342179	2466.989458
834.658653	2463.712708
834.975083	2462.124744
835.291469	2462.830506
835.607811	2464.166412
835.924110	2455.243569
836.240366	2461.192131
836.556578	2456.226594
836.872746	2472.181846
837.188871	2463.284210
837.504952	2448.664863
837.820990	2460.914867
838.136984	2450.832560
838.452935	2456.050154
838.768842	2452.193671
839.084706	2459.780608
839.400526	2462.326390
839.716303	2465.401494
840.032037	2456.352623
840.347727	2459.881431
840.663373	2450.328444
840.978977	2452.193671
841.294537	2458.444702
841.610054	2459.503344
841.925527	2461.343365
842.240957	2458.343879
842.556344	2461.242542
842.871687	2453.554783
843.186987	2457.234825
843.502244	2455.924125
843.817458	2456.403035
844.132629	2454.663837
844.447756	2461.494600
844.762840	2449.521860
845.077881	2462.149950
845.392879	2447.505398
845.707833	2462.805300
846.022745	2454.613425
846.337613	2461.015690
846.652438	2461.343365
846.967221	2458.369085
847.281960	2456.529063
847.596656	2450.807354
847.911309	2462.326390
848.225919	2459.049640
848.540485	2452.420523
848.855009	2456.377829
849.169490	2465.275465
849.483928	2458.646348
849.798323	2462.528037
850.112675	2451.361881
850.426984	2455.873713
850.741251	2457.537294
851.055474	2457.411265
851.369654	2455.974537
851.683792	2452.546552
851.997887	2462.880917
852.311938	2447.454987
852.625947	2464.393263
852.939914	2457.234825
853.253837	2460.284723
853.567718	2452.319700
853.881555	2451.992025
854.195350	2458.974023
854.509103	2464.670527
854.822812	2455.974537
855.136479	2458.570731
855.450103	2453.176696
855.763685	2450.404062
856.077224	2459.402521
856.390720	2456.125771
856.704173	2462.603654
857.017584	2457.612912
857.330953	2453.680812
857.644278	2458.520319
857.957561	2463.712708
858.270802	2457.007973
858.584000	2458.671554
858.897155	2452.899433
859.210268	2449.698300
859.523339	2459.226081
859.836367	2456.050154
860.149352	2459.049640
860.462295	2456.529063
860.775195	2454.134515
861.088054	2458.117027
861.400869	2452.722992
861.713642	2446.724019
862.026373	2454.840277
862.339062	2448.538835
862.651708	2455.974537
862.964312	2456.629887
863.276873	2461.116513
863.589392	2463.259004
863.901869	2459.402521
864.214303	2452.496140
864.526696	2464.620115
864.839045	2460.486369
865.151353	2455.344392
865.463619	2460.083077
865.775842	2452.244083
866.088023	2456.302212
866.400162	2451.664350
866.712258	2445.186467
867.024313	2461.973510
867.336325	2453.605194
867.648296	2460.284723
867.960224	2460.057871
868.272110	2452.899433
868.583954	2457.915381
868.895755	2460.536781
869.207515	2454.235338
869.519233	2454.058898
869.830909	2450.076387
870.142542	2463.334621
870.454134	2459.200875
870.765684	2450.807354
871.077191	2453.680812
871.388657	2441.884512
871.700081	2451.689556
872.011463	2453.302725
872.322803	2446.421550
872.634101	2454.109310
872.945357	2448.891715
873.256571	2460.335135
873.567744	2451.815585
873.878874	2458.898406
874.189963	2450.378856
874.501010	2445.539348
874.812015	2453.428754
875.122979	2457.310442
875.433900	2458.621142
875.744780	2453.252313
876.055618	2465.048613
876.366415	2455.218363
876.677169	2459.301698
876.987882	2458.797583
877.298554	2465.073819
877.609183	2457.184413
877.919771	2453.756429
878.230317	2462.981740
878.540822	2460.662810
878.851285	2459.352110
879.161707	2455.949331
879.472087	2466.737400
879.782425	2457.184413
880.092722	2458.369085
880.402977	2461.721452
880.713191	2472.811990
881.023363	2462.074333
881.333494	2475.685448
881.643583	2477.248206
881.953631	2470.795529
882.263637	2469.333594
882.573602	2466.712194
882.883526	2475.735860
883.193408	2462.528037
883.503248	2460.083077
883.813048	2470.871146
884.122806	2456.781121
884.432522	2458.822788
884.742197	2456.403035
885.051831	2462.528037
885.361424	2452.773404
885.670975	2461.645835
885.980485	2453.907663
886.289954	2449.521860
886.599382	2459.074846
886.908768	2459.074846
887.218113	2452.596963
887.527417	2459.175669
887.836680	2454.865483
888.145901	2457.864969
888.455082	2455.646862
888.764221	2461.797069
889.073319	2454.336162
889.382376	2454.991512
889.691392	2451.160235
890.000366	2461.847481
890.309300	2456.730710
890.618193	2460.007460
890.927044	2454.588219
891.235855	2459.276492
891.544625	2459.074846
891.853353	2453.983281
892.162041	2453.176696
892.470687	2455.495627
892.779293	2454.436985
893.087858	2450.983794
893.396381	2457.007973
893.704864	2466.611371
894.013306	2456.453446
894.321707	2463.914354
894.630068	2467.115487
894.938387	2464.443675
895.246665	2455.596450
895.554903	2457.839763
895.863100	2455.445215
896.171256	2457.562500
896.479371	2465.577935
896.787446	2458.117027
897.095480	2458.747171
897.403473	2454.159721
897.711425	2456.856738
898.019336	2458.444702
898.327207	2454.310956
898.635038	2459.024435
898.942827	2463.006946
899.250576	2456.755915
899.558284	2453.781635
899.865952	2451.286263
900.173579	2453.731223
900.481165	2455.319187
900.788711	2456.478652
901.096216	2457.310442
901.403681	2458.923612
901.711105	2450.177210
902.018489	2453.882458
902.325832	2456.100565
902.633135	2449.168979
902.940397	2451.563527
903.247619	2447.807867
903.554800	2455.646862
903.861941	2460.914867
904.169041	2467.014663
904.476101	2456.705504
904.783121	2451.059412
905.090100	2454.134515
905.397039	2464.468881
905.703938	2457.537294
906.010796	2460.309929
906.317614	2455.394804
906.624391	2462.830506
906.931129	2459.881431
907.237826	2448.110337
907.544483	2453.731223
907.851099	2455.898919
908.157675	2457.083590
908.464211	2452.067642
908.770707	2459.831019
909.077163	2458.671554
909.383578	2454.487396
909.689954	2454.689042
909.996289	2454.865483
910.302584	2449.521860
910.608839	2449.572271
910.915054	2455.142746
911.221229	2452.773404
911.527363	2455.823302
911.833458	2465.653552
912.139513	2459.730196
912.445527	2455.823302
912.751502	2452.193671
913.057436	2458.822788
913.363331	2454.134515
913.669186	2446.547579
913.975000	2452.748198
914.280775	2457.587706
914.586510	2461.797069
914.892205	2459.125258
915.197859	2457.360854
915.503475	2459.326904
915.809050	2455.369598
916.114585	2465.376288
916.420081	2461.595423
916.725536	2457.134002
917.030952	2455.873713
917.336328	2451.588733
917.641665	2461.771863
917.946961	2448.765687
918.252218	2461.746658
918.557435	2454.815071
918.862612	2453.983281
919.167750	2454.134515
919.472848	2460.083077
919.777906	2458.167438
920.082925	2449.622683
920.387904	2460.788838
920.692843	2454.109310
920.997743	2455.722479
921.302603	2455.319187
921.607423	2453.201902
921.912204	2458.293467
922.216946	2455.344392
922.521647	2452.395317
922.826310	2451.109823
923.130932	2451.815585
923.435516	2452.521346
923.740059	2457.940587
924.044564	2453.151490
924.349028	2455.596450
924.653454	2451.210646
924.957840	2458.696760
925.262186	2450.958588
925.566493	2455.016717
925.870761	2448.690069
926.174989	2455.016717
926.479178	2450.353650
926.783328	2460.561987
927.087438	2458.974023
927.391509	2449.975563
927.695541	2451.513115
927.999533	2454.462190
928.303486	2456.755915
928.607400	2446.824842
928.911275	2448.765687
929.215110	2452.168465
929.518906	2454.915894
929.822663	2452.521346
930.126381	2448.412806
930.430060	2456.629887
930.733699	2453.605194
931.037299	2453.882458
931.340861	2459.906637
931.644383	2444.405088
931.947866	2454.285750
932.251309	2450.882971
932.554714	2463.233798
932.858080	2451.487910
933.161407	2453.101079
933.464694	2448.412806
933.767943	2449.471448
934.071153	2455.420010
934.374323	2448.715275
934.677455	2463.838737
934.980548	2450.025975
935.283602	2449.849535
935.586617	2447.127312
935.889593	2448.488423
936.192530	2454.613425
936.495428	2457.688529
936.798287	2451.639144
937.101108	2450.000769
937.403890	2457.184413
937.706632	2453.353137
938.009336	2452.571758
938.312002	2453.302725
938.614628	2456.503858
938.917216	2454.890688
939.219765	2452.445729
939.522275	2451.689556
939.824747	2449.950358
940.127179	2456.655092
940.429573	2451.210646
940.731929	2453.932869
941.034246	2452.319700
941.336524	2450.756942
941.638763	2450.857765
941.940964	2457.386060
942.243126	2452.395317
942.545250	2458.293467
942.847335	2450.882971
943.149381	2448.564040
943.451389	2458.646348
943.753359	2458.091821
944.055290	2453.378342
944.357182	2457.663323
944.659036	2451.109823
944.960851	2454.436985
945.262628	2449.874740
945.564367	2458.721965
945.866067	2451.261058
946.167729	2454.462190
946.469352	2456.705504
946.770937	2459.352110
947.072484	2456.377829
947.373992	2452.773404
947.675462	2461.797069
947.976893	2443.648915
948.278286	2455.697273
948.579641	2451.235852
948.880958	2447.555810
949.182236	2455.823302
949.483476	2456.806327
949.784678	2462.049127
950.085841	2449.698300
950.386967	2457.260031
950.688054	2456.226594
950.989103	2461.166925
951.290114	2452.395317
951.591087	2455.394804
951.892021	2451.235852
952.192917	2457.864969
952.493776	2454.386573
952.794596	2450.101592
953.095378	2456.705504
953.396122	2448.463217
953.696828	2454.537808
953.997496	2455.394804
954.298126	2452.546552
954.598718	2461.671040
954.899272	2457.108796
955.199788	2452.193671
955.500266	2452.596963
955.800706	2448.513629
956.101108	2454.462190
956.401472	2449.471448
956.701798	2455.016717
957.002087	2452.622169
957.302337	2453.302725
957.602550	2455.268775
957.902724	2452.344906
958.202861	2448.916921
958.502960	2450.555296
958.803022	2452.445729
959.103045	2452.319700
959.403031	2451.286263
959.702979	2458.268262
960.002889	2453.453960
960.302762	2454.739454
960.602596	2446.169492
960.902393	2454.184927
961.202153	2456.478652
961.501875	2448.992538
961.801559	2459.528550
962.101205	2453.126285
962.400814	2453.605194
962.700385	2446.925665
962.999918	2459.982254
963.299414	2443.043977
963.598873	2445.438525
963.898293	2451.462704
964.197677	2460.385546
964.497022	2451.739967
964.796331	2442.489450
965.095601	2455.873713
965.394835	2453.882458
965.694030	2457.134002
965.993189	2464.090794
966.292309	2463.032152
966.591393	2451.437498
966.890439	2448.412806
967.189447	2454.487396
967.488419	2456.075360
967.787353	2453.806840
968.086249	2453.025462
968.385108	2460.637604
968.683930	2453.958075
968.982714	2456.075360
969.281462	2453.932869
969.580172	2450.101592
969.878844	2454.210133
970.177480	2451.941613
970.476078	2454.789865
970.774639	2447.681838
971.073162	2452.470935
971.371649	2453.832046
971.670098	2443.976590
971.968510	2455.823302
972.266885	2458.847994
972.565223	2459.427727
972.863524	2452.949844
973.161788	2454.487396
973.460014	2449.345419
973.758204	2459.503344
974.056356	2454.436985
974.354471	2449.295008
974.652550	2451.513115
974.950591	2451.084617
975.248595	2451.865996
975.546563	2458.041410
975.844493	2451.664350
976.142386	2457.083590
976.440243	2447.732250
976.738062	2447.102106
977.035845	2460.889662
977.333590	2453.605194
977.631299	2447.505398
977.928971	2453.428754
978.226606	2443.976590
978.524204	2457.234825
978.821765	2437.019798
979.119290	2443.724533
979.416777	2448.790892
979.714228	2464.242029
980.011642	2457.864969
980.309020	2451.210646
980.606360	2452.672581
980.903664	2454.890688
981.200931	2451.639144
981.498162	2459.503344
981.795356	2446.572785
982.092513	2456.781121
982.389633	2449.219390
982.686717	2455.319187
982.983764	2456.831533
983.280775	2453.655606
983.577749	2457.738940
983.874686	2453.655606
984.171587	2449.849535
984.468451	2446.774431
984.765279	2449.395831
985.062070	2455.394804
985.358824	2450.580502
985.655543	2455.041923
985.952224	2452.798610
986.248869	2447.530604
986.545478	2456.629887
986.842050	2451.815585
987.138586	2455.520833
987.435086	2452.118054
987.731549	2451.437498
988.027975	2458.041410
988.324366	2447.883485
988.620719	2455.798096
988.917037	2442.287804
989.213318	2452.849021
989.509563	2457.411265
989.805772	2461.393777
990.101944	2449.395831
990.398080	2461.141719
990.694180	2453.050667
990.990244	2451.084617
991.286271	2446.850048
991.582262	2457.764146
991.878217	2456.024948
992.174136	2456.251800
992.470019	2444.883998
992.765865	2442.060952
993.061676	2438.885025
993.357450	2448.311983
993.653188	2451.538321
993.948890	2447.858279
994.244556	2454.008487
994.540186	2456.201388
994.835780	2455.596450
995.131337	2454.512602
995.426859	2456.579475
995.722345	2445.488937
996.017795	2447.833073
996.313208	2452.521346
996.608586	2452.647375
996.903928	2456.604681
997.199234	2456.176183
997.494504	2450.278033
997.789738	2447.606221
998.084936	2452.193671
998.380099	2455.848508
998.675225	2460.209106
998.970316	2458.495113
999.265371	2456.251800
999.560390	2451.941613
999.855373	2458.822788
1000.150320	2449.143773
1000.445232	2458.822788
1000.740108	2456.655092
1001.034948	2452.344906
1001.329752	2453.151490
1001.624521	2452.672581
1001.919254	2454.966306
1002.213951	2451.891202
1002.508613	2457.990998
1002.803239	2452.193671
1003.097829	2455.596450
1003.392384	2450.958588
1003.686903	2460.814044
1003.981386	2452.672581
1004.275834	2450.782148
1004.570246	2453.680812
1004.864623	2452.697787
1005.158964	2449.194185
1005.453270	2451.009000
1005.747540	2448.438012
1006.041775	2454.537808
1006.335974	2446.749225
1006.630138	2453.932869
1006.924266	2455.571244
1007.218359	2450.706531
1007.512416	2453.353137
1007.806438	2447.908690
1008.100425	2455.293981
1008.394376	2453.277519
1008.688292	2455.344392
1008.982172	2455.571244
1009.276017	2447.480192
1009.569827	2446.648402
1009.863602	2449.824329
1010.157341	2451.109823
1010.451045	2443.195212
1010.744714	2451.135029
1011.038347	2446.345933
1011.331945	2452.596963
1011.625508	2456.478652
1011.919036	2450.958588
1012.212528	2444.178237
1012.505986	2449.295008
1012.799408	2450.681325
1013.092795	2447.782662
1013.386147	2449.622683
1013.679464	2451.941613
1013.972745	2450.278033
1014.265992	2445.211673
1014.559204	2453.680812
1014.852380	2458.797583
1015.145521	2446.295521
1015.438628	2454.714248
1015.731699	2454.638631
1016.024736	2446.144287
1016.317737	2451.462704
1016.610703	2457.159208
1016.903635	2455.420010
1017.196531	2447.933896
1017.489393	2456.881944
1017.782219	2450.429267
1018.075011	2443.396858
1018.367768	2455.571244
1018.660490	2448.488423
1018.953177	2448.488423
1019.245829	2448.488423
