Dividing Wavelength (nm)	Counts (n)	Slit_number_17_of_a_total_of_40	
326.493990	2045.448173
326.888308	2045.448173
327.282561	2045.448173
327.676750	2012.680673
328.070874	2030.576769
328.464933	2010.664212
328.858929	2036.878212
329.252859	2068.889538
329.646726	2063.596327
330.040528	2078.971846
330.434265	2078.971846
330.827938	2132.156019
331.221547	2120.813423
331.615091	2164.419404
332.008571	2166.435865
332.401986	2220.124154
332.795338	2228.190000
333.188625	2251.127250
333.581847	2241.549058
333.975006	2265.494538
334.368100	2282.130346
334.761129	2308.092288
335.154095	2335.566577
335.546996	2318.678712
335.939833	2343.632423
336.332606	2369.846423
336.725315	2341.615962
337.117960	2361.024404
337.510540	2405.134500
337.903056	2399.085115
338.295508	2426.307346
338.687896	2420.005904
339.080220	2433.364962
339.472480	2402.109808
339.864676	2426.811462
340.256807	2453.781635
340.648875	2444.959615
341.040879	2422.274423
341.432818	2464.368058
341.824694	2417.737385
342.216506	2449.244596
342.608253	2448.488423
342.999937	2416.981212
343.391557	2440.422577
343.783113	2430.844385
344.174605	2454.789865
344.566033	2433.617019
344.957397	2428.827923
345.348697	2444.707558
345.739934	2438.154058
346.131106	2435.885538
346.522215	2433.869077
346.913260	2435.129365
347.304241	2426.559404
347.695159	2420.762077
348.086012	2413.704462
348.476802	2430.088212
348.867528	2414.460635
349.258191	2422.274423
349.648789	2407.150962
350.039324	2414.208577
350.429796	2410.175654
350.820203	2416.981212
351.210548	2391.271327
351.600828	2415.468865
351.991045	2411.435942
352.381198	2403.118038
352.771288	2405.638615
353.161314	2448.740481
353.551276	2420.762077
353.941175	2422.778538
354.331010	2401.605692
354.720782	2420.257962
355.110490	2424.542942
355.500135	2391.523385
355.889717	2388.750750
356.279235	2412.696231
356.668689	2403.370096
357.058080	2414.208577
357.447408	2405.890673
357.836672	2431.348500
358.225873	2418.493558
358.615010	2394.800135
359.004084	2420.762077
359.393095	2389.254865
359.782043	2419.501788
360.170927	2409.923596
360.559748	2416.225038
360.948505	2411.435942
361.337199	2408.411250
361.725830	2412.696231
362.114398	2411.688000
362.502903	2424.795000
362.891344	2404.378327
363.279722	2441.934923
363.668037	2403.874212
364.056289	2437.902000
364.444478	2411.940058
364.832603	2419.501788
365.220665	2403.874212
365.608665	2421.014135
365.996601	2414.964750
366.384474	2412.444173
366.772284	2440.170519
367.160031	2424.290885
367.547715	2429.332038
367.935336	2456.554269
368.322893	2400.597462
368.710388	2422.526481
369.097820	2431.096442
369.485189	2422.778538
369.872495	2408.159192
370.259738	2428.827923
370.646918	2422.022365
371.034035	2434.121135
371.421090	2446.219904
371.808081	2432.356731
372.195010	2407.907135
372.581875	2427.567635
372.968678	2425.047058
373.355418	2404.126269
373.742096	2435.633481
374.128710	2427.315577
374.515262	2413.200346
374.901751	2420.257962
375.288177	2413.704462
375.674540	2455.798096
376.060841	2426.055288
376.447079	2425.551173
376.833254	2419.753846
377.219367	2444.203442
377.605417	2426.559404
377.991404	2413.704462
378.377329	2420.510019
378.763191	2432.608788
379.148991	2423.534712
379.534727	2424.542942
379.920402	2417.485327
380.306013	2453.277519
380.691563	2450.000769
381.077049	2440.422577
381.462474	2445.211673
381.847835	2427.063519
382.233134	2428.827923
382.618371	2446.724019
383.003545	2433.869077
383.388657	2451.765173
383.773706	2437.397885
384.158693	2440.170519
384.543618	2406.394788
384.928480	2429.584096
385.313280	2415.468865
385.698017	2440.422577
386.082692	2452.017231
386.467305	2419.249731
386.851856	2448.488423
387.236344	2432.860846
387.620770	2420.005904
388.005133	2421.770308
388.389435	2441.934923
388.773674	2419.249731
389.157851	2413.956519
389.541965	2434.625250
389.926018	2442.943154
390.310008	2412.948288
390.693936	2433.869077
391.077802	2448.488423
391.461606	2463.359827
391.845348	2447.228135
392.229027	2428.575865
392.612645	2420.005904
392.996200	2437.902000
393.379694	2434.121135
393.763125	2424.795000
394.146494	2460.839250
394.529801	2461.847481
394.913047	2431.600558
395.296230	2445.967846
395.679351	2455.546038
396.062410	2448.740481
396.445408	2436.893769
396.828343	2457.058385
397.211217	2446.219904
397.594028	2466.888635
397.976778	2448.236365
398.359466	2446.976077
398.742092	2437.397885
399.124656	2451.765173
399.507158	2442.439038
399.889598	2442.943154
400.271977	2439.162288
400.654294	2459.326904
401.036549	2464.116000
401.418742	2472.938019
401.800874	2448.488423
402.182944	2453.781635
402.564952	2437.145827
402.946898	2460.083077
403.328783	2437.145827
403.710606	2445.211673
404.092367	2462.351596
404.474067	2438.406115
404.855705	2443.951385
405.237282	2446.471962
405.618797	2478.231231
406.000250	2458.822788
406.381642	2470.417442
406.762972	2471.929788
407.144240	2426.559404
407.525447	2456.050154
407.906593	2419.249731
408.287677	2452.521346
408.668700	2455.546038
409.049661	2455.798096
409.430560	2453.025462
409.811399	2426.307346
410.192176	2435.129365
410.572891	2460.335135
410.953545	2487.305308
411.334138	2453.025462
411.714669	2469.661269
412.095139	2450.504885
412.475547	2458.822788
412.855894	2460.839250
413.236180	2460.839250
413.616405	2453.277519
413.996568	2464.620115
414.376670	2451.261058
414.756711	2460.335135
415.136691	2450.756942
415.516609	2469.157154
415.896466	2467.896865
416.276262	2482.012096
416.655997	2459.831019
417.035670	2467.140692
417.415283	2459.831019
417.794834	2473.694192
418.174324	2459.074846
418.553753	2444.959615
418.933121	2482.516212
419.312428	2474.702423
419.691674	2472.938019
420.070859	2497.135558
420.449983	2474.702423
420.829045	2492.094404
421.208047	2472.433904
421.586988	2489.573827
421.965867	2496.379385
422.344686	2476.970942
422.723444	2477.223000
423.102141	2474.198308
423.480777	2480.499750
423.859352	2469.913327
424.237866	2479.239462
424.616319	2480.247692
424.994712	2478.483288
425.373044	2480.499750
425.751314	2509.990500
426.129524	2490.077942
426.507673	2505.453462
426.885762	2508.730212
427.263789	2526.374250
427.641756	2526.122192
428.019662	2503.184942
428.397508	2546.286808
428.775292	2555.360885
429.153016	2579.054308
429.530679	2580.566654
429.908282	2602.999788
430.285824	2589.388673
430.663305	2631.482308
431.040726	2632.742596
431.418086	2673.323885
431.795385	2702.058462
432.172624	2681.137673
432.549802	2744.908269
432.926920	2772.382558
433.303977	2793.303346
433.680974	2856.569827
434.057910	2876.482385
434.434786	2924.877462
434.811601	2950.335288
435.188355	3017.886750
435.565050	3084.682038
435.941683	3101.317846
436.318257	3198.108000
436.694770	3269.440327
437.071222	3330.690346
437.447614	3369.759288
437.823946	3442.603962
438.200218	3516.960981
438.576429	3576.950712
438.952580	3689.116385
439.328670	3741.544385
439.704700	3863.792365
440.080670	3934.116462
440.456580	4048.046538
440.832429	4169.538346
441.208218	4185.922096
441.583947	4322.033250
441.959616	4420.335750
442.335224	4503.514788
442.710773	4644.415038
443.086261	4809.260769
443.461689	4920.418212
443.837057	4975.618846
444.212365	5161.889481
444.587612	5280.860712
444.962800	5302.033558
445.337927	5537.203385
445.712995	5515.778481
446.088002	5880.758019
446.462949	6080.891827
446.837837	6166.843500
447.212664	6259.600731
447.587431	6738.762404
447.962139	7354.035231
448.336786	8220.105462
448.711374	8568.953308
449.085901	8057.528250
449.460369	7991.993250
449.834776	7884.616673
450.209124	8413.937827
450.583412	8557.862769
450.957640	9170.615019
451.331808	9085.923635
451.705917	8879.992500
452.079965	8861.340231
452.453954	8995.686981
452.827883	9085.671577
453.201752	9204.894865
453.575562	9444.853788
453.949311	9876.628615
454.323001	10003.161577
454.696632	10004.925981
455.070202	10674.895327
455.443713	10772.693712
455.817164	11165.147538
456.190556	11394.015923
456.563888	11511.978923
456.937160	11887.796942
457.310373	11534.916173
457.683526	11756.222827
458.056619	11820.749596
458.429653	11782.184769
458.802628	11940.224942
459.175542	12040.291846
459.548398	12495.508038
459.921194	13176.063808
460.293930	13283.188327
460.666607	14106.660808
461.039224	14710.086923
461.411782	15223.024327
461.784280	15061.959462
462.156719	15202.607654
462.529099	15069.269135
462.901419	14697.988154
463.273680	14228.908788
463.645882	14075.153596
464.018024	14035.832596
464.390106	14006.593904
464.762130	14647.828673
465.134094	15393.919442
465.505999	17009.609250
465.877845	19225.700481
466.249631	20495.819192
466.621358	20557.069212
466.993026	20020.438385
467.364634	19318.961827
467.736184	18153.195000
468.107674	17484.990058
468.479105	17076.656596
468.850477	16639.336500
469.221790	16007.175808
469.593043	15227.813423
469.964238	14750.416154
470.335373	14392.998346
470.706449	14432.823462
471.077467	14471.136231
471.448425	15689.835173
471.819324	17290.653577
472.190164	17616.060058
472.560945	16395.848769
472.931667	15004.490308
473.302330	14202.946846
473.672934	13537.010423
474.043479	13486.094769
474.413965	12994.330212
474.784393	12623.553346
475.154761	12701.439173
475.525070	12521.469981
475.895321	12146.912250
476.265513	12104.566558
476.635645	12147.668423
477.005719	11995.929692
477.375734	11828.815442
477.745691	11814.196096
478.115588	11866.876154
478.485427	11933.923500
478.855207	12321.588231
479.224928	12814.613077
479.594591	13254.957865
479.964194	13231.012385
480.333739	12930.811673
480.703226	12574.402096
481.072653	12320.580000
481.442022	12174.638596
481.811333	12179.427692
482.180584	11672.287615
482.549777	11344.360558
482.918912	10955.435538
483.287988	10605.327404
483.657005	10210.353000
484.025964	9853.187250
484.394864	9657.338423
484.763706	9318.824942
485.132489	8980.059404
485.501213	8662.718769
485.869879	8518.793827
486.238487	8167.677462
486.607036	7963.762788
486.975527	7718.258596
487.343959	7529.971500
487.712333	7345.717327
488.080648	7143.819115
488.448905	7004.431212
488.817104	6811.102962
489.185244	6653.818962
489.553326	6569.631692
489.921350	6595.089519
490.289315	6754.137923
490.657222	6732.965077
491.025070	6673.479462
491.392861	6475.614173
491.760593	6189.780750
492.128267	5867.146904
492.495883	5612.064519
492.863440	5366.560327
493.230939	5106.688846
493.598380	4871.266962
493.965763	4738.180500
494.333088	4623.494250
494.700354	4464.697904
495.067563	4337.408769
495.434713	4225.999269
495.801805	4143.828462
496.168839	4040.736865
496.535815	3948.987865
496.902733	3895.551635
497.269593	3826.739885
497.636395	3743.308788
498.003139	3680.798481
498.369825	3633.663692
498.736453	3569.641038
499.103023	3528.555635
499.469535	3478.648212
499.835989	3439.327212
500.202385	3383.370404
500.568723	3343.797346
500.935003	3300.443423
501.301226	3241.713981
501.667390	3237.681058
502.033497	3234.152250
502.399546	3178.195442
502.765537	3139.378558
503.131470	3141.647077
503.497345	3110.643981
503.863163	3088.462904
504.228923	3027.969058
504.594625	3003.771519
504.960269	3027.464942
505.325856	2968.483442
505.691385	2967.223154
506.056856	2949.075000
506.422270	2963.190231
506.787625	2944.285904
507.152924	2925.885692
507.518164	2892.866135
507.883347	2915.047212
508.248472	2872.449462
508.613540	2882.279712
508.978550	2863.123327
509.343503	2851.276615
509.708398	2857.578058
510.073236	2825.818788
510.438016	2823.550269
510.802738	2822.542038
511.167403	2781.960750
511.532010	2818.509115
511.896561	2802.377423
512.261053	2806.662404
512.625488	2793.807462
512.989866	2772.634615
513.354186	2742.891808
513.718449	2762.804365
514.082655	2722.979250
514.446803	2732.053327
514.810894	2741.127404
515.174927	2734.825962
515.538904	2716.929865
515.902822	2707.603731
516.266684	2682.902077
516.630488	2699.033769
516.994235	2684.918538
517.357925	2668.786846
517.721558	2669.290962
518.085133	2701.050231
518.448651	2657.192192
518.812112	2656.436019
519.175516	2662.737462
519.538863	2665.258038
519.902152	2648.622231
520.265385	2655.175731
520.628560	2636.019346
520.991678	2631.482308
521.354739	2625.180865
521.717743	2588.380442
522.080690	2646.857827
522.443580	2619.131481
522.806413	2631.986423
523.169189	2626.693212
523.531908	2598.714808
523.894569	2634.254942
524.257174	2580.062538
524.619722	2612.073865
524.982213	2622.408231
525.344647	2607.284769
525.707025	2615.854731
526.069345	2612.325923
526.431608	2610.813577
526.793815	2580.314596
527.155964	2571.996692
527.518057	2554.856769
527.880093	2592.413365
528.242072	2615.854731
528.603995	2579.558423
528.965860	2557.881462
529.327669	2564.182904
529.689421	2563.678788
530.051117	2579.810481
530.412755	2574.013154
530.774337	2578.802250
531.135862	2582.583115
531.497331	2543.010058
531.858743	2583.843404
532.220098	2580.818712
532.581396	2581.826942
532.942638	2562.670558
533.303824	2566.955538
533.664953	2581.322827
534.026025	2555.360885
534.387040	2569.476115
534.747999	2562.166442
535.108902	2523.601615
535.469748	2559.897923
535.830537	2536.708615
536.191270	2554.856769
536.551947	2542.253885
536.912567	2543.010058
537.273131	2547.547096
537.633638	2539.985365
537.994089	2545.026519
538.354483	2540.993596
538.714821	2559.393808
539.075103	2567.711712
539.435328	2550.067673
539.795497	2530.155115
540.155609	2562.166442
540.515665	2531.667462
540.875665	2550.823846
541.235609	2536.960673
541.595496	2548.303269
541.955328	2543.010058
542.315102	2562.922615
542.674821	2532.171577
543.034483	2528.138654
543.394090	2565.443192
543.753640	2536.960673
544.113134	2527.634538
544.472571	2554.856769
544.831953	2538.473019
545.191278	2513.771365
545.550548	2529.903058
545.909761	2525.113962
546.268918	2512.511077
546.628019	2537.464788
546.987064	2518.560462
547.346053	2534.188038
547.704986	2543.766231
548.063863	2511.502846
548.422684	2540.993596
548.781449	2542.253885
549.140158	2500.412308
549.498811	2517.048115
549.857408	2541.497712
550.215949	2522.341327
550.574434	2516.544000
550.932864	2512.259019
551.291237	2531.667462
551.649555	2542.505942
552.007817	2501.420538
552.366022	2524.609846
552.724173	2525.113962
553.082267	2543.514173
553.440305	2558.133519
553.798288	2508.226096
554.156215	2505.705519
554.514086	2547.295038
554.871902	2502.932885
555.229661	2508.478154
555.587365	2516.291942
555.945014	2501.924654
556.302606	2515.283712
556.660143	2517.552231
557.017625	2508.982269
557.375050	2546.538865
557.732421	2494.614981
558.089735	2504.697288
558.446994	2485.792962
558.804197	2498.395846
559.161345	2496.631442
559.518437	2538.473019
559.875474	2520.324865
560.232455	2510.494615
560.589381	2504.193173
560.946251	2497.639673
561.303065	2537.464788
561.659825	2506.713750
562.016528	2485.288846
562.373177	2523.349558
562.729770	2506.713750
563.086307	2515.787827
563.442789	2511.754904
563.799216	2517.552231
564.155587	2498.143788
564.511904	2495.119096
564.868164	2513.519308
565.224370	2502.428769
565.580520	2511.250788
565.936615	2515.283712
566.292654	2501.168481
566.648638	2502.176712
567.004567	2515.031654
567.360441	2512.763135
567.716260	2493.102635
568.072023	2555.108827
568.427732	2500.412308
568.783385	2513.519308
569.138982	2511.754904
569.494525	2502.932885
569.850013	2518.812519
570.205445	2507.469923
570.560823	2493.858808
570.916145	2478.483288
571.271412	2494.867038
571.626625	2506.713750
571.981782	2506.461692
572.336884	2505.453462
572.691931	2516.544000
573.046923	2515.787827
573.401860	2463.611885
573.756743	2499.152019
574.111570	2481.507981
574.466342	2539.229192
574.821059	2472.938019
575.175722	2500.412308
575.530330	2514.023423
575.884882	2479.995635
576.239380	2521.837212
576.593823	2529.903058
576.948211	2505.453462
577.302544	2496.883500
577.656823	2485.036788
578.011047	2505.201404
578.365216	2500.916423
578.719330	2508.478154
579.073389	2505.957577
579.427394	2505.201404
579.781344	2510.242558
580.135239	2516.544000
580.489080	2498.647904
580.842866	2482.012096
581.196597	2539.229192
581.550273	2471.929788
581.903895	2521.585154
582.257463	2510.998731
582.610975	2525.113962
582.964434	2502.176712
583.317837	2478.231231
583.671186	2533.683923
584.024481	2493.102635
584.377721	2508.730212
584.730906	2505.705519
585.084037	2500.664365
585.437113	2510.998731
585.790135	2527.886596
586.143103	2505.453462
586.496016	2494.614981
586.848874	2506.209635
587.201679	2522.341327
587.554428	2497.639673
587.907124	2473.694192
588.259765	2508.982269
588.612352	2494.867038
588.964884	2510.998731
589.317362	2483.272385
589.669786	2467.896865
590.022155	2497.387615
590.374470	2519.820750
590.726731	2504.697288
591.078937	2488.817654
591.431090	2520.576923
591.783188	2500.916423
592.135232	2517.300173
592.487222	2509.234327
592.839157	2520.576923
593.191038	2504.697288
593.542866	2486.297077
593.894639	2476.466827
594.246358	2525.366019
594.598022	2495.875269
594.949633	2509.738442
595.301190	2542.253885
595.652692	2492.598519
596.004141	2510.242558
596.355535	2490.582058
596.706876	2510.494615
597.058162	2505.957577
597.409395	2496.127327
597.760573	2499.908192
598.111698	2514.275481
598.462768	2508.982269
598.813785	2481.255923
599.164748	2515.787827
599.515657	2500.160250
599.866511	2510.746673
600.217312	2501.168481
600.568060	2494.362923
600.918753	2513.015192
601.269392	2503.689058
601.619978	2491.086173
601.970510	2500.916423
602.320988	2483.776500
602.671412	2505.957577
603.021783	2473.442135
603.372100	2495.623212
603.722363	2513.519308
604.072572	2505.201404
604.422728	2499.152019
604.772830	2471.425673
605.122878	2468.653038
605.472872	2500.916423
605.822813	2491.590288
606.172701	2511.754904
606.522534	2513.015192
606.872314	2474.198308
607.222041	2498.647904
607.571714	2502.680827
607.921333	2519.568692
608.270899	2497.135558
608.620411	2496.631442
608.969870	2509.486385
609.319276	2510.242558
609.668627	2496.883500
610.017926	2504.697288
610.367171	2502.176712
610.716362	2512.259019
611.065500	2508.730212
611.414585	2506.461692
611.763616	2537.212731
612.112594	2505.453462
612.461518	2495.119096
612.810389	2488.565596
613.159207	2496.127327
613.507971	2491.338231
613.856682	2522.341327
614.205340	2479.239462
614.553945	2493.606750
614.902496	2499.908192
615.250994	2510.242558
615.599439	2511.502846
615.947830	2492.346462
616.296169	2495.875269
616.644454	2489.825885
616.992686	2501.924654
617.340864	2493.606750
617.688990	2506.209635
618.037063	2494.362923
618.385082	2521.837212
618.733048	2489.321769
619.080961	2525.366019
619.428821	2498.143788
619.776628	2506.209635
620.124382	2479.995635
620.472083	2511.754904
620.819731	2492.094404
621.167326	2492.094404
621.514868	2521.585154
621.862357	2493.606750
622.209793	2521.333096
622.557176	2495.119096
622.904506	2516.796058
623.251783	2510.242558
623.599007	2514.023423
623.946179	2513.771365
624.293297	2493.858808
624.640363	2496.883500
624.987376	2505.201404
625.334336	2481.507981
625.681243	2496.883500
626.028097	2495.371154
626.374899	2478.483288
626.721647	2500.664365
627.068343	2502.428769
627.414987	2530.911288
627.761577	2514.527538
628.108115	2478.231231
628.454600	2516.544000
628.801032	2518.056346
629.147412	2493.102635
629.493739	2487.809423
629.840014	2517.552231
630.186236	2510.242558
630.532405	2505.957577
630.878521	2505.957577
631.224585	2517.300173
631.570597	2501.420538
631.916556	2497.639673
632.262462	2510.998731
632.608316	2491.842346
632.954117	2507.217865
633.299866	2489.825885
633.645562	2486.045019
633.991206	2496.883500
634.336797	2504.697288
634.682336	2496.883500
635.027823	2503.941115
635.373257	2484.532673
635.718639	2520.072808
636.063968	2491.590288
636.409245	2488.817654
636.754470	2487.557365
637.099642	2491.338231
637.444762	2520.576923
637.789829	2476.214769
638.134845	2481.760038
638.479808	2483.272385
638.824719	2486.297077
639.169577	2519.568692
639.514383	2474.954481
639.859137	2510.746673
640.203839	2499.908192
640.548489	2506.461692
640.893086	2508.982269
641.237632	2498.143788
641.582125	2520.324865
641.926566	2468.400981
642.270955	2481.507981
642.615292	2501.420538
642.959576	2500.916423
643.303809	2505.957577
643.647990	2497.135558
643.992118	2486.549135
644.336195	2485.036788
644.680219	2510.242558
645.024192	2523.097500
645.368112	2498.143788
645.711981	2527.130423
646.055797	2502.932885
646.399562	2507.974038
646.743274	2495.875269
647.086935	2499.656135
647.430544	2492.094404
647.774101	2512.006962
648.117606	2504.697288
648.461059	2488.061481
648.804460	2510.746673
649.147810	2532.423635
649.491108	2494.110865
649.834354	2477.223000
650.177548	2494.110865
650.520690	2489.573827
650.863781	2496.127327
651.206820	2492.094404
651.549807	2506.209635
651.892742	2495.623212
652.235626	2501.924654
652.578458	2511.250788
652.921238	2481.760038
653.263967	2495.119096
653.606644	2488.313538
653.949269	2494.110865
654.291843	2501.924654
654.634365	2522.845442
654.976836	2473.946250
655.319255	2483.272385
655.661622	2542.758000
656.003938	2495.371154
656.346203	2479.995635
656.688416	2484.784731
657.030577	2492.850577
657.372687	2462.351596
657.714746	2500.412308
658.056753	2494.867038
658.398708	2472.433904
658.740612	2498.395846
659.082465	2508.478154
659.424266	2481.255923
659.766016	2483.020327
660.107715	2490.834115
660.449362	2494.614981
660.790958	2505.201404
661.132503	2487.053250
661.473996	2479.491519
661.815438	2507.721981
662.156829	2495.623212
662.498168	2471.677731
662.839456	2491.338231
663.180693	2533.935981
663.521879	2484.028558
663.863013	2502.680827
664.204097	2509.990500
664.545129	2488.313538
664.886110	2510.494615
665.227040	2476.214769
665.567918	2492.346462
665.908746	2510.494615
666.249522	2521.081038
666.590248	2494.362923
666.930922	2483.524442
667.271545	2492.094404
667.612118	2492.346462
667.952639	2503.184942
668.293109	2495.371154
668.633528	2502.176712
668.973896	2481.255923
669.314213	2491.842346
669.654480	2509.486385
669.994695	2512.763135
670.334859	2491.590288
670.674973	2507.469923
671.015035	2483.524442
671.355047	2460.335135
671.695008	2491.590288
672.034918	2502.680827
672.374777	2506.209635
672.714585	2502.428769
673.054342	2501.420538
673.394049	2514.023423
673.733705	2505.957577
674.073310	2517.048115
674.412864	2482.012096
674.752368	2515.283712
675.091820	2477.223000
675.431223	2500.916423
675.770574	2478.483288
676.109875	2466.384519
676.449125	2477.475058
676.788324	2496.379385
677.127473	2472.433904
677.466571	2474.450365
677.805619	2518.308404
678.144616	2462.603654
678.483562	2487.305308
678.822458	2492.850577
679.161303	2498.647904
679.500098	2495.371154
679.838842	2488.817654
680.177535	2488.565596
680.516179	2486.045019
680.854771	2486.045019
681.193314	2492.346462
681.531805	2477.223000
681.870247	2502.680827
682.208638	2504.193173
682.546978	2467.644808
682.885268	2477.475058
683.223508	2485.792962
683.561697	2489.573827
683.899836	2460.839250
684.237925	2491.590288
684.575963	2476.718885
684.913951	2503.437000
685.251889	2496.631442
685.589776	2489.573827
685.927614	2516.796058
686.265401	2510.746673
686.603137	2496.631442
686.940824	2465.628346
687.278460	2507.974038
687.616046	2490.834115
687.953582	2504.193173
688.291068	2482.012096
688.628504	2488.565596
688.965889	2508.730212
689.303224	2498.395846
689.640510	2494.614981
689.977745	2517.048115
690.314930	2514.023423
690.652065	2472.938019
690.989150	2497.639673
691.326185	2474.198308
691.663170	2498.647904
692.000105	2498.143788
692.336990	2524.861904
692.673825	2499.908192
693.010610	2479.995635
693.347345	2488.061481
693.684030	2469.157154
694.020665	2520.576923
694.357251	2454.789865
694.693786	2507.721981
695.030272	2507.217865
695.366707	2475.458596
695.703093	2500.160250
696.039429	2471.425673
696.375716	2502.428769
696.711952	2463.863942
697.048139	2490.834115
697.384276	2479.995635
697.720363	2460.083077
698.056400	2483.776500
698.392388	2479.995635
698.728326	2513.015192
699.064214	2486.297077
699.400053	2488.817654
699.735842	2481.003865
700.071581	2486.549135
700.407270	2463.611885
700.742910	2457.058385
701.078501	2499.404077
701.414042	2488.565596
701.749533	2467.140692
702.084974	2484.532673
702.420366	2483.020327
702.755709	2480.751808
703.091002	2470.669500
703.426246	2472.685962
703.761440	2456.302212
704.096584	2460.587192
704.431679	2509.738442
704.766725	2467.392750
705.101721	2506.713750
705.436668	2470.165385
705.771565	2475.206538
706.106413	2491.842346
706.441212	2499.404077
706.775961	2459.831019
707.110661	2486.045019
707.445311	2463.359827
707.779913	2488.817654
708.114465	2483.020327
708.448967	2479.491519
708.783421	2490.077942
709.117825	2501.420538
709.452180	2487.053250
709.786485	2494.867038
710.120742	2463.611885
710.454949	2487.053250
710.789107	2463.863942
711.123216	2477.979173
711.457275	2470.669500
711.791286	2500.664365
712.125247	2499.908192
712.459159	2521.837212
712.793023	2493.102635
713.126837	2475.962712
713.460602	2489.573827
713.794318	2473.190077
714.127985	2523.853673
714.461602	2490.582058
714.795171	2479.491519
715.128691	2467.896865
715.462162	2471.677731
715.795584	2495.371154
716.128957	2469.409212
716.462281	2503.184942
716.795556	2458.570731
717.128782	2484.532673
717.461960	2483.776500
717.795088	2502.428769
718.128167	2494.614981
718.461198	2481.507981
718.794180	2485.036788
719.127113	2514.527538
719.459997	2473.442135
719.792833	2521.333096
720.125619	2490.834115
720.458357	2477.979173
720.791046	2472.181846
721.123686	2456.302212
721.456278	2501.924654
721.788821	2480.751808
722.121315	2483.020327
722.453761	2491.842346
722.786158	2503.689058
723.118506	2507.217865
723.450805	2469.157154
723.783056	2445.715788
724.115259	2488.817654
724.447412	2464.620115
724.779518	2497.135558
725.111574	2498.899962
725.443582	2460.083077
725.775542	2494.110865
726.107453	2491.590288
726.439315	2470.417442
726.771129	2488.313538
727.102895	2477.727115
727.434612	2470.165385
727.766281	2461.595423
728.097901	2488.061481
728.429473	2477.475058
728.760996	2509.738442
729.092471	2460.083077
729.423897	2470.165385
729.755276	2471.677731
730.086606	2492.094404
730.417887	2473.190077
730.749120	2477.223000
731.080305	2470.165385
731.411442	2483.524442
731.742530	2470.165385
732.073570	2465.124231
732.404562	2501.420538
732.735506	2500.412308
733.066401	2489.321769
733.397249	2475.458596
733.728048	2494.110865
734.058798	2458.318673
734.389501	2466.888635
734.720156	2486.045019
735.050762	2491.338231
735.381320	2457.310442
735.711831	2484.028558
736.042293	2486.549135
736.372707	2498.143788
736.703073	2470.921558
737.033391	2515.787827
737.363661	2467.392750
737.693883	2493.858808
738.024056	2470.669500
738.354182	2499.656135
738.684260	2471.929788
739.014290	2497.891731
739.344272	2498.395846
739.674207	2473.442135
740.004093	2478.735346
740.333931	2480.247692
740.663722	2499.656135
740.993464	2463.863942
741.323159	2491.590288
741.652806	2500.412308
741.982405	2498.395846
742.311956	2472.938019
742.641460	2492.346462
742.970915	2488.313538
743.300323	2475.458596
743.629683	2470.669500
743.958996	2482.264154
744.288260	2482.768269
744.617477	2476.214769
744.946647	2473.442135
745.275768	2504.193173
745.604842	2485.288846
745.933869	2452.269288
746.262847	2495.875269
746.591778	2468.400981
746.920662	2473.190077
747.249498	2494.867038
747.578286	2485.288846
747.907027	2489.825885
748.235720	2474.450365
748.564365	2473.946250
748.892963	2500.664365
749.221514	2469.913327
749.550017	2472.181846
749.878473	2490.834115
750.206881	2504.949346
750.535242	2487.305308
750.863555	2471.173615
751.191821	2465.628346
751.520039	2471.425673
751.848210	2469.157154
752.176334	2456.806327
752.504411	2504.193173
752.832440	2462.099538
753.160421	2461.091308
753.488356	2458.318673
753.816243	2454.789865
754.144082	2495.623212
754.471875	2489.825885
754.799620	2486.549135
755.127318	2474.198308
755.454969	2458.822788
755.782572	2465.880404
756.110129	2453.277519
756.437638	2481.760038
756.765100	2456.806327
757.092515	2496.127327
757.419882	2497.135558
757.747203	2470.669500
758.074477	2469.661269
758.401703	2492.346462
758.728882	2469.913327
759.056014	2488.817654
759.383099	2464.368058
759.710138	2450.504885
760.037129	2480.751808
760.364073	2485.036788
760.690970	2468.653038
761.017820	2491.590288
761.344623	2486.549135
761.671379	2488.565596
761.998088	2505.957577
762.324751	2466.384519
762.651366	2461.847481
762.977935	2468.653038
763.304456	2464.872173
763.630931	2472.938019
763.957359	2491.842346
764.283740	2495.371154
764.610074	2494.110865
764.936362	2474.954481
765.262602	2490.077942
765.588796	2505.705519
765.914943	2471.425673
766.241044	2492.850577
766.567097	2469.913327
766.893104	2493.102635
767.219064	2481.255923
767.544978	2480.751808
767.870845	2463.107769
768.196665	2474.954481
768.522438	2486.297077
768.848165	2457.310442
769.173846	2479.491519
769.499479	2447.480192
769.825066	2465.628346
770.150607	2464.116000
770.476101	2454.033692
770.801548	2457.562500
771.126949	2466.636577
771.452303	2449.748712
771.777611	2459.074846
772.102872	2479.491519
772.428087	2475.458596
772.753256	2471.677731
773.078378	2488.313538
773.403453	2455.293981
773.728482	2480.751808
774.053465	2496.883500
774.378401	2460.083077
774.703291	2472.938019
775.028135	2482.516212
775.352932	2467.896865
775.677683	2449.496654
776.002388	2454.789865
776.327046	2472.685962
776.651658	2449.496654
776.976224	2464.368058
777.300743	2462.351596
777.625216	2462.099538
777.949643	2498.395846
778.274024	2446.976077
778.598359	2485.036788
778.922647	2432.860846
779.246889	2484.532673
779.571086	2463.611885
779.895236	2474.198308
780.219339	2474.954481
780.543397	2469.661269
780.867409	2470.669500
781.191374	2468.148923
781.515294	2470.921558
781.839167	2480.499750
782.162995	2471.929788
782.486776	2478.987404
782.810511	2479.995635
783.134201	2459.578962
783.457844	2469.409212
783.781441	2471.173615
784.104993	2486.297077
784.428498	2455.293981
784.751958	2485.288846
785.075372	2475.458596
785.398739	2472.938019
785.722061	2457.310442
786.045337	2467.140692
786.368568	2476.466827
786.691752	2461.847481
787.014891	2468.653038
787.337983	2470.165385
787.661030	2462.603654
787.984031	2448.488423
788.306987	2502.176712
788.629897	2467.392750
788.952760	2472.938019
789.275579	2484.028558
789.598351	2483.272385
789.921078	2469.157154
790.243759	2478.987404
790.566395	2464.116000
790.888984	2479.995635
791.211529	2460.083077
791.534027	2476.214769
791.856480	2494.867038
792.178888	2461.847481
792.501249	2456.050154
792.823566	2447.732250
793.145836	2472.433904
793.468062	2457.058385
793.790241	2478.735346
794.112375	2470.669500
794.434464	2446.724019
794.756507	2492.598519
795.078505	2484.784731
795.400457	2467.392750
795.722364	2451.765173
796.044226	2469.409212
796.366042	2475.206538
796.687812	2471.929788
797.009538	2474.954481
797.331218	2480.751808
797.652852	2460.587192
797.974442	2470.417442
798.295986	2473.946250
798.617484	2448.488423
798.938938	2469.409212
799.260346	2457.814558
799.581709	2458.066615
799.903026	2463.359827
800.224299	2450.000769
800.545526	2481.255923
800.866708	2474.954481
801.187845	2473.442135
801.508936	2472.433904
801.829983	2474.954481
802.150984	2467.140692
802.471940	2456.050154
802.792851	2446.976077
803.113717	2480.499750
803.434538	2477.979173
803.755314	2467.644808
804.076045	2439.918462
804.396731	2465.124231
804.717372	2469.409212
805.037967	2447.984308
805.358518	2476.466827
805.679024	2461.091308
805.999485	2445.463731
806.319901	2494.867038
806.640272	2453.025462
806.960598	2447.480192
807.280879	2460.335135
807.601115	2458.066615
807.921306	2452.017231
808.241453	2467.392750
808.561554	2443.699327
808.881611	2483.776500
809.201623	2447.732250
809.521590	2453.277519
809.841513	2467.392750
810.161390	2434.625250
810.481223	2482.516212
810.801011	2465.124231
811.120755	2475.458596
811.440453	2468.400981
811.760107	2477.475058
812.079716	2475.206538
812.399281	2426.055288
812.718801	2473.442135
813.038276	2461.595423
813.357707	2445.715788
813.677093	2457.562500
813.996434	2461.595423
814.315731	2448.740481
814.634983	2481.760038
814.954191	2459.578962
815.273354	2463.107769
815.592473	2465.376288
815.911547	2460.587192
816.230577	2489.321769
816.549562	2457.562500
816.868502	2468.400981
817.187399	2446.471962
817.506250	2472.685962
817.825058	2486.045019
818.143821	2479.743577
818.462539	2451.009000
818.781213	2475.962712
819.099843	2447.732250
819.418429	2466.636577
819.736970	2487.305308
820.055466	2468.148923
820.373919	2478.231231
820.692327	2492.094404
821.010691	2487.305308
821.329011	2492.850577
821.647286	2514.023423
821.965517	2533.179808
822.283704	2516.291942
822.601847	2566.703481
822.919945	2541.245654
823.237999	2526.122192
823.556010	2528.390712
823.873976	2542.505942
824.191897	2512.006962
824.509775	2489.825885
824.827609	2506.965808
825.145398	2477.223000
825.463144	2481.760038
825.780845	2471.677731
826.098502	2480.499750
826.416116	2509.486385
826.733685	2523.349558
827.051210	2481.003865
827.368692	2495.875269
827.686129	2478.483288
828.003522	2492.346462
828.320872	2489.321769
828.638177	2481.003865
828.955439	2472.181846
829.272656	2482.012096
829.589830	2470.417442
829.906960	2473.694192
830.224046	2472.938019
830.541088	2477.223000
830.858086	2458.822788
831.175041	2491.842346
831.491952	2476.970942
831.808819	2504.697288
832.125642	2468.148923
832.442421	2466.132462
832.759157	2466.132462
833.075849	2469.409212
833.392497	2488.817654
833.709101	2493.606750
834.025662	2477.727115
834.342179	2493.354692
834.658653	2478.231231
834.975083	2485.540904
835.291469	2490.834115
835.607811	2452.521346
835.924110	2460.587192
836.240366	2463.359827
836.556578	2488.817654
836.872746	2458.066615
837.188871	2459.578962
837.504952	2467.896865
837.820990	2444.707558
838.136984	2455.293981
838.452935	2455.798096
838.768842	2488.313538
839.084706	2477.727115
839.400526	2490.077942
839.716303	2449.748712
840.032037	2461.847481
840.347727	2447.984308
840.663373	2475.962712
840.978977	2471.929788
841.294537	2475.710654
841.610054	2483.020327
841.925527	2467.392750
842.240957	2450.000769
842.556344	2461.595423
842.871687	2477.979173
843.186987	2483.524442
843.502244	2468.653038
843.817458	2461.091308
844.132629	2487.053250
844.447756	2470.417442
844.762840	2468.400981
845.077881	2457.310442
845.392879	2485.792962
845.707833	2474.954481
846.022745	2452.269288
846.337613	2448.992538
846.652438	2429.079981
846.967221	2472.433904
847.281960	2460.335135
847.596656	2459.578962
847.911309	2473.190077
848.225919	2458.066615
848.540485	2455.546038
848.855009	2460.587192
849.169490	2466.636577
849.483928	2477.475058
849.798323	2486.297077
850.112675	2459.831019
850.426984	2461.091308
850.741251	2439.162288
851.055474	2476.214769
851.369654	2491.590288
851.683792	2446.219904
851.997887	2457.562500
852.311938	2450.756942
852.625947	2445.967846
852.939914	2467.140692
853.253837	2444.959615
853.567718	2457.562500
853.881555	2491.842346
854.195350	2464.872173
854.509103	2478.483288
854.822812	2466.384519
855.136479	2464.872173
855.450103	2439.414346
855.763685	2463.611885
856.077224	2454.033692
856.390720	2454.789865
856.704173	2449.496654
857.017584	2464.872173
857.330953	2460.839250
857.644278	2469.409212
857.957561	2478.987404
858.270802	2454.285750
858.584000	2465.124231
858.897155	2440.422577
859.210268	2452.017231
859.523339	2470.417442
859.836367	2457.562500
860.149352	2454.285750
860.462295	2451.513115
860.775195	2477.223000
861.088054	2450.756942
861.400869	2443.699327
861.713642	2479.491519
862.026373	2435.381423
862.339062	2482.516212
862.651708	2471.425673
862.964312	2472.938019
863.276873	2444.707558
863.589392	2477.223000
863.901869	2454.789865
864.214303	2465.124231
864.526696	2434.121135
864.839045	2436.893769
865.151353	2493.354692
865.463619	2472.938019
865.775842	2438.154058
866.088023	2441.682865
866.400162	2456.302212
866.712258	2465.628346
867.024313	2451.765173
867.336325	2491.590288
867.648296	2493.858808
867.960224	2460.587192
868.272110	2495.623212
868.583954	2462.855712
868.895755	2479.491519
869.207515	2472.685962
869.519233	2447.984308
869.830909	2464.368058
870.142542	2468.653038
870.454134	2480.499750
870.765684	2458.570731
871.077191	2484.532673
871.388657	2461.847481
871.700081	2501.168481
872.011463	2446.976077
872.322803	2446.976077
872.634101	2463.359827
872.945357	2468.905096
873.256571	2446.471962
873.567744	2452.269288
873.878874	2444.455500
874.189963	2449.496654
874.501010	2465.628346
874.812015	2441.178750
875.122979	2456.050154
875.433900	2465.880404
875.744780	2440.674635
876.055618	2456.302212
876.366415	2449.748712
876.677169	2453.529577
876.987882	2478.231231
877.298554	2473.946250
877.609183	2490.077942
877.919771	2439.162288
878.230317	2469.157154
878.540822	2451.261058
878.851285	2475.962712
879.161707	2475.962712
879.472087	2470.165385
879.782425	2453.781635
880.092722	2468.148923
880.402977	2462.603654
880.713191	2474.954481
881.023363	2491.338231
881.333494	2481.003865
881.643583	2477.979173
881.953631	2503.941115
882.263637	2486.549135
882.573602	2483.272385
882.883526	2514.779596
883.193408	2496.379385
883.503248	2475.458596
883.813048	2493.102635
884.122806	2487.305308
884.432522	2478.483288
884.742197	2482.012096
885.051831	2469.409212
885.361424	2463.611885
885.670975	2475.206538
885.980485	2491.086173
886.289954	2470.417442
886.599382	2469.661269
886.908768	2456.302212
887.218113	2464.620115
887.527417	2456.554269
887.836680	2457.058385
888.145901	2465.376288
888.455082	2435.885538
888.764221	2483.272385
889.073319	2458.066615
889.382376	2485.540904
889.691392	2464.872173
890.000366	2459.326904
890.309300	2467.896865
890.618193	2463.611885
890.927044	2459.578962
891.235855	2454.033692
891.544625	2481.255923
891.853353	2452.773404
892.162041	2460.335135
892.470687	2464.872173
892.779293	2465.124231
893.087858	2483.020327
893.396381	2474.198308
893.704864	2482.264154
894.013306	2497.135558
894.321707	2504.445231
894.630068	2462.351596
894.938387	2474.954481
895.246665	2471.677731
895.554903	2454.537808
895.863100	2477.475058
896.171256	2473.442135
896.479371	2488.565596
896.787446	2469.913327
897.095480	2473.694192
897.403473	2469.409212
897.711425	2466.888635
898.019336	2461.343365
898.327207	2472.685962
898.635038	2464.872173
898.942827	2457.310442
899.250576	2470.921558
899.558284	2467.896865
899.865952	2474.702423
900.173579	2456.806327
900.481165	2469.157154
900.788711	2462.603654
901.096216	2436.389654
901.403681	2468.905096
901.711105	2469.157154
902.018489	2450.000769
902.325832	2433.617019
902.633135	2468.148923
902.940397	2444.707558
903.247619	2438.658173
903.554800	2493.354692
903.861941	2442.186981
904.169041	2463.107769
904.476101	2460.587192
904.783121	2501.168481
905.090100	2487.053250
905.397039	2457.562500
905.703938	2492.850577
906.010796	2487.053250
906.317614	2478.231231
906.624391	2479.491519
906.931129	2465.628346
907.237826	2470.417442
907.544483	2480.247692
907.851099	2450.252827
908.157675	2453.277519
908.464211	2464.620115
908.770707	2480.751808
909.077163	2451.513115
909.383578	2436.893769
909.689954	2468.400981
909.996289	2467.644808
910.302584	2470.669500
910.608839	2485.288846
910.915054	2453.781635
911.221229	2447.480192
911.527363	2422.778538
911.833458	2458.822788
912.139513	2489.825885
912.445527	2464.368058
912.751502	2475.710654
913.057436	2440.926692
913.363331	2454.285750
913.669186	2474.954481
913.975000	2466.384519
914.280775	2466.384519
914.586510	2450.756942
914.892205	2464.116000
915.197859	2485.792962
915.503475	2452.773404
915.809050	2498.143788
916.114585	2510.494615
916.420081	2446.219904
916.725536	2464.116000
917.030952	2451.513115
917.336328	2473.946250
917.641665	2463.359827
917.946961	2442.943154
918.252218	2486.801192
918.557435	2487.305308
918.862612	2476.214769
919.167750	2461.847481
919.472848	2461.847481
919.777906	2465.628346
920.082925	2467.140692
920.387904	2442.691096
920.692843	2491.086173
920.997743	2461.091308
921.302603	2469.157154
921.607423	2449.748712
921.912204	2465.880404
922.216946	2484.280615
922.521647	2448.236365
922.826310	2468.148923
923.130932	2462.603654
923.435516	2465.376288
923.740059	2452.017231
924.044564	2469.661269
924.349028	2461.847481
924.653454	2497.891731
924.957840	2451.765173
925.262186	2455.798096
925.566493	2451.009000
925.870761	2456.302212
926.174989	2457.814558
926.479178	2462.099538
926.783328	2465.880404
927.087438	2453.529577
927.391509	2469.409212
927.695541	2449.496654
927.999533	2472.938019
928.303486	2459.074846
928.607400	2483.524442
928.911275	2438.406115
929.215110	2475.206538
929.518906	2443.195212
929.822663	2437.397885
930.126381	2462.099538
930.430060	2437.397885
930.733699	2468.148923
931.037299	2471.173615
931.340861	2472.181846
931.644383	2472.938019
931.947866	2489.825885
932.251309	2451.513115
932.554714	2444.455500
932.858080	2471.173615
933.161407	2482.264154
933.464694	2451.009000
933.767943	2455.293981
934.071153	2451.765173
934.374323	2484.028558
934.677455	2470.417442
934.980548	2456.806327
935.283602	2462.855712
935.586617	2459.831019
935.889593	2463.107769
936.192530	2433.364962
936.495428	2439.918462
936.798287	2446.976077
937.101108	2449.244596
937.403890	2466.636577
937.706632	2456.050154
938.009336	2471.173615
938.312002	2465.880404
938.614628	2457.058385
938.917216	2454.033692
939.219765	2467.896865
939.522275	2442.439038
939.824747	2440.422577
940.127179	2419.249731
940.429573	2453.277519
940.731929	2464.368058
941.034246	2475.962712
941.336524	2453.025462
941.638763	2453.025462
941.940964	2466.132462
942.243126	2455.546038
942.545250	2453.277519
942.847335	2443.195212
943.149381	2476.466827
943.451389	2469.157154
943.753359	2473.442135
944.055290	2445.967846
944.357182	2449.496654
944.659036	2464.368058
944.960851	2474.450365
945.262628	2447.480192
945.564367	2462.099538
945.866067	2452.017231
946.167729	2452.017231
946.469352	2480.751808
946.770937	2447.732250
947.072484	2483.524442
947.373992	2442.186981
947.675462	2463.863942
947.976893	2458.318673
948.278286	2479.491519
948.579641	2478.987404
948.880958	2451.009000
949.182236	2469.409212
949.483476	2482.012096
949.784678	2501.672596
950.085841	2453.277519
950.386967	2478.231231
950.688054	2452.269288
950.989103	2463.611885
951.290114	2459.578962
951.591087	2454.789865
951.892021	2487.809423
952.192917	2445.715788
952.493776	2447.228135
952.794596	2444.455500
953.095378	2472.685962
953.396122	2454.789865
953.696828	2461.343365
953.997496	2484.532673
954.298126	2455.041923
954.598718	2439.918462
954.899272	2459.074846
955.199788	2437.397885
955.500266	2476.970942
955.800706	2467.644808
956.101108	2446.471962
956.401472	2456.302212
956.701798	2477.727115
957.002087	2472.433904
957.302337	2467.644808
957.602550	2475.962712
957.902724	2430.844385
958.202861	2448.992538
958.502960	2460.083077
958.803022	2450.252827
959.103045	2467.140692
959.403031	2446.471962
959.702979	2465.880404
960.002889	2458.570731
960.302762	2462.351596
960.602596	2460.839250
960.902393	2468.905096
961.202153	2453.277519
961.501875	2436.641712
961.801559	2455.546038
962.101205	2475.458596
962.400814	2425.803231
962.700385	2454.033692
962.999918	2430.844385
963.299414	2455.041923
963.598873	2451.261058
963.898293	2461.847481
964.197677	2432.608788
964.497022	2452.269288
964.796331	2444.455500
965.095601	2457.814558
965.394835	2448.740481
965.694030	2440.422577
965.993189	2478.231231
966.292309	2460.587192
966.591393	2468.148923
966.890439	2446.219904
967.189447	2447.984308
967.488419	2479.491519
967.787353	2466.132462
968.086249	2444.959615
968.385108	2459.326904
968.683930	2428.827923
968.982714	2464.872173
969.281462	2467.644808
969.580172	2440.674635
969.878844	2474.702423
970.177480	2450.252827
970.476078	2472.938019
970.774639	2446.724019
971.073162	2457.058385
971.371649	2441.178750
971.670098	2475.710654
971.968510	2448.992538
972.266885	2450.000769
972.565223	2446.724019
972.863524	2451.261058
973.161788	2476.718885
973.460014	2438.658173
973.758204	2454.033692
974.056356	2445.211673
974.354471	2459.831019
974.652550	2443.447269
974.950591	2471.677731
975.248595	2468.148923
975.546563	2454.285750
975.844493	2465.880404
976.142386	2476.970942
976.440243	2459.326904
976.738062	2456.302212
977.035845	2456.554269
977.333590	2468.905096
977.631299	2446.724019
977.928971	2444.455500
978.226606	2452.269288
978.524204	2457.058385
978.821765	2445.715788
979.119290	2459.831019
979.416777	2450.756942
979.714228	2484.280615
980.011642	2446.471962
980.309020	2449.748712
980.606360	2445.715788
980.903664	2461.091308
981.200931	2441.430808
981.498162	2454.285750
981.795356	2446.219904
982.092513	2483.020327
982.389633	2472.938019
982.686717	2473.442135
982.983764	2450.504885
983.280775	2459.074846
983.577749	2441.178750
983.874686	2488.817654
984.171587	2459.074846
984.468451	2480.247692
984.765279	2499.404077
985.062070	2454.285750
985.358824	2466.888635
985.655543	2456.554269
985.952224	2490.582058
986.248869	2476.970942
986.545478	2453.277519
986.842050	2473.190077
987.138586	2473.946250
987.435086	2430.340269
987.731549	2469.409212
988.027975	2461.595423
988.324366	2422.022365
988.620719	2470.921558
988.917037	2450.504885
989.213318	2464.620115
989.509563	2455.798096
989.805772	2459.326904
990.101944	2468.148923
990.398080	2504.949346
990.694180	2429.332038
990.990244	2454.285750
991.286271	2453.529577
991.582262	2450.252827
991.878217	2466.888635
992.174136	2447.480192
992.470019	2427.819692
992.765865	2442.943154
993.061676	2469.913327
993.357450	2445.715788
993.653188	2421.770308
993.948890	2452.773404
994.244556	2466.888635
994.540186	2487.557365
994.835780	2471.929788
995.131337	2467.644808
995.426859	2462.099538
995.722345	2476.466827
996.017795	2462.603654
996.313208	2434.121135
996.608586	2465.628346
996.903928	2456.806327
997.199234	2477.475058
997.494504	2478.483288
997.789738	2475.710654
998.084936	2455.293981
998.380099	2468.148923
998.675225	2427.819692
998.970316	2459.326904
999.265371	2440.674635
999.560390	2455.293981
999.855373	2464.872173
1000.150320	2461.091308
1000.445232	2471.677731
1000.740108	2457.058385
1001.034948	2458.318673
1001.329752	2463.107769
1001.624521	2447.732250
1001.919254	2470.921558
1002.213951	2466.132462
1002.508613	2449.496654
1002.803239	2441.682865
1003.097829	2455.293981
1003.392384	2454.285750
1003.686903	2455.546038
1003.981386	2466.384519
1004.275834	2466.888635
1004.570246	2445.967846
1004.864623	2490.077942
1005.158964	2447.480192
1005.453270	2491.338231
1005.747540	2446.724019
1006.041775	2454.789865
1006.335974	2453.529577
1006.630138	2443.195212
1006.924266	2444.707558
1007.218359	2473.442135
1007.512416	2446.724019
1007.806438	2471.173615
1008.100425	2455.798096
1008.394376	2437.902000
1008.688292	2459.578962
1008.982172	2452.269288
1009.276017	2441.934923
1009.569827	2482.516212
1009.863602	2468.400981
1010.157341	2483.524442
1010.451045	2451.009000
1010.744714	2475.710654
1011.038347	2478.735346
1011.331945	2440.926692
1011.625508	2467.896865
1011.919036	2453.529577
1012.212528	2475.710654
1012.505986	2463.359827
1012.799408	2445.967846
1013.092795	2458.066615
1013.386147	2494.867038
1013.679464	2444.203442
1013.972745	2461.595423
1014.265992	2446.219904
1014.559204	2440.926692
1014.852380	2456.302212
1015.145521	2451.009000
1015.438628	2445.967846
1015.731699	2476.718885
1016.024736	2477.979173
1016.317737	2484.784731
1016.610703	2451.261058
1016.903635	2439.666404
1017.196531	2450.252827
1017.489393	2461.847481
1017.782219	2455.041923
1018.075011	2457.814558
1018.367768	2478.231231
1018.660490	2468.653038
1018.953177	2468.653038
1019.245829	2468.653038
