Dividing Wavelength (nm)	Counts (n)	Slit_number_7_of_a_total_of_40	
326.493990	2043.179654
326.888308	2043.179654
327.282561	2043.179654
327.676750	2048.976981
328.070874	2003.606596
328.464933	2044.439942
328.858929	2046.708462
329.252859	2066.621019
329.646726	2059.311346
330.040528	2085.021231
330.434265	2117.788731
330.827938	2112.495519
331.221547	2139.213635
331.615091	2182.063442
332.008571	2188.364885
332.401986	2186.600481
332.795338	2222.644731
333.188625	2228.442058
333.581847	2262.721904
333.975006	2277.089192
334.368100	2274.568615
334.761129	2314.897846
335.154095	2333.298058
335.546996	2370.854654
335.939833	2366.065558
336.332606	2386.734288
336.725315	2403.118038
337.117960	2405.890673
337.510540	2390.767212
337.903056	2412.696231
338.295508	2456.302212
338.687896	2414.208577
339.080220	2469.913327
339.472480	2455.293981
339.864676	2436.137596
340.256807	2460.335135
340.648875	2448.740481
341.040879	2450.504885
341.432818	2476.466827
341.824694	2462.351596
342.216506	2475.206538
342.608253	2462.603654
342.999937	2425.551173
343.391557	2466.888635
343.783113	2472.938019
344.174605	2446.471962
344.566033	2463.359827
344.957397	2430.844385
345.348697	2451.513115
345.739934	2477.223000
346.131106	2460.587192
346.522215	2458.570731
346.913260	2460.083077
347.304241	2459.326904
347.695159	2436.137596
348.086012	2461.091308
348.476802	2467.896865
348.867528	2412.696231
349.258191	2459.074846
349.648789	2427.567635
350.039324	2414.208577
350.429796	2424.290885
350.820203	2435.885538
351.210548	2462.855712
351.600828	2434.373192
351.991045	2423.030596
352.381198	2444.203442
352.771288	2413.452404
353.161314	2399.085115
353.551276	2415.972981
353.941175	2419.249731
354.331010	2436.137596
354.720782	2426.307346
355.110490	2437.397885
355.500135	2424.290885
355.889717	2417.989442
356.279235	2439.666404
356.668689	2436.893769
357.058080	2459.074846
357.447408	2411.940058
357.836672	2424.795000
358.225873	2432.860846
358.615010	2439.918462
359.004084	2448.992538
359.393095	2461.343365
359.782043	2442.186981
360.170927	2423.282654
360.559748	2446.219904
360.948505	2441.430808
361.337199	2418.493558
361.725830	2448.236365
362.114398	2434.877308
362.502903	2426.055288
362.891344	2427.567635
363.279722	2442.186981
363.668037	2435.885538
364.056289	2449.748712
364.444478	2458.822788
364.832603	2442.186981
365.220665	2419.249731
365.608665	2424.038827
365.996601	2456.554269
366.384474	2453.025462
366.772284	2438.910231
367.160031	2435.633481
367.547715	2429.836154
367.935336	2443.699327
368.322893	2447.228135
368.710388	2459.074846
369.097820	2455.041923
369.485189	2449.244596
369.872495	2457.310442
370.259738	2423.282654
370.646918	2433.869077
371.034035	2433.869077
371.421090	2459.578962
371.808081	2456.806327
372.195010	2443.195212
372.581875	2439.414346
372.968678	2434.877308
373.355418	2445.715788
373.742096	2436.641712
374.128710	2464.620115
374.515262	2468.400981
374.901751	2439.918462
375.288177	2445.211673
375.674540	2426.055288
376.060841	2478.735346
376.447079	2454.285750
376.833254	2431.852615
377.219367	2471.173615
377.605417	2432.608788
377.991404	2459.578962
378.377329	2468.905096
378.763191	2439.918462
379.148991	2448.236365
379.534727	2450.756942
379.920402	2448.992538
380.306013	2454.789865
380.691563	2469.913327
381.077049	2432.356731
381.462474	2424.542942
381.847835	2466.636577
382.233134	2462.855712
382.618371	2455.041923
383.003545	2467.140692
383.388657	2457.814558
383.773706	2437.649942
384.158693	2425.803231
384.543618	2464.116000
384.928480	2453.529577
385.313280	2459.326904
385.698017	2453.529577
386.082692	2465.124231
386.467305	2474.702423
386.851856	2445.211673
387.236344	2457.814558
387.620770	2465.880404
388.005133	2461.595423
388.389435	2436.893769
388.773674	2460.083077
389.157851	2471.173615
389.541965	2465.628346
389.926018	2445.967846
390.310008	2468.400981
390.693936	2465.376288
391.077802	2453.781635
391.461606	2483.272385
391.845348	2438.910231
392.229027	2451.261058
392.612645	2462.603654
392.996200	2446.724019
393.379694	2451.261058
393.763125	2443.699327
394.146494	2463.611885
394.529801	2457.058385
394.913047	2454.285750
395.296230	2467.896865
395.679351	2461.343365
396.062410	2452.773404
396.445408	2450.252827
396.828343	2427.063519
397.211217	2463.359827
397.594028	2470.165385
397.976778	2438.910231
398.359466	2449.496654
398.742092	2468.400981
399.124656	2467.392750
399.507158	2498.143788
399.889598	2470.417442
400.271977	2463.359827
400.654294	2466.636577
401.036549	2463.611885
401.418742	2484.532673
401.800874	2456.554269
402.182944	2482.516212
402.564952	2448.740481
402.946898	2482.516212
403.328783	2469.157154
403.710606	2463.863942
404.092367	2451.261058
404.474067	2449.496654
404.855705	2461.595423
405.237282	2454.537808
405.618797	2444.959615
406.000250	2482.012096
406.381642	2468.400981
406.762972	2461.343365
407.144240	2485.036788
407.525447	2455.798096
407.906593	2460.839250
408.287677	2433.364962
408.668700	2479.239462
409.049661	2475.962712
409.430560	2462.855712
409.811399	2466.636577
410.192176	2448.992538
410.572891	2472.433904
410.953545	2465.124231
411.334138	2464.368058
411.714669	2453.277519
412.095139	2476.214769
412.475547	2475.206538
412.855894	2480.751808
413.236180	2453.781635
413.616405	2473.442135
413.996568	2479.239462
414.376670	2463.359827
414.756711	2470.921558
415.136691	2472.433904
415.516609	2459.578962
415.896466	2470.669500
416.276262	2496.379385
416.655997	2457.814558
417.035670	2462.351596
417.415283	2482.768269
417.794834	2468.905096
418.174324	2466.636577
418.553753	2489.069712
418.933121	2463.611885
419.312428	2482.264154
419.691674	2470.417442
420.070859	2494.362923
420.449983	2488.817654
420.829045	2443.699327
421.208047	2483.524442
421.586988	2448.740481
421.965867	2485.540904
422.344686	2475.710654
422.723444	2488.313538
423.102141	2448.488423
423.480777	2487.053250
423.859352	2487.053250
424.237866	2479.995635
424.616319	2475.458596
424.994712	2486.045019
425.373044	2485.540904
425.751314	2460.587192
426.129524	2482.768269
426.507673	2479.491519
426.885762	2462.855712
427.263789	2467.392750
427.641756	2482.264154
428.019662	2481.760038
428.397508	2455.546038
428.775292	2484.280615
429.153016	2468.653038
429.530679	2473.442135
429.908282	2502.176712
430.285824	2454.033692
430.663305	2457.310442
431.040726	2468.400981
431.418086	2497.639673
431.795385	2490.582058
432.172624	2481.507981
432.549802	2455.798096
432.926920	2463.611885
433.303977	2475.206538
433.680974	2485.288846
434.057910	2452.269288
434.434786	2477.979173
434.811601	2454.537808
435.188355	2480.499750
435.565050	2498.647904
435.941683	2459.831019
436.318257	2480.499750
436.694770	2451.261058
437.071222	2497.387615
437.447614	2476.214769
437.823946	2461.847481
438.200218	2453.277519
438.576429	2473.190077
438.952580	2501.924654
439.328670	2475.710654
439.704700	2467.896865
440.080670	2465.124231
440.456580	2481.760038
440.832429	2482.264154
441.208218	2468.905096
441.583947	2490.077942
441.959616	2450.252827
442.335224	2465.376288
442.710773	2451.261058
443.086261	2467.644808
443.461689	2480.247692
443.837057	2468.653038
444.212365	2487.557365
444.587612	2484.280615
444.962800	2462.099538
445.337927	2466.384519
445.712995	2456.806327
446.088002	2490.834115
446.462949	2473.442135
446.837837	2476.214769
447.212664	2479.491519
447.587431	2460.335135
447.962139	2477.979173
448.336786	2476.718885
448.711374	2473.190077
449.085901	2465.880404
449.460369	2507.217865
449.834776	2493.102635
450.209124	2492.094404
450.583412	2497.387615
450.957640	2493.858808
451.331808	2482.516212
451.705917	2482.516212
452.079965	2491.086173
452.453954	2473.442135
452.827883	2492.346462
453.201752	2464.116000
453.575562	2463.611885
453.949311	2495.623212
454.323001	2492.346462
454.696632	2460.587192
455.070202	2503.184942
455.443713	2479.491519
455.817164	2478.231231
456.190556	2512.259019
456.563888	2474.954481
456.937160	2464.872173
457.310373	2487.305308
457.683526	2479.491519
458.056619	2500.160250
458.429653	2476.718885
458.802628	2500.160250
459.175542	2478.987404
459.548398	2489.321769
459.921194	2463.359827
460.293930	2495.623212
460.666607	2485.288846
461.039224	2498.143788
461.411782	2484.028558
461.784280	2480.499750
462.156719	2468.905096
462.529099	2502.932885
462.901419	2487.809423
463.273680	2463.107769
463.645882	2479.491519
464.018024	2480.751808
464.390106	2473.694192
464.762130	2491.842346
465.134094	2504.697288
465.505999	2489.069712
465.877845	2499.908192
466.249631	2491.842346
466.621358	2489.825885
466.993026	2516.544000
467.364634	2489.321769
467.736184	2481.255923
468.107674	2471.173615
468.479105	2473.190077
468.850477	2497.891731
469.221790	2481.255923
469.593043	2492.346462
469.964238	2490.582058
470.335373	2499.404077
470.706449	2485.036788
471.077467	2511.250788
471.448425	2503.689058
471.819324	2524.357788
472.190164	2499.404077
472.560945	2512.511077
472.931667	2519.820750
473.302330	2501.168481
473.672934	2493.606750
474.043479	2471.173615
474.413965	2484.532673
474.784393	2482.516212
475.154761	2511.502846
475.525070	2489.825885
475.895321	2475.206538
476.265513	2476.718885
476.635645	2492.850577
477.005719	2490.834115
477.375734	2488.313538
477.745691	2497.387615
478.115588	2493.606750
478.485427	2488.817654
478.855207	2491.086173
479.224928	2475.710654
479.594591	2491.590288
479.964194	2520.576923
480.333739	2466.384519
480.703226	2533.935981
481.072653	2503.941115
481.442022	2501.168481
481.811333	2499.656135
482.180584	2492.094404
482.549777	2501.924654
482.918912	2486.297077
483.287988	2501.924654
483.657005	2508.226096
484.025964	2485.540904
484.394864	2521.585154
484.763706	2486.297077
485.132489	2529.146885
485.501213	2489.321769
485.869879	2526.626308
486.238487	2505.705519
486.607036	2502.428769
486.975527	2516.796058
487.343959	2508.730212
487.712333	2521.333096
488.080648	2497.639673
488.448905	2518.308404
488.817104	2481.760038
489.185244	2505.957577
489.553326	2477.223000
489.921350	2491.842346
490.289315	2480.499750
490.657222	2520.324865
491.025070	2507.217865
491.392861	2540.993596
491.760593	2493.102635
492.128267	2503.689058
492.495883	2514.023423
492.863440	2521.333096
493.230939	2522.341327
493.598380	2524.609846
493.965763	2548.303269
494.333088	2520.324865
494.700354	2535.196269
495.067563	2510.746673
495.434713	2508.478154
495.801805	2507.721981
496.168839	2512.006962
496.535815	2518.056346
496.902733	2549.563558
497.269593	2521.333096
497.636395	2533.431865
498.003139	2526.626308
498.369825	2549.059442
498.736453	2557.125288
499.103023	2523.349558
499.469535	2549.311500
499.835989	2543.262115
500.202385	2516.544000
500.568723	2550.067673
500.935003	2511.502846
501.301226	2532.675692
501.667390	2513.519308
502.033497	2526.878365
502.399546	2547.295038
502.765537	2513.519308
503.131470	2546.538865
503.497345	2530.911288
503.863163	2554.604712
504.228923	2547.042981
504.594625	2552.336192
504.960269	2538.725077
505.325856	2546.034750
505.691385	2558.637635
506.056856	2571.240519
506.422270	2549.815615
506.787625	2535.196269
507.152924	2551.580019
507.518164	2560.149981
507.883347	2558.637635
508.248472	2572.248750
508.613540	2552.588250
508.978550	2578.550192
509.343503	2554.856769
509.708398	2560.654096
510.073236	2546.034750
510.438016	2571.492577
510.802738	2567.963769
511.167403	2542.758000
511.532010	2572.248750
511.896561	2580.314596
512.261053	2556.873231
512.625488	2562.166442
512.989866	2541.497712
513.354186	2545.782692
513.718449	2561.662327
514.082655	2582.835173
514.446803	2566.199365
514.810894	2582.331058
515.174927	2593.673654
515.538904	2602.495673
515.902822	2576.281673
516.266684	2568.972000
516.630488	2570.484346
516.994235	2595.942173
517.357925	2589.892788
517.721558	2580.062538
518.085133	2586.363981
518.448651	2566.451423
518.812112	2573.256981
519.175516	2590.901019
519.538863	2551.075904
519.902152	2566.703481
520.265385	2590.648962
520.628560	2585.607808
520.991678	2600.731269
521.354739	2584.095462
521.717743	2602.747731
522.080690	2600.731269
522.443580	2610.561519
522.806413	2577.541962
523.169189	2617.115019
523.531908	2601.235385
523.894569	2598.210692
524.257174	2604.764192
524.619722	2595.438058
524.982213	2589.640731
525.344647	2606.528596
525.707025	2612.830038
526.069345	2597.202462
526.431608	2612.073865
526.793815	2595.438058
527.155964	2620.895885
527.518057	2622.660288
527.880093	2619.887654
528.242072	2603.503904
528.603995	2617.619135
528.965860	2619.635596
529.327669	2612.325923
529.689421	2613.838269
530.051117	2636.523462
530.412755	2636.271404
530.774337	2647.614000
531.135862	2638.287865
531.497331	2614.090327
531.858743	2640.052269
532.220098	2630.726135
532.581396	2618.627365
532.942638	2630.978192
533.303824	2631.230250
533.664953	2635.263173
534.026025	2664.249808
534.387040	2669.290962
534.747999	2650.386635
535.108902	2651.142808
535.469748	2649.126346
535.830537	2646.857827
536.191270	2654.419558
536.551947	2659.712769
536.912567	2659.460712
537.273131	2647.361942
537.633638	2644.337250
537.994089	2677.104750
538.354483	2637.783750
538.714821	2656.688077
539.075103	2690.715865
539.435328	2675.340346
539.795497	2675.844462
540.155609	2695.504962
540.515665	2682.902077
540.875665	2689.959692
541.235609	2693.992615
541.595496	2695.000846
541.955328	2731.297154
542.315102	2716.929865
542.674821	2737.346538
543.034483	2736.842423
543.394090	2723.735423
543.753640	2742.891808
544.113134	2741.127404
544.472571	2743.395923
544.831953	2755.998808
545.191278	2738.354769
545.550548	2776.919596
545.909761	2761.544077
546.268918	2766.081115
546.628019	2788.010135
546.987064	2783.221038
547.346053	2798.596558
547.704986	2818.005000
548.063863	2834.388750
548.422684	2839.177846
548.781449	2823.046154
549.140158	2865.391846
549.498811	2849.764269
549.857408	2868.416538
550.215949	2877.742673
550.574434	2896.142885
550.932864	2908.745769
551.291237	2890.849673
551.649555	2919.836308
552.007817	2944.790019
552.366022	2948.570885
552.724173	2986.379538
553.082267	2975.036942
553.440305	3008.308558
553.798288	3036.791077
554.156215	3061.996846
554.514086	3085.186154
554.871902	3108.375462
555.229661	3097.032865
555.587365	3143.915596
555.945014	3146.940288
556.302606	3181.724250
556.660143	3205.165615
557.017625	3216.004096
557.375050	3267.675923
557.732421	3292.377577
558.089735	3295.654327
558.446994	3324.640962
558.804197	3384.126577
559.161345	3431.009308
559.518437	3404.795308
559.875474	3485.705827
560.232455	3493.771673
560.589381	3520.741846
560.946251	3565.104000
561.303065	3654.584481
561.659825	3660.885923
562.016528	3681.302596
562.373177	3714.070096
562.729770	3780.865385
563.086307	3785.654481
563.442789	3822.959019
563.799216	3894.543404
564.155587	3962.346923
564.511904	4010.489942
564.868164	3998.643231
565.224370	4075.016712
565.580520	4114.589769
565.936615	4189.198846
566.292654	4262.799692
566.648638	4294.054846
567.004567	4394.625865
567.360441	4465.454077
567.716260	4492.424250
568.072023	4550.397519
568.427732	4629.795692
568.783385	4677.434596
569.138982	4750.783385
569.494525	4796.657885
569.850013	4878.576635
570.205445	4955.958346
570.560823	5020.485115
570.916145	5078.962500
571.271412	5184.826731
571.626625	5269.266058
571.981782	5301.529442
572.336884	5360.258885
572.691931	5488.052135
573.046923	5530.397827
573.401860	5625.675635
573.756743	5727.759000
574.111570	5773.885558
574.466342	5842.697308
574.821059	5951.838288
575.175722	5991.411346
575.530330	6069.297173
575.884882	6174.909346
576.239380	6298.921731
576.593823	6353.870308
576.948211	6455.953673
577.302544	6562.069962
577.656823	6601.895077
578.011047	6758.170846
578.365216	6823.201731
578.719330	6841.601942
579.073389	6948.726462
579.427394	7103.237827
579.781344	7223.217288
580.135239	7292.029038
580.489080	7376.216308
580.842866	7433.685462
581.196597	7553.412865
581.550273	7728.845019
581.903895	7779.508615
582.257463	7941.581712
582.610975	8027.785442
582.964434	8187.085904
583.317837	8307.569481
583.671186	8375.120942
584.024481	8523.078808
584.377721	8576.262981
584.730906	8683.135442
585.084037	8855.794962
585.437113	8936.957538
585.790135	9038.536788
586.143103	9116.422615
586.496016	9257.322865
586.848874	9357.893885
587.201679	9580.460827
587.554428	9521.731385
587.907124	9669.941308
588.259765	9777.065827
588.612352	10013.495942
588.964884	9963.084404
589.317362	10189.936327
589.669786	10266.309808
590.022155	10358.058808
590.374470	10554.159692
590.726731	10530.718327
591.078937	10678.676192
591.431090	10702.873731
591.783188	10835.708135
592.135232	11001.814154
592.487222	11087.009654
592.839157	11243.285423
593.191038	11256.644481
593.542866	11359.231962
593.894639	11325.960346
594.246358	11447.200096
594.598022	11637.251596
594.949633	11717.910058
595.301190	11825.286635
595.652692	11912.750654
596.004141	11995.425577
596.355535	11969.463635
596.706876	12036.006865
597.058162	12127.503808
597.409395	12404.011096
597.760573	12458.959673
598.111698	12506.850635
598.462768	12618.260135
598.813785	12799.993731
599.164748	12814.613077
599.515657	13037.432077
599.866511	13057.092577
600.217312	13291.002115
600.568060	13078.013365
600.918753	13433.918827
601.269392	13582.884923
601.619978	13622.205923
601.970510	13760.333538
602.320988	13918.373712
602.671412	14182.530173
603.021783	14211.516808
603.372100	14289.402635
603.722363	14400.308019
604.072572	14496.846115
604.422728	14789.989212
604.772830	14819.984077
605.122878	14854.768038
605.472872	15027.679615
605.822813	15229.577827
606.172701	15352.834038
606.522534	15511.378327
606.872314	15740.750827
607.222041	15803.765250
607.571714	15956.260154
607.921333	15922.484423
608.270899	16149.588404
608.620411	16361.820981
608.969870	16452.309692
609.319276	16641.100904
609.668627	16762.592712
610.017926	16901.728558
610.367171	17136.646327
610.716362	17318.379923
611.065500	17406.096000
611.414585	17630.427346
611.763616	17836.610538
612.112594	17888.030308
612.461518	18230.576712
612.810389	18356.353500
613.159207	18490.700250
613.507971	18614.208519
613.856682	18861.981231
614.205340	18891.471981
614.553945	19449.779769
614.902496	19323.498865
615.250994	19504.476288
615.599439	19742.922865
615.947830	19899.450692
616.296169	20120.001173
616.644454	20094.039231
616.992686	20375.335615
617.340864	20544.718385
617.688990	20607.480750
618.037063	20977.753500
618.385082	21042.532327
618.733048	21223.509750
619.080961	21383.818442
619.428821	21490.942962
619.776628	21576.642577
620.124382	21643.437865
620.472083	21806.519192
620.819731	22083.530596
621.167326	22067.146846
621.514868	22131.169500
621.862357	22073.196231
622.209793	22166.205519
622.557176	22111.761058
622.904506	22083.278538
623.251783	22118.314558
623.599007	22074.960635
623.946179	21938.597423
624.293297	22189.898942
624.640363	21860.963654
624.987376	22002.368019
625.334336	22067.398904
625.681243	21939.605654
626.028097	21842.059327
626.374899	21934.564500
626.721647	22038.160212
627.068343	22077.985327
627.414987	22000.351558
627.761577	21914.399885
628.108115	22052.527500
628.454600	21970.608750
628.801032	22067.398904
629.147412	22051.015154
629.493739	22072.440058
629.840014	22094.621135
630.186236	22169.734327
630.532405	22018.751769
630.878521	22151.838231
631.224585	22202.249769
631.570597	22129.657154
631.916556	22080.757962
632.262462	22125.876288
632.608316	22211.575904
632.954117	22319.708654
633.299866	22296.519346
633.645562	22128.648923
633.991206	22061.349519
634.336797	21864.240404
634.682336	22028.834077
635.027823	21889.950288
635.373257	21713.005788
635.718639	21799.209519
636.063968	21812.064462
636.409245	21513.376096
636.754470	21539.842154
637.099642	21583.196077
637.444762	21221.241231
637.789829	21252.748442
638.134845	21245.186712
638.479808	21151.421250
638.824719	21191.246365
639.169577	21092.187692
639.514383	20964.142385
639.859137	20880.711288
640.203839	21068.746327
640.548489	20799.800769
640.893086	20943.725712
641.237632	20717.882019
641.582125	20809.631019
641.926566	20819.209212
642.270955	20785.181423
642.615292	20708.555885
642.959576	20847.691731
643.303809	20710.320288
643.647990	20902.388250
643.992118	20850.716423
644.336195	20714.353212
644.680219	20768.545615
645.024192	20997.666058
645.368112	21098.993250
645.711981	20914.991135
646.055797	21412.048904
646.399562	21303.916154
646.743274	21781.565481
647.086935	21903.057288
647.430544	21794.420423
647.774101	21932.800096
648.117606	22015.222962
648.461059	22381.210731
648.804460	22175.531654
649.147810	21857.182788
649.491108	21847.856654
649.834354	21614.199173
650.177548	21204.353365
650.520690	21041.524096
650.863781	21024.888288
651.206820	20988.591981
651.549807	20782.660846
651.892742	20475.150462
652.235626	20410.371635
652.578458	20125.546442
652.921238	19951.374577
653.263967	20028.252173
653.606644	19801.652308
653.949269	19567.490712
654.291843	19553.123423
654.634365	19628.236615
654.976836	19392.310615
655.319255	19346.436115
655.661622	19467.675865
656.003938	19199.738538
656.346203	19167.223096
656.688416	19154.620212
657.030577	19093.874308
657.372687	18994.311519
657.714746	19066.147962
658.056753	19018.509058
658.398708	18820.139654
658.740612	18818.627308
659.082465	18822.912288
659.424266	18725.618019
659.766016	18801.487385
660.107715	18654.033635
660.449362	18739.985308
660.790958	18683.020269
661.132503	18660.587135
661.473996	18549.681750
661.815438	18638.910173
662.156829	18707.217808
662.498168	18462.469788
662.839456	18473.812385
663.180693	18463.478019
663.521879	18420.880269
663.863013	18453.395712
664.204097	18388.616885
664.545129	18541.867962
664.886110	18543.884423
665.227040	18405.504750
665.567918	18518.930712
665.908746	18468.015058
666.249522	18602.361808
666.590248	18575.643692
666.930922	18455.916288
667.271545	18389.625115
667.612118	18487.927615
667.952639	18242.171365
668.293109	18310.983115
668.633528	18200.077731
668.973896	18080.854442
669.314213	18113.621942
669.654480	17935.669212
669.994695	17936.929500
670.334859	17766.790558
670.674973	17718.395481
671.015035	17707.304942
671.355047	17654.876942
671.695008	17539.434519
672.034918	17511.456115
672.374777	17389.208135
672.714585	17300.483827
673.054342	17335.771904
673.394049	17135.133981
673.733705	17217.808904
674.073310	17063.549596
674.412864	17069.851038
674.752368	16790.067000
675.091820	16889.377731
675.431223	16759.820077
675.770574	16545.066923
676.109875	16416.517500
676.449125	16294.521577
676.788324	16158.662481
677.127473	15910.133596
677.466571	15938.364058
677.805619	15683.029615
678.144616	15678.492577
678.483562	15527.005904
678.822458	15348.801115
679.161303	15144.130269
679.500098	15141.861750
679.838842	15028.183731
680.177535	14911.733077
680.516179	15002.725904
680.854771	15006.002654
681.193314	15044.315423
681.531805	15452.648885
681.870247	15613.713750
682.208638	15979.197404
682.546978	16154.629558
682.885268	16210.334308
683.223508	16096.908346
683.561697	15974.408308
683.899836	15838.297154
684.237925	15524.485327
684.575963	15363.168404
684.913951	14986.090096
685.251889	15021.378173
685.589776	14992.643596
685.927614	14892.576692
686.265401	14860.817423
686.603137	14796.290654
686.940824	14879.973808
687.278460	14892.072577
687.616046	14928.873000
687.953582	15036.249577
688.291068	14937.947077
688.628504	15127.998577
688.965889	15050.112750
689.303224	14979.032481
689.640510	14800.071519
689.977745	14545.997365
690.314930	14241.511673
690.652065	14085.740019
690.989150	13673.877750
691.326185	13260.251077
691.663170	13038.692365
692.000105	12716.058519
692.336990	12377.292981
692.673825	12156.238385
693.010610	11921.824731
693.347345	11724.967673
693.684030	11381.665096
694.020665	11219.844058
694.357251	10947.873808
694.693786	10831.423154
695.030272	10675.147385
695.366707	10506.772846
695.703093	10327.307769
696.039429	10296.052615
696.375716	10114.823135
696.711952	10069.452750
697.048139	9969.133788
697.384276	9894.272654
697.720363	9883.182115
698.056400	9801.011308
698.392388	9633.140885
698.728326	9627.847673
699.064214	9572.142923
699.400053	9452.163462
699.735842	9365.707673
700.071581	9219.514212
700.407270	9079.874250
700.742910	8997.955500
701.078501	8894.359788
701.414042	8780.933827
701.749533	8633.732135
702.084974	8450.738250
702.420366	8498.629212
702.755709	8393.017038
703.091002	8241.782423
703.426246	8181.792692
703.761440	8139.194942
704.096584	8024.760750
704.431679	7938.557019
704.766725	7854.873865
705.101721	7817.569327
705.436668	7834.205135
705.771565	7686.247269
706.106413	7784.801827
706.441212	7720.023000
706.775961	7758.839885
707.110661	7702.378962
707.445311	7753.546673
707.779913	7658.268865
708.114465	7723.803865
708.448967	7783.541538
708.783421	7906.545692
709.117825	7897.723673
709.452180	8005.856423
709.786485	7997.286462
710.120742	8190.614712
710.454949	8227.919250
710.789107	8356.972788
711.123216	8491.571596
711.457275	8552.065442
711.791286	8669.524327
712.125247	8759.004808
712.459159	8688.428654
712.793023	8888.562462
713.126837	8587.353519
713.460602	8648.603538
713.794318	8581.304135
714.127985	8420.239269
714.461602	8143.227865
714.795171	8052.991212
715.128691	7796.900596
715.462162	7644.153635
715.795584	7482.836712
716.128957	7373.947788
716.462281	7230.526962
716.795556	7179.611308
717.128782	6975.948692
717.461960	6866.051538
717.795088	6744.811788
718.128167	6657.095712
718.461198	6545.434154
718.794180	6467.800385
719.127113	6371.514346
719.459997	6298.165558
719.792833	6247.754019
720.125619	6208.433019
720.458357	6095.511173
720.791046	5938.983346
721.123686	5939.739519
721.456278	5873.700404
721.788821	5827.825904
722.121315	5792.789885
722.453761	5704.317635
722.786158	5722.213731
723.118506	5709.106731
723.450805	5618.870077
723.783056	5707.342327
724.115259	5652.393750
724.447412	5627.692096
724.779518	5657.686962
725.111574	5649.369058
725.443582	5662.476058
725.775542	5650.125231
726.107453	5698.268250
726.439315	5669.029558
726.771129	5734.060442
727.102895	5855.048135
727.434612	5820.264173
727.766281	5874.960692
728.097901	5960.912365
728.429473	5968.222038
728.760996	5917.306385
729.092471	5981.581096
729.423897	5956.375327
729.755276	5843.705538
730.086606	5869.667481
730.417887	5931.925731
730.749120	6022.918558
731.080305	6066.776596
731.411442	6122.229288
731.742530	6104.081135
732.073570	6128.782788
732.404562	6178.438154
732.735506	6184.487538
733.066401	6131.051308
733.397249	6074.590385
733.728048	5966.709692
734.058798	5802.620135
734.389501	5580.053192
734.720156	5459.569615
735.050762	5344.379250
735.381320	5192.388462
735.711831	5162.393596
736.042293	5076.946038
736.372707	5022.501577
736.703073	4955.706288
737.033391	4959.991269
737.363661	4967.553000
737.693883	4934.533442
738.024056	4981.416173
738.354182	5011.411038
738.684260	5056.529365
739.014290	5068.376077
739.344272	5128.869923
739.674207	5192.136404
740.004093	5180.541750
740.333931	5179.533519
740.663722	5221.627154
740.993464	5222.635385
741.323159	5237.002673
741.652806	5147.018077
741.982405	5104.672385
742.311956	5057.789654
742.641460	5008.890462
742.970915	4932.012865
743.300323	4870.510788
743.629683	4783.046769
743.958996	4732.131115
744.288260	4661.050846
744.617477	4603.077577
744.946647	4571.822423
745.275768	4505.531250
745.604842	4495.701000
745.933869	4414.538423
746.262847	4403.699942
746.591778	4376.729769
746.920662	4334.888192
747.249498	4321.025019
747.578286	4335.140250
747.907027	4347.239019
748.235720	4342.701981
748.564365	4391.853231
748.892963	4406.976692
749.221514	4358.077500
749.550017	4375.973596
749.878473	4336.400538
750.206881	4294.306904
750.535242	4301.364519
750.863555	4292.542500
751.191821	4206.086712
751.520039	4223.226635
751.848210	4181.637115
752.176334	4167.017769
752.504411	4173.319212
752.832440	4148.365500
753.160421	4185.670038
753.488356	4147.861385
753.816243	4090.392231
754.144082	4060.649423
754.471875	4070.731731
754.799620	4013.514635
755.127318	4079.553750
755.454969	4035.947769
755.782572	4037.208058
756.110129	4022.588712
756.437638	4023.092827
756.765100	3967.640135
757.092515	3974.949808
757.419882	3987.300635
757.747203	3970.412769
758.074477	3975.453923
758.401703	3997.635000
758.728882	3996.122654
759.056014	4015.783154
759.383099	4033.175135
759.710138	3988.056808
760.037129	4004.692615
760.364073	4047.038308
760.690970	4030.150442
761.017820	4058.128846
761.344623	4046.030077
761.671379	4035.947769
761.998088	4135.510558
762.324751	4216.673135
762.651366	4505.279192
762.977935	5026.030385
763.304456	5494.857692
763.630931	5868.155135
763.957359	5872.944231
764.283740	5625.675635
764.610074	5335.053115
764.936362	4978.391481
765.262602	4650.464423
765.588796	4429.409827
765.914943	4200.793500
766.241044	4038.972462
766.567097	3965.623673
766.893104	3810.104077
767.219064	3773.303654
767.544978	3661.137981
767.870845	3617.279942
768.196665	3573.673962
768.522438	3559.558731
768.848165	3509.399250
769.173846	3502.845750
769.499479	3444.872481
769.825066	3435.042231
770.150607	3405.551481
770.476101	3354.131712
770.801548	3364.214019
771.126949	3332.706808
771.452303	3295.654327
771.777611	3271.960904
772.102872	3292.125519
772.428087	3278.514404
772.753256	3251.796288
773.078378	3178.699558
773.403453	3182.984538
773.728482	3181.976308
774.053465	3177.943385
774.378401	3158.787000
774.703291	3110.896038
775.028135	3086.446442
775.352932	3111.904269
775.677683	3090.983481
776.002388	3053.931000
776.327046	3076.868250
776.651658	3058.720096
776.976224	3050.150135
777.300743	3070.566808
777.625216	3014.105885
777.949643	3017.382635
778.274024	3028.977288
778.598359	2998.478308
778.922647	3016.122346
779.246889	3015.870288
779.571086	3002.007115
779.895236	3012.593538
780.219339	3014.610000
780.543397	3011.837365
780.867409	2990.160404
781.191374	2989.152173
781.515294	2986.883654
781.839167	2979.826038
782.162995	2990.664519
782.486776	2996.965962
782.810511	2981.086327
783.134201	2962.434058
783.457844	2966.466981
783.781441	2976.801346
784.104993	2954.368212
784.428498	2962.434058
784.751958	2946.302365
785.075372	2930.926846
785.398739	2920.592481
785.722061	2948.570885
786.045337	2902.444327
786.368568	2935.968000
786.691752	2928.910385
787.014891	2953.107923
787.337983	2953.864096
787.661030	3043.596635
787.984031	3065.777712
788.306987	3117.701596
788.629897	3143.411481
788.952760	3157.022596
789.275579	3112.912500
789.598351	3110.391923
789.921078	3046.621327
790.243759	2993.941269
790.566395	2993.185096
790.888984	2932.187135
791.211529	2936.976231
791.534027	2928.910385
791.856480	2883.287942
792.178888	2877.238558
792.501249	2859.846577
792.823566	2822.289981
793.145836	2848.503981
793.468062	2873.709750
793.790241	2851.780731
794.112375	2830.355827
794.434464	2864.635673
794.756507	2853.041019
795.078505	2861.106865
795.400457	2893.622308
795.722364	2911.266346
796.044226	2947.562654
796.366042	2932.691250
796.687812	2961.929942
797.009538	2984.867192
797.331218	2985.875423
797.652852	2949.831173
797.974442	2984.867192
798.295986	2945.042077
798.617484	2895.890827
798.938938	2871.945346
799.260346	2919.584250
799.581709	2870.433000
799.903026	2860.854808
800.224299	2853.797192
800.545526	2852.032788
800.866708	2819.769404
801.187845	2839.177846
801.508936	2806.410346
801.829983	2816.240596
802.150984	2800.360962
802.471940	2800.613019
802.792851	2790.530712
803.113717	2800.613019
803.434538	2794.059519
803.755314	2800.108904
804.076045	2768.097577
804.396731	2762.804365
804.717372	2765.072885
805.037967	2811.451500
805.358518	2760.031731
805.679024	2775.155192
805.999485	2777.171654
806.319901	2769.357865
806.640272	2800.613019
806.960598	2803.889769
807.280879	2804.645942
807.601115	2793.555404
807.921306	2791.538942
808.241453	2791.286885
808.561554	2773.894904
808.881611	2787.758077
809.201623	2784.229269
809.521590	2790.530712
809.841513	2789.270423
810.161390	2752.722058
810.481223	2766.585231
810.801011	2748.941192
811.120755	2748.689135
811.440453	2767.089346
811.760107	2749.193250
812.079716	2763.560538
812.399281	2758.771442
812.718801	2755.998808
813.038276	2726.256000
813.357707	2729.532750
813.677093	2740.623288
813.996434	2729.280692
814.315731	2714.157231
814.634983	2737.850654
814.954191	2700.294058
815.273354	2725.499827
815.592473	2740.371231
815.911547	2734.573904
816.230577	2752.974115
816.549562	2748.941192
816.868502	2743.395923
817.187399	2742.639750
817.506250	2756.250865
817.825058	2764.568769
818.143821	2778.179885
818.462539	2795.823923
818.781213	2811.703558
819.099843	2830.355827
819.418429	2861.106865
819.736970	2922.104827
820.055466	2979.826038
820.373919	3049.393962
820.692327	3117.197481
821.010691	3231.883731
821.329011	3573.926019
821.647286	4410.757558
821.965517	5757.753865
822.283704	7065.429173
822.601847	7824.879000
822.919945	7457.883000
823.237999	6820.429096
823.556010	6088.705615
823.873976	5467.887519
824.191897	4908.319442
824.509775	4511.076519
824.827609	4145.844923
825.145398	3837.074250
825.463144	3655.088596
825.780845	3601.148250
826.098502	3635.932212
826.416116	3804.306750
826.733685	4051.575346
827.051210	4164.749250
827.368692	4200.037327
827.686129	3995.618538
828.003522	3785.906538
828.320872	3542.166750
828.638177	3362.953731
828.955439	3233.648135
829.272656	3124.507154
829.589830	3042.588404
829.906960	2985.119250
830.224046	2874.970038
830.541088	2842.706654
830.858086	2785.489558
831.175041	2775.659308
831.491952	2737.598596
831.808819	2779.440173
832.125642	2776.163423
832.442421	2772.634615
832.759157	2822.289981
833.075849	2921.348654
833.392497	3088.210846
833.709101	3256.333327
834.025662	3299.939308
834.342179	3290.361115
834.658653	3197.099769
834.975083	3083.421750
835.291469	3002.007115
835.607811	2918.828077
835.924110	2831.868173
836.240366	2809.182981
836.556578	2769.861981
836.872746	2734.321846
837.188871	2698.025538
837.504952	2657.444250
837.820990	2653.159269
838.136984	2642.068731
838.452935	2619.635596
838.768842	2638.539923
839.084706	2641.060500
839.400526	2664.501865
839.716303	2717.181923
840.032037	2793.807462
840.347727	2850.772500
840.663373	2827.079077
840.978977	2788.766308
841.294537	2727.264231
841.610054	2720.962788
841.925527	2659.460712
842.240957	2644.085192
842.556344	2632.490538
842.871687	2614.342385
843.186987	2592.413365
843.502244	2589.388673
843.817458	2579.810481
844.132629	2568.719942
844.447756	2580.566654
844.762840	2561.914385
845.077881	2565.443192
845.392879	2550.319731
845.707833	2545.782692
846.022745	2536.204500
846.337613	2538.220962
846.652438	2535.196269
846.967221	2557.881462
847.281960	2545.026519
847.596656	2588.128385
847.911309	2542.758000
848.225919	2561.410269
848.540485	2552.084135
848.855009	2528.390712
849.169490	2550.823846
849.483928	2528.390712
849.798323	2561.158212
850.112675	2539.985365
850.426984	2546.538865
850.741251	2552.588250
851.055474	2531.163346
851.369654	2541.497712
851.683792	2546.034750
851.997887	2535.952442
852.311938	2512.006962
852.625947	2540.741538
852.939914	2527.634538
853.253837	2526.122192
853.567718	2535.196269
853.881555	2522.089269
854.195350	2537.968904
854.509103	2546.286808
854.822812	2553.344423
855.136479	2527.886596
855.450103	2507.217865
855.763685	2528.390712
856.077224	2521.081038
856.390720	2517.048115
856.704173	2547.295038
857.017584	2518.308404
857.330953	2529.651000
857.644278	2531.163346
857.957561	2519.316635
858.270802	2539.733308
858.584000	2527.634538
858.897155	2542.001827
859.210268	2528.894827
859.523339	2522.341327
859.836367	2524.357788
860.149352	2514.023423
860.462295	2555.360885
860.775195	2521.081038
861.088054	2538.473019
861.400869	2538.220962
861.713642	2498.395846
862.026373	2531.163346
862.339062	2549.059442
862.651708	2546.538865
862.964312	2511.754904
863.276873	2531.415404
863.589392	2523.349558
863.901869	2524.861904
864.214303	2534.692154
864.526696	2537.212731
864.839045	2535.700385
865.151353	2551.327962
865.463619	2518.560462
865.775842	2541.749769
866.088023	2546.034750
866.400162	2568.215827
866.712258	2548.303269
867.024313	2550.067673
867.336325	2533.935981
867.648296	2533.431865
867.960224	2536.960673
868.272110	2538.725077
868.583954	2545.782692
868.895755	2575.777558
869.207515	2513.267250
869.519233	2570.736404
869.830909	2571.240519
870.142542	2530.659231
870.454134	2548.303269
870.765684	2540.237423
871.077191	2546.034750
871.388657	2560.149981
871.700081	2531.919519
872.011463	2555.360885
872.322803	2523.097500
872.634101	2560.402038
872.945357	2549.563558
873.256571	2552.588250
873.567744	2561.410269
873.878874	2576.029615
874.189963	2549.311500
874.501010	2573.256981
874.812015	2541.749769
875.122979	2539.481250
875.433900	2562.670558
875.744780	2553.344423
876.055618	2567.207596
876.366415	2562.670558
876.677169	2535.196269
876.987882	2567.207596
877.298554	2557.125288
877.609183	2543.514173
877.919771	2549.059442
878.230317	2576.281673
878.540822	2592.413365
878.851285	2585.355750
879.161707	2618.123250
879.472087	2595.438058
879.782425	2648.370173
880.092722	2684.162365
880.402977	2771.626385
880.713191	2977.053404
881.023363	3223.565827
881.333494	3447.393058
881.643583	3579.219231
881.953631	3569.893096
882.263637	3496.544308
882.573602	3354.887885
882.883526	3293.889923
883.193408	3209.198538
883.503248	3138.622385
883.813048	3025.700538
884.122806	3004.527692
884.432522	2933.195365
884.742197	2866.904192
885.051831	2800.360962
885.361424	2766.585231
885.670975	2743.900038
885.980485	2683.406192
886.289954	2666.266269
886.599382	2661.225115
886.908768	2611.821808
887.218113	2625.684981
887.527417	2595.690115
887.836680	2595.690115
888.145901	2552.588250
888.455082	2564.687019
888.764221	2567.963769
889.073319	2563.678788
889.382376	2553.848538
889.691392	2569.728173
890.000366	2550.823846
890.309300	2532.171577
890.618193	2550.319731
890.927044	2535.196269
891.235855	2565.695250
891.544625	2568.972000
891.853353	2578.550192
892.162041	2567.207596
892.470687	2540.237423
892.779293	2551.832077
893.087858	2596.194231
893.396381	2595.186000
893.704864	2624.424692
894.013306	2635.767288
894.321707	2659.712769
894.630068	2692.984385
894.938387	2723.231308
895.246665	2759.779673
895.554903	2715.165462
895.863100	2718.694269
896.171256	2672.567712
896.479371	2665.510096
896.787446	2672.063596
897.095480	2632.490538
897.403473	2595.942173
897.711425	2628.961731
898.019336	2589.892788
898.327207	2625.937038
898.635038	2596.698346
898.942827	2575.021385
899.250576	2577.037846
899.558284	2583.087231
899.865952	2552.084135
900.173579	2547.799154
900.481165	2570.484346
900.788711	2562.166442
901.096216	2548.807385
901.403681	2540.741538
901.711105	2557.125288
902.018489	2502.680827
902.325832	2565.443192
902.633135	2530.659231
902.940397	2537.716846
903.247619	2580.314596
903.554800	2606.528596
903.861941	2669.038904
904.169041	2716.677808
904.476101	2751.209712
904.783121	2778.936058
905.090100	2740.623288
905.397039	2726.256000
905.703938	2699.285827
906.010796	2710.628423
906.317614	2647.614000
906.624391	2657.948365
906.931129	2617.367077
907.237826	2593.673654
907.544483	2583.087231
907.851099	2592.161308
908.157675	2556.873231
908.464211	2559.897923
908.770707	2546.034750
909.077163	2517.048115
909.383578	2556.117058
909.689954	2524.861904
909.996289	2522.341327
910.302584	2508.226096
910.608839	2509.234327
910.915054	2513.771365
911.221229	2501.420538
911.527363	2508.982269
911.833458	2517.804288
912.139513	2522.845442
912.445527	2499.404077
912.751502	2497.639673
913.057436	2497.891731
913.363331	2576.029615
913.669186	2562.418500
913.975000	2538.725077
914.280775	2517.804288
914.586510	2561.410269
914.892205	2582.583115
915.197859	2593.169538
915.503475	2625.180865
915.809050	2655.679846
916.114585	2692.228212
916.420081	2709.116077
916.725536	2721.466904
917.030952	2715.165462
917.336328	2673.323885
917.641665	2690.967923
917.946961	2675.088288
918.252218	2636.271404
918.557435	2635.515231
918.862612	2633.750827
919.167750	2606.276538
919.472848	2641.564615
919.777906	2606.024481
920.082925	2581.574885
920.387904	2537.464788
920.692843	2578.046077
920.997743	2555.108827
921.302603	2571.492577
921.607423	2534.692154
921.912204	2548.555327
922.216946	2533.431865
922.521647	2534.188038
922.826310	2503.184942
923.130932	2548.051212
923.435516	2524.357788
923.740059	2516.796058
924.044564	2504.445231
924.349028	2529.398942
924.653454	2519.316635
924.957840	2491.086173
925.262186	2508.478154
925.566493	2485.288846
925.870761	2485.036788
926.174989	2504.949346
926.479178	2476.718885
926.783328	2501.924654
927.087438	2471.425673
927.391509	2517.804288
927.695541	2509.738442
927.999533	2502.176712
928.303486	2504.445231
928.607400	2488.817654
928.911275	2493.606750
929.215110	2464.620115
929.518906	2492.850577
929.822663	2508.478154
930.126381	2501.168481
930.430060	2502.932885
930.733699	2477.979173
931.037299	2503.941115
931.340861	2502.428769
931.644383	2484.028558
931.947866	2490.582058
932.251309	2508.226096
932.554714	2487.305308
932.858080	2528.642769
933.161407	2496.883500
933.464694	2489.069712
933.767943	2492.094404
934.071153	2486.549135
934.374323	2506.713750
934.677455	2481.255923
934.980548	2484.532673
935.283602	2492.598519
935.586617	2497.891731
935.889593	2521.081038
936.192530	2475.206538
936.495428	2495.623212
936.798287	2479.995635
937.101108	2486.297077
937.403890	2506.209635
937.706632	2461.343365
938.009336	2497.891731
938.312002	2509.486385
938.614628	2484.028558
938.917216	2488.061481
939.219765	2484.028558
939.522275	2496.127327
939.824747	2492.094404
940.127179	2497.639673
940.429573	2500.160250
940.731929	2505.705519
941.034246	2507.469923
941.336524	2501.672596
941.638763	2517.048115
941.940964	2486.801192
942.243126	2494.867038
942.545250	2507.217865
942.847335	2500.160250
943.149381	2494.110865
943.451389	2500.664365
943.753359	2509.990500
944.055290	2504.445231
944.357182	2499.404077
944.659036	2503.437000
944.960851	2478.483288
945.262628	2512.006962
945.564367	2496.631442
945.866067	2490.582058
946.167729	2516.039885
946.469352	2467.140692
946.770937	2525.113962
947.072484	2493.354692
947.373992	2478.735346
947.675462	2489.069712
947.976893	2490.330000
948.278286	2487.557365
948.579641	2510.998731
948.880958	2491.590288
949.182236	2508.730212
949.483476	2493.102635
949.784678	2491.590288
950.085841	2483.272385
950.386967	2495.623212
950.688054	2476.466827
950.989103	2487.053250
951.290114	2487.809423
951.591087	2512.763135
951.892021	2457.058385
952.192917	2503.184942
952.493776	2486.297077
952.794596	2456.050154
953.095378	2507.217865
953.396122	2514.275481
953.696828	2490.330000
953.997496	2492.346462
954.298126	2476.970942
954.598718	2488.313538
954.899272	2482.516212
955.199788	2473.442135
955.500266	2500.160250
955.800706	2491.338231
956.101108	2505.201404
956.401472	2494.362923
956.701798	2474.954481
957.002087	2493.354692
957.302337	2485.792962
957.602550	2495.119096
957.902724	2482.516212
958.202861	2473.190077
958.502960	2463.863942
958.803022	2467.392750
959.103045	2477.475058
959.403031	2471.677731
959.702979	2467.140692
960.002889	2475.962712
960.302762	2485.792962
960.602596	2485.540904
960.902393	2519.064577
961.202153	2470.165385
961.501875	2485.036788
961.801559	2475.206538
962.101205	2477.979173
962.400814	2464.872173
962.700385	2476.718885
962.999918	2463.863942
963.299414	2466.888635
963.598873	2456.302212
963.898293	2467.140692
964.197677	2494.362923
964.497022	2474.450365
964.796331	2468.148923
965.095601	2506.461692
965.394835	2478.231231
965.694030	2468.400981
965.993189	2474.954481
966.292309	2468.905096
966.591393	2489.321769
966.890439	2477.223000
967.189447	2466.888635
967.488419	2468.400981
967.787353	2504.949346
968.086249	2502.428769
968.385108	2482.768269
968.683930	2458.822788
968.982714	2484.784731
969.281462	2466.636577
969.580172	2484.784731
969.878844	2483.272385
970.177480	2465.376288
970.476078	2486.549135
970.774639	2476.970942
971.073162	2460.587192
971.371649	2471.677731
971.670098	2476.718885
971.968510	2479.995635
972.266885	2493.606750
972.565223	2494.110865
972.863524	2494.110865
973.161788	2484.028558
973.460014	2481.003865
973.758204	2490.330000
974.056356	2486.045019
974.354471	2485.288846
974.652550	2489.069712
974.950591	2494.614981
975.248595	2442.186981
975.546563	2512.511077
975.844493	2475.710654
976.142386	2482.516212
976.440243	2492.346462
976.738062	2488.565596
977.035845	2477.475058
977.333590	2465.880404
977.631299	2495.119096
977.928971	2469.409212
978.226606	2479.491519
978.524204	2473.442135
978.821765	2469.409212
979.119290	2476.466827
979.416777	2466.636577
979.714228	2504.445231
980.011642	2473.190077
980.309020	2497.639673
980.606360	2458.066615
980.903664	2456.302212
981.200931	2472.938019
981.498162	2466.636577
981.795356	2503.689058
982.092513	2514.779596
982.389633	2479.995635
982.686717	2507.469923
982.983764	2495.371154
983.280775	2487.053250
983.577749	2464.620115
983.874686	2501.672596
984.171587	2503.437000
984.468451	2509.990500
984.765279	2480.751808
985.062070	2470.165385
985.358824	2513.519308
985.655543	2499.908192
985.952224	2468.905096
986.248869	2475.458596
986.545478	2478.987404
986.842050	2511.250788
987.138586	2470.669500
987.435086	2475.962712
987.731549	2431.348500
988.027975	2485.792962
988.324366	2461.091308
988.620719	2486.297077
988.917037	2488.565596
989.213318	2491.590288
989.509563	2466.888635
989.805772	2484.784731
990.101944	2464.116000
990.398080	2482.516212
990.694180	2474.450365
990.990244	2471.677731
991.286271	2474.954481
991.582262	2458.066615
991.878217	2481.255923
992.174136	2457.562500
992.470019	2478.987404
992.765865	2463.863942
993.061676	2501.672596
993.357450	2458.066615
993.653188	2480.499750
993.948890	2476.214769
994.244556	2440.674635
994.540186	2474.198308
994.835780	2466.888635
995.131337	2479.239462
995.426859	2465.880404
995.722345	2465.880404
996.017795	2464.872173
996.313208	2484.028558
996.608586	2456.302212
996.903928	2498.899962
997.199234	2497.639673
997.494504	2486.801192
997.789738	2492.850577
998.084936	2469.913327
998.380099	2469.661269
998.675225	2461.343365
998.970316	2473.946250
999.265371	2491.590288
999.560390	2477.475058
999.855373	2473.442135
1000.150320	2489.825885
1000.445232	2480.499750
1000.740108	2452.773404
1001.034948	2452.773404
1001.329752	2450.252827
1001.624521	2476.970942
1001.919254	2478.987404
1002.213951	2492.850577
1002.508613	2461.343365
1002.803239	2484.280615
1003.097829	2461.595423
1003.392384	2492.094404
1003.686903	2454.033692
1003.981386	2476.970942
1004.275834	2474.702423
1004.570246	2476.718885
1004.864623	2487.305308
1005.158964	2466.888635
1005.453270	2483.272385
1005.747540	2484.532673
1006.041775	2481.760038
1006.335974	2456.554269
1006.630138	2471.425673
1006.924266	2448.992538
1007.218359	2467.644808
1007.512416	2475.962712
1007.806438	2491.842346
1008.100425	2472.685962
1008.394376	2479.239462
1008.688292	2492.598519
1008.982172	2468.148923
1009.276017	2487.053250
1009.569827	2462.603654
1009.863602	2484.784731
1010.157341	2471.677731
1010.451045	2484.028558
1010.744714	2477.979173
1011.038347	2450.000769
1011.331945	2470.417442
1011.625508	2479.491519
1011.919036	2493.354692
1012.212528	2470.921558
1012.505986	2463.359827
1012.799408	2462.603654
1013.092795	2501.924654
1013.386147	2470.165385
1013.679464	2472.181846
1013.972745	2450.504885
1014.265992	2474.198308
1014.559204	2450.000769
1014.852380	2494.614981
1015.145521	2466.888635
1015.438628	2495.875269
1015.731699	2451.765173
1016.024736	2447.228135
1016.317737	2480.751808
1016.610703	2467.896865
1016.903635	2468.905096
1017.196531	2454.789865
1017.489393	2458.066615
1017.782219	2490.834115
1018.075011	2471.677731
1018.367768	2464.116000
1018.660490	2464.620115
1018.953177	2464.620115
1019.245829	2464.620115
