Dividing Wavelength (nm)	Counts (n)	Slit_number_38_of_a_total_of_40	
326.493990	2148.203692
326.888308	2148.203692
327.282561	2148.203692
327.676750	2115.856288
328.070874	2127.198885
328.464933	2119.805192
328.858929	2137.953346
329.252859	2147.867615
329.646726	2159.882365
330.040528	2176.854250
330.434265	2200.799731
330.827938	2220.040135
331.221547	2225.081288
331.615091	2254.572038
332.008571	2274.820673
332.401986	2292.716769
332.795338	2314.813827
333.188625	2335.734615
333.581847	2365.813500
333.975006	2362.704788
334.368100	2386.230173
334.761129	2431.012423
335.154095	2425.635192
335.546996	2452.017231
335.939833	2438.490135
336.332606	2467.392750
336.725315	2475.542615
337.117960	2495.287135
337.510540	2489.069712
337.903056	2512.006962
338.295508	2503.352981
338.687896	2512.595096
339.080220	2524.777885
339.472480	2523.769654
339.864676	2536.036462
340.256807	2540.405462
340.648875	2534.692154
341.040879	2530.239135
341.432818	2542.842019
341.824694	2539.817327
342.216506	2545.110538
342.608253	2537.212731
342.999937	2544.522404
343.391557	2542.589962
343.783113	2532.591673
344.174605	2549.731596
344.566033	2538.641058
344.957397	2528.558750
345.348697	2549.983654
345.739934	2541.749769
346.131106	2522.929462
346.522215	2533.179808
346.913260	2526.626308
347.304241	2528.642769
347.695159	2523.433577
348.086012	2522.005250
348.476802	2524.021712
348.867528	2483.944538
349.258191	2517.216154
349.648789	2511.250788
350.039324	2515.619788
350.429796	2498.479865
350.820203	2515.283712
351.210548	2517.132135
351.600828	2505.957577
351.991045	2524.441808
352.381198	2507.553942
352.771288	2530.491192
353.161314	2514.107442
353.551276	2514.191462
353.941175	2509.906481
354.331010	2502.680827
354.720782	2499.152019
355.110490	2509.990500
355.500135	2519.904769
355.889717	2499.740154
356.279235	2510.158538
356.668689	2509.402365
357.058080	2509.570404
357.447408	2521.081038
357.836672	2509.402365
358.225873	2508.814231
358.615010	2515.451750
359.004084	2511.922942
359.393095	2511.670885
359.782043	2522.761423
360.170927	2530.911288
360.559748	2517.132135
360.948505	2529.314923
361.337199	2524.441808
361.725830	2532.591673
362.114398	2522.173288
362.502903	2523.349558
362.891344	2521.753192
363.279722	2530.575212
363.668037	2518.308404
364.056289	2513.603327
364.444478	2522.173288
364.832603	2517.048115
365.220665	2519.652712
365.608665	2527.718558
365.996601	2527.802577
366.384474	2528.306692
366.772284	2513.267250
367.160031	2521.837212
367.547715	2521.417115
367.935336	2520.408885
368.322893	2513.435288
368.710388	2527.130423
369.097820	2516.459981
369.485189	2538.725077
369.872495	2529.566981
370.259738	2541.749769
370.646918	2521.837212
371.034035	2526.710327
371.421090	2544.018288
371.808081	2530.659231
372.195010	2535.532346
372.581875	2525.366019
372.968678	2537.380769
373.355418	2538.136942
373.742096	2514.863615
374.128710	2522.089269
374.515262	2532.507654
374.901751	2524.525827
375.288177	2522.425346
375.674540	2522.005250
376.060841	2529.651000
376.447079	2532.087558
376.833254	2516.207923
377.219367	2521.753192
377.605417	2527.550519
377.991404	2523.853673
378.377329	2518.812519
378.763191	2518.812519
379.148991	2525.702096
379.534727	2540.069385
379.920402	2534.440096
380.306013	2538.304981
380.691563	2525.029942
381.077049	2536.708615
381.462474	2537.716846
381.847835	2514.107442
382.233134	2530.575212
382.618371	2516.544000
383.003545	2529.398942
383.388657	2532.423635
383.773706	2535.700385
384.158693	2515.115673
384.543618	2538.977135
384.928480	2528.894827
385.313280	2533.767942
385.698017	2527.298462
386.082692	2522.257308
386.467305	2541.161635
386.851856	2526.374250
387.236344	2526.794346
387.620770	2536.540577
388.005133	2549.395519
388.389435	2522.761423
388.773674	2538.725077
389.157851	2543.178096
389.541965	2544.522404
389.926018	2539.145173
390.310008	2555.360885
390.693936	2522.845442
391.077802	2543.934269
391.461606	2540.909577
391.845348	2541.077615
392.229027	2530.323154
392.612645	2537.716846
392.996200	2541.413692
393.379694	2537.632827
393.763125	2537.716846
394.146494	2534.104019
394.529801	2530.071096
394.913047	2537.212731
395.296230	2531.583442
395.679351	2557.377346
396.062410	2544.354365
396.445408	2541.917808
396.828343	2532.003538
397.211217	2544.438385
397.594028	2544.270346
397.976778	2544.858481
398.359466	2539.313212
398.742092	2536.792635
399.124656	2532.843731
399.507158	2546.370827
399.889598	2543.766231
400.271977	2533.095788
400.654294	2545.110538
401.036549	2549.311500
401.418742	2541.413692
401.800874	2521.333096
402.182944	2535.700385
402.564952	2542.673981
402.946898	2551.832077
403.328783	2562.754577
403.710606	2523.097500
404.092367	2531.583442
404.474067	2544.354365
404.855705	2537.296750
405.237282	2544.774462
405.618797	2529.062865
406.000250	2552.336192
406.381642	2546.034750
406.762972	2547.042981
407.144240	2541.665750
407.525447	2555.612942
407.906593	2548.135231
408.287677	2542.001827
408.668700	2548.555327
409.049661	2550.907865
409.430560	2547.799154
409.811399	2556.789212
410.192176	2544.690442
410.572891	2546.118769
410.953545	2535.616365
411.334138	2553.260404
411.714669	2540.405462
412.095139	2554.268635
412.475547	2533.767942
412.855894	2543.514173
413.236180	2554.100596
413.616405	2553.932558
413.996568	2540.069385
414.376670	2551.411981
414.756711	2548.555327
415.136691	2547.127000
415.516609	2548.051212
415.896466	2539.229192
416.276262	2549.227481
416.655997	2545.446615
417.035670	2562.922615
417.415283	2545.866712
417.794834	2552.252173
418.174324	2549.311500
418.553753	2544.270346
418.933121	2557.713423
419.312428	2548.135231
419.691674	2555.360885
420.070859	2561.242231
420.449983	2563.258692
420.829045	2551.664038
421.208047	2547.547096
421.586988	2549.647577
421.965867	2546.286808
422.344686	2548.387288
422.723444	2558.721654
423.102141	2563.090654
423.480777	2535.532346
423.859352	2552.840308
424.237866	2560.654096
424.616319	2542.842019
424.994712	2546.202788
425.373044	2548.135231
425.751314	2557.041269
426.129524	2560.990173
426.507673	2550.487769
426.885762	2557.125288
427.263789	2546.202788
427.641756	2559.729885
428.019662	2556.033038
428.397508	2560.906154
428.775292	2542.926038
429.153016	2554.520692
429.530679	2548.387288
429.908282	2554.352654
430.285824	2549.647577
430.663305	2545.782692
431.040726	2544.942500
431.418086	2556.537154
431.795385	2558.973712
432.172624	2548.303269
432.549802	2552.420212
432.926920	2550.067673
433.303977	2554.436673
433.680974	2549.731596
434.057910	2555.949019
434.434786	2548.975423
434.811601	2554.016577
435.188355	2547.715135
435.565050	2559.897923
435.941683	2557.209308
436.318257	2563.342712
436.694770	2555.444904
437.071222	2554.352654
437.447614	2561.242231
437.823946	2565.527212
438.200218	2551.496000
438.576429	2546.286808
438.952580	2549.563558
439.328670	2560.234000
439.704700	2548.135231
440.080670	2561.494288
440.456580	2559.561846
440.832429	2556.957250
441.208218	2557.545385
441.583947	2533.767942
441.959616	2562.922615
442.335224	2564.603000
442.710773	2563.342712
443.086261	2543.010058
443.461689	2558.721654
443.837057	2542.085846
444.212365	2570.988462
444.587612	2557.041269
444.962800	2549.395519
445.337927	2551.496000
445.712995	2567.207596
446.088002	2531.331385
446.462949	2548.471308
446.837837	2568.467885
447.212664	2548.639346
447.587431	2564.266923
447.962139	2561.746346
448.336786	2574.853346
448.711374	2559.225769
449.085901	2560.318019
449.460369	2563.678788
449.834776	2552.588250
450.209124	2558.469596
450.583412	2584.935654
450.957640	2556.705192
451.331808	2547.883173
451.705917	2553.680500
452.079965	2547.883173
452.453954	2548.387288
452.827883	2566.787500
453.201752	2555.612942
453.575562	2559.225769
453.949311	2564.182904
454.323001	2532.759712
454.696632	2553.680500
455.070202	2568.887981
455.443713	2557.881462
455.817164	2565.611231
456.190556	2566.787500
456.563888	2546.790923
456.937160	2562.418500
457.310373	2544.858481
457.683526	2567.879750
458.056619	2559.981942
458.429653	2556.537154
458.802628	2555.276865
459.175542	2563.342712
459.548398	2562.250462
459.921194	2567.627692
460.293930	2559.141750
460.666607	2575.021385
461.039224	2571.156500
461.411782	2565.611231
461.784280	2565.023096
462.156719	2553.932558
462.529099	2562.082423
462.901419	2555.696962
463.273680	2565.275154
463.645882	2553.428442
464.018024	2566.955538
464.390106	2561.158212
464.762130	2564.434962
465.134094	2566.283385
465.505999	2544.858481
465.877845	2555.780981
466.249631	2554.268635
466.621358	2567.207596
466.993026	2578.886269
467.364634	2579.222346
467.736184	2555.360885
468.107674	2565.023096
468.479105	2548.471308
468.850477	2556.201077
469.221790	2555.696962
469.593043	2554.268635
469.964238	2560.654096
470.335373	2551.916096
470.706449	2560.738115
471.077467	2548.051212
471.448425	2563.510750
471.819324	2556.789212
472.190164	2558.889692
472.560945	2578.466173
472.931667	2565.527212
473.302330	2556.705192
473.672934	2555.360885
474.043479	2558.973712
474.413965	2555.780981
474.784393	2552.672269
475.154761	2559.309788
475.525070	2566.367404
475.895321	2560.990173
476.265513	2564.014865
476.635645	2551.159923
477.005719	2561.578308
477.375734	2570.232288
477.745691	2563.342712
478.115588	2560.318019
478.485427	2567.375635
478.855207	2559.813904
479.224928	2564.434962
479.594591	2566.787500
479.964194	2564.014865
480.333739	2577.962058
480.703226	2557.881462
481.072653	2555.024808
481.442022	2561.410269
481.811333	2555.444904
482.180584	2567.963769
482.549777	2561.494288
482.918912	2555.024808
483.287988	2554.856769
483.657005	2570.148269
484.025964	2555.612942
484.394864	2559.225769
484.763706	2555.108827
485.132489	2569.560135
485.501213	2557.881462
485.869879	2550.907865
486.238487	2558.637635
486.607036	2568.467885
486.975527	2569.980231
487.343959	2575.105404
487.712333	2570.400327
488.080648	2550.487769
488.448905	2553.596481
488.817104	2561.914385
489.185244	2567.543673
489.553326	2560.990173
489.921350	2566.535442
490.289315	2558.217538
490.657222	2564.687019
491.025070	2557.629404
491.392861	2560.906154
491.760593	2573.761096
492.128267	2566.031327
492.495883	2565.779269
492.863440	2558.973712
493.230939	2575.021385
493.598380	2578.550192
493.965763	2548.303269
494.333088	2562.754577
494.700354	2563.594769
495.067563	2572.416788
495.434713	2565.779269
495.801805	2571.576596
496.168839	2570.988462
496.535815	2560.738115
496.902733	2565.695250
497.269593	2563.846827
497.636395	2553.680500
498.003139	2573.088942
498.369825	2572.584827
498.736453	2581.070769
499.103023	2564.266923
499.469535	2568.131808
499.835989	2560.402038
500.202385	2555.696962
500.568723	2555.528923
500.935003	2569.140038
501.301226	2569.728173
501.667390	2562.250462
502.033497	2576.617750
502.399546	2565.611231
502.765537	2577.710000
503.131470	2585.523788
503.497345	2581.238808
503.863163	2563.510750
504.228923	2573.088942
504.594625	2579.222346
504.960269	2552.504231
505.325856	2560.149981
505.691385	2574.013154
506.056856	2572.500808
506.422270	2569.476115
506.787625	2560.738115
507.152924	2569.056019
507.518164	2568.719942
507.883347	2569.476115
508.248472	2569.308077
508.613540	2575.693538
508.978550	2555.528923
509.343503	2563.846827
509.708398	2555.024808
510.073236	2558.805673
510.438016	2571.408558
510.802738	2557.881462
511.167403	2565.443192
511.532010	2565.779269
511.896561	2561.998404
512.261053	2558.721654
512.625488	2552.504231
512.989866	2558.469596
513.354186	2569.140038
513.718449	2566.451423
514.082655	2560.738115
514.446803	2577.794019
514.810894	2569.644154
515.174927	2579.810481
515.538904	2559.981942
515.902822	2566.787500
516.266684	2563.342712
516.630488	2573.761096
516.994235	2557.713423
517.357925	2574.769327
517.721558	2567.291615
518.085133	2556.789212
518.448651	2569.812192
518.812112	2560.906154
519.175516	2567.711712
519.538863	2567.543673
519.902152	2552.420212
520.265385	2557.881462
520.628560	2560.906154
520.991678	2565.107115
521.354739	2573.509038
521.717743	2554.856769
522.080690	2576.449712
522.443580	2569.224058
522.806413	2549.311500
523.169189	2561.830365
523.531908	2560.402038
523.894569	2571.660615
524.257174	2569.644154
524.619722	2561.914385
524.982213	2566.787500
525.344647	2567.795731
525.707025	2562.838596
526.069345	2563.006635
526.431608	2571.912673
526.793815	2573.677077
527.155964	2563.594769
527.518057	2577.457942
527.880093	2561.998404
528.242072	2581.322827
528.603995	2553.260404
528.965860	2567.711712
529.327669	2561.746346
529.689421	2566.283385
530.051117	2563.510750
530.412755	2555.108827
530.774337	2569.140038
531.135862	2568.803962
531.497331	2562.670558
531.858743	2552.840308
532.220098	2587.540250
532.581396	2556.033038
532.942638	2577.878038
533.303824	2578.718231
533.664953	2574.937365
534.026025	2569.392096
534.387040	2559.981942
534.747999	2578.298135
535.108902	2569.392096
535.469748	2570.148269
535.830537	2572.920904
536.191270	2577.289904
536.551947	2558.721654
536.912567	2566.115346
537.273131	2571.240519
537.633638	2563.678788
537.994089	2554.520692
538.354483	2581.994981
538.714821	2557.209308
539.075103	2574.769327
539.435328	2578.046077
539.795497	2583.927423
540.155609	2565.191135
540.515665	2572.416788
540.875665	2569.980231
541.235609	2558.301558
541.595496	2551.075904
541.955328	2560.486058
542.315102	2565.863288
542.674821	2563.426731
543.034483	2571.324538
543.394090	2567.207596
543.753640	2577.037846
544.113134	2559.225769
544.472571	2573.845115
544.831953	2580.314596
545.191278	2585.943885
545.550548	2564.014865
545.909761	2567.963769
546.268918	2575.189423
546.628019	2549.059442
546.987064	2576.617750
547.346053	2575.105404
547.704986	2563.762808
548.063863	2576.533731
548.422684	2562.838596
548.781449	2568.131808
549.140158	2584.599577
549.498811	2564.098885
549.857408	2575.273442
550.215949	2556.369115
550.574434	2577.625981
550.932864	2568.719942
551.291237	2552.672269
551.649555	2564.603000
552.007817	2559.057731
552.366022	2550.739827
552.724173	2552.588250
553.082267	2565.443192
553.440305	2571.576596
553.798288	2557.461365
554.156215	2557.209308
554.514086	2567.963769
554.871902	2544.186327
555.229661	2557.797442
555.587365	2580.482635
555.945014	2568.887981
556.302606	2571.492577
556.660143	2574.349231
557.017625	2566.619462
557.375050	2583.171250
557.732421	2581.658904
558.089735	2570.484346
558.446994	2569.224058
558.804197	2563.258692
559.161345	2577.710000
559.518437	2578.130096
559.875474	2568.047788
560.232455	2561.998404
560.589381	2569.896212
560.946251	2564.603000
561.303065	2562.082423
561.659825	2565.779269
562.016528	2571.660615
562.373177	2565.695250
562.729770	2565.947308
563.086307	2573.088942
563.442789	2578.634212
563.799216	2563.258692
564.155587	2573.593058
564.511904	2559.645865
564.868164	2560.990173
565.224370	2557.461365
565.580520	2567.375635
565.936615	2567.123577
566.292654	2560.738115
566.648638	2575.441481
567.004567	2571.324538
567.360441	2565.107115
567.716260	2567.543673
568.072023	2576.785788
568.427732	2575.525500
568.783385	2559.645865
569.138982	2565.527212
569.494525	2574.769327
569.850013	2571.156500
570.205445	2566.199365
570.560823	2564.771038
570.916145	2561.830365
571.271412	2565.611231
571.626625	2562.250462
571.981782	2568.467885
572.336884	2563.762808
572.691931	2574.937365
573.046923	2562.586538
573.401860	2567.627692
573.756743	2571.744635
574.111570	2566.703481
574.466342	2566.619462
574.821059	2591.657192
575.175722	2567.795731
575.530330	2564.098885
575.884882	2582.163019
576.239380	2580.062538
576.593823	2575.189423
576.948211	2570.820423
577.302544	2565.863288
577.656823	2558.301558
578.011047	2572.836885
578.365216	2575.441481
578.719330	2573.425019
579.073389	2565.023096
579.427394	2563.594769
579.781344	2578.466173
580.135239	2574.853346
580.489080	2561.662327
580.842866	2571.828654
581.196597	2568.803962
581.550273	2570.652385
581.903895	2555.949019
582.257463	2559.729885
582.610975	2568.551904
582.964434	2576.449712
583.317837	2566.115346
583.671186	2572.920904
584.024481	2552.504231
584.377721	2552.840308
584.730906	2556.789212
585.084037	2562.838596
585.437113	2564.855058
585.790135	2558.889692
586.143103	2559.057731
586.496016	2559.225769
586.848874	2561.662327
587.201679	2559.141750
587.554428	2565.107115
587.907124	2563.510750
588.259765	2586.195942
588.612352	2566.031327
588.964884	2566.619462
589.317362	2573.256981
589.669786	2563.342712
590.022155	2587.288192
590.374470	2561.998404
590.726731	2579.390385
591.078937	2568.467885
591.431090	2566.451423
591.783188	2563.846827
592.135232	2557.881462
592.487222	2574.853346
592.839157	2569.896212
593.191038	2571.072481
593.542866	2560.654096
593.894639	2571.072481
594.246358	2559.813904
594.598022	2579.306365
594.949633	2580.650673
595.301190	2571.156500
595.652692	2561.578308
596.004141	2567.459654
596.355535	2565.695250
596.706876	2565.023096
597.058162	2570.820423
597.409395	2568.803962
597.760573	2565.107115
598.111698	2573.004923
598.462768	2564.687019
598.813785	2554.688731
599.164748	2565.023096
599.515657	2582.331058
599.866511	2568.467885
600.217312	2558.721654
600.568060	2571.996692
600.918753	2580.146558
601.269392	2561.662327
601.619978	2561.746346
601.970510	2574.013154
602.320988	2581.238808
602.671412	2576.365692
603.021783	2567.543673
603.372100	2572.248750
603.722363	2559.645865
604.072572	2569.728173
604.422728	2575.609519
604.772830	2551.496000
605.122878	2560.822135
605.472872	2566.535442
605.822813	2574.853346
606.172701	2571.912673
606.522534	2557.209308
606.872314	2566.871519
607.222041	2569.980231
607.571714	2564.266923
607.921333	2574.601288
608.270899	2562.838596
608.620411	2576.953827
608.969870	2563.342712
609.319276	2571.828654
609.668627	2558.469596
610.017926	2575.777558
610.367171	2577.541962
610.716362	2567.039558
611.065500	2566.367404
611.414585	2553.596481
611.763616	2564.939077
612.112594	2577.878038
612.461518	2579.810481
612.810389	2565.275154
613.159207	2573.677077
613.507971	2568.467885
613.856682	2577.037846
614.205340	2570.400327
614.553945	2570.064250
614.902496	2574.433250
615.250994	2569.308077
615.599439	2578.550192
615.947830	2569.224058
616.296169	2561.998404
616.644454	2558.889692
616.992686	2560.822135
617.340864	2559.225769
617.688990	2570.820423
618.037063	2564.939077
618.385082	2577.205885
618.733048	2558.385577
619.080961	2572.752865
619.428821	2569.728173
619.776628	2571.744635
620.124382	2574.181192
620.472083	2580.734692
620.819731	2564.771038
621.167326	2561.830365
621.514868	2571.828654
621.862357	2570.400327
622.209793	2564.182904
622.557176	2556.957250
622.904506	2572.584827
623.251783	2570.568365
623.599007	2577.373923
623.946179	2569.728173
624.293297	2574.685308
624.640363	2571.324538
624.987376	2580.482635
625.334336	2565.443192
625.681243	2570.064250
626.028097	2570.820423
626.374899	2567.291615
626.721647	2573.761096
627.068343	2565.191135
627.414987	2573.593058
627.761577	2578.802250
628.108115	2571.576596
628.454600	2580.146558
628.801032	2561.326250
629.147412	2569.644154
629.493739	2560.654096
629.840014	2565.611231
630.186236	2552.252173
630.532405	2561.746346
630.878521	2549.815615
631.224585	2541.329673
631.570597	2545.782692
631.916556	2568.215827
632.262462	2581.742923
632.608316	2580.734692
632.954117	2576.365692
633.299866	2568.215827
633.645562	2565.695250
633.991206	2574.517269
634.336797	2553.848538
634.682336	2550.571788
635.027823	2579.474404
635.373257	2562.250462
635.718639	2580.902731
636.063968	2564.771038
636.409245	2573.845115
636.754470	2572.248750
637.099642	2556.537154
637.444762	2555.780981
637.789829	2553.428442
638.134845	2581.490865
638.479808	2570.484346
638.824719	2578.718231
639.169577	2565.779269
639.514383	2566.535442
639.859137	2562.166442
640.203839	2560.738115
640.548489	2561.662327
640.893086	2576.113635
641.237632	2557.965481
641.582125	2573.004923
641.926566	2567.543673
642.270955	2562.418500
642.615292	2561.158212
642.959576	2592.665423
643.303809	2570.568365
643.647990	2567.375635
643.992118	2571.996692
644.336195	2574.601288
644.680219	2567.291615
645.024192	2559.141750
645.368112	2564.266923
645.711981	2564.518981
646.055797	2567.207596
646.399562	2557.797442
646.743274	2573.929135
647.086935	2578.130096
647.430544	2572.248750
647.774101	2573.845115
648.117606	2562.922615
648.461059	2571.492577
648.804460	2563.510750
649.147810	2571.072481
649.491108	2577.541962
649.834354	2558.133519
650.177548	2567.207596
650.520690	2555.444904
650.863781	2575.273442
651.206820	2570.820423
651.549807	2566.619462
651.892742	2575.189423
652.235626	2568.719942
652.578458	2561.998404
652.921238	2575.609519
653.263967	2572.584827
653.606644	2560.234000
653.949269	2554.604712
654.291843	2558.553615
654.634365	2565.611231
654.976836	2581.070769
655.319255	2578.466173
655.661622	2559.477827
656.003938	2569.392096
656.346203	2561.998404
656.688416	2568.215827
657.030577	2568.635923
657.372687	2559.225769
657.714746	2580.398615
658.056753	2571.912673
658.398708	2565.443192
658.740612	2567.543673
659.082465	2565.527212
659.424266	2567.375635
659.766016	2560.318019
660.107715	2567.207596
660.449362	2566.367404
660.790958	2570.988462
661.132503	2560.486058
661.473996	2562.082423
661.815438	2562.334481
662.156829	2547.799154
662.498168	2566.703481
662.839456	2567.375635
663.180693	2568.047788
663.521879	2564.855058
663.863013	2553.848538
664.204097	2558.385577
664.545129	2563.678788
664.886110	2550.739827
665.227040	2563.510750
665.567918	2570.400327
665.908746	2579.390385
666.249522	2554.268635
666.590248	2566.283385
666.930922	2566.367404
667.271545	2571.660615
667.612118	2554.520692
667.952639	2567.795731
668.293109	2578.634212
668.633528	2568.467885
668.973896	2552.756288
669.314213	2575.945596
669.654480	2579.642442
669.994695	2564.687019
670.334859	2568.299846
670.674973	2568.215827
671.015035	2570.652385
671.355047	2564.518981
671.695008	2556.453135
672.034918	2568.972000
672.374777	2572.584827
672.714585	2548.891404
673.054342	2570.484346
673.394049	2569.560135
673.733705	2561.410269
674.073310	2557.125288
674.412864	2559.645865
674.752368	2578.634212
675.091820	2564.266923
675.431223	2562.166442
675.770574	2568.215827
676.109875	2548.975423
676.449125	2570.904442
676.788324	2560.906154
677.127473	2568.047788
677.466571	2559.057731
677.805619	2567.543673
678.144616	2568.131808
678.483562	2554.604712
678.822458	2559.141750
679.161303	2572.164731
679.500098	2568.972000
679.838842	2562.586538
680.177535	2569.980231
680.516179	2545.782692
680.854771	2567.963769
681.193314	2562.670558
681.531805	2569.560135
681.870247	2567.291615
682.208638	2562.166442
682.546978	2581.322827
682.885268	2571.156500
683.223508	2559.225769
683.561697	2563.762808
683.899836	2575.525500
684.237925	2574.097173
684.575963	2558.469596
684.913951	2557.125288
685.251889	2561.998404
685.589776	2559.141750
685.927614	2564.855058
686.265401	2572.500808
686.603137	2560.234000
686.940824	2572.080712
687.278460	2575.273442
687.616046	2577.037846
687.953582	2564.603000
688.291068	2571.324538
688.628504	2564.350942
688.965889	2561.830365
689.303224	2560.234000
689.640510	2555.360885
689.977745	2569.980231
690.314930	2569.644154
690.652065	2574.097173
690.989150	2573.929135
691.326185	2556.873231
691.663170	2559.813904
692.000105	2565.191135
692.336990	2580.986750
692.673825	2559.729885
693.010610	2564.939077
693.347345	2577.541962
693.684030	2574.265212
694.020665	2569.056019
694.357251	2574.181192
694.693786	2555.612942
695.030272	2581.406846
695.366707	2554.772750
695.703093	2557.629404
696.039429	2568.719942
696.375716	2564.518981
696.711952	2577.205885
697.048139	2571.408558
697.384276	2566.535442
697.720363	2562.418500
698.056400	2558.805673
698.392388	2551.748058
698.728326	2570.652385
699.064214	2559.729885
699.400053	2574.853346
699.735842	2568.215827
700.071581	2573.593058
700.407270	2565.863288
700.742910	2564.687019
701.078501	2558.805673
701.414042	2569.560135
701.749533	2577.205885
702.084974	2571.156500
702.420366	2580.818712
702.755709	2563.174673
703.091002	2570.484346
703.426246	2566.535442
703.761440	2581.574885
704.096584	2568.215827
704.431679	2564.434962
704.766725	2567.291615
705.101721	2569.812192
705.436668	2570.652385
705.771565	2572.500808
706.106413	2572.332769
706.441212	2561.326250
706.775961	2576.113635
707.110661	2574.769327
707.445311	2576.617750
707.779913	2564.855058
708.114465	2551.327962
708.448967	2568.467885
708.783421	2565.611231
709.117825	2571.744635
709.452180	2555.444904
709.786485	2560.234000
710.120742	2572.584827
710.454949	2557.713423
710.789107	2568.467885
711.123216	2579.474404
711.457275	2572.752865
711.791286	2570.904442
712.125247	2558.889692
712.459159	2573.256981
712.793023	2561.074192
713.126837	2558.721654
713.460602	2573.677077
713.794318	2565.527212
714.127985	2558.133519
714.461602	2561.662327
714.795171	2558.889692
715.128691	2566.115346
715.462162	2553.092365
715.795584	2556.621173
716.128957	2557.965481
716.462281	2539.985365
716.795556	2553.596481
717.128782	2555.865000
717.461960	2579.558423
717.795088	2565.023096
718.128167	2575.189423
718.461198	2562.418500
718.794180	2560.654096
719.127113	2566.199365
719.459997	2555.444904
719.792833	2576.029615
720.125619	2560.318019
720.458357	2567.627692
720.791046	2573.256981
721.123686	2572.584827
721.456278	2569.896212
721.788821	2573.088942
722.121315	2571.240519
722.453761	2560.318019
722.786158	2558.553615
723.118506	2566.535442
723.450805	2564.518981
723.783056	2580.734692
724.115259	2581.238808
724.447412	2561.830365
724.779518	2563.174673
725.111574	2566.115346
725.443582	2550.319731
725.775542	2575.693538
726.107453	2562.250462
726.439315	2549.227481
726.771129	2594.429827
727.102895	2564.518981
727.434612	2576.365692
727.766281	2567.039558
728.097901	2560.990173
728.429473	2574.685308
728.760996	2569.056019
729.092471	2568.467885
729.423897	2563.426731
729.755276	2567.795731
730.086606	2566.031327
730.417887	2562.082423
730.749120	2557.377346
731.080305	2563.258692
731.411442	2567.039558
731.742530	2563.930846
732.073570	2545.530635
732.404562	2567.795731
732.735506	2558.133519
733.066401	2571.576596
733.397249	2565.107115
733.728048	2564.855058
734.058798	2557.125288
734.389501	2565.359173
734.720156	2566.703481
735.050762	2557.713423
735.381320	2547.127000
735.711831	2565.443192
736.042293	2569.812192
736.372707	2565.695250
736.703073	2548.471308
737.033391	2567.375635
737.363661	2571.240519
737.693883	2566.619462
738.024056	2566.787500
738.354182	2562.670558
738.684260	2555.612942
739.014290	2557.041269
739.344272	2567.039558
739.674207	2575.273442
740.004093	2574.433250
740.333931	2558.217538
740.663722	2573.341000
740.993464	2580.230577
741.323159	2563.426731
741.652806	2569.224058
741.982405	2569.308077
742.311956	2559.141750
742.641460	2568.215827
742.970915	2553.260404
743.300323	2554.856769
743.629683	2574.601288
743.958996	2572.164731
744.288260	2568.383865
744.617477	2558.385577
744.946647	2545.446615
745.275768	2556.453135
745.604842	2559.225769
745.933869	2541.161635
746.262847	2569.980231
746.591778	2546.118769
746.920662	2569.644154
747.249498	2561.998404
747.578286	2564.687019
747.907027	2572.416788
748.235720	2562.670558
748.564365	2543.094077
748.892963	2548.891404
749.221514	2560.065962
749.550017	2547.379058
749.878473	2566.283385
750.206881	2563.510750
750.535242	2568.551904
750.863555	2565.611231
751.191821	2567.879750
751.520039	2560.149981
751.848210	2570.232288
752.176334	2567.291615
752.504411	2561.578308
752.832440	2557.713423
753.160421	2567.543673
753.488356	2554.100596
753.816243	2550.823846
754.144082	2562.166442
754.471875	2554.436673
754.799620	2550.067673
755.127318	2574.937365
755.454969	2549.983654
755.782572	2580.146558
756.110129	2571.660615
756.437638	2568.887981
756.765100	2575.777558
757.092515	2549.395519
757.419882	2564.014865
757.747203	2560.570077
758.074477	2564.098885
758.401703	2552.504231
758.728882	2576.533731
759.056014	2569.392096
759.383099	2561.998404
759.710138	2566.703481
760.037129	2584.851635
760.364073	2584.011442
760.690970	2568.887981
761.017820	2568.299846
761.344623	2562.082423
761.671379	2574.685308
761.998088	2568.215827
762.324751	2564.434962
762.651366	2562.838596
762.977935	2574.685308
763.304456	2557.125288
763.630931	2556.789212
763.957359	2561.074192
764.283740	2559.645865
764.610074	2563.930846
764.936362	2563.510750
765.262602	2565.191135
765.588796	2579.978519
765.914943	2549.311500
766.241044	2565.527212
766.567097	2568.719942
766.893104	2563.342712
767.219064	2557.713423
767.544978	2554.856769
767.870845	2560.570077
768.196665	2551.075904
768.522438	2562.166442
768.848165	2556.117058
769.173846	2557.965481
769.499479	2562.922615
769.825066	2563.174673
770.150607	2566.871519
770.476101	2554.604712
770.801548	2555.696962
771.126949	2553.512462
771.452303	2563.594769
771.777611	2555.444904
772.102872	2564.014865
772.428087	2560.738115
772.753256	2558.973712
773.078378	2555.780981
773.403453	2569.980231
773.728482	2566.787500
774.053465	2563.510750
774.378401	2574.769327
774.703291	2575.609519
775.028135	2553.428442
775.352932	2567.879750
775.677683	2564.518981
776.002388	2563.342712
776.327046	2561.074192
776.651658	2557.797442
776.976224	2573.509038
777.300743	2570.988462
777.625216	2564.182904
777.949643	2563.846827
778.274024	2570.568365
778.598359	2552.588250
778.922647	2569.560135
779.246889	2567.039558
779.571086	2558.721654
779.895236	2566.115346
780.219339	2555.192846
780.543397	2555.696962
780.867409	2561.158212
781.191374	2556.537154
781.515294	2573.929135
781.839167	2567.879750
782.162995	2562.922615
782.486776	2565.947308
782.810511	2573.509038
783.134201	2569.644154
783.457844	2572.080712
783.781441	2567.459654
784.104993	2567.879750
784.428498	2571.156500
784.751958	2560.234000
785.075372	2572.752865
785.398739	2560.822135
785.722061	2546.622885
786.045337	2572.332769
786.368568	2558.385577
786.691752	2542.673981
787.014891	2558.301558
787.337983	2559.309788
787.661030	2568.299846
787.984031	2577.121865
788.306987	2559.225769
788.629897	2565.359173
788.952760	2570.652385
789.275579	2548.303269
789.598351	2564.182904
789.921078	2556.789212
790.243759	2548.807385
790.566395	2574.097173
790.888984	2572.836885
791.211529	2565.359173
791.534027	2562.334481
791.856480	2564.771038
792.178888	2567.291615
792.501249	2563.342712
792.823566	2561.074192
793.145836	2563.846827
793.468062	2554.772750
793.790241	2564.687019
794.112375	2557.965481
794.434464	2556.453135
794.756507	2563.846827
795.078505	2549.647577
795.400457	2561.158212
795.722364	2568.887981
796.044226	2562.670558
796.366042	2575.189423
796.687812	2556.873231
797.009538	2576.617750
797.331218	2563.258692
797.652852	2564.434962
797.974442	2566.199365
798.295986	2564.518981
798.617484	2569.812192
798.938938	2568.972000
799.260346	2555.612942
799.581709	2565.947308
799.903026	2568.299846
800.224299	2571.744635
800.545526	2546.622885
800.866708	2563.678788
801.187845	2549.143462
801.508936	2559.225769
801.829983	2561.410269
802.150984	2572.248750
802.471940	2555.024808
802.792851	2552.000115
803.113717	2559.477827
803.434538	2563.846827
803.755314	2570.904442
804.076045	2556.537154
804.396731	2556.705192
804.717372	2554.352654
805.037967	2560.234000
805.358518	2562.502519
805.679024	2576.029615
805.999485	2569.896212
806.319901	2559.057731
806.640272	2564.603000
806.960598	2552.504231
807.280879	2551.496000
807.601115	2565.611231
807.921306	2568.887981
808.241453	2562.166442
808.561554	2553.344423
808.881611	2549.731596
809.201623	2569.056019
809.521590	2554.688731
809.841513	2573.004923
810.161390	2560.570077
810.481223	2564.855058
810.801011	2571.240519
811.120755	2547.547096
811.440453	2577.289904
811.760107	2559.141750
812.079716	2574.013154
812.399281	2561.662327
812.718801	2559.897923
813.038276	2556.285096
813.357707	2561.662327
813.677093	2563.426731
813.996434	2570.232288
814.315731	2556.369115
814.634983	2549.143462
814.954191	2561.158212
815.273354	2551.748058
815.592473	2561.914385
815.911547	2578.046077
816.230577	2560.402038
816.549562	2569.812192
816.868502	2557.293327
817.187399	2566.199365
817.506250	2562.334481
817.825058	2548.555327
818.143821	2560.990173
818.462539	2547.463077
818.781213	2548.975423
819.099843	2560.318019
819.418429	2561.578308
819.736970	2560.822135
820.055466	2576.113635
820.373919	2564.098885
820.692327	2570.988462
821.010691	2559.225769
821.329011	2555.444904
821.647286	2569.980231
821.965517	2554.184615
822.283704	2577.962058
822.601847	2563.090654
822.919945	2546.370827
823.237999	2557.965481
823.556010	2555.360885
823.873976	2563.342712
824.191897	2563.342712
824.509775	2560.486058
824.827609	2567.291615
825.145398	2545.278577
825.463144	2565.023096
825.780845	2544.018288
826.098502	2569.308077
826.416116	2556.537154
826.733685	2564.687019
827.051210	2565.779269
827.368692	2555.024808
827.686129	2551.748058
828.003522	2550.571788
828.320872	2559.981942
828.638177	2570.316308
828.955439	2556.537154
829.272656	2562.922615
829.589830	2567.123577
829.906960	2559.981942
830.224046	2557.041269
830.541088	2584.431538
830.858086	2579.054308
831.175041	2565.947308
831.491952	2565.191135
831.808819	2551.580019
832.125642	2570.904442
832.442421	2537.884885
832.759157	2566.703481
833.075849	2560.570077
833.392497	2557.797442
833.709101	2565.443192
834.025662	2544.774462
834.342179	2556.705192
834.658653	2552.840308
834.975083	2563.678788
835.291469	2574.769327
835.607811	2553.428442
835.924110	2556.621173
836.240366	2551.916096
836.556578	2562.586538
836.872746	2564.855058
837.188871	2562.922615
837.504952	2555.696962
837.820990	2556.453135
838.136984	2572.332769
838.452935	2553.092365
838.768842	2570.232288
839.084706	2571.744635
839.400526	2555.949019
839.716303	2566.955538
840.032037	2549.563558
840.347727	2548.723365
840.663373	2563.174673
840.978977	2555.024808
841.294537	2553.260404
841.610054	2573.509038
841.925527	2567.543673
842.240957	2563.846827
842.556344	2556.285096
842.871687	2563.258692
843.186987	2548.135231
843.502244	2549.563558
843.817458	2557.713423
844.132629	2552.588250
844.447756	2573.509038
844.762840	2550.991885
845.077881	2563.930846
845.392879	2560.822135
845.707833	2566.283385
846.022745	2573.256981
846.337613	2558.721654
846.652438	2556.957250
846.967221	2561.746346
847.281960	2567.459654
847.596656	2570.232288
847.911309	2584.515558
848.225919	2550.487769
848.540485	2544.690442
848.855009	2560.486058
849.169490	2576.197654
849.483928	2562.166442
849.798323	2550.235712
850.112675	2572.080712
850.426984	2561.074192
850.741251	2559.729885
851.055474	2547.883173
851.369654	2564.014865
851.683792	2557.209308
851.997887	2563.846827
852.311938	2568.383865
852.625947	2548.975423
852.939914	2556.453135
853.253837	2566.367404
853.567718	2548.387288
853.881555	2561.998404
854.195350	2563.258692
854.509103	2568.803962
854.822812	2559.477827
855.136479	2563.090654
855.450103	2551.832077
855.763685	2566.619462
856.077224	2548.639346
856.390720	2574.181192
856.704173	2561.074192
857.017584	2554.772750
857.330953	2569.392096
857.644278	2557.293327
857.957561	2588.632500
858.270802	2553.092365
858.584000	2561.578308
858.897155	2558.385577
859.210268	2556.873231
859.523339	2542.926038
859.836367	2558.217538
860.149352	2550.487769
860.462295	2557.965481
860.775195	2564.098885
861.088054	2565.023096
861.400869	2544.186327
861.713642	2569.140038
862.026373	2559.561846
862.339062	2552.840308
862.651708	2558.637635
862.964312	2558.217538
863.276873	2554.184615
863.589392	2566.619462
863.901869	2563.846827
864.214303	2560.149981
864.526696	2540.489481
864.839045	2555.276865
865.151353	2569.980231
865.463619	2560.318019
865.775842	2559.729885
866.088023	2564.687019
866.400162	2571.996692
866.712258	2564.603000
867.024313	2556.369115
867.336325	2568.383865
867.648296	2564.266923
867.960224	2555.949019
868.272110	2563.258692
868.583954	2557.041269
868.895755	2564.350942
869.207515	2572.080712
869.519233	2547.547096
869.830909	2577.541962
870.142542	2560.402038
870.454134	2563.846827
870.765684	2563.006635
871.077191	2557.797442
871.388657	2558.637635
871.700081	2563.258692
872.011463	2554.100596
872.322803	2553.176385
872.634101	2575.105404
872.945357	2553.428442
873.256571	2551.748058
873.567744	2554.184615
873.878874	2561.326250
874.189963	2559.477827
874.501010	2558.553615
874.812015	2551.748058
875.122979	2557.797442
875.433900	2567.291615
875.744780	2554.184615
876.055618	2553.764519
876.366415	2562.670558
876.677169	2551.075904
876.987882	2560.318019
877.298554	2544.606423
877.609183	2562.838596
877.919771	2572.248750
878.230317	2560.234000
878.540822	2560.486058
878.851285	2559.393808
879.161707	2546.706904
879.472087	2558.805673
879.782425	2549.983654
880.092722	2555.444904
880.402977	2546.034750
880.713191	2550.151692
881.023363	2548.303269
881.333494	2549.311500
881.643583	2548.807385
881.953631	2550.319731
882.263637	2572.332769
882.573602	2568.215827
882.883526	2565.443192
883.193408	2564.182904
883.503248	2565.359173
883.813048	2555.528923
884.122806	2561.158212
884.432522	2562.082423
884.742197	2559.057731
885.051831	2574.349231
885.361424	2545.950731
885.670975	2559.477827
885.980485	2568.719942
886.289954	2550.487769
886.599382	2543.598192
886.908768	2558.889692
887.218113	2555.528923
887.527417	2566.115346
887.836680	2548.051212
888.145901	2554.100596
888.455082	2563.930846
888.764221	2565.947308
889.073319	2574.181192
889.382376	2557.125288
889.691392	2562.082423
890.000366	2550.067673
890.309300	2541.581731
890.618193	2545.614654
890.927044	2558.385577
891.235855	2548.051212
891.544625	2563.426731
891.853353	2574.601288
892.162041	2549.815615
892.470687	2559.981942
892.779293	2549.731596
893.087858	2553.512462
893.396381	2546.202788
893.704864	2571.240519
894.013306	2564.771038
894.321707	2540.405462
894.630068	2536.960673
894.938387	2556.789212
895.246665	2567.291615
895.554903	2558.637635
895.863100	2566.199365
896.171256	2555.780981
896.479371	2563.762808
896.787446	2558.637635
897.095480	2565.863288
897.403473	2561.074192
897.711425	2551.916096
898.019336	2546.874942
898.327207	2565.443192
898.635038	2557.797442
898.942827	2551.075904
899.250576	2558.301558
899.558284	2547.799154
899.865952	2564.434962
900.173579	2558.553615
900.481165	2560.570077
900.788711	2569.476115
901.096216	2551.243942
901.403681	2566.955538
901.711105	2565.191135
902.018489	2575.189423
902.325832	2552.672269
902.633135	2560.234000
902.940397	2555.949019
903.247619	2556.117058
903.554800	2556.705192
903.861941	2553.008346
904.169041	2553.512462
904.476101	2571.492577
904.783121	2559.561846
905.090100	2573.509038
905.397039	2564.434962
905.703938	2549.983654
906.010796	2552.084135
906.317614	2564.014865
906.624391	2558.133519
906.931129	2567.207596
907.237826	2557.545385
907.544483	2553.176385
907.851099	2562.670558
908.157675	2553.512462
908.464211	2565.023096
908.770707	2568.215827
909.077163	2560.065962
909.383578	2545.026519
909.689954	2541.833788
909.996289	2551.916096
910.302584	2558.385577
910.608839	2543.514173
910.915054	2557.461365
911.221229	2561.914385
911.527363	2546.958962
911.833458	2563.762808
912.139513	2537.380769
912.445527	2558.385577
912.751502	2556.117058
913.057436	2554.772750
913.363331	2557.797442
913.669186	2547.631115
913.975000	2554.100596
914.280775	2573.256981
914.586510	2558.889692
914.892205	2555.528923
915.197859	2555.949019
915.503475	2573.172962
915.809050	2563.426731
916.114585	2560.738115
916.420081	2546.286808
916.725536	2553.596481
917.030952	2558.637635
917.336328	2564.098885
917.641665	2561.242231
917.946961	2543.598192
918.252218	2563.342712
918.557435	2565.023096
918.862612	2555.528923
919.167750	2556.201077
919.472848	2566.199365
919.777906	2554.940788
920.082925	2556.789212
920.387904	2557.461365
920.692843	2556.705192
920.997743	2543.766231
921.302603	2552.168154
921.607423	2547.379058
921.912204	2553.680500
922.216946	2566.283385
922.521647	2545.446615
922.826310	2550.907865
923.130932	2547.463077
923.435516	2556.789212
923.740059	2558.133519
924.044564	2576.197654
924.349028	2549.899635
924.653454	2553.764519
924.957840	2550.403750
925.262186	2553.260404
925.566493	2561.578308
925.870761	2561.830365
926.174989	2551.832077
926.479178	2545.026519
926.783328	2562.334481
927.087438	2551.664038
927.391509	2563.174673
927.695541	2565.023096
927.999533	2557.965481
928.303486	2546.034750
928.607400	2554.688731
928.911275	2574.181192
929.215110	2554.436673
929.518906	2546.538865
929.822663	2558.889692
930.126381	2561.494288
930.430060	2558.721654
930.733699	2563.594769
931.037299	2548.471308
931.340861	2559.897923
931.644383	2544.018288
931.947866	2548.135231
932.251309	2566.871519
932.554714	2552.672269
932.858080	2542.842019
933.161407	2542.505942
933.464694	2566.451423
933.767943	2557.209308
934.071153	2553.848538
934.374323	2546.118769
934.677455	2569.728173
934.980548	2559.729885
935.283602	2570.736404
935.586617	2556.285096
935.889593	2555.696962
936.192530	2555.108827
936.495428	2550.823846
936.798287	2549.815615
937.101108	2555.612942
937.403890	2559.729885
937.706632	2559.645865
938.009336	2567.963769
938.312002	2559.141750
938.614628	2547.295038
938.917216	2558.469596
939.219765	2548.723365
939.522275	2554.268635
939.824747	2541.413692
940.127179	2542.085846
940.429573	2551.075904
940.731929	2560.990173
941.034246	2548.135231
941.336524	2545.194558
941.638763	2547.967192
941.940964	2565.863288
942.243126	2557.377346
942.545250	2572.836885
942.847335	2566.619462
943.149381	2550.907865
943.451389	2556.705192
943.753359	2545.278577
944.055290	2556.873231
944.357182	2545.698673
944.659036	2562.334481
944.960851	2557.797442
945.262628	2558.301558
945.564367	2552.756288
945.866067	2559.393808
946.167729	2569.224058
946.469352	2563.006635
946.770937	2567.207596
947.072484	2554.352654
947.373992	2556.621173
947.675462	2550.823846
947.976893	2557.713423
948.278286	2544.858481
948.579641	2554.100596
948.880958	2555.612942
949.182236	2543.094077
949.483476	2551.916096
949.784678	2568.551904
950.085841	2568.299846
950.386967	2557.041269
950.688054	2553.428442
950.989103	2571.240519
951.290114	2555.444904
951.591087	2549.899635
951.892021	2547.631115
952.192917	2561.410269
952.493776	2562.838596
952.794596	2538.893115
953.095378	2549.983654
953.396122	2553.092365
953.696828	2559.813904
953.997496	2562.082423
954.298126	2551.243942
954.598718	2571.996692
954.899272	2566.283385
955.199788	2558.637635
955.500266	2558.133519
955.800706	2558.637635
956.101108	2560.738115
956.401472	2568.131808
956.701798	2533.347846
957.002087	2561.662327
957.302337	2547.967192
957.602550	2538.641058
957.902724	2566.199365
958.202861	2558.217538
958.502960	2536.288519
958.803022	2547.715135
959.103045	2577.373923
959.403031	2569.476115
959.702979	2564.098885
960.002889	2559.561846
960.302762	2567.879750
960.602596	2551.327962
960.902393	2547.463077
961.202153	2550.403750
961.501875	2557.713423
961.801559	2564.266923
962.101205	2539.313212
962.400814	2564.855058
962.700385	2558.805673
962.999918	2548.219250
963.299414	2558.805673
963.598873	2553.428442
963.898293	2566.115346
964.197677	2551.075904
964.497022	2558.217538
964.796331	2545.446615
965.095601	2554.688731
965.394835	2542.421923
965.694030	2560.906154
965.993189	2560.822135
966.292309	2558.637635
966.591393	2556.033038
966.890439	2560.654096
967.189447	2556.033038
967.488419	2564.603000
967.787353	2558.889692
968.086249	2558.385577
968.385108	2562.082423
968.683930	2544.774462
968.982714	2549.059442
969.281462	2552.084135
969.580172	2548.639346
969.878844	2554.184615
970.177480	2563.426731
970.476078	2549.227481
970.774639	2564.098885
971.073162	2557.293327
971.371649	2547.127000
971.670098	2574.769327
971.968510	2549.815615
972.266885	2547.463077
972.565223	2565.527212
972.863524	2569.224058
973.161788	2548.135231
973.460014	2560.065962
973.758204	2556.285096
974.056356	2567.963769
974.354471	2554.268635
974.652550	2555.024808
974.950591	2553.512462
975.248595	2559.897923
975.546563	2569.224058
975.844493	2541.665750
976.142386	2550.991885
976.440243	2558.973712
976.738062	2558.133519
977.035845	2549.395519
977.333590	2543.934269
977.631299	2559.981942
977.928971	2563.510750
978.226606	2557.293327
978.524204	2564.687019
978.821765	2555.528923
979.119290	2565.611231
979.416777	2559.645865
979.714228	2565.947308
980.011642	2548.051212
980.309020	2563.594769
980.606360	2553.344423
980.903664	2570.400327
981.200931	2551.075904
981.498162	2546.118769
981.795356	2554.604712
982.092513	2553.932558
982.389633	2551.916096
982.686717	2555.360885
982.983764	2558.049500
983.280775	2556.033038
983.577749	2549.563558
983.874686	2569.392096
984.171587	2556.705192
984.468451	2559.897923
984.765279	2551.411981
985.062070	2546.790923
985.358824	2568.215827
985.655543	2549.731596
985.952224	2562.250462
986.248869	2546.118769
986.545478	2560.149981
986.842050	2562.838596
987.138586	2545.446615
987.435086	2565.275154
987.731549	2553.764519
988.027975	2556.033038
988.324366	2539.397231
988.620719	2565.611231
988.917037	2557.125288
989.213318	2557.629404
989.509563	2552.420212
989.805772	2548.051212
990.101944	2548.555327
990.398080	2555.276865
990.694180	2565.107115
990.990244	2547.042981
991.286271	2546.286808
991.582262	2540.237423
991.878217	2565.023096
992.174136	2549.815615
992.470019	2548.471308
992.765865	2554.268635
993.061676	2557.713423
993.357450	2575.441481
993.653188	2548.975423
993.948890	2543.850250
994.244556	2542.589962
994.540186	2539.565269
994.835780	2564.098885
995.131337	2565.023096
995.426859	2549.563558
995.722345	2570.232288
996.017795	2550.907865
996.313208	2556.537154
996.608586	2543.094077
996.903928	2569.308077
997.199234	2571.408558
997.494504	2562.082423
997.789738	2550.403750
998.084936	2551.664038
998.380099	2557.881462
998.675225	2557.545385
998.970316	2561.914385
999.265371	2562.418500
999.560390	2558.889692
999.855373	2556.621173
1000.150320	2558.301558
1000.445232	2554.604712
1000.740108	2556.957250
1001.034948	2537.212731
1001.329752	2556.285096
1001.624521	2542.505942
1001.919254	2568.215827
1002.213951	2550.067673
1002.508613	2547.127000
1002.803239	2565.359173
1003.097829	2560.822135
1003.392384	2558.469596
1003.686903	2550.403750
1003.981386	2552.336192
1004.275834	2549.395519
1004.570246	2554.268635
1004.864623	2563.090654
1005.158964	2542.505942
1005.453270	2565.443192
1005.747540	2556.537154
1006.041775	2553.680500
1006.335974	2550.067673
1006.630138	2550.739827
1006.924266	2553.596481
1007.218359	2556.369115
1007.512416	2556.957250
1007.806438	2558.385577
1008.100425	2552.168154
1008.394376	2564.687019
1008.688292	2561.746346
1008.982172	2564.182904
1009.276017	2565.947308
1009.569827	2560.906154
1009.863602	2552.252173
1010.157341	2575.357462
1010.451045	2544.690442
1010.744714	2559.225769
1011.038347	2539.229192
1011.331945	2581.910962
1011.625508	2550.151692
1011.919036	2534.608135
1012.212528	2559.897923
1012.505986	2548.387288
1012.799408	2562.166442
1013.092795	2541.833788
1013.386147	2557.125288
1013.679464	2556.621173
1013.972745	2538.557038
1014.265992	2561.998404
1014.559204	2558.217538
1014.852380	2558.721654
1015.145521	2553.848538
1015.438628	2559.309788
1015.731699	2548.723365
1016.024736	2560.738115
1016.317737	2540.741538
1016.610703	2559.057731
1016.903635	2563.006635
1017.196531	2550.235712
1017.489393	2550.991885
1017.782219	2554.100596
1018.075011	2553.344423
1018.367768	2564.182904
1018.660490	2550.151692
1018.953177	2550.151692
1019.245829	2550.151692
