Dividing Wavelength (nm)	Counts (n)	Slit_number_21_of_a_total_of_40	
326.493990	2140.137846
326.888308	2140.137846
327.282561	2140.137846
327.676750	2110.479058
328.070874	2128.795250
328.464933	2130.811712
328.858929	2146.607327
329.252859	2147.111442
329.646726	2153.160827
330.040528	2200.463654
330.434265	2206.429019
330.827938	2219.199942
331.221547	2235.079577
331.615091	2270.115596
332.008571	2282.886519
332.401986	2302.967115
332.795338	2310.612865
333.188625	2341.868019
333.581847	2345.900942
333.975006	2389.927019
334.368100	2385.558019
334.761129	2417.065231
335.154095	2405.890673
335.546996	2438.910231
335.939833	2446.471962
336.332606	2483.020327
336.725315	2484.700712
337.117960	2498.059769
337.510540	2513.183231
337.903056	2509.318346
338.295508	2514.863615
338.687896	2519.820750
339.080220	2531.499423
339.472480	2541.413692
339.864676	2518.224385
340.256807	2551.327962
340.648875	2534.020000
341.040879	2538.725077
341.432818	2546.790923
341.824694	2549.479538
342.216506	2553.932558
342.608253	2553.512462
342.999937	2550.991885
343.391557	2554.772750
343.783113	2546.286808
344.174605	2523.013481
344.566033	2558.049500
344.957397	2553.176385
345.348697	2546.874942
345.739934	2543.094077
346.131106	2524.357788
346.522215	2520.324865
346.913260	2525.113962
347.304241	2523.517596
347.695159	2524.609846
348.086012	2521.921231
348.476802	2515.115673
348.867528	2533.347846
349.258191	2507.133846
349.648789	2516.375962
350.039324	2511.502846
350.429796	2516.375962
350.820203	2498.311827
351.210548	2517.720269
351.600828	2522.761423
351.991045	2505.621500
352.381198	2512.847154
352.771288	2530.575212
353.161314	2490.245981
353.551276	2499.068000
353.941175	2514.863615
354.331010	2520.072808
354.720782	2506.881788
355.110490	2517.216154
355.500135	2518.896538
355.889717	2510.998731
356.279235	2527.214442
356.668689	2509.318346
357.058080	2525.450038
357.447408	2522.425346
357.836672	2517.888308
358.225873	2528.390712
358.615010	2511.166769
359.004084	2516.712038
359.393095	2516.628019
359.782043	2520.576923
360.170927	2524.777885
360.559748	2521.837212
360.948505	2534.020000
361.337199	2506.545712
361.725830	2498.479865
362.114398	2528.474731
362.502903	2522.341327
362.891344	2525.366019
363.279722	2530.407173
363.668037	2532.675692
364.056289	2523.937692
364.444478	2548.387288
364.832603	2526.206212
365.220665	2510.662654
365.608665	2525.450038
365.996601	2525.702096
366.384474	2509.654423
366.772284	2536.456558
367.160031	2523.433577
367.547715	2530.155115
367.935336	2513.351269
368.322893	2538.052923
368.710388	2520.576923
369.097820	2531.163346
369.485189	2532.507654
369.872495	2513.771365
370.259738	2536.036462
370.646918	2524.609846
371.034035	2537.716846
371.421090	2538.052923
371.808081	2520.492904
372.195010	2521.669173
372.581875	2532.087558
372.968678	2530.827269
373.355418	2527.550519
373.742096	2523.769654
374.128710	2536.120481
374.515262	2525.618077
374.901751	2533.011769
375.288177	2534.776173
375.674540	2541.161635
376.060841	2537.716846
376.447079	2519.988788
376.833254	2523.937692
377.219367	2537.212731
377.605417	2534.524115
377.991404	2536.708615
378.377329	2525.870135
378.763191	2535.364308
379.148991	2534.860192
379.534727	2529.735019
379.920402	2525.786115
380.306013	2532.759712
380.691563	2543.010058
381.077049	2548.387288
381.462474	2530.407173
381.847835	2532.843731
382.233134	2554.268635
382.618371	2535.616365
383.003545	2534.944212
383.388657	2534.188038
383.773706	2539.061154
384.158693	2523.685635
384.543618	2525.618077
384.928480	2529.651000
385.313280	2535.784404
385.698017	2541.077615
386.082692	2525.197981
386.467305	2533.179808
386.851856	2539.985365
387.236344	2551.159923
387.620770	2546.958962
388.005133	2541.245654
388.389435	2556.705192
388.773674	2545.530635
389.157851	2546.790923
389.541965	2552.924327
389.926018	2542.085846
390.310008	2542.001827
390.693936	2540.237423
391.077802	2546.286808
391.461606	2546.538865
391.845348	2548.891404
392.229027	2554.436673
392.612645	2554.184615
392.996200	2541.413692
393.379694	2544.942500
393.763125	2543.934269
394.146494	2560.906154
394.529801	2537.296750
394.913047	2544.522404
395.296230	2544.522404
395.679351	2549.059442
396.062410	2557.545385
396.445408	2550.067673
396.828343	2547.967192
397.211217	2552.084135
397.594028	2559.225769
397.976778	2555.444904
398.359466	2549.395519
398.742092	2549.227481
399.124656	2551.075904
399.507158	2557.713423
399.889598	2548.135231
400.271977	2556.117058
400.654294	2549.059442
401.036549	2554.772750
401.418742	2542.505942
401.800874	2583.339288
402.182944	2570.820423
402.564952	2551.327962
402.946898	2571.912673
403.328783	2578.130096
403.710606	2568.887981
404.092367	2581.742923
404.474067	2588.212404
404.855705	2591.321115
405.237282	2604.344096
405.618797	2622.660288
406.000250	2613.082096
406.381642	2627.701442
406.762972	2645.765577
407.144240	2641.816673
407.525447	2650.974769
407.906593	2672.903788
408.287677	2693.068404
408.668700	2706.595500
409.049661	2703.318750
409.430560	2746.168558
409.811399	2771.290308
410.192176	2769.441885
410.572891	2807.334558
410.953545	2834.052673
411.334138	2835.649038
411.714669	2894.546519
412.095139	2877.742673
412.475547	2930.506750
412.855894	2963.190231
413.236180	2996.545865
413.616405	3003.603481
413.996568	3052.082577
414.376670	3067.626135
414.756711	3102.494115
415.136691	3123.582942
415.516609	3183.992769
415.896466	3210.962942
416.276262	3255.493135
416.655997	3316.239038
417.035670	3334.051115
417.415283	3437.730846
417.794834	3477.387923
418.174324	3479.572423
418.553753	3510.911596
418.933121	3595.182885
419.312428	3608.878019
419.691674	3617.532000
420.070859	3684.747385
420.449983	3699.534769
420.829045	3761.961058
421.208047	3776.076288
421.586988	3866.060885
421.965867	3909.078731
422.344686	3936.637038
422.723444	4015.615115
423.102141	3910.843135
423.480777	4064.094212
423.859352	4028.974173
424.237866	4162.564750
424.616319	4170.378538
424.994712	4224.150846
425.373044	4234.317173
425.751314	4315.647788
426.129524	4231.880615
426.507673	4369.504115
426.885762	4348.751365
427.263789	4353.876538
427.641756	4355.472904
428.019662	4387.400212
428.397508	4399.246923
428.775292	4414.622442
429.153016	4405.044250
429.530679	4384.039442
429.908282	4395.214000
430.285824	4359.169750
430.663305	4394.961942
431.040726	4312.875154
431.418086	4264.059981
431.795385	4299.011981
432.172624	4316.656019
432.549802	4246.836038
432.926920	4203.230058
433.303977	4169.790404
433.680974	4170.210500
434.057910	4134.502327
434.434786	4095.937500
434.811601	4039.896673
435.188355	4066.362731
435.565050	3989.233077
435.941683	3929.495404
436.318257	3956.465577
436.694770	3898.156231
437.071222	3863.372269
437.447614	3776.832462
437.823946	3714.742250
438.200218	3671.052250
438.576429	3600.560115
438.952580	3548.132115
439.328670	3499.232923
439.704700	3481.420846
440.080670	3414.205462
440.456580	3374.128288
440.832429	3323.716750
441.208218	3253.056577
441.583947	3219.784962
441.959616	3169.037346
442.335224	3134.085346
442.710773	3102.578135
443.086261	3081.741365
443.461689	3032.338058
443.837057	2998.982423
444.212365	2976.633308
444.587612	2945.210115
444.962800	2899.167577
445.337927	2877.742673
445.712995	2849.596231
446.088002	2840.270096
446.462949	2813.047865
446.837837	2783.557115
447.212664	2761.123981
447.587431	2766.165135
447.962139	2767.929538
448.336786	2790.110615
448.711374	2763.308481
449.085901	2734.573904
449.460369	2702.562577
449.834776	2681.137673
450.209124	2679.793365
450.583412	2673.491923
450.957640	2682.818058
451.331808	2664.333827
451.705917	2647.025865
452.079965	2624.004596
452.453954	2628.205558
452.827883	2627.533404
453.201752	2624.088615
453.575562	2615.266596
453.949311	2621.063923
454.323001	2607.872904
454.696632	2612.830038
455.070202	2606.948692
455.443713	2610.645538
455.817164	2592.329346
456.190556	2594.177769
456.563888	2586.532019
456.937160	2598.882846
457.310373	2600.815288
457.683526	2591.825231
458.056619	2590.312885
458.429653	2596.866385
458.802628	2588.296423
459.175542	2582.247038
459.548398	2600.899308
459.921194	2589.220635
460.293930	2607.788885
460.666607	2580.566654
461.039224	2588.632500
461.411782	2597.622558
461.784280	2602.579692
462.156719	2586.027904
462.529099	2577.289904
462.901419	2596.278250
463.273680	2579.558423
463.645882	2581.154788
464.018024	2588.464462
464.390106	2583.591346
464.762130	2577.121865
465.134094	2594.681885
465.505999	2589.892788
465.877845	2591.069058
466.249631	2601.571462
466.621358	2585.523788
466.993026	2572.332769
467.364634	2601.067346
467.736184	2589.640731
468.107674	2580.986750
468.479105	2580.734692
468.850477	2581.742923
469.221790	2576.617750
469.593043	2573.593058
469.964238	2553.680500
470.335373	2581.826942
470.706449	2588.296423
471.077467	2572.080712
471.448425	2569.560135
471.819324	2588.800538
472.190164	2564.855058
472.560945	2580.062538
472.931667	2565.443192
473.302330	2583.423308
473.672934	2569.056019
474.043479	2579.894500
474.413965	2565.779269
474.784393	2578.718231
475.154761	2593.253558
475.525070	2575.357462
475.895321	2579.306365
476.265513	2578.298135
476.635645	2577.373923
477.005719	2579.894500
477.375734	2560.234000
477.745691	2581.826942
478.115588	2590.144846
478.485427	2580.398615
478.855207	2575.105404
479.224928	2581.490865
479.594591	2578.382154
479.964194	2565.275154
480.333739	2594.513846
480.703226	2590.060827
481.072653	2588.632500
481.442022	2589.724750
481.811333	2572.752865
482.180584	2583.927423
482.549777	2576.533731
482.918912	2586.532019
483.287988	2574.433250
483.657005	2572.332769
484.025964	2572.920904
484.394864	2571.660615
484.763706	2583.591346
485.132489	2561.326250
485.501213	2579.978519
485.869879	2587.204173
486.238487	2568.299846
486.607036	2577.037846
486.975527	2562.922615
487.343959	2591.237096
487.712333	2559.897923
488.080648	2578.970288
488.448905	2590.732981
488.817104	2573.929135
489.185244	2572.332769
489.553326	2552.924327
489.921350	2590.648962
490.289315	2595.186000
490.657222	2584.851635
491.025070	2568.131808
491.392861	2595.774135
491.760593	2589.472692
492.128267	2598.042654
492.495883	2576.449712
492.863440	2585.775846
493.230939	2599.386962
493.598380	2566.535442
493.965763	2587.540250
494.333088	2583.843404
494.700354	2575.945596
495.067563	2575.273442
495.434713	2587.036135
495.801805	2567.291615
496.168839	2577.457942
496.535815	2582.415077
496.902733	2570.904442
497.269593	2583.675365
497.636395	2568.299846
498.003139	2585.355750
498.369825	2580.566654
498.736453	2566.451423
499.103023	2572.164731
499.469535	2590.396904
499.835989	2588.380442
500.202385	2585.103692
500.568723	2581.070769
500.935003	2583.927423
501.301226	2587.624269
501.667390	2573.677077
502.033497	2590.060827
502.399546	2591.405135
502.765537	2576.029615
503.131470	2594.513846
503.497345	2562.250462
503.863163	2592.077288
504.228923	2575.525500
504.594625	2571.072481
504.960269	2580.650673
505.325856	2569.308077
505.691385	2565.947308
506.056856	2587.120154
506.422270	2584.851635
506.787625	2587.960346
507.152924	2584.011442
507.518164	2575.777558
507.883347	2584.011442
508.248472	2587.960346
508.613540	2587.372212
508.978550	2572.920904
509.343503	2581.238808
509.708398	2583.087231
510.073236	2574.769327
510.438016	2576.785788
510.802738	2563.762808
511.167403	2572.752865
511.532010	2578.298135
511.896561	2575.441481
512.261053	2585.439769
512.625488	2575.441481
512.989866	2588.464462
513.354186	2581.910962
513.718449	2588.380442
514.082655	2597.286481
514.446803	2582.499096
514.810894	2565.107115
515.174927	2587.540250
515.538904	2581.406846
515.902822	2581.994981
516.266684	2573.256981
516.630488	2580.062538
516.994235	2587.288192
517.357925	2596.194231
517.721558	2582.499096
518.085133	2585.943885
518.448651	2583.675365
518.812112	2596.698346
519.175516	2603.083808
519.538863	2589.136615
519.902152	2582.499096
520.265385	2586.363981
520.628560	2587.288192
520.991678	2589.556712
521.354739	2579.390385
521.717743	2573.845115
522.080690	2596.950404
522.443580	2594.597865
522.806413	2590.901019
523.169189	2582.583115
523.531908	2587.036135
523.894569	2593.253558
524.257174	2582.415077
524.619722	2569.980231
524.982213	2589.220635
525.344647	2575.105404
525.707025	2589.220635
526.069345	2575.525500
526.431608	2574.769327
526.793815	2582.667135
527.155964	2588.800538
527.518057	2584.011442
527.880093	2602.159596
528.242072	2589.724750
528.603995	2579.390385
528.965860	2583.927423
529.327669	2590.396904
529.689421	2583.591346
530.051117	2578.046077
530.412755	2590.060827
530.774337	2594.261788
531.135862	2574.433250
531.497331	2600.059115
531.858743	2588.464462
532.220098	2593.001500
532.581396	2604.848212
532.942638	2595.858154
533.303824	2592.917481
533.664953	2585.019673
534.026025	2594.093750
534.387040	2584.599577
534.747999	2585.943885
535.108902	2587.120154
535.469748	2593.001500
535.830537	2590.144846
536.191270	2597.958635
536.551947	2580.482635
536.912567	2592.413365
537.273131	2577.205885
537.633638	2580.566654
537.994089	2585.943885
538.354483	2595.522077
538.714821	2576.953827
539.075103	2610.057404
539.435328	2588.380442
539.795497	2584.347519
540.155609	2585.859865
540.515665	2580.146558
540.875665	2582.583115
541.235609	2600.311173
541.595496	2586.952115
541.955328	2578.298135
542.315102	2588.380442
542.674821	2593.421596
543.034483	2583.675365
543.394090	2596.194231
543.753640	2576.197654
544.113134	2582.499096
544.472571	2597.118442
544.831953	2577.794019
545.191278	2605.352327
545.550548	2580.986750
545.909761	2585.859865
546.268918	2591.657192
546.628019	2594.597865
546.987064	2592.245327
547.346053	2588.044365
547.704986	2591.489154
548.063863	2592.665423
548.422684	2581.574885
548.781449	2583.171250
549.140158	2583.255269
549.498811	2584.515558
549.857408	2584.683596
550.215949	2589.304654
550.574434	2586.700058
550.932864	2600.899308
551.291237	2598.462750
551.649555	2596.110212
552.007817	2586.784077
552.366022	2601.655481
552.724173	2579.978519
553.082267	2581.070769
553.440305	2590.817000
553.798288	2591.825231
554.156215	2605.856442
554.514086	2582.079000
554.871902	2584.095462
555.229661	2595.270019
555.587365	2595.270019
555.945014	2604.176058
556.302606	2589.556712
556.660143	2583.843404
557.017625	2588.800538
557.375050	2584.851635
557.732421	2586.448000
558.089735	2590.817000
558.446994	2602.411654
558.804197	2590.732981
559.161345	2602.495673
559.518437	2604.260077
559.875474	2583.423308
560.232455	2588.296423
560.589381	2594.849923
560.946251	2581.910962
561.303065	2587.204173
561.659825	2589.052596
562.016528	2570.064250
562.373177	2589.304654
562.729770	2593.337577
563.086307	2595.858154
563.442789	2591.573173
563.799216	2587.540250
564.155587	2589.304654
564.511904	2587.624269
564.868164	2594.261788
565.224370	2578.046077
565.580520	2603.503904
565.936615	2583.087231
566.292654	2600.479212
566.648638	2575.609519
567.004567	2591.237096
567.360441	2595.186000
567.716260	2579.138327
568.072023	2581.994981
568.427732	2582.919192
568.783385	2587.456231
569.138982	2584.347519
569.494525	2600.647250
569.850013	2594.765904
570.205445	2593.085519
570.560823	2594.093750
570.916145	2593.589635
571.271412	2593.253558
571.626625	2581.154788
571.981782	2584.767615
572.336884	2584.851635
572.691931	2583.591346
573.046923	2586.279962
573.401860	2580.818712
573.756743	2591.069058
574.111570	2590.564942
574.466342	2589.640731
574.821059	2592.749442
575.175722	2580.146558
575.530330	2585.607808
575.884882	2575.189423
576.239380	2574.013154
576.593823	2602.999788
576.948211	2593.001500
577.302544	2594.765904
577.656823	2591.573173
578.011047	2591.657192
578.365216	2578.886269
578.719330	2574.517269
579.073389	2587.792308
579.427394	2587.960346
579.781344	2593.589635
580.135239	2593.673654
580.489080	2593.589635
580.842866	2601.067346
581.196597	2579.894500
581.550273	2586.868096
581.903895	2586.195942
582.257463	2597.790596
582.610975	2584.767615
582.964434	2587.624269
583.317837	2592.329346
583.671186	2587.372212
584.024481	2588.884558
584.377721	2579.306365
584.730906	2584.095462
585.084037	2588.716519
585.437113	2591.321115
585.790135	2586.784077
586.143103	2599.302942
586.496016	2561.830365
586.848874	2584.431538
587.201679	2583.255269
587.554428	2595.438058
587.907124	2582.079000
588.259765	2586.700058
588.612352	2584.851635
588.964884	2581.238808
589.317362	2576.701769
589.669786	2579.306365
590.022155	2583.507327
590.374470	2595.270019
590.726731	2583.507327
591.078937	2597.286481
591.431090	2581.154788
591.783188	2579.306365
592.135232	2590.564942
592.487222	2607.368788
592.839157	2595.354038
593.191038	2579.978519
593.542866	2581.238808
593.894639	2598.210692
594.246358	2602.999788
594.598022	2573.509038
594.949633	2591.069058
595.301190	2573.509038
595.652692	2585.607808
596.004141	2579.138327
596.355535	2586.111923
596.706876	2567.627692
597.058162	2568.719942
597.409395	2584.095462
597.760573	2591.573173
598.111698	2584.515558
598.462768	2584.263500
598.813785	2582.919192
599.164748	2599.723038
599.515657	2584.431538
599.866511	2586.448000
600.217312	2593.337577
600.568060	2573.593058
600.918753	2600.395192
601.269392	2590.564942
601.619978	2594.849923
601.970510	2590.312885
602.320988	2580.062538
602.671412	2593.085519
603.021783	2590.732981
603.372100	2592.665423
603.722363	2578.886269
604.072572	2587.456231
604.422728	2583.423308
604.772830	2586.952115
605.122878	2591.993269
605.472872	2580.146558
605.822813	2595.354038
606.172701	2579.390385
606.522534	2587.876327
606.872314	2600.143135
607.222041	2584.431538
607.571714	2583.591346
607.921333	2569.980231
608.270899	2591.573173
608.620411	2585.439769
608.969870	2579.138327
609.319276	2589.052596
609.668627	2598.714808
610.017926	2588.212404
610.367171	2588.380442
610.716362	2578.298135
611.065500	2591.321115
611.414585	2593.757673
611.763616	2579.138327
612.112594	2590.480923
612.461518	2593.673654
612.810389	2578.046077
613.159207	2580.314596
613.507971	2580.734692
613.856682	2586.616038
614.205340	2583.087231
614.553945	2584.683596
614.902496	2578.718231
615.250994	2586.363981
615.599439	2583.339288
615.947830	2576.281673
616.296169	2569.812192
616.644454	2581.994981
616.992686	2588.632500
617.340864	2574.517269
617.688990	2585.439769
618.037063	2601.235385
618.385082	2586.700058
618.733048	2602.327635
619.080961	2581.238808
619.428821	2579.390385
619.776628	2578.382154
620.124382	2587.708288
620.472083	2581.154788
620.819731	2570.064250
621.167326	2577.541962
621.514868	2562.922615
621.862357	2588.884558
622.209793	2570.568365
622.557176	2590.480923
622.904506	2582.667135
623.251783	2572.332769
623.599007	2583.339288
623.946179	2574.769327
624.293297	2584.767615
624.640363	2577.794019
624.987376	2582.919192
625.334336	2588.548481
625.681243	2583.423308
626.028097	2592.581404
626.374899	2591.741212
626.721647	2601.571462
627.068343	2574.601288
627.414987	2580.818712
627.761577	2585.523788
628.108115	2595.270019
628.454600	2578.130096
628.801032	2565.695250
629.147412	2591.405135
629.493739	2583.927423
629.840014	2578.298135
630.186236	2556.873231
630.532405	2581.910962
630.878521	2595.774135
631.224585	2572.752865
631.570597	2582.079000
631.916556	2586.784077
632.262462	2594.009731
632.608316	2575.777558
632.954117	2573.761096
633.299866	2586.363981
633.645562	2579.978519
633.991206	2595.354038
634.336797	2571.324538
634.682336	2579.726462
635.027823	2575.861577
635.373257	2586.363981
635.718639	2586.784077
636.063968	2584.263500
636.409245	2596.866385
636.754470	2581.406846
637.099642	2579.642442
637.444762	2586.111923
637.789829	2580.818712
638.134845	2566.283385
638.479808	2594.681885
638.824719	2592.413365
639.169577	2562.586538
639.514383	2576.281673
639.859137	2573.593058
640.203839	2574.265212
640.548489	2581.826942
640.893086	2593.589635
641.237632	2579.222346
641.582125	2573.088942
641.926566	2582.835173
642.270955	2575.945596
642.615292	2584.263500
642.959576	2573.593058
643.303809	2577.037846
643.647990	2571.996692
643.992118	2589.388673
644.336195	2570.316308
644.680219	2596.446288
645.024192	2573.172962
645.368112	2586.532019
645.711981	2588.212404
646.055797	2584.767615
646.399562	2588.800538
646.743274	2585.103692
647.086935	2577.625981
647.430544	2585.607808
647.774101	2589.220635
648.117606	2579.894500
648.461059	2596.866385
648.804460	2589.220635
649.147810	2586.784077
649.491108	2572.332769
649.834354	2568.719942
650.177548	2585.523788
650.520690	2580.230577
650.863781	2573.088942
651.206820	2579.558423
651.549807	2575.189423
651.892742	2572.332769
652.235626	2575.273442
652.578458	2575.105404
652.921238	2576.113635
653.263967	2591.825231
653.606644	2581.406846
653.949269	2569.392096
654.291843	2581.994981
654.634365	2570.736404
654.976836	2580.902731
655.319255	2576.617750
655.661622	2596.278250
656.003938	2583.927423
656.346203	2595.690115
656.688416	2593.673654
657.030577	2569.644154
657.372687	2582.415077
657.714746	2577.289904
658.056753	2589.976808
658.398708	2571.828654
658.740612	2596.614327
659.082465	2571.996692
659.424266	2583.003212
659.766016	2576.281673
660.107715	2578.130096
660.449362	2571.072481
660.790958	2572.752865
661.132503	2586.700058
661.473996	2585.775846
661.815438	2573.761096
662.156829	2572.080712
662.498168	2569.392096
662.839456	2574.013154
663.180693	2567.459654
663.521879	2572.332769
663.863013	2579.642442
664.204097	2585.859865
664.545129	2587.624269
664.886110	2580.734692
665.227040	2575.273442
665.567918	2574.685308
665.908746	2589.640731
666.249522	2578.886269
666.590248	2584.767615
666.930922	2575.273442
667.271545	2577.037846
667.612118	2575.273442
667.952639	2571.660615
668.293109	2572.836885
668.633528	2585.271731
668.973896	2581.322827
669.314213	2578.382154
669.654480	2579.222346
669.994695	2573.761096
670.334859	2574.433250
670.674973	2591.573173
671.015035	2569.560135
671.355047	2565.527212
671.695008	2577.457942
672.034918	2586.448000
672.374777	2587.036135
672.714585	2572.164731
673.054342	2594.177769
673.394049	2576.701769
673.733705	2593.925712
674.073310	2590.144846
674.412864	2574.769327
674.752368	2574.013154
675.091820	2581.826942
675.431223	2572.248750
675.770574	2587.120154
676.109875	2567.543673
676.449125	2578.298135
676.788324	2576.197654
677.127473	2579.390385
677.466571	2582.415077
677.805619	2564.518981
678.144616	2584.515558
678.483562	2576.197654
678.822458	2570.652385
679.161303	2575.357462
679.500098	2580.818712
679.838842	2570.988462
680.177535	2587.540250
680.516179	2595.186000
680.854771	2581.490865
681.193314	2583.339288
681.531805	2575.861577
681.870247	2556.117058
682.208638	2594.429827
682.546978	2571.072481
682.885268	2569.140038
683.223508	2588.128385
683.561697	2581.406846
683.899836	2581.070769
684.237925	2568.803962
684.575963	2579.810481
684.913951	2568.887981
685.251889	2577.794019
685.589776	2561.662327
685.927614	2563.930846
686.265401	2572.920904
686.603137	2567.879750
686.940824	2562.502519
687.278460	2577.037846
687.616046	2568.551904
687.953582	2587.204173
688.291068	2599.134904
688.628504	2587.624269
688.965889	2566.787500
689.303224	2565.443192
689.640510	2578.046077
689.977745	2573.425019
690.314930	2575.105404
690.652065	2580.818712
690.989150	2564.182904
691.326185	2576.701769
691.663170	2587.960346
692.000105	2578.970288
692.336990	2589.724750
692.673825	2569.056019
693.010610	2585.103692
693.347345	2589.892788
693.684030	2577.205885
694.020665	2579.054308
694.357251	2577.121865
694.693786	2570.064250
695.030272	2566.787500
695.366707	2577.205885
695.703093	2571.240519
696.039429	2576.617750
696.375716	2587.876327
696.711952	2569.896212
697.048139	2587.792308
697.384276	2588.212404
697.720363	2566.199365
698.056400	2572.752865
698.392388	2583.927423
698.728326	2580.818712
699.064214	2586.868096
699.400053	2570.988462
699.735842	2574.265212
700.071581	2572.248750
700.407270	2581.322827
700.742910	2575.693538
701.078501	2583.675365
701.414042	2581.238808
701.749533	2576.869808
702.084974	2563.006635
702.420366	2580.398615
702.755709	2581.490865
703.091002	2570.484346
703.426246	2571.744635
703.761440	2582.835173
704.096584	2566.787500
704.431679	2563.006635
704.766725	2565.611231
705.101721	2570.652385
705.436668	2572.416788
705.771565	2576.281673
706.106413	2580.062538
706.441212	2572.164731
706.775961	2585.271731
707.110661	2569.476115
707.445311	2581.238808
707.779913	2562.838596
708.114465	2571.912673
708.448967	2575.861577
708.783421	2579.306365
709.117825	2570.148269
709.452180	2579.390385
709.786485	2577.878038
710.120742	2580.818712
710.454949	2583.675365
710.789107	2575.105404
711.123216	2584.599577
711.457275	2572.332769
711.791286	2558.385577
712.125247	2573.088942
712.459159	2552.336192
712.793023	2554.856769
713.126837	2578.802250
713.460602	2579.558423
713.794318	2590.060827
714.127985	2567.543673
714.461602	2580.230577
714.795171	2564.939077
715.128691	2565.191135
715.462162	2578.970288
715.795584	2578.886269
716.128957	2573.172962
716.462281	2570.232288
716.795556	2573.341000
717.128782	2585.019673
717.461960	2586.363981
717.795088	2586.195942
718.128167	2586.868096
718.461198	2569.056019
718.794180	2560.318019
719.127113	2579.810481
719.459997	2569.392096
719.792833	2568.803962
720.125619	2576.197654
720.458357	2574.181192
720.791046	2587.624269
721.123686	2581.322827
721.456278	2571.156500
721.788821	2566.115346
722.121315	2571.744635
722.453761	2576.029615
722.786158	2575.105404
723.118506	2566.787500
723.450805	2571.576596
723.783056	2573.172962
724.115259	2575.861577
724.447412	2594.261788
724.779518	2567.459654
725.111574	2572.080712
725.443582	2570.988462
725.775542	2575.525500
726.107453	2572.164731
726.439315	2564.939077
726.771129	2596.866385
727.102895	2571.744635
727.434612	2566.703481
727.766281	2565.359173
728.097901	2562.586538
728.429473	2572.080712
728.760996	2571.324538
729.092471	2566.451423
729.423897	2595.017962
729.755276	2562.754577
730.086606	2564.518981
730.417887	2579.810481
730.749120	2569.896212
731.080305	2577.289904
731.411442	2567.795731
731.742530	2582.751154
732.073570	2568.467885
732.404562	2586.868096
732.735506	2563.006635
733.066401	2570.316308
733.397249	2579.306365
733.728048	2582.415077
734.058798	2583.927423
734.389501	2574.097173
734.720156	2576.449712
735.050762	2571.576596
735.381320	2586.027904
735.711831	2578.550192
736.042293	2569.056019
736.372707	2574.349231
736.703073	2567.375635
737.033391	2570.484346
737.363661	2564.687019
737.693883	2566.871519
738.024056	2568.887981
738.354182	2562.922615
738.684260	2561.494288
739.014290	2582.667135
739.344272	2595.942173
739.674207	2575.273442
740.004093	2582.331058
740.333931	2568.131808
740.663722	2569.476115
740.993464	2588.044365
741.323159	2568.972000
741.652806	2572.668846
741.982405	2567.879750
742.311956	2577.625981
742.641460	2567.795731
742.970915	2579.810481
743.300323	2571.996692
743.629683	2570.400327
743.958996	2580.986750
744.288260	2572.248750
744.617477	2562.838596
744.946647	2570.652385
745.275768	2573.256981
745.604842	2592.077288
745.933869	2559.897923
746.262847	2572.332769
746.591778	2568.551904
746.920662	2566.787500
747.249498	2569.140038
747.578286	2570.064250
747.907027	2552.588250
748.235720	2573.509038
748.564365	2566.787500
748.892963	2573.845115
749.221514	2575.693538
749.550017	2562.838596
749.878473	2568.131808
750.206881	2565.779269
750.535242	2588.716519
750.863555	2583.675365
751.191821	2572.164731
751.520039	2567.711712
751.848210	2569.140038
752.176334	2576.113635
752.504411	2565.107115
752.832440	2583.087231
753.160421	2562.250462
753.488356	2579.642442
753.816243	2564.603000
754.144082	2579.222346
754.471875	2575.021385
754.799620	2563.594769
755.127318	2566.703481
755.454969	2571.492577
755.782572	2582.835173
756.110129	2565.359173
756.437638	2573.004923
756.765100	2588.212404
757.092515	2559.729885
757.419882	2579.390385
757.747203	2564.771038
758.074477	2576.449712
758.401703	2569.980231
758.728882	2573.509038
759.056014	2575.441481
759.383099	2567.207596
759.710138	2580.146558
760.037129	2563.426731
760.364073	2558.133519
760.690970	2570.736404
761.017820	2559.561846
761.344623	2571.660615
761.671379	2574.601288
761.998088	2575.357462
762.324751	2552.420212
762.651366	2561.410269
762.977935	2564.518981
763.304456	2589.304654
763.630931	2570.820423
763.957359	2582.583115
764.283740	2562.166442
764.610074	2579.894500
764.936362	2576.785788
765.262602	2571.072481
765.588796	2571.324538
765.914943	2575.525500
766.241044	2583.087231
766.567097	2557.629404
766.893104	2583.339288
767.219064	2577.289904
767.544978	2562.082423
767.870845	2567.459654
768.196665	2576.701769
768.522438	2573.761096
768.848165	2575.693538
769.173846	2565.779269
769.499479	2565.359173
769.825066	2580.818712
770.150607	2563.510750
770.476101	2571.576596
770.801548	2558.553615
771.126949	2567.711712
771.452303	2558.637635
771.777611	2561.074192
772.102872	2563.510750
772.428087	2555.360885
772.753256	2582.919192
773.078378	2576.281673
773.403453	2577.962058
773.728482	2564.182904
774.053465	2567.039558
774.378401	2576.953827
774.703291	2568.551904
775.028135	2578.466173
775.352932	2571.240519
775.677683	2567.039558
776.002388	2561.578308
776.327046	2560.738115
776.651658	2561.242231
776.976224	2581.994981
777.300743	2577.289904
777.625216	2577.037846
777.949643	2548.723365
778.274024	2562.250462
778.598359	2563.426731
778.922647	2564.434962
779.246889	2583.759385
779.571086	2563.174673
779.895236	2549.311500
780.219339	2565.443192
780.543397	2561.998404
780.867409	2563.342712
781.191374	2578.718231
781.515294	2571.660615
781.839167	2577.541962
782.162995	2574.349231
782.486776	2563.930846
782.810511	2569.980231
783.134201	2553.092365
783.457844	2575.441481
783.781441	2569.896212
784.104993	2573.761096
784.428498	2562.838596
784.751958	2573.677077
785.075372	2570.652385
785.398739	2562.334481
785.722061	2567.963769
786.045337	2564.855058
786.368568	2572.500808
786.691752	2571.072481
787.014891	2583.255269
787.337983	2555.528923
787.661030	2572.836885
787.984031	2556.957250
788.306987	2572.836885
788.629897	2574.433250
788.952760	2560.318019
789.275579	2555.528923
789.598351	2568.299846
789.921078	2579.054308
790.243759	2572.248750
790.566395	2580.314596
790.888984	2560.149981
791.211529	2587.288192
791.534027	2561.746346
791.856480	2566.031327
792.178888	2570.904442
792.501249	2559.561846
792.823566	2569.812192
793.145836	2553.764519
793.468062	2578.130096
793.790241	2546.538865
794.112375	2563.174673
794.434464	2555.528923
794.756507	2570.904442
795.078505	2569.728173
795.400457	2575.525500
795.722364	2562.670558
796.044226	2563.762808
796.366042	2567.795731
796.687812	2566.871519
797.009538	2565.863288
797.331218	2558.469596
797.652852	2561.326250
797.974442	2570.232288
798.295986	2582.835173
798.617484	2559.645865
798.938938	2568.299846
799.260346	2587.036135
799.581709	2568.299846
799.903026	2569.056019
800.224299	2571.156500
800.545526	2573.256981
800.866708	2567.375635
801.187845	2555.024808
801.508936	2576.953827
801.829983	2573.004923
802.150984	2582.583115
802.471940	2568.467885
802.792851	2569.308077
803.113717	2564.014865
803.434538	2564.434962
803.755314	2572.668846
804.076045	2560.822135
804.396731	2568.215827
804.717372	2580.398615
805.037967	2564.098885
805.358518	2560.738115
805.679024	2579.054308
805.999485	2564.182904
806.319901	2571.156500
806.640272	2576.785788
806.960598	2570.064250
807.280879	2574.265212
807.601115	2567.207596
807.921306	2572.332769
808.241453	2565.443192
808.561554	2570.316308
808.881611	2572.416788
809.201623	2580.230577
809.521590	2566.031327
809.841513	2584.263500
810.161390	2569.056019
810.481223	2582.583115
810.801011	2571.492577
811.120755	2553.512462
811.440453	2576.617750
811.760107	2570.484346
812.079716	2577.625981
812.399281	2559.813904
812.718801	2577.037846
813.038276	2577.625981
813.357707	2560.065962
813.677093	2553.092365
813.996434	2567.627692
814.315731	2556.957250
814.634983	2558.721654
814.954191	2575.441481
815.273354	2571.072481
815.592473	2564.687019
815.911547	2576.617750
816.230577	2577.037846
816.549562	2554.100596
816.868502	2572.416788
817.187399	2567.207596
817.506250	2567.711712
817.825058	2567.123577
818.143821	2566.199365
818.462539	2562.166442
818.781213	2560.065962
819.099843	2557.629404
819.418429	2571.492577
819.736970	2566.619462
820.055466	2569.812192
820.373919	2578.970288
820.692327	2586.195942
821.010691	2578.970288
821.329011	2575.609519
821.647286	2585.859865
821.965517	2579.138327
822.283704	2588.800538
822.601847	2587.540250
822.919945	2604.764192
823.237999	2576.785788
823.556010	2586.448000
823.873976	2578.718231
824.191897	2566.031327
824.509775	2582.919192
824.827609	2568.215827
825.145398	2580.566654
825.463144	2569.308077
825.780845	2588.128385
826.098502	2567.627692
826.416116	2581.994981
826.733685	2584.095462
827.051210	2588.212404
827.368692	2589.052596
827.686129	2570.736404
828.003522	2563.510750
828.320872	2580.230577
828.638177	2563.426731
828.955439	2575.861577
829.272656	2579.978519
829.589830	2567.627692
829.906960	2560.486058
830.224046	2566.703481
830.541088	2580.818712
830.858086	2563.426731
831.175041	2563.762808
831.491952	2573.004923
831.808819	2556.453135
832.125642	2565.191135
832.442421	2573.509038
832.759157	2574.937365
833.075849	2557.209308
833.392497	2560.486058
833.709101	2576.365692
834.025662	2563.174673
834.342179	2570.316308
834.658653	2546.034750
834.975083	2572.332769
835.291469	2581.826942
835.607811	2562.670558
835.924110	2585.019673
836.240366	2560.149981
836.556578	2557.881462
836.872746	2575.105404
837.188871	2567.795731
837.504952	2565.863288
837.820990	2571.408558
838.136984	2553.092365
838.452935	2553.428442
838.768842	2576.617750
839.084706	2564.518981
839.400526	2575.021385
839.716303	2569.644154
840.032037	2561.998404
840.347727	2563.678788
840.663373	2554.100596
840.978977	2577.457942
841.294537	2566.871519
841.610054	2568.383865
841.925527	2576.113635
842.240957	2564.518981
842.556344	2575.525500
842.871687	2566.871519
843.186987	2570.148269
843.502244	2566.871519
843.817458	2569.308077
844.132629	2563.174673
844.447756	2558.637635
844.762840	2575.525500
845.077881	2553.092365
845.392879	2554.688731
845.707833	2564.603000
846.022745	2564.603000
846.337613	2577.794019
846.652438	2559.645865
846.967221	2562.418500
847.281960	2581.826942
847.596656	2559.981942
847.911309	2571.660615
848.225919	2575.357462
848.540485	2580.230577
848.855009	2561.914385
849.169490	2561.578308
849.483928	2565.527212
849.798323	2573.677077
850.112675	2557.293327
850.426984	2558.469596
850.741251	2568.215827
851.055474	2565.863288
851.369654	2563.426731
851.683792	2551.832077
851.997887	2571.156500
852.311938	2568.215827
852.625947	2577.541962
852.939914	2566.871519
853.253837	2569.392096
853.567718	2561.326250
853.881555	2570.316308
854.195350	2559.561846
854.509103	2573.845115
854.822812	2572.332769
855.136479	2553.764519
855.450103	2571.744635
855.763685	2557.545385
856.077224	2564.266923
856.390720	2570.568365
856.704173	2573.004923
857.017584	2568.719942
857.330953	2566.619462
857.644278	2563.174673
857.957561	2566.619462
858.270802	2563.174673
858.584000	2567.207596
858.897155	2547.211019
859.210268	2575.441481
859.523339	2569.476115
859.836367	2576.449712
860.149352	2554.688731
860.462295	2562.838596
860.775195	2568.215827
861.088054	2548.723365
861.400869	2570.736404
861.713642	2555.528923
862.026373	2560.149981
862.339062	2569.560135
862.651708	2567.291615
862.964312	2552.252173
863.276873	2555.865000
863.589392	2584.431538
863.901869	2566.031327
864.214303	2568.887981
864.526696	2565.023096
864.839045	2555.612942
865.151353	2574.601288
865.463619	2571.660615
865.775842	2554.940788
866.088023	2556.033038
866.400162	2573.593058
866.712258	2569.980231
867.024313	2560.149981
867.336325	2571.240519
867.648296	2569.476115
867.960224	2570.904442
868.272110	2550.823846
868.583954	2568.551904
868.895755	2559.729885
869.207515	2569.476115
869.519233	2568.131808
869.830909	2554.352654
870.142542	2568.551904
870.454134	2562.250462
870.765684	2570.316308
871.077191	2578.130096
871.388657	2577.289904
871.700081	2562.586538
872.011463	2561.578308
872.322803	2567.711712
872.634101	2555.024808
872.945357	2555.276865
873.256571	2556.789212
873.567744	2568.551904
873.878874	2565.695250
874.189963	2566.955538
874.501010	2566.619462
874.812015	2561.746346
875.122979	2558.637635
875.433900	2553.260404
875.744780	2569.896212
876.055618	2567.459654
876.366415	2568.551904
876.677169	2549.815615
876.987882	2579.642442
877.298554	2558.553615
877.609183	2561.074192
877.919771	2567.795731
878.230317	2564.182904
878.540822	2555.696962
878.851285	2554.268635
879.161707	2563.426731
879.472087	2555.024808
879.782425	2572.920904
880.092722	2567.459654
880.402977	2567.375635
880.713191	2583.255269
881.023363	2563.174673
881.333494	2575.777558
881.643583	2553.428442
881.953631	2583.171250
882.263637	2572.080712
882.573602	2580.650673
882.883526	2575.441481
883.193408	2576.701769
883.503248	2569.728173
883.813048	2574.937365
884.122806	2569.392096
884.432522	2581.070769
884.742197	2563.006635
885.051831	2575.441481
885.361424	2558.049500
885.670975	2584.515558
885.980485	2567.207596
886.289954	2565.611231
886.599382	2555.024808
886.908768	2558.553615
887.218113	2560.990173
887.527417	2550.739827
887.836680	2563.846827
888.145901	2570.820423
888.455082	2567.039558
888.764221	2566.115346
889.073319	2580.230577
889.382376	2572.332769
889.691392	2574.853346
890.000366	2562.502519
890.309300	2569.308077
890.618193	2549.311500
890.927044	2577.121865
891.235855	2551.916096
891.544625	2565.107115
891.853353	2562.082423
892.162041	2548.975423
892.470687	2557.041269
892.779293	2558.553615
893.087858	2559.393808
893.396381	2579.138327
893.704864	2554.436673
894.013306	2556.285096
894.321707	2564.014865
894.630068	2555.444904
894.938387	2579.474404
895.246665	2551.327962
895.554903	2576.281673
895.863100	2563.762808
896.171256	2559.477827
896.479371	2569.812192
896.787446	2575.441481
897.095480	2575.021385
897.403473	2568.131808
897.711425	2562.082423
898.019336	2574.265212
898.327207	2563.762808
898.635038	2576.785788
898.942827	2580.818712
899.250576	2560.234000
899.558284	2568.972000
899.865952	2569.140038
900.173579	2570.064250
900.481165	2566.199365
900.788711	2571.744635
901.096216	2578.046077
901.403681	2561.242231
901.711105	2558.049500
902.018489	2549.731596
902.325832	2557.041269
902.633135	2564.855058
902.940397	2568.719942
903.247619	2572.416788
903.554800	2560.149981
903.861941	2562.166442
904.169041	2554.856769
904.476101	2566.703481
904.783121	2564.350942
905.090100	2568.972000
905.397039	2556.117058
905.703938	2569.812192
906.010796	2568.299846
906.317614	2577.121865
906.624391	2576.617750
906.931129	2555.444904
907.237826	2565.191135
907.544483	2549.059442
907.851099	2569.896212
908.157675	2552.588250
908.464211	2563.846827
908.770707	2567.375635
909.077163	2559.393808
909.383578	2561.662327
909.689954	2559.897923
909.996289	2557.965481
910.302584	2573.677077
910.608839	2570.316308
910.915054	2558.637635
911.221229	2566.283385
911.527363	2568.467885
911.833458	2552.840308
912.139513	2565.611231
912.445527	2552.756288
912.751502	2563.090654
913.057436	2556.201077
913.363331	2563.510750
913.669186	2561.830365
913.975000	2564.771038
914.280775	2573.677077
914.586510	2562.586538
914.892205	2569.812192
915.197859	2561.578308
915.503475	2571.324538
915.809050	2563.846827
916.114585	2570.484346
916.420081	2563.342712
916.725536	2572.248750
917.030952	2571.576596
917.336328	2572.500808
917.641665	2574.181192
917.946961	2555.192846
918.252218	2572.500808
918.557435	2552.924327
918.862612	2580.902731
919.167750	2549.731596
919.472848	2566.451423
919.777906	2577.710000
920.082925	2568.299846
920.387904	2551.243942
920.692843	2552.504231
920.997743	2557.629404
921.302603	2578.634212
921.607423	2578.550192
921.912204	2560.738115
922.216946	2559.225769
922.521647	2558.973712
922.826310	2564.939077
923.130932	2558.301558
923.435516	2556.033038
923.740059	2557.965481
924.044564	2557.797442
924.349028	2551.243942
924.653454	2544.522404
924.957840	2561.410269
925.262186	2556.621173
925.566493	2561.410269
925.870761	2567.207596
926.174989	2568.719942
926.479178	2559.561846
926.783328	2572.920904
927.087438	2567.711712
927.391509	2563.258692
927.695541	2552.588250
927.999533	2580.566654
928.303486	2573.341000
928.607400	2546.538865
928.911275	2562.334481
929.215110	2556.117058
929.518906	2551.159923
929.822663	2559.981942
930.126381	2556.285096
930.430060	2570.400327
930.733699	2564.098885
931.037299	2551.075904
931.340861	2566.955538
931.644383	2562.166442
931.947866	2583.759385
932.251309	2550.067673
932.554714	2564.518981
932.858080	2542.589962
933.161407	2564.434962
933.464694	2571.324538
933.767943	2544.942500
934.071153	2554.856769
934.374323	2557.041269
934.677455	2572.248750
934.980548	2565.947308
935.283602	2562.250462
935.586617	2553.428442
935.889593	2573.761096
936.192530	2557.629404
936.495428	2558.385577
936.798287	2570.484346
937.101108	2558.637635
937.403890	2559.141750
937.706632	2566.451423
938.009336	2564.014865
938.312002	2549.731596
938.614628	2568.719942
938.917216	2579.306365
939.219765	2554.016577
939.522275	2576.365692
939.824747	2559.309788
940.127179	2570.568365
940.429573	2558.889692
940.731929	2576.197654
941.034246	2559.897923
941.336524	2561.494288
941.638763	2561.578308
941.940964	2561.578308
942.243126	2571.660615
942.545250	2551.748058
942.847335	2558.301558
943.149381	2567.375635
943.451389	2570.568365
943.753359	2553.344423
944.055290	2568.719942
944.357182	2581.070769
944.659036	2567.963769
944.960851	2562.922615
945.262628	2578.298135
945.564367	2556.033038
945.866067	2566.703481
946.167729	2552.588250
946.469352	2554.352654
946.770937	2558.637635
947.072484	2557.713423
947.373992	2552.084135
947.675462	2565.191135
947.976893	2547.715135
948.278286	2564.603000
948.579641	2537.380769
948.880958	2566.199365
949.182236	2554.436673
949.483476	2561.326250
949.784678	2560.149981
950.085841	2572.500808
950.386967	2554.100596
950.688054	2560.738115
950.989103	2576.113635
951.290114	2563.762808
951.591087	2544.858481
951.892021	2564.182904
952.192917	2565.611231
952.493776	2551.075904
952.794596	2558.721654
953.095378	2561.914385
953.396122	2555.360885
953.696828	2567.207596
953.997496	2559.813904
954.298126	2561.242231
954.598718	2573.088942
954.899272	2558.973712
955.199788	2551.075904
955.500266	2565.947308
955.800706	2560.990173
956.101108	2555.276865
956.401472	2555.865000
956.701798	2575.609519
957.002087	2574.013154
957.302337	2565.527212
957.602550	2557.293327
957.902724	2569.224058
958.202861	2570.232288
958.502960	2572.500808
958.803022	2560.906154
959.103045	2555.865000
959.403031	2566.199365
959.702979	2572.836885
960.002889	2565.695250
960.302762	2554.940788
960.602596	2574.097173
960.902393	2559.225769
961.202153	2565.107115
961.501875	2560.906154
961.801559	2558.805673
962.101205	2571.240519
962.400814	2560.065962
962.700385	2569.980231
962.999918	2564.603000
963.299414	2547.631115
963.598873	2561.158212
963.898293	2560.318019
964.197677	2556.705192
964.497022	2555.949019
964.796331	2564.434962
965.095601	2553.596481
965.394835	2560.486058
965.694030	2566.199365
965.993189	2567.039558
966.292309	2539.229192
966.591393	2565.191135
966.890439	2552.840308
967.189447	2557.293327
967.488419	2573.088942
967.787353	2568.383865
968.086249	2570.400327
968.385108	2569.728173
968.683930	2546.370827
968.982714	2577.205885
969.281462	2558.301558
969.580172	2555.780981
969.878844	2557.881462
970.177480	2580.146558
970.476078	2559.981942
970.774639	2573.004923
971.073162	2548.807385
971.371649	2557.125288
971.670098	2556.453135
971.968510	2563.594769
972.266885	2572.920904
972.565223	2546.118769
972.863524	2556.957250
973.161788	2567.627692
973.460014	2563.846827
973.758204	2549.899635
974.056356	2562.418500
974.354471	2559.141750
974.652550	2555.192846
974.950591	2559.897923
975.248595	2553.848538
975.546563	2566.199365
975.844493	2568.972000
976.142386	2559.561846
976.440243	2557.545385
976.738062	2561.242231
977.035845	2566.283385
977.333590	2562.418500
977.631299	2571.072481
977.928971	2570.484346
978.226606	2567.543673
978.524204	2557.713423
978.821765	2556.873231
979.119290	2567.039558
979.416777	2554.772750
979.714228	2543.010058
980.011642	2556.957250
980.309020	2562.250462
980.606360	2566.451423
980.903664	2552.672269
981.200931	2561.158212
981.498162	2573.341000
981.795356	2560.990173
982.092513	2561.830365
982.389633	2560.738115
982.686717	2562.082423
982.983764	2557.965481
983.280775	2560.402038
983.577749	2570.652385
983.874686	2566.451423
984.171587	2553.260404
984.468451	2567.963769
984.765279	2562.838596
985.062070	2564.350942
985.358824	2580.734692
985.655543	2566.619462
985.952224	2565.527212
986.248869	2556.453135
986.545478	2576.533731
986.842050	2559.645865
987.138586	2564.855058
987.435086	2559.813904
987.731549	2555.444904
988.027975	2583.087231
988.324366	2563.342712
988.620719	2567.963769
988.917037	2550.991885
989.213318	2548.891404
989.509563	2568.635923
989.805772	2554.184615
990.101944	2571.156500
990.398080	2554.604712
990.694180	2571.072481
990.990244	2553.176385
991.286271	2544.354365
991.582262	2549.479538
991.878217	2563.090654
992.174136	2560.654096
992.470019	2548.639346
992.765865	2558.133519
993.061676	2563.930846
993.357450	2565.275154
993.653188	2565.443192
993.948890	2565.527212
994.244556	2568.467885
994.540186	2566.199365
994.835780	2567.963769
995.131337	2558.469596
995.426859	2553.176385
995.722345	2558.721654
996.017795	2563.594769
996.313208	2567.291615
996.608586	2549.059442
996.903928	2549.731596
997.199234	2569.392096
997.494504	2571.156500
997.789738	2568.299846
998.084936	2569.560135
998.380099	2556.369115
998.675225	2556.369115
998.970316	2559.225769
999.265371	2559.309788
999.560390	2552.756288
999.855373	2573.677077
1000.150320	2545.530635
1000.445232	2552.756288
1000.740108	2565.947308
1001.034948	2564.014865
1001.329752	2550.403750
1001.624521	2549.563558
1001.919254	2564.855058
1002.213951	2565.107115
1002.508613	2557.461365
1002.803239	2559.729885
1003.097829	2555.276865
1003.392384	2556.789212
1003.686903	2541.329673
1003.981386	2558.469596
1004.275834	2557.125288
1004.570246	2557.881462
1004.864623	2556.369115
1005.158964	2551.496000
1005.453270	2568.887981
1005.747540	2569.056019
1006.041775	2553.428442
1006.335974	2553.176385
1006.630138	2563.258692
1006.924266	2567.963769
1007.218359	2572.164731
1007.512416	2557.209308
1007.806438	2554.688731
1008.100425	2549.563558
1008.394376	2554.520692
1008.688292	2560.654096
1008.982172	2543.094077
1009.276017	2563.342712
1009.569827	2567.375635
1009.863602	2561.242231
1010.157341	2572.752865
1010.451045	2564.939077
1010.744714	2576.701769
1011.038347	2558.637635
1011.331945	2557.797442
1011.625508	2541.665750
1011.919036	2563.510750
1012.212528	2551.243942
1012.505986	2566.199365
1012.799408	2555.444904
1013.092795	2554.100596
1013.386147	2553.428442
1013.679464	2569.812192
1013.972745	2548.471308
1014.265992	2559.057731
1014.559204	2567.207596
1014.852380	2579.390385
1015.145521	2552.252173
1015.438628	2560.990173
1015.731699	2556.117058
1016.024736	2559.729885
1016.317737	2547.631115
1016.610703	2561.074192
1016.903635	2557.125288
1017.196531	2571.324538
1017.489393	2557.713423
1017.782219	2571.744635
1018.075011	2553.596481
1018.367768	2538.725077
1018.660490	2544.606423
1018.953177	2544.606423
1019.245829	2544.606423
