Dividing Wavelength (nm)	Counts (n)	Slit_number_26_of_a_total_of_40	
326.493990	2151.144365
326.888308	2151.144365
327.282561	2151.144365
327.676750	2106.026038
328.070874	2130.727692
328.464933	2132.828173
328.858929	2134.592577
329.252859	2145.599096
329.646726	2162.907058
330.040528	2173.409462
330.434265	2202.732173
330.827938	2219.872096
331.221547	2241.801115
331.615091	2251.127250
332.008571	2283.222596
332.401986	2293.809019
332.795338	2321.283308
333.188625	2336.826865
333.581847	2359.007942
333.975006	2363.124885
334.368100	2386.230173
334.761129	2397.740808
335.154095	2421.686288
335.546996	2454.957904
335.939833	2483.272385
336.332606	2462.183558
336.725315	2486.297077
337.117960	2488.649615
337.510540	2509.150308
337.903056	2512.090981
338.295508	2510.998731
338.687896	2514.863615
339.080220	2553.680500
339.472480	2532.171577
339.864676	2541.077615
340.256807	2532.171577
340.648875	2554.352654
341.040879	2539.985365
341.432818	2544.018288
341.824694	2543.094077
342.216506	2548.303269
342.608253	2541.413692
342.999937	2542.253885
343.391557	2548.051212
343.783113	2532.087558
344.174605	2540.741538
344.566033	2533.179808
344.957397	2539.901346
345.348697	2536.792635
345.739934	2545.614654
346.131106	2528.222673
346.522215	2528.390712
346.913260	2523.937692
347.304241	2524.945923
347.695159	2525.029942
348.086012	2518.560462
348.476802	2531.667462
348.867528	2512.679115
349.258191	2530.659231
349.648789	2523.853673
350.039324	2507.890019
350.429796	2512.343038
350.820203	2521.669173
351.210548	2524.357788
351.600828	2512.175000
351.991045	2515.955865
352.381198	2502.680827
352.771288	2517.048115
353.161314	2506.209635
353.551276	2500.664365
353.941175	2513.771365
354.331010	2512.847154
354.720782	2529.062865
355.110490	2511.838923
355.500135	2526.626308
355.889717	2514.107442
356.279235	2520.576923
356.668689	2524.777885
357.058080	2518.896538
357.447408	2516.459981
357.836672	2521.081038
358.225873	2517.972327
358.615010	2514.611558
359.004084	2527.466500
359.393095	2528.810808
359.782043	2526.794346
360.170927	2532.003538
360.559748	2524.441808
360.948505	2507.637962
361.337199	2523.433577
361.725830	2537.716846
362.114398	2526.626308
362.502903	2518.644481
362.891344	2518.308404
363.279722	2517.720269
363.668037	2527.886596
364.056289	2538.052923
364.444478	2536.876654
364.832603	2524.609846
365.220665	2526.290231
365.608665	2512.259019
365.996601	2521.333096
366.384474	2535.028231
366.772284	2525.197981
367.160031	2521.081038
367.547715	2515.871846
367.935336	2517.468212
368.322893	2514.779596
368.710388	2534.020000
369.097820	2526.458269
369.485189	2524.777885
369.872495	2538.893115
370.259738	2513.015192
370.646918	2530.491192
371.034035	2535.952442
371.421090	2526.710327
371.808081	2535.364308
372.195010	2529.314923
372.581875	2528.222673
372.968678	2530.827269
373.355418	2523.685635
373.742096	2543.934269
374.128710	2532.759712
374.515262	2525.366019
374.901751	2527.802577
375.288177	2545.782692
375.674540	2530.239135
376.060841	2523.601615
376.447079	2522.593385
376.833254	2539.481250
377.219367	2524.105731
377.605417	2525.197981
377.991404	2540.825558
378.377329	2520.913000
378.763191	2549.647577
379.148991	2543.094077
379.534727	2548.723365
379.920402	2536.624596
380.306013	2549.647577
380.691563	2551.916096
381.077049	2538.893115
381.462474	2547.631115
381.847835	2547.379058
382.233134	2545.866712
382.618371	2556.789212
383.003545	2553.008346
383.388657	2552.336192
383.773706	2565.359173
384.158693	2554.184615
384.543618	2568.972000
384.928480	2582.751154
385.313280	2590.985038
385.698017	2595.017962
386.082692	2605.688404
386.467305	2609.133192
386.851856	2630.138000
387.236344	2636.775519
387.620770	2641.312558
388.005133	2664.837942
388.389435	2671.055365
388.773674	2680.381500
389.157851	2695.673000
389.541965	2704.663058
389.926018	2722.727192
390.310008	2736.674385
390.693936	2743.647981
391.077802	2768.853750
391.461606	2776.415481
391.845348	2792.379135
392.229027	2800.529000
392.612645	2810.107192
392.996200	2829.095538
393.379694	2845.479288
393.763125	2870.937115
394.146494	2877.994731
394.529801	2897.571212
394.913047	2934.959769
395.296230	2932.775269
395.679351	2949.579115
396.062410	2958.569173
396.445408	2974.868904
396.828343	2961.173769
397.211217	2996.713904
397.594028	2983.942981
397.976778	3002.679269
398.359466	3008.896692
398.742092	3017.634692
399.124656	3011.753346
399.507158	3030.993750
399.889598	3038.051365
400.271977	3033.766385
400.654294	3033.178250
401.036549	3029.313365
401.418742	3020.239288
401.800874	3035.530788
402.182944	3046.033192
402.564952	3038.807538
402.946898	3043.344577
403.328783	3013.601769
403.710606	3004.359654
404.092367	3029.649442
404.474067	3024.776327
404.855705	2987.135712
405.237282	2959.997500
405.618797	2964.702577
406.000250	2966.046885
406.381642	2971.256077
406.762972	2934.875750
407.144240	2915.047212
407.525447	2894.462500
407.906593	2864.131558
408.287677	2860.770788
408.668700	2839.850000
409.049661	2805.402115
409.430560	2790.446692
409.811399	2768.685712
410.192176	2763.056423
410.572891	2767.341404
410.953545	2752.049904
411.334138	2715.081442
411.714669	2708.107846
412.095139	2692.144192
412.475547	2680.969635
412.855894	2679.625327
413.236180	2653.747404
413.616405	2635.935327
413.996568	2627.533404
414.376670	2631.734365
414.756711	2621.400000
415.136691	2606.192519
415.516609	2604.344096
415.896466	2579.894500
416.276262	2589.976808
416.655997	2584.431538
417.035670	2597.874615
417.415283	2588.380442
417.794834	2563.510750
418.174324	2575.441481
418.553753	2584.599577
418.933121	2562.838596
419.312428	2561.578308
419.691674	2570.568365
420.070859	2568.047788
420.449983	2556.117058
420.829045	2557.713423
421.208047	2576.785788
421.586988	2567.711712
421.965867	2573.172962
422.344686	2553.848538
422.723444	2568.972000
423.102141	2558.973712
423.480777	2558.553615
423.859352	2546.790923
424.237866	2554.520692
424.616319	2559.981942
424.994712	2569.392096
425.373044	2561.242231
425.751314	2538.473019
426.129524	2543.178096
426.507673	2534.272058
426.885762	2565.023096
427.263789	2558.721654
427.641756	2550.403750
428.019662	2565.863288
428.397508	2554.520692
428.775292	2558.133519
429.153016	2570.064250
429.530679	2548.975423
429.908282	2548.975423
430.285824	2560.906154
430.663305	2567.375635
431.040726	2552.420212
431.418086	2564.014865
431.795385	2546.454846
432.172624	2565.275154
432.549802	2548.723365
432.926920	2565.023096
433.303977	2557.797442
433.680974	2552.168154
434.057910	2568.803962
434.434786	2548.135231
434.811601	2559.645865
435.188355	2554.856769
435.565050	2548.723365
435.941683	2544.606423
436.318257	2569.980231
436.694770	2555.696962
437.071222	2546.454846
437.447614	2557.041269
437.823946	2558.889692
438.200218	2568.383865
438.576429	2545.698673
438.952580	2565.863288
439.328670	2549.395519
439.704700	2567.039558
440.080670	2558.301558
440.456580	2556.285096
440.832429	2549.983654
441.208218	2554.772750
441.583947	2544.522404
441.959616	2571.744635
442.335224	2547.883173
442.710773	2565.191135
443.086261	2570.232288
443.461689	2555.528923
443.837057	2558.133519
444.212365	2556.621173
444.587612	2564.603000
444.962800	2546.370827
445.337927	2561.074192
445.712995	2555.696962
446.088002	2569.644154
446.462949	2546.370827
446.837837	2575.273442
447.212664	2547.042981
447.587431	2574.181192
447.962139	2554.520692
448.336786	2571.324538
448.711374	2553.344423
449.085901	2563.174673
449.460369	2553.176385
449.834776	2578.550192
450.209124	2568.551904
450.583412	2582.751154
450.957640	2553.008346
451.331808	2559.057731
451.705917	2566.199365
452.079965	2559.225769
452.453954	2564.434962
452.827883	2569.140038
453.201752	2572.500808
453.575562	2572.248750
453.949311	2564.266923
454.323001	2549.563558
454.696632	2552.924327
455.070202	2561.830365
455.443713	2575.273442
455.817164	2555.780981
456.190556	2550.235712
456.563888	2562.838596
456.937160	2571.156500
457.310373	2578.802250
457.683526	2562.754577
458.056619	2572.836885
458.429653	2555.024808
458.802628	2568.131808
459.175542	2574.181192
459.548398	2564.855058
459.921194	2553.260404
460.293930	2585.103692
460.666607	2567.795731
461.039224	2574.265212
461.411782	2563.762808
461.784280	2554.940788
462.156719	2568.972000
462.529099	2584.347519
462.901419	2545.950731
463.273680	2551.411981
463.645882	2564.266923
464.018024	2567.123577
464.390106	2557.545385
464.762130	2577.541962
465.134094	2561.158212
465.505999	2575.021385
465.877845	2566.199365
466.249631	2565.611231
466.621358	2570.064250
466.993026	2566.451423
467.364634	2573.845115
467.736184	2563.342712
468.107674	2562.670558
468.479105	2558.385577
468.850477	2589.724750
469.221790	2571.324538
469.593043	2574.685308
469.964238	2564.182904
470.335373	2570.904442
470.706449	2566.199365
471.077467	2558.805673
471.448425	2563.678788
471.819324	2563.678788
472.190164	2575.357462
472.560945	2577.625981
472.931667	2562.922615
473.302330	2578.466173
473.672934	2549.815615
474.043479	2566.031327
474.413965	2577.962058
474.784393	2589.388673
475.154761	2568.215827
475.525070	2565.107115
475.895321	2574.013154
476.265513	2585.859865
476.635645	2563.930846
477.005719	2578.718231
477.375734	2577.625981
477.745691	2558.217538
478.115588	2580.230577
478.485427	2559.981942
478.855207	2571.744635
479.224928	2581.742923
479.594591	2569.308077
479.964194	2573.845115
480.333739	2577.962058
480.703226	2574.181192
481.072653	2569.224058
481.442022	2572.920904
481.811333	2561.662327
482.180584	2565.359173
482.549777	2580.062538
482.918912	2583.675365
483.287988	2576.701769
483.657005	2562.334481
484.025964	2562.334481
484.394864	2570.148269
484.763706	2577.205885
485.132489	2569.644154
485.501213	2591.489154
485.869879	2578.382154
486.238487	2567.963769
486.607036	2566.115346
486.975527	2586.532019
487.343959	2573.341000
487.712333	2579.810481
488.080648	2573.929135
488.448905	2586.363981
488.817104	2574.517269
489.185244	2575.441481
489.553326	2555.865000
489.921350	2576.113635
490.289315	2573.677077
490.657222	2566.199365
491.025070	2564.603000
491.392861	2564.855058
491.760593	2579.138327
492.128267	2584.263500
492.495883	2576.365692
492.863440	2562.670558
493.230939	2568.719942
493.598380	2561.578308
493.965763	2563.426731
494.333088	2582.919192
494.700354	2564.434962
495.067563	2581.826942
495.434713	2570.988462
495.801805	2584.179481
496.168839	2574.349231
496.535815	2573.256981
496.902733	2554.940788
497.269593	2583.759385
497.636395	2582.667135
498.003139	2568.215827
498.369825	2578.970288
498.736453	2590.060827
499.103023	2566.199365
499.469535	2554.940788
499.835989	2593.505615
500.202385	2557.041269
500.568723	2561.326250
500.935003	2580.734692
501.301226	2571.744635
501.667390	2554.856769
502.033497	2571.240519
502.399546	2585.523788
502.765537	2571.324538
503.131470	2573.929135
503.497345	2569.980231
503.863163	2577.289904
504.228923	2583.675365
504.594625	2573.761096
504.960269	2579.894500
505.325856	2576.365692
505.691385	2570.316308
506.056856	2589.472692
506.422270	2572.080712
506.787625	2583.423308
507.152924	2575.861577
507.518164	2585.775846
507.883347	2571.072481
508.248472	2566.703481
508.613540	2589.136615
508.978550	2571.828654
509.343503	2574.601288
509.708398	2577.121865
510.073236	2573.088942
510.438016	2568.131808
510.802738	2573.172962
511.167403	2596.698346
511.532010	2583.339288
511.896561	2572.080712
512.261053	2579.558423
512.625488	2585.187712
512.989866	2590.396904
513.354186	2565.695250
513.718449	2582.163019
514.082655	2577.373923
514.446803	2581.994981
514.810894	2566.955538
515.174927	2573.509038
515.538904	2573.256981
515.902822	2565.191135
516.266684	2579.306365
516.630488	2564.939077
516.994235	2576.617750
517.357925	2577.037846
517.721558	2575.441481
518.085133	2572.416788
518.448651	2567.207596
518.812112	2567.543673
519.175516	2563.342712
519.538863	2566.031327
519.902152	2575.609519
520.265385	2570.484346
520.628560	2580.398615
520.991678	2574.517269
521.354739	2569.560135
521.717743	2554.688731
522.080690	2591.909250
522.443580	2569.140038
522.806413	2590.732981
523.169189	2578.886269
523.531908	2579.894500
523.894569	2577.625981
524.257174	2576.617750
524.619722	2589.724750
524.982213	2562.922615
525.344647	2577.625981
525.707025	2587.876327
526.069345	2571.996692
526.431608	2578.634212
526.793815	2576.701769
527.155964	2575.693538
527.518057	2582.415077
527.880093	2576.365692
528.242072	2576.785788
528.603995	2578.466173
528.965860	2574.601288
529.327669	2585.859865
529.689421	2587.624269
530.051117	2570.736404
530.412755	2580.146558
530.774337	2563.846827
531.135862	2581.154788
531.497331	2579.558423
531.858743	2579.726462
532.220098	2587.204173
532.581396	2565.527212
532.942638	2572.080712
533.303824	2581.238808
533.664953	2590.817000
534.026025	2561.746346
534.387040	2566.787500
534.747999	2573.593058
535.108902	2565.275154
535.469748	2581.994981
535.830537	2575.861577
536.191270	2574.433250
536.551947	2584.011442
536.912567	2585.859865
537.273131	2592.497385
537.633638	2573.088942
537.994089	2567.459654
538.354483	2574.685308
538.714821	2572.584827
539.075103	2580.398615
539.435328	2587.708288
539.795497	2571.912673
540.155609	2568.803962
540.515665	2580.482635
540.875665	2564.518981
541.235609	2576.953827
541.595496	2573.088942
541.955328	2568.719942
542.315102	2579.054308
542.674821	2581.658904
543.034483	2577.373923
543.394090	2570.904442
543.753640	2579.810481
544.113134	2581.490865
544.472571	2574.853346
544.831953	2571.240519
545.191278	2578.130096
545.550548	2573.172962
545.909761	2580.146558
546.268918	2581.910962
546.628019	2591.321115
546.987064	2585.271731
547.346053	2582.499096
547.704986	2599.891077
548.063863	2573.509038
548.422684	2579.222346
548.781449	2599.218923
549.140158	2579.642442
549.498811	2568.131808
549.857408	2586.111923
550.215949	2577.625981
550.574434	2568.299846
550.932864	2585.187712
551.291237	2580.818712
551.649555	2573.509038
552.007817	2565.191135
552.366022	2569.728173
552.724173	2568.635923
553.082267	2580.902731
553.440305	2585.271731
553.798288	2581.574885
554.156215	2570.064250
554.514086	2588.128385
554.871902	2571.240519
555.229661	2568.383865
555.587365	2584.095462
555.945014	2581.742923
556.302606	2577.457942
556.660143	2585.607808
557.017625	2587.708288
557.375050	2583.255269
557.732421	2570.988462
558.089735	2589.304654
558.446994	2578.718231
558.804197	2589.892788
559.161345	2570.148269
559.518437	2578.046077
559.875474	2583.087231
560.232455	2581.742923
560.589381	2594.513846
560.946251	2577.625981
561.303065	2573.761096
561.659825	2583.423308
562.016528	2588.716519
562.373177	2567.123577
562.729770	2585.019673
563.086307	2589.808769
563.442789	2587.624269
563.799216	2566.703481
564.155587	2564.939077
564.511904	2581.406846
564.868164	2584.179481
565.224370	2566.871519
565.580520	2579.390385
565.936615	2594.261788
566.292654	2581.910962
566.648638	2581.994981
567.004567	2562.922615
567.360441	2571.324538
567.716260	2578.130096
568.072023	2580.062538
568.427732	2580.230577
568.783385	2572.752865
569.138982	2575.441481
569.494525	2580.734692
569.850013	2583.255269
570.205445	2576.785788
570.560823	2581.826942
570.916145	2562.502519
571.271412	2572.500808
571.626625	2562.922615
571.981782	2571.828654
572.336884	2576.365692
572.691931	2572.332769
573.046923	2573.088942
573.401860	2565.443192
573.756743	2560.738115
574.111570	2568.887981
574.466342	2584.515558
574.821059	2580.482635
575.175722	2576.029615
575.530330	2575.357462
575.884882	2588.296423
576.239380	2580.230577
576.593823	2588.968577
576.948211	2564.014865
577.302544	2568.467885
577.656823	2567.543673
578.011047	2574.181192
578.365216	2581.826942
578.719330	2575.105404
579.073389	2584.851635
579.427394	2574.769327
579.781344	2578.466173
580.135239	2578.886269
580.489080	2571.660615
580.842866	2569.896212
581.196597	2586.952115
581.550273	2574.685308
581.903895	2589.640731
582.257463	2568.047788
582.610975	2578.130096
582.964434	2584.011442
583.317837	2577.121865
583.671186	2574.433250
584.024481	2572.332769
584.377721	2576.533731
584.730906	2590.396904
585.084037	2575.693538
585.437113	2569.392096
585.790135	2585.355750
586.143103	2571.072481
586.496016	2583.087231
586.848874	2578.634212
587.201679	2572.332769
587.554428	2566.283385
587.907124	2577.794019
588.259765	2574.433250
588.612352	2572.836885
588.964884	2594.009731
589.317362	2593.337577
589.669786	2575.441481
590.022155	2577.625981
590.374470	2571.744635
590.726731	2576.785788
591.078937	2573.341000
591.431090	2582.583115
591.783188	2590.396904
592.135232	2585.187712
592.487222	2600.395192
592.839157	2575.525500
593.191038	2585.523788
593.542866	2583.927423
593.894639	2574.097173
594.246358	2575.441481
594.598022	2566.787500
594.949633	2585.523788
595.301190	2574.013154
595.652692	2564.266923
596.004141	2571.912673
596.355535	2581.574885
596.706876	2592.245327
597.058162	2565.191135
597.409395	2581.658904
597.760573	2569.224058
598.111698	2571.912673
598.462768	2573.677077
598.813785	2566.031327
599.164748	2579.978519
599.515657	2567.291615
599.866511	2561.158212
600.217312	2591.657192
600.568060	2571.408558
600.918753	2599.218923
601.269392	2554.184615
601.619978	2585.859865
601.970510	2579.894500
602.320988	2568.299846
602.671412	2581.742923
603.021783	2581.154788
603.372100	2569.476115
603.722363	2574.853346
604.072572	2568.972000
604.422728	2586.868096
604.772830	2569.476115
605.122878	2573.761096
605.472872	2560.906154
605.822813	2582.919192
606.172701	2583.675365
606.522534	2583.927423
606.872314	2574.349231
607.222041	2583.927423
607.571714	2581.742923
607.921333	2568.887981
608.270899	2572.752865
608.620411	2565.695250
608.969870	2568.131808
609.319276	2573.172962
609.668627	2588.464462
610.017926	2579.054308
610.367171	2581.994981
610.716362	2578.802250
611.065500	2570.820423
611.414585	2574.517269
611.763616	2588.884558
612.112594	2574.937365
612.461518	2570.652385
612.810389	2570.904442
613.159207	2566.031327
613.507971	2585.943885
613.856682	2575.021385
614.205340	2581.574885
614.553945	2561.914385
614.902496	2583.171250
615.250994	2575.861577
615.599439	2588.380442
615.947830	2587.204173
616.296169	2572.080712
616.644454	2565.695250
616.992686	2587.708288
617.340864	2571.576596
617.688990	2572.668846
618.037063	2563.846827
618.385082	2579.138327
618.733048	2589.808769
619.080961	2573.088942
619.428821	2581.574885
619.776628	2582.667135
620.124382	2576.365692
620.472083	2582.583115
620.819731	2573.172962
621.167326	2577.037846
621.514868	2575.777558
621.862357	2574.601288
622.209793	2578.382154
622.557176	2563.846827
622.904506	2562.754577
623.251783	2577.121865
623.599007	2576.869808
623.946179	2582.667135
624.293297	2570.652385
624.640363	2572.164731
624.987376	2576.869808
625.334336	2580.146558
625.681243	2574.181192
626.028097	2577.205885
626.374899	2581.070769
626.721647	2577.205885
627.068343	2581.826942
627.414987	2564.182904
627.761577	2560.318019
628.108115	2570.988462
628.454600	2572.584827
628.801032	2582.247038
629.147412	2564.350942
629.493739	2570.568365
629.840014	2573.004923
630.186236	2574.013154
630.532405	2568.551904
630.878521	2578.802250
631.224585	2570.904442
631.570597	2569.224058
631.916556	2564.182904
632.262462	2589.976808
632.608316	2578.298135
632.954117	2584.683596
633.299866	2580.230577
633.645562	2578.382154
633.991206	2566.703481
634.336797	2579.558423
634.682336	2571.576596
635.027823	2567.375635
635.373257	2567.375635
635.718639	2579.138327
636.063968	2574.013154
636.409245	2571.408558
636.754470	2588.548481
637.099642	2579.894500
637.444762	2591.993269
637.789829	2577.794019
638.134845	2574.853346
638.479808	2593.421596
638.824719	2580.146558
639.169577	2567.627692
639.514383	2566.283385
639.859137	2577.625981
640.203839	2593.001500
640.548489	2594.681885
640.893086	2577.373923
641.237632	2575.609519
641.582125	2577.710000
641.926566	2568.131808
642.270955	2568.215827
642.615292	2570.820423
642.959576	2574.265212
643.303809	2570.988462
643.647990	2577.457942
643.992118	2594.681885
644.336195	2562.754577
644.680219	2559.897923
645.024192	2570.568365
645.368112	2547.799154
645.711981	2571.156500
646.055797	2580.314596
646.399562	2585.271731
646.743274	2583.087231
647.086935	2583.339288
647.430544	2562.586538
647.774101	2574.685308
648.117606	2570.652385
648.461059	2582.163019
648.804460	2593.421596
649.147810	2586.111923
649.491108	2578.886269
649.834354	2572.668846
650.177548	2579.894500
650.520690	2573.425019
650.863781	2568.551904
651.206820	2576.617750
651.549807	2556.117058
651.892742	2573.845115
652.235626	2576.785788
652.578458	2573.593058
652.921238	2569.308077
653.263967	2579.054308
653.606644	2577.373923
653.949269	2578.550192
654.291843	2584.431538
654.634365	2580.398615
654.976836	2571.996692
655.319255	2576.365692
655.661622	2576.113635
656.003938	2588.548481
656.346203	2579.642442
656.688416	2586.448000
657.030577	2560.486058
657.372687	2579.138327
657.714746	2579.558423
658.056753	2576.953827
658.398708	2571.408558
658.740612	2577.289904
659.082465	2570.316308
659.424266	2564.350942
659.766016	2584.263500
660.107715	2560.065962
660.449362	2574.013154
660.790958	2597.622558
661.132503	2573.425019
661.473996	2568.467885
661.815438	2562.418500
662.156829	2559.897923
662.498168	2564.939077
662.839456	2562.250462
663.180693	2553.932558
663.521879	2576.617750
663.863013	2577.457942
664.204097	2570.568365
664.545129	2578.550192
664.886110	2565.611231
665.227040	2571.156500
665.567918	2574.013154
665.908746	2560.065962
666.249522	2580.986750
666.590248	2584.347519
666.930922	2571.828654
667.271545	2590.901019
667.612118	2575.525500
667.952639	2571.408558
668.293109	2571.072481
668.633528	2587.372212
668.973896	2575.189423
669.314213	2580.314596
669.654480	2590.396904
669.994695	2587.792308
670.334859	2571.660615
670.674973	2575.441481
671.015035	2584.515558
671.355047	2570.736404
671.695008	2582.751154
672.034918	2570.904442
672.374777	2574.433250
672.714585	2577.625981
673.054342	2580.734692
673.394049	2580.734692
673.733705	2591.573173
674.073310	2581.826942
674.412864	2572.164731
674.752368	2566.955538
675.091820	2568.887981
675.431223	2576.449712
675.770574	2576.197654
676.109875	2564.518981
676.449125	2578.466173
676.788324	2577.373923
677.127473	2580.734692
677.466571	2585.943885
677.805619	2568.047788
678.144616	2573.004923
678.483562	2562.502519
678.822458	2574.265212
679.161303	2565.863288
679.500098	2574.349231
679.838842	2586.952115
680.177535	2575.945596
680.516179	2575.609519
680.854771	2563.174673
681.193314	2577.205885
681.531805	2572.080712
681.870247	2566.115346
682.208638	2576.617750
682.546978	2570.148269
682.885268	2569.896212
683.223508	2570.988462
683.561697	2577.037846
683.899836	2583.927423
684.237925	2577.373923
684.575963	2577.289904
684.913951	2562.502519
685.251889	2571.240519
685.589776	2586.448000
685.927614	2573.593058
686.265401	2565.275154
686.603137	2592.077288
686.940824	2571.912673
687.278460	2573.761096
687.616046	2562.586538
687.953582	2584.851635
688.291068	2587.876327
688.628504	2570.400327
688.965889	2590.817000
689.303224	2601.151365
689.640510	2575.945596
689.977745	2593.421596
690.314930	2580.986750
690.652065	2569.728173
690.989150	2574.349231
691.326185	2569.224058
691.663170	2568.972000
692.000105	2578.634212
692.336990	2568.551904
692.673825	2574.769327
693.010610	2578.634212
693.347345	2556.537154
693.684030	2583.675365
694.020665	2573.425019
694.357251	2573.845115
694.693786	2569.056019
695.030272	2568.887981
695.366707	2568.467885
695.703093	2575.693538
696.039429	2570.568365
696.375716	2572.080712
696.711952	2576.029615
697.048139	2575.357462
697.384276	2572.248750
697.720363	2571.324538
698.056400	2560.570077
698.392388	2565.527212
698.728326	2576.533731
699.064214	2567.543673
699.400053	2572.248750
699.735842	2569.476115
700.071581	2561.494288
700.407270	2567.123577
700.742910	2575.273442
701.078501	2583.927423
701.414042	2570.988462
701.749533	2573.341000
702.084974	2577.878038
702.420366	2558.553615
702.755709	2567.123577
703.091002	2574.265212
703.426246	2558.553615
703.761440	2573.088942
704.096584	2567.795731
704.431679	2581.154788
704.766725	2574.349231
705.101721	2565.107115
705.436668	2567.123577
705.771565	2579.390385
706.106413	2566.619462
706.441212	2574.265212
706.775961	2583.591346
707.110661	2573.509038
707.445311	2561.746346
707.779913	2583.507327
708.114465	2560.486058
708.448967	2581.154788
708.783421	2561.242231
709.117825	2574.433250
709.452180	2573.677077
709.786485	2573.004923
710.120742	2570.316308
710.454949	2573.256981
710.789107	2572.836885
711.123216	2571.576596
711.457275	2563.006635
711.791286	2579.642442
712.125247	2571.912673
712.459159	2579.894500
712.793023	2580.650673
713.126837	2558.721654
713.460602	2561.578308
713.794318	2574.937365
714.127985	2572.332769
714.461602	2571.156500
714.795171	2574.769327
715.128691	2568.047788
715.462162	2561.998404
715.795584	2578.970288
716.128957	2572.584827
716.462281	2567.123577
716.795556	2567.207596
717.128782	2568.131808
717.461960	2577.962058
717.795088	2568.719942
718.128167	2576.533731
718.461198	2572.416788
718.794180	2572.332769
719.127113	2574.937365
719.459997	2572.332769
719.792833	2579.642442
720.125619	2557.713423
720.458357	2560.486058
720.791046	2557.713423
721.123686	2566.451423
721.456278	2577.373923
721.788821	2567.627692
722.121315	2578.382154
722.453761	2568.887981
722.786158	2565.359173
723.118506	2574.349231
723.450805	2573.004923
723.783056	2577.121865
724.115259	2576.029615
724.447412	2557.461365
724.779518	2563.678788
725.111574	2575.357462
725.443582	2583.423308
725.775542	2565.107115
726.107453	2573.929135
726.439315	2583.339288
726.771129	2589.220635
727.102895	2578.130096
727.434612	2563.174673
727.766281	2561.326250
728.097901	2570.736404
728.429473	2575.861577
728.760996	2585.019673
729.092471	2570.316308
729.423897	2579.054308
729.755276	2564.687019
730.086606	2567.207596
730.417887	2557.881462
730.749120	2588.380442
731.080305	2559.897923
731.411442	2574.349231
731.742530	2559.309788
732.073570	2573.677077
732.404562	2575.189423
732.735506	2573.256981
733.066401	2573.425019
733.397249	2573.593058
733.728048	2573.256981
734.058798	2568.215827
734.389501	2583.591346
734.720156	2585.271731
735.050762	2576.365692
735.381320	2563.762808
735.711831	2575.441481
736.042293	2576.197654
736.372707	2583.507327
736.703073	2581.910962
737.033391	2567.963769
737.363661	2575.105404
737.693883	2566.283385
738.024056	2569.980231
738.354182	2571.576596
738.684260	2559.561846
739.014290	2562.754577
739.344272	2582.583115
739.674207	2572.668846
740.004093	2576.869808
740.333931	2561.998404
740.663722	2593.589635
740.993464	2568.131808
741.323159	2576.197654
741.652806	2571.240519
741.982405	2575.609519
742.311956	2571.912673
742.641460	2560.065962
742.970915	2568.047788
743.300323	2569.476115
743.629683	2573.929135
743.958996	2559.813904
744.288260	2563.762808
744.617477	2569.812192
744.946647	2565.107115
745.275768	2568.635923
745.604842	2559.561846
745.933869	2569.980231
746.262847	2567.963769
746.591778	2570.736404
746.920662	2576.869808
747.249498	2573.509038
747.578286	2563.342712
747.907027	2578.466173
748.235720	2565.443192
748.564365	2577.625981
748.892963	2557.881462
749.221514	2568.215827
749.550017	2561.662327
749.878473	2579.306365
750.206881	2571.156500
750.535242	2570.232288
750.863555	2556.621173
751.191821	2557.881462
751.520039	2560.570077
751.848210	2581.994981
752.176334	2569.560135
752.504411	2570.820423
752.832440	2568.803962
753.160421	2566.955538
753.488356	2554.016577
753.816243	2577.962058
754.144082	2579.726462
754.471875	2559.729885
754.799620	2576.701769
755.127318	2571.576596
755.454969	2563.426731
755.782572	2568.131808
756.110129	2562.502519
756.437638	2575.441481
756.765100	2570.316308
757.092515	2567.207596
757.419882	2565.863288
757.747203	2571.828654
758.074477	2561.410269
758.401703	2570.988462
758.728882	2569.392096
759.056014	2565.443192
759.383099	2572.584827
759.710138	2564.939077
760.037129	2569.392096
760.364073	2563.006635
760.690970	2582.919192
761.017820	2569.728173
761.344623	2567.291615
761.671379	2575.357462
761.998088	2566.199365
762.324751	2577.962058
762.651366	2571.828654
762.977935	2570.652385
763.304456	2573.172962
763.630931	2568.887981
763.957359	2567.795731
764.283740	2580.902731
764.610074	2559.729885
764.936362	2568.467885
765.262602	2579.978519
765.588796	2558.637635
765.914943	2572.584827
766.241044	2571.660615
766.567097	2556.957250
766.893104	2576.113635
767.219064	2569.896212
767.544978	2571.660615
767.870845	2556.705192
768.196665	2576.197654
768.522438	2554.772750
768.848165	2567.291615
769.173846	2567.459654
769.499479	2573.929135
769.825066	2571.492577
770.150607	2569.560135
770.476101	2562.334481
770.801548	2559.645865
771.126949	2565.107115
771.452303	2570.484346
771.777611	2563.678788
772.102872	2564.603000
772.428087	2561.998404
772.753256	2563.174673
773.078378	2568.383865
773.403453	2571.408558
773.728482	2572.500808
774.053465	2563.930846
774.378401	2560.654096
774.703291	2551.916096
775.028135	2572.080712
775.352932	2553.260404
775.677683	2551.075904
776.002388	2566.283385
776.327046	2575.357462
776.651658	2572.332769
776.976224	2565.947308
777.300743	2570.400327
777.625216	2570.652385
777.949643	2551.916096
778.274024	2552.084135
778.598359	2566.031327
778.922647	2554.352654
779.246889	2560.906154
779.571086	2578.802250
779.895236	2579.222346
780.219339	2568.719942
780.543397	2557.881462
780.867409	2552.252173
781.191374	2565.023096
781.515294	2564.098885
781.839167	2556.789212
782.162995	2572.080712
782.486776	2566.619462
782.810511	2575.861577
783.134201	2558.805673
783.457844	2554.436673
783.781441	2569.560135
784.104993	2568.131808
784.428498	2567.879750
784.751958	2565.107115
785.075372	2575.777558
785.398739	2582.919192
785.722061	2567.711712
786.045337	2559.477827
786.368568	2566.367404
786.691752	2578.886269
787.014891	2576.869808
787.337983	2556.117058
787.661030	2577.794019
787.984031	2572.248750
788.306987	2567.459654
788.629897	2573.004923
788.952760	2582.583115
789.275579	2575.357462
789.598351	2575.357462
789.921078	2569.056019
790.243759	2563.762808
790.566395	2574.769327
790.888984	2567.039558
791.211529	2565.359173
791.534027	2566.451423
791.856480	2566.871519
792.178888	2577.625981
792.501249	2560.990173
792.823566	2551.916096
793.145836	2577.037846
793.468062	2553.932558
793.790241	2571.912673
794.112375	2578.970288
794.434464	2570.988462
794.756507	2572.248750
795.078505	2556.453135
795.400457	2558.637635
795.722364	2548.051212
796.044226	2576.617750
796.366042	2560.234000
796.687812	2558.385577
797.009538	2570.400327
797.331218	2578.214115
797.652852	2570.736404
797.974442	2570.652385
798.295986	2571.912673
798.617484	2548.051212
798.938938	2573.004923
799.260346	2571.156500
799.581709	2576.113635
799.903026	2562.922615
800.224299	2574.769327
800.545526	2563.090654
800.866708	2573.845115
801.187845	2565.695250
801.508936	2551.411981
801.829983	2572.332769
802.150984	2565.779269
802.471940	2570.064250
802.792851	2574.181192
803.113717	2583.255269
803.434538	2570.736404
803.755314	2570.064250
804.076045	2570.820423
804.396731	2565.275154
804.717372	2574.265212
805.037967	2568.719942
805.358518	2556.285096
805.679024	2566.115346
805.999485	2588.800538
806.319901	2559.477827
806.640272	2558.217538
806.960598	2561.914385
807.280879	2562.838596
807.601115	2577.962058
807.921306	2557.041269
808.241453	2570.484346
808.561554	2549.731596
808.881611	2554.184615
809.201623	2561.494288
809.521590	2564.939077
809.841513	2566.619462
810.161390	2559.729885
810.481223	2574.181192
810.801011	2563.510750
811.120755	2574.181192
811.440453	2566.199365
811.760107	2570.988462
812.079716	2575.609519
812.399281	2566.535442
812.718801	2567.039558
813.038276	2572.920904
813.357707	2563.762808
813.677093	2555.192846
813.996434	2561.242231
814.315731	2562.922615
814.634983	2558.973712
814.954191	2563.090654
815.273354	2573.593058
815.592473	2578.214115
815.911547	2554.016577
816.230577	2561.998404
816.549562	2562.670558
816.868502	2555.865000
817.187399	2572.584827
817.506250	2571.660615
817.825058	2557.461365
818.143821	2565.443192
818.462539	2563.342712
818.781213	2552.084135
819.099843	2567.543673
819.418429	2572.836885
819.736970	2551.075904
820.055466	2569.980231
820.373919	2566.871519
820.692327	2569.560135
821.010691	2579.978519
821.329011	2575.693538
821.647286	2573.761096
821.965517	2580.566654
822.283704	2580.314596
822.601847	2590.564942
822.919945	2582.583115
823.237999	2581.406846
823.556010	2588.380442
823.873976	2581.742923
824.191897	2588.968577
824.509775	2580.650673
824.827609	2573.088942
825.145398	2569.056019
825.463144	2572.080712
825.780845	2581.742923
826.098502	2567.207596
826.416116	2562.670558
826.733685	2574.685308
827.051210	2585.355750
827.368692	2573.593058
827.686129	2587.960346
828.003522	2567.375635
828.320872	2586.195942
828.638177	2576.869808
828.955439	2576.953827
829.272656	2554.100596
829.589830	2557.377346
829.906960	2577.710000
830.224046	2560.990173
830.541088	2575.021385
830.858086	2565.443192
831.175041	2568.803962
831.491952	2573.677077
831.808819	2564.687019
832.125642	2568.719942
832.442421	2566.955538
832.759157	2574.601288
833.075849	2560.065962
833.392497	2566.955538
833.709101	2566.283385
834.025662	2568.972000
834.342179	2554.352654
834.658653	2571.660615
834.975083	2562.586538
835.291469	2578.886269
835.607811	2571.996692
835.924110	2553.848538
836.240366	2563.090654
836.556578	2571.660615
836.872746	2557.965481
837.188871	2581.070769
837.504952	2569.308077
837.820990	2570.484346
838.136984	2568.551904
838.452935	2548.471308
838.768842	2569.224058
839.084706	2577.289904
839.400526	2570.316308
839.716303	2571.660615
840.032037	2550.907865
840.347727	2563.090654
840.663373	2557.461365
840.978977	2564.603000
841.294537	2558.049500
841.610054	2560.906154
841.925527	2561.746346
842.240957	2561.746346
842.556344	2566.115346
842.871687	2573.341000
843.186987	2575.693538
843.502244	2571.492577
843.817458	2575.273442
844.132629	2570.652385
844.447756	2543.262115
844.762840	2576.953827
845.077881	2561.662327
845.392879	2557.041269
845.707833	2577.625981
846.022745	2568.131808
846.337613	2572.668846
846.652438	2551.075904
846.967221	2559.393808
847.281960	2550.655808
847.596656	2555.949019
847.911309	2568.047788
848.225919	2564.603000
848.540485	2566.535442
848.855009	2560.906154
849.169490	2549.479538
849.483928	2557.545385
849.798323	2567.459654
850.112675	2574.685308
850.426984	2569.308077
850.741251	2581.658904
851.055474	2560.234000
851.369654	2574.517269
851.683792	2569.476115
851.997887	2562.670558
852.311938	2562.922615
852.625947	2575.525500
852.939914	2557.629404
853.253837	2549.143462
853.567718	2569.812192
853.881555	2556.705192
854.195350	2576.365692
854.509103	2554.016577
854.822812	2558.133519
855.136479	2566.619462
855.450103	2550.823846
855.763685	2547.042981
856.077224	2558.049500
856.390720	2552.588250
856.704173	2560.065962
857.017584	2580.902731
857.330953	2565.947308
857.644278	2576.281673
857.957561	2566.115346
858.270802	2565.611231
858.584000	2571.240519
858.897155	2561.830365
859.210268	2564.266923
859.523339	2578.046077
859.836367	2557.881462
860.149352	2552.168154
860.462295	2554.688731
860.775195	2562.838596
861.088054	2555.865000
861.400869	2578.886269
861.713642	2566.871519
862.026373	2569.812192
862.339062	2563.258692
862.651708	2574.349231
862.964312	2552.840308
863.276873	2577.794019
863.589392	2552.924327
863.901869	2560.906154
864.214303	2566.703481
864.526696	2572.080712
864.839045	2566.955538
865.151353	2545.446615
865.463619	2567.963769
865.775842	2561.662327
866.088023	2568.972000
866.400162	2559.813904
866.712258	2556.789212
867.024313	2574.517269
867.336325	2546.622885
867.648296	2545.362596
867.960224	2565.107115
868.272110	2577.710000
868.583954	2566.619462
868.895755	2568.972000
869.207515	2579.390385
869.519233	2555.780981
869.830909	2572.332769
870.142542	2550.571788
870.454134	2555.949019
870.765684	2557.545385
871.077191	2544.942500
871.388657	2556.873231
871.700081	2567.123577
872.011463	2551.580019
872.322803	2565.695250
872.634101	2558.973712
872.945357	2579.390385
873.256571	2553.428442
873.567744	2559.393808
873.878874	2557.713423
874.189963	2545.698673
874.501010	2571.492577
874.812015	2555.360885
875.122979	2568.467885
875.433900	2582.667135
875.744780	2567.291615
876.055618	2571.324538
876.366415	2567.879750
876.677169	2568.972000
876.987882	2579.810481
877.298554	2561.410269
877.609183	2568.299846
877.919771	2560.822135
878.230317	2574.265212
878.540822	2578.382154
878.851285	2563.174673
879.161707	2557.461365
879.472087	2569.560135
879.782425	2558.469596
880.092722	2566.955538
880.402977	2576.113635
880.713191	2568.299846
881.023363	2545.782692
881.333494	2574.685308
881.643583	2575.525500
881.953631	2579.306365
882.263637	2586.868096
882.573602	2580.062538
882.883526	2577.710000
883.193408	2562.418500
883.503248	2575.357462
883.813048	2564.350942
884.122806	2573.593058
884.432522	2583.087231
884.742197	2560.234000
885.051831	2557.629404
885.361424	2559.897923
885.670975	2560.906154
885.980485	2552.336192
886.289954	2565.023096
886.599382	2563.090654
886.908768	2569.224058
887.218113	2555.024808
887.527417	2568.887981
887.836680	2570.820423
888.145901	2559.141750
888.455082	2566.451423
888.764221	2567.879750
889.073319	2562.166442
889.382376	2569.812192
889.691392	2561.830365
890.000366	2561.326250
890.309300	2571.492577
890.618193	2565.527212
890.927044	2559.645865
891.235855	2567.123577
891.544625	2568.383865
891.853353	2566.115346
892.162041	2566.619462
892.470687	2581.910962
892.779293	2556.957250
893.087858	2574.097173
893.396381	2557.713423
893.704864	2575.945596
894.013306	2568.551904
894.321707	2558.973712
894.630068	2579.642442
894.938387	2568.719942
895.246665	2560.654096
895.554903	2550.067673
895.863100	2565.611231
896.171256	2570.988462
896.479371	2571.156500
896.787446	2557.209308
897.095480	2567.963769
897.403473	2565.275154
897.711425	2562.586538
898.019336	2564.434962
898.327207	2557.209308
898.635038	2556.117058
898.942827	2555.024808
899.250576	2565.863288
899.558284	2555.276865
899.865952	2554.268635
900.173579	2563.594769
900.481165	2570.652385
900.788711	2562.418500
901.096216	2577.289904
901.403681	2565.443192
901.711105	2558.385577
902.018489	2565.611231
902.325832	2556.705192
902.633135	2559.981942
902.940397	2566.031327
903.247619	2569.560135
903.554800	2567.963769
903.861941	2559.225769
904.169041	2561.746346
904.476101	2572.836885
904.783121	2571.324538
905.090100	2568.467885
905.397039	2563.678788
905.703938	2571.156500
906.010796	2558.637635
906.317614	2552.168154
906.624391	2575.273442
906.931129	2553.596481
907.237826	2541.833788
907.544483	2566.199365
907.851099	2557.797442
908.157675	2560.906154
908.464211	2561.746346
908.770707	2559.981942
909.077163	2557.377346
909.383578	2560.486058
909.689954	2556.285096
909.996289	2558.805673
910.302584	2575.273442
910.608839	2567.879750
910.915054	2564.182904
911.221229	2564.266923
911.527363	2543.094077
911.833458	2561.578308
912.139513	2569.896212
912.445527	2574.853346
912.751502	2560.149981
913.057436	2554.940788
913.363331	2561.494288
913.669186	2559.729885
913.975000	2537.632827
914.280775	2550.655808
914.586510	2545.278577
914.892205	2566.031327
915.197859	2563.174673
915.503475	2560.906154
915.809050	2557.209308
916.114585	2568.551904
916.420081	2561.578308
916.725536	2570.736404
917.030952	2563.426731
917.336328	2571.660615
917.641665	2563.090654
917.946961	2565.191135
918.252218	2564.855058
918.557435	2582.667135
918.862612	2565.359173
919.167750	2562.250462
919.472848	2561.662327
919.777906	2571.828654
920.082925	2565.863288
920.387904	2561.326250
920.692843	2574.853346
920.997743	2566.031327
921.302603	2564.266923
921.607423	2558.889692
921.912204	2576.953827
922.216946	2551.159923
922.521647	2567.207596
922.826310	2546.958962
923.130932	2566.451423
923.435516	2552.420212
923.740059	2567.543673
924.044564	2549.983654
924.349028	2548.723365
924.653454	2569.728173
924.957840	2558.973712
925.262186	2566.367404
925.566493	2564.434962
925.870761	2553.428442
926.174989	2572.332769
926.479178	2562.334481
926.783328	2565.023096
927.087438	2564.098885
927.391509	2562.922615
927.695541	2564.098885
927.999533	2555.276865
928.303486	2554.688731
928.607400	2574.349231
928.911275	2557.545385
929.215110	2551.916096
929.518906	2563.174673
929.822663	2568.635923
930.126381	2579.054308
930.430060	2558.805673
930.733699	2563.426731
931.037299	2558.217538
931.340861	2571.996692
931.644383	2553.596481
931.947866	2547.967192
932.251309	2572.416788
932.554714	2541.245654
932.858080	2563.342712
933.161407	2570.064250
933.464694	2579.894500
933.767943	2559.225769
934.071153	2543.850250
934.374323	2568.215827
934.677455	2548.891404
934.980548	2578.214115
935.283602	2568.972000
935.586617	2568.887981
935.889593	2555.612942
936.192530	2563.678788
936.495428	2580.734692
936.798287	2548.891404
937.101108	2561.410269
937.403890	2540.069385
937.706632	2568.299846
938.009336	2543.346135
938.312002	2569.392096
938.614628	2564.266923
938.917216	2564.182904
939.219765	2568.215827
939.522275	2554.604712
939.824747	2557.881462
940.127179	2569.308077
940.429573	2553.092365
940.731929	2561.578308
941.034246	2559.813904
941.336524	2571.072481
941.638763	2543.178096
941.940964	2565.191135
942.243126	2558.889692
942.545250	2574.937365
942.847335	2552.756288
943.149381	2560.990173
943.451389	2550.319731
943.753359	2574.769327
944.055290	2570.820423
944.357182	2572.080712
944.659036	2550.067673
944.960851	2559.141750
945.262628	2560.065962
945.564367	2558.889692
945.866067	2565.611231
946.167729	2560.822135
946.469352	2568.383865
946.770937	2561.326250
947.072484	2555.696962
947.373992	2544.606423
947.675462	2565.695250
947.976893	2562.586538
948.278286	2564.518981
948.579641	2576.365692
948.880958	2567.207596
949.182236	2566.115346
949.483476	2557.713423
949.784678	2559.645865
950.085841	2558.301558
950.386967	2553.680500
950.688054	2550.067673
950.989103	2570.064250
951.290114	2574.853346
951.591087	2577.962058
951.892021	2562.334481
952.192917	2551.748058
952.493776	2559.645865
952.794596	2574.097173
953.095378	2581.826942
953.396122	2560.149981
953.696828	2567.543673
953.997496	2557.629404
954.298126	2564.603000
954.598718	2550.319731
954.899272	2547.211019
955.199788	2559.141750
955.500266	2564.518981
955.800706	2560.822135
956.101108	2552.336192
956.401472	2566.115346
956.701798	2560.149981
957.002087	2570.652385
957.302337	2553.344423
957.602550	2555.024808
957.902724	2550.823846
958.202861	2546.622885
958.502960	2558.217538
958.803022	2566.031327
959.103045	2572.836885
959.403031	2546.622885
959.702979	2563.762808
960.002889	2560.906154
960.302762	2562.586538
960.602596	2555.865000
960.902393	2565.191135
961.202153	2569.728173
961.501875	2557.713423
961.801559	2562.838596
962.101205	2566.031327
962.400814	2556.201077
962.700385	2562.838596
962.999918	2554.940788
963.299414	2559.225769
963.598873	2549.983654
963.898293	2558.049500
964.197677	2565.527212
964.497022	2552.672269
964.796331	2556.537154
965.095601	2561.242231
965.394835	2543.178096
965.694030	2564.434962
965.993189	2579.222346
966.292309	2555.612942
966.591393	2550.319731
966.890439	2548.975423
967.189447	2559.561846
967.488419	2563.846827
967.787353	2555.612942
968.086249	2546.118769
968.385108	2562.922615
968.683930	2570.484346
968.982714	2563.426731
969.281462	2569.476115
969.580172	2568.131808
969.878844	2556.705192
970.177480	2553.428442
970.476078	2546.538865
970.774639	2577.625981
971.073162	2553.176385
971.371649	2554.520692
971.670098	2561.158212
971.968510	2560.822135
972.266885	2564.434962
972.565223	2566.283385
972.863524	2558.049500
973.161788	2565.443192
973.460014	2560.570077
973.758204	2556.621173
974.056356	2561.998404
974.354471	2559.309788
974.652550	2550.151692
974.950591	2559.981942
975.248595	2553.764519
975.546563	2566.787500
975.844493	2547.127000
976.142386	2540.573500
976.440243	2555.865000
976.738062	2567.039558
977.035845	2574.433250
977.333590	2547.715135
977.631299	2564.687019
977.928971	2554.436673
978.226606	2561.578308
978.524204	2569.392096
978.821765	2549.983654
979.119290	2568.383865
979.416777	2551.580019
979.714228	2555.360885
980.011642	2559.897923
980.309020	2571.576596
980.606360	2550.907865
980.903664	2555.108827
981.200931	2565.695250
981.498162	2554.184615
981.795356	2571.156500
982.092513	2574.349231
982.389633	2570.064250
982.686717	2548.051212
982.983764	2568.131808
983.280775	2547.547096
983.577749	2556.789212
983.874686	2557.293327
984.171587	2564.266923
984.468451	2564.771038
984.765279	2549.227481
985.062070	2563.258692
985.358824	2572.584827
985.655543	2554.100596
985.952224	2577.037846
986.248869	2556.033038
986.545478	2576.281673
986.842050	2553.512462
987.138586	2556.285096
987.435086	2549.899635
987.731549	2563.426731
988.027975	2564.182904
988.324366	2561.158212
988.620719	2570.904442
988.917037	2554.436673
989.213318	2569.392096
989.509563	2544.942500
989.805772	2558.049500
990.101944	2556.033038
990.398080	2576.785788
990.694180	2571.744635
990.990244	2550.403750
991.286271	2553.848538
991.582262	2564.434962
991.878217	2556.957250
992.174136	2569.812192
992.470019	2559.729885
992.765865	2555.612942
993.061676	2567.459654
993.357450	2560.065962
993.653188	2560.990173
993.948890	2555.696962
994.244556	2559.225769
994.540186	2565.779269
994.835780	2566.283385
995.131337	2552.252173
995.426859	2563.258692
995.722345	2553.176385
996.017795	2566.367404
996.313208	2555.444904
996.608586	2550.739827
996.903928	2548.051212
997.199234	2571.744635
997.494504	2561.158212
997.789738	2558.133519
998.084936	2565.863288
998.380099	2568.131808
998.675225	2567.459654
998.970316	2557.209308
999.265371	2564.266923
999.560390	2555.360885
999.855373	2572.668846
1000.150320	2567.627692
1000.445232	2563.258692
1000.740108	2558.217538
1001.034948	2546.538865
1001.329752	2556.537154
1001.624521	2549.227481
1001.919254	2555.192846
1002.213951	2549.983654
1002.508613	2548.135231
1002.803239	2570.232288
1003.097829	2543.514173
1003.392384	2562.418500
1003.686903	2550.151692
1003.981386	2552.672269
1004.275834	2573.341000
1004.570246	2558.049500
1004.864623	2563.846827
1005.158964	2573.425019
1005.453270	2541.161635
1005.747540	2564.434962
1006.041775	2579.726462
1006.335974	2558.049500
1006.630138	2567.291615
1006.924266	2558.889692
1007.218359	2562.754577
1007.512416	2556.117058
1007.806438	2560.906154
1008.100425	2546.538865
1008.394376	2547.883173
1008.688292	2556.537154
1008.982172	2573.761096
1009.276017	2550.403750
1009.569827	2564.182904
1009.863602	2547.127000
1010.157341	2555.444904
1010.451045	2557.797442
1010.744714	2568.467885
1011.038347	2552.504231
1011.331945	2564.182904
1011.625508	2561.830365
1011.919036	2548.891404
1012.212528	2558.301558
1012.505986	2548.387288
1012.799408	2549.899635
1013.092795	2544.438385
1013.386147	2545.950731
1013.679464	2542.926038
1013.972745	2567.207596
1014.265992	2552.840308
1014.559204	2555.276865
1014.852380	2551.327962
1015.145521	2556.369115
1015.438628	2544.942500
1015.731699	2554.856769
1016.024736	2550.571788
1016.317737	2557.797442
1016.610703	2552.168154
1016.903635	2555.192846
1017.196531	2548.303269
1017.489393	2560.318019
1017.782219	2551.496000
1018.075011	2544.354365
1018.367768	2549.059442
1018.660490	2559.561846
1018.953177	2559.561846
1019.245829	2559.561846
