Dividing Wavelength (nm)	Counts (n)	Slit_number_28_of_a_total_of_40	
326.493990	2038.113294
326.888308	2038.113294
327.282561	2038.113294
327.676750	2017.419358
328.070874	2018.251148
328.464933	2026.316994
328.858929	2022.863804
329.252859	2042.927596
329.646726	2054.749102
330.040528	2069.670917
330.434265	2087.768660
330.827938	2109.672473
331.221547	2129.635442
331.615091	2150.178144
332.008571	2174.123625
332.401986	2197.060875
332.795338	2215.612321
333.188625	2235.676113
333.581847	2244.598956
333.975006	2271.846392
334.368100	2284.978598
334.761129	2309.276960
335.154095	2317.241983
335.546996	2332.163798
335.939833	2351.068125
336.332606	2363.267717
336.725315	2371.484798
337.117960	2376.198277
337.510540	2390.968858
337.903056	2396.993037
338.295508	2410.730181
338.687896	2419.224525
339.080220	2423.610329
339.472480	2416.502302
339.864676	2424.316090
340.256807	2429.483273
340.648875	2431.827410
341.040879	2428.298602
341.432818	2430.340269
341.824694	2437.246650
342.216506	2430.491504
342.608253	2430.869590
342.999937	2432.961669
343.391557	2439.968873
343.783113	2433.642225
344.174605	2427.265165
344.566033	2429.987388
344.957397	2433.213727
345.348697	2424.442119
345.739934	2421.644279
346.131106	2416.552713
346.522215	2414.813515
346.913260	2424.391708
347.304241	2420.131933
347.695159	2414.611869
348.086012	2421.140163
348.476802	2412.797054
348.867528	2413.074317
349.258191	2416.930800
349.648789	2409.066600
350.039324	2406.697258
350.429796	2407.226579
350.820203	2411.814029
351.210548	2408.436456
351.600828	2406.747669
351.991045	2404.025446
352.381198	2403.874212
352.771288	2413.603638
353.161314	2402.059396
353.551276	2404.252298
353.941175	2394.346431
354.331010	2408.436456
354.720782	2399.916906
355.110490	2401.756927
355.500135	2402.689540
355.889717	2415.015162
356.279235	2412.494585
356.668689	2403.798594
357.058080	2404.554767
357.447408	2407.730694
357.836672	2412.822260
358.225873	2399.488408
358.615010	2406.873698
359.004084	2407.982752
359.393095	2401.580487
359.782043	2402.689540
360.170927	2414.687487
360.559748	2417.460121
360.948505	2409.041394
361.337199	2409.772362
361.725830	2411.385531
362.114398	2410.704975
362.502903	2414.258988
362.891344	2414.132960
363.279722	2408.864954
363.668037	2419.955492
364.056289	2414.763104
364.444478	2419.274937
364.832603	2412.948288
365.220665	2420.913312
365.608665	2423.761563
365.996601	2417.157652
366.384474	2414.057342
366.772284	2419.879875
367.160031	2434.574838
367.547715	2419.854669
367.935336	2421.997160
368.322893	2421.114958
368.710388	2422.627304
369.097820	2425.349527
369.485189	2418.695204
369.872495	2427.744075
370.259738	2424.215267
370.646918	2419.955492
371.034035	2418.090265
371.421090	2416.451890
371.808081	2423.106213
372.195010	2418.493558
372.581875	2431.323294
372.968678	2425.878848
373.355418	2437.145827
373.742096	2437.549119
374.128710	2432.911258
374.515262	2446.799637
374.901751	2449.849535
375.288177	2452.470935
375.674540	2452.143260
376.060841	2478.584112
376.447079	2481.155100
376.833254	2506.663338
377.219367	2509.032681
377.605417	2534.314067
377.991404	2540.136600
378.377329	2571.971487
378.763191	2587.851121
379.148991	2617.770369
379.534727	2645.572333
379.920402	2683.204546
380.306013	2716.652602
380.691563	2761.090373
381.077049	2786.699435
381.462474	2822.995742
381.847835	2868.668596
382.233134	2915.929413
382.618371	2949.251440
383.003545	2996.487052
383.388657	3037.295192
383.773706	3099.654265
384.158693	3135.799338
384.543618	3188.731454
384.928480	3227.699573
385.313280	3280.051956
385.698017	3339.915658
386.082692	3396.452198
386.467305	3431.412600
386.851856	3490.016013
387.236344	3565.003177
387.620770	3576.648242
388.005133	3643.645177
388.389435	3692.619987
388.773674	3713.036660
389.157851	3773.328860
389.541965	3823.614369
389.926018	3819.405006
390.310008	3872.412738
390.693936	3913.825817
391.077802	3930.108744
391.461606	3969.480156
391.845348	3991.661233
392.229027	4003.760002
392.612645	4060.069690
392.996200	4061.506419
393.379694	4090.896346
393.763125	4127.621152
394.146494	4123.512612
394.529801	4118.093371
394.913047	4153.381448
395.296230	4100.499744
395.679351	4059.868044
396.062410	4079.856219
396.445408	3989.846417
396.828343	3972.706494
397.211217	3946.089202
397.594028	3842.392667
397.976778	3835.788756
398.359466	3804.357162
398.742092	3728.210533
399.124656	3692.468752
399.507158	3652.568019
399.889598	3591.847321
400.271977	3560.919842
400.654294	3487.722288
401.036549	3454.753142
401.418742	3392.570510
401.800874	3364.239225
402.182944	3309.114208
402.564952	3282.345681
402.946898	3186.437729
403.328783	3145.579177
403.710606	3099.629060
404.092367	3067.138823
404.474067	3037.471633
404.855705	2967.626446
405.237282	2914.643919
405.618797	2898.890313
406.000250	2868.567773
406.381642	2834.539985
406.762972	2802.402629
407.144240	2753.226173
407.525447	2738.556415
407.906593	2688.800227
408.287677	2679.171623
408.668700	2655.654640
409.049661	2631.683954
409.430560	2612.351129
409.811399	2591.631987
410.192176	2576.357290
410.572891	2566.300188
410.953545	2557.452963
411.334138	2533.129396
411.714669	2532.474046
412.095139	2526.752337
412.475547	2512.284225
412.855894	2511.931344
413.236180	2497.211175
413.616405	2495.673623
413.996568	2488.515185
414.376670	2496.328973
414.756711	2487.607777
415.136691	2486.297077
415.516609	2480.398927
415.896466	2480.398927
416.276262	2480.020840
416.655997	2474.803246
417.035670	2476.189563
417.415283	2484.381438
417.794834	2470.341825
418.174324	2462.452419
418.553753	2469.787298
418.933121	2473.517752
419.312428	2465.678758
419.691674	2465.552729
420.070859	2466.132462
420.449983	2468.300158
420.829045	2465.351083
421.208047	2466.006433
421.586988	2459.881431
421.965867	2474.878863
422.344686	2460.965279
422.723444	2464.796556
423.102141	2465.325877
423.480777	2464.670527
423.859352	2450.353650
424.237866	2455.193158
424.616319	2462.427213
424.994712	2459.831019
425.373044	2463.536267
425.751314	2462.628860
426.129524	2450.681325
426.507673	2451.084617
426.885762	2447.707044
427.263789	2453.680812
427.641756	2461.494600
428.019662	2448.891715
428.397508	2463.284210
428.775292	2455.999742
429.153016	2463.863942
429.530679	2465.552729
429.908282	2455.848508
430.285824	2457.007973
430.663305	2463.763119
431.040726	2462.931329
431.418086	2453.756429
431.795385	2453.706017
432.172624	2454.512602
432.549802	2466.334108
432.926920	2456.579475
433.303977	2454.941100
433.680974	2465.552729
434.057910	2462.956535
434.434786	2467.065075
434.811601	2465.930815
435.188355	2461.595423
435.565050	2462.780094
435.941683	2463.989971
436.318257	2465.451906
436.694770	2459.301698
437.071222	2467.241515
437.447614	2468.048100
437.823946	2458.318673
438.200218	2466.031638
438.576429	2454.941100
438.952580	2464.947790
439.328670	2461.519806
439.704700	2461.923098
440.080670	2460.057871
440.456580	2466.737400
440.832429	2461.923098
441.208218	2465.225054
441.583947	2462.074333
441.959616	2464.342852
442.335224	2459.402521
442.710773	2458.495113
443.086261	2461.217337
443.461689	2463.914354
443.837057	2458.570731
444.212365	2467.569190
444.587612	2458.595937
444.962800	2461.040896
445.337927	2457.940587
445.712995	2462.880917
446.088002	2468.123717
446.462949	2464.267235
446.837837	2469.056331
447.212664	2465.502317
447.587431	2472.106229
447.962139	2464.796556
448.336786	2478.584112
448.711374	2467.468367
449.085901	2479.592342
449.460369	2463.889148
449.834776	2471.047587
450.209124	2465.628346
450.583412	2467.670013
450.957640	2468.854685
451.331808	2463.763119
451.705917	2471.753348
452.079965	2470.543471
452.453954	2471.274438
452.827883	2471.047587
453.201752	2475.055304
453.575562	2465.628346
453.949311	2464.821762
454.323001	2469.787298
454.696632	2467.518779
455.070202	2468.678244
455.443713	2469.257977
455.817164	2472.005406
456.190556	2463.838737
456.563888	2470.795529
456.937160	2465.880404
457.310373	2477.197794
457.683526	2468.779067
458.056619	2469.157154
458.429653	2464.872173
458.802628	2459.831019
459.175542	2474.979687
459.548398	2473.492546
459.921194	2474.853658
460.293930	2473.416929
460.666607	2469.862915
461.039224	2475.509008
461.411782	2482.944710
461.784280	2475.206538
462.156719	2476.189563
462.529099	2474.626806
462.901419	2469.686475
463.273680	2474.929275
463.645882	2473.719398
464.018024	2468.249746
464.390106	2466.082050
464.762130	2475.786271
465.134094	2481.835656
465.505999	2482.869092
465.877845	2482.213742
466.249631	2479.390696
466.621358	2483.095944
466.993026	2488.086687
467.364634	2478.306848
467.736184	2480.953454
468.107674	2472.282669
468.479105	2483.625265
468.850477	2479.945223
469.221790	2478.130408
469.593043	2480.247692
469.964238	2468.350569
470.335373	2475.332567
470.706449	2482.768269
471.077467	2479.667960
471.448425	2482.566623
471.819324	2491.892758
472.190164	2475.382979
472.560945	2481.381952
472.931667	2464.116000
473.302330	2487.280102
473.672934	2479.138638
474.043479	2470.442648
474.413965	2480.827425
474.784393	2474.374748
475.154761	2479.768783
475.525070	2468.375775
475.895321	2484.154587
476.265513	2472.963225
476.635645	2468.728656
477.005719	2476.164358
477.375734	2478.936992
477.745691	2482.213742
478.115588	2479.088227
478.485427	2476.290387
478.855207	2483.726088
479.224928	2482.843887
479.594591	2480.524956
479.964194	2481.810450
480.333739	2486.196254
480.703226	2476.895325
481.072653	2485.692138
481.442022	2488.011069
481.811333	2486.473517
482.180584	2483.751294
482.549777	2476.214769
482.918912	2476.391210
483.287988	2479.642754
483.657005	2485.540904
484.025964	2481.507981
484.394864	2477.374235
484.763706	2481.306335
485.132489	2490.355206
485.501213	2485.515698
485.869879	2479.315079
486.238487	2484.583085
486.607036	2479.768783
486.975527	2486.095431
487.343959	2481.835656
487.712333	2487.960658
488.080648	2480.046046
488.448905	2485.616521
488.817104	2475.761065
489.185244	2485.036788
489.553326	2479.340285
489.921350	2488.767242
490.289315	2488.439567
490.657222	2487.960658
491.025070	2485.188023
491.392861	2487.985863
491.760593	2482.314565
492.128267	2487.683394
492.495883	2480.550162
492.863440	2488.263127
493.230939	2475.433390
493.598380	2486.876810
493.965763	2479.163844
494.333088	2484.104175
494.700354	2479.894812
495.067563	2486.019813
495.434713	2481.180306
495.801805	2475.887094
496.168839	2477.777527
496.535815	2480.398927
496.902733	2483.121150
497.269593	2481.608804
497.636395	2467.569190
498.003139	2479.340285
498.369825	2487.179279
498.736453	2477.021354
499.103023	2478.987404
499.469535	2475.509008
499.835989	2481.911273
500.202385	2484.406644
500.568723	2479.617548
500.935003	2475.912300
501.301226	2480.298104
501.667390	2477.903556
502.033497	2478.760552
502.399546	2476.517238
502.765537	2471.198821
503.131470	2487.607777
503.497345	2478.281642
503.863163	2484.557879
504.228923	2473.114460
504.594625	2474.626806
504.960269	2473.719398
505.325856	2492.346462
505.691385	2474.778040
506.056856	2483.322796
506.422270	2477.953967
506.787625	2478.911787
507.152924	2477.223000
507.518164	2479.819194
507.883347	2474.198308
508.248472	2480.877837
508.613540	2481.785244
508.978550	2476.315592
509.343503	2478.004379
509.708398	2484.734319
510.073236	2469.232771
510.438016	2477.727115
510.802738	2488.313538
511.167403	2479.667960
511.532010	2478.332054
511.896561	2477.928762
512.261053	2473.366517
512.625488	2473.215283
512.989866	2473.946250
513.354186	2476.592856
513.718449	2477.575881
514.082655	2466.964252
514.446803	2477.096971
514.810894	2471.627319
515.174927	2477.475058
515.538904	2484.280615
515.902822	2476.542444
516.266684	2472.005406
516.630488	2476.870119
516.994235	2467.039869
517.357925	2479.541931
517.721558	2474.929275
518.085133	2475.282156
518.448651	2474.525983
518.812112	2468.048100
519.175516	2479.642754
519.538863	2478.684935
519.902152	2479.491519
520.265385	2475.559419
520.628560	2476.844913
520.991678	2477.071765
521.354739	2469.056331
521.717743	2479.365490
522.080690	2474.374748
522.443580	2477.727115
522.806413	2470.165385
523.169189	2472.711167
523.531908	2475.181333
523.894569	2477.601087
524.257174	2477.903556
524.619722	2479.289873
524.982213	2471.702937
525.344647	2479.415902
525.707025	2477.298617
526.069345	2472.610344
526.431608	2473.517752
526.793815	2482.743063
527.155964	2484.961171
527.518057	2475.181333
527.880093	2474.551188
528.242072	2473.694192
528.603995	2469.837710
528.965860	2475.660242
529.327669	2476.718885
529.689421	2478.735346
530.051117	2468.879890
530.412755	2470.064562
530.774337	2472.207052
531.135862	2476.315592
531.497331	2482.289360
531.858743	2485.616521
532.220098	2470.064562
532.581396	2477.752321
532.942638	2470.316619
533.303824	2478.836169
533.664953	2472.660756
534.026025	2470.014150
534.387040	2475.861888
534.747999	2474.752835
535.108902	2474.147896
535.469748	2476.113946
535.830537	2472.761579
536.191270	2482.138125
536.551947	2477.979173
536.912567	2473.190077
537.273131	2476.013123
537.633638	2469.686475
537.994089	2477.449852
538.354483	2469.560446
538.714821	2478.155613
539.075103	2481.583598
539.435328	2479.063021
539.795497	2469.762092
540.155609	2477.727115
540.515665	2465.527523
540.875665	2483.902529
541.235609	2473.744604
541.595496	2475.458596
541.955328	2480.146869
542.315102	2476.164358
542.674821	2480.020840
543.034483	2479.088227
543.394090	2470.417442
543.753640	2470.140179
544.113134	2468.627833
544.472571	2468.148923
544.831953	2477.298617
545.191278	2475.836683
545.550548	2472.761579
545.909761	2474.425160
546.268918	2471.728142
546.628019	2472.988431
546.987064	2483.322796
547.346053	2471.551702
547.704986	2474.425160
548.063863	2474.929275
548.422684	2478.911787
548.781449	2477.147383
549.140158	2479.793988
549.498811	2471.375262
549.857408	2474.576394
550.215949	2472.081023
550.574434	2478.558906
550.932864	2470.064562
551.291237	2475.156127
551.649555	2471.828965
552.007817	2473.416929
552.366022	2471.828965
552.724173	2467.493573
553.082267	2481.760038
553.440305	2481.533187
553.798288	2476.013123
554.156215	2473.719398
554.514086	2473.971456
554.871902	2470.694706
555.229661	2475.433390
555.587365	2471.904583
555.945014	2471.954994
556.302606	2469.308388
556.660143	2473.240488
557.017625	2471.350056
557.375050	2471.753348
557.732421	2470.971969
558.089735	2475.105715
558.446994	2465.351083
558.804197	2469.888121
559.161345	2475.609831
559.518437	2469.686475
559.875474	2475.635037
560.232455	2477.021354
560.589381	2478.281642
560.946251	2474.929275
561.303065	2477.349029
561.659825	2468.602627
562.016528	2464.141206
562.373177	2476.013123
562.729770	2475.231744
563.086307	2467.695219
563.442789	2471.476085
563.799216	2477.475058
564.155587	2469.787298
564.511904	2479.415902
564.868164	2467.947277
565.224370	2485.061994
565.580520	2475.105715
565.936615	2482.289360
566.292654	2475.559419
566.648638	2476.139152
567.004567	2472.383492
567.360441	2477.626292
567.716260	2473.795015
568.072023	2467.997688
568.427732	2482.390183
568.783385	2479.037815
569.138982	2478.407671
569.494525	2474.500777
569.850013	2480.802219
570.205445	2475.332567
570.560823	2468.879890
570.916145	2472.761579
571.271412	2479.541931
571.626625	2472.055817
571.981782	2479.667960
572.336884	2474.828452
572.691931	2466.686988
573.046923	2469.510035
573.401860	2464.090794
573.756743	2472.257463
574.111570	2474.878863
574.466342	2477.500263
574.821059	2471.198821
575.175722	2472.081023
575.530330	2478.508494
575.884882	2475.156127
576.239380	2473.517752
576.593823	2482.062508
576.948211	2466.056844
577.302544	2478.911787
577.656823	2482.516212
578.011047	2484.381438
578.365216	2477.500263
578.719330	2476.189563
579.073389	2468.123717
579.427394	2477.424646
579.781344	2480.701396
580.135239	2474.223513
580.489080	2472.358287
580.842866	2472.509521
581.196597	2477.575881
581.550273	2475.887094
581.903895	2475.130921
582.257463	2468.602627
582.610975	2471.173615
582.964434	2477.601087
583.317837	2478.584112
583.671186	2481.331540
584.024481	2474.072279
584.377721	2468.274952
584.730906	2466.913840
585.084037	2473.895838
585.437113	2467.039869
585.790135	2467.014663
586.143103	2474.299131
586.496016	2472.660756
586.848874	2469.484829
587.201679	2467.216310
587.554428	2475.584625
587.907124	2470.971969
588.259765	2475.483802
588.612352	2474.223513
588.964884	2474.626806
589.317362	2471.526496
589.669786	2478.483288
590.022155	2475.912300
590.374470	2462.023921
590.726731	2473.290900
591.078937	2464.166412
591.431090	2479.768783
591.783188	2469.207565
592.135232	2471.501290
592.487222	2473.290900
592.839157	2476.744090
593.191038	2471.299644
593.542866	2478.483288
593.894639	2471.526496
594.246358	2482.793475
594.598022	2470.165385
594.949633	2471.904583
595.301190	2474.248719
595.652692	2472.307875
596.004141	2471.022381
596.355535	2470.871146
596.706876	2474.677217
597.058162	2477.399440
597.409395	2464.141206
597.760573	2468.728656
598.111698	2481.281129
598.462768	2475.206538
598.813785	2477.727115
599.164748	2472.837196
599.515657	2476.920531
599.866511	2473.820221
600.217312	2477.046560
600.568060	2477.096971
600.918753	2476.416415
601.269392	2474.248719
601.619978	2477.953967
601.970510	2475.004892
602.320988	2469.207565
602.671412	2472.156640
603.021783	2475.635037
603.372100	2469.484829
603.722363	2474.223513
604.072572	2462.049127
604.422728	2471.929788
604.772830	2471.602113
605.122878	2472.207052
605.472872	2469.862915
605.822813	2477.979173
606.172701	2478.810963
606.522534	2476.895325
606.872314	2478.508494
607.222041	2476.920531
607.571714	2468.678244
607.921333	2464.947790
608.270899	2470.946763
608.620411	2461.721452
608.969870	2470.845940
609.319276	2478.231231
609.668627	2477.021354
610.017926	2469.358800
610.367171	2473.946250
610.716362	2480.121663
611.065500	2470.946763
611.414585	2480.146869
611.763616	2463.586679
612.112594	2477.701910
612.461518	2478.584112
612.810389	2471.652525
613.159207	2470.215796
613.507971	2476.391210
613.856682	2464.922585
614.205340	2474.122690
614.553945	2469.031125
614.902496	2469.888121
615.250994	2479.189050
615.599439	2474.097485
615.947830	2477.752321
616.296169	2475.206538
616.644454	2468.753862
616.992686	2464.947790
617.340864	2471.753348
617.688990	2475.836683
618.037063	2469.963738
618.385082	2469.585652
618.733048	2467.670013
619.080961	2467.342338
619.428821	2465.023408
619.776628	2470.568677
620.124382	2471.425673
620.472083	2467.392750
620.819731	2462.427213
621.167326	2470.140179
621.514868	2469.585652
621.862357	2467.115487
622.209793	2471.123204
622.557176	2466.308902
622.904506	2481.734833
623.251783	2476.542444
623.599007	2475.660242
623.946179	2467.997688
624.293297	2470.820735
624.640363	2472.383492
624.987376	2464.796556
625.334336	2471.854171
625.681243	2470.543471
626.028097	2471.879377
626.374899	2470.770323
626.721647	2461.393777
627.068343	2472.055817
627.414987	2474.576394
627.761577	2462.704477
628.108115	2464.015177
628.454600	2467.317133
628.801032	2464.746144
629.147412	2474.173102
629.493739	2479.189050
629.840014	2469.434417
630.186236	2472.181846
630.532405	2471.274438
630.878521	2469.484829
631.224585	2464.594910
631.570597	2473.568163
631.916556	2470.241002
632.262462	2471.879377
632.608316	2477.349029
632.954117	2470.341825
633.299866	2464.443675
633.645562	2469.636063
633.991206	2465.905610
634.336797	2472.358287
634.682336	2469.434417
635.027823	2467.367544
635.373257	2472.938019
635.718639	2469.888121
636.063968	2470.467854
636.409245	2472.055817
636.754470	2465.149437
637.099642	2468.577421
637.444762	2466.384519
637.789829	2462.780094
638.134845	2467.443162
638.479808	2470.619088
638.824719	2471.350056
639.169577	2466.460137
639.514383	2465.829992
639.859137	2479.315079
640.203839	2471.274438
640.548489	2468.955508
640.893086	2467.569190
641.237632	2464.317646
641.582125	2471.828965
641.926566	2469.560446
642.270955	2461.897892
642.615292	2466.888635
642.959576	2469.081537
643.303809	2465.477112
643.647990	2473.164871
643.992118	2468.829479
644.336195	2469.308388
644.680219	2469.384006
645.024192	2469.031125
645.368112	2465.073819
645.711981	2465.099025
646.055797	2453.983281
646.399562	2471.224027
646.743274	2464.544498
647.086935	2475.811477
647.430544	2468.400981
647.774101	2474.021867
648.117606	2475.761065
648.461059	2461.645835
648.804460	2470.518265
649.147810	2470.014150
649.491108	2469.938533
649.834354	2470.669500
650.177548	2464.519292
650.520690	2469.585652
650.863781	2465.678758
651.206820	2464.292440
651.549807	2470.971969
651.892742	2470.316619
652.235626	2471.980200
652.578458	2469.661269
652.921238	2474.198308
653.263967	2468.300158
653.606644	2463.737913
653.949269	2470.971969
654.291843	2471.828965
654.634365	2470.114973
654.976836	2472.534727
655.319255	2469.510035
655.661622	2466.485342
656.003938	2469.862915
656.346203	2469.384006
656.688416	2461.040896
657.030577	2469.182360
657.372687	2464.116000
657.714746	2468.199335
658.056753	2465.678758
658.398708	2463.863942
658.740612	2470.341825
659.082465	2474.878863
659.424266	2456.655092
659.766016	2461.923098
660.107715	2456.453446
660.449362	2462.603654
660.790958	2464.418469
661.132503	2473.265694
661.473996	2473.391723
661.815438	2466.838223
662.156829	2462.628860
662.498168	2470.215796
662.839456	2467.997688
663.180693	2470.417442
663.521879	2472.081023
663.863013	2467.468367
664.204097	2468.905096
664.545129	2462.376802
664.886110	2463.889148
665.227040	2472.081023
665.567918	2469.736887
665.908746	2459.427727
666.249522	2471.854171
666.590248	2464.544498
666.930922	2467.291927
667.271545	2466.182873
667.612118	2462.074333
667.952639	2465.124231
668.293109	2469.888121
668.633528	2462.477625
668.973896	2468.602627
669.314213	2462.553242
669.654480	2471.576908
669.994695	2468.552215
670.334859	2474.450365
670.674973	2467.165898
671.015035	2460.486369
671.355047	2465.502317
671.695008	2469.358800
672.034918	2474.878863
672.374777	2470.719912
672.714585	2468.048100
673.054342	2470.165385
673.394049	2476.088740
673.733705	2463.284210
674.073310	2468.653038
674.412864	2467.392750
674.752368	2471.097998
675.091820	2467.191104
675.431223	2471.778554
675.770574	2466.006433
676.109875	2465.779581
676.449125	2461.242542
676.788324	2467.821248
677.127473	2465.401494
677.466571	2462.502831
677.805619	2463.107769
678.144616	2462.477625
678.483562	2472.786785
678.822458	2468.728656
679.161303	2478.357260
679.500098	2462.376802
679.838842	2461.973510
680.177535	2470.619088
680.516179	2462.931329
680.854771	2457.839763
681.193314	2464.897379
681.531805	2464.771350
681.870247	2461.671040
682.208638	2474.248719
682.546978	2466.485342
682.885268	2468.300158
683.223508	2471.022381
683.561697	2465.174642
683.899836	2471.173615
684.237925	2465.829992
684.575963	2465.754375
684.913951	2463.863942
685.251889	2460.057871
685.589776	2473.492546
685.927614	2466.031638
686.265401	2462.830506
686.603137	2467.090281
686.940824	2461.822275
687.278460	2463.611885
687.616046	2463.132975
687.953582	2466.686988
688.291068	2466.888635
688.628504	2468.073306
688.965889	2462.628860
689.303224	2468.955508
689.640510	2468.022894
689.977745	2470.871146
690.314930	2464.040383
690.652065	2463.662296
690.989150	2462.502831
691.326185	2460.133488
691.663170	2463.359827
692.000105	2464.393263
692.336990	2470.367031
692.673825	2464.443675
693.010610	2458.999229
693.347345	2461.797069
693.684030	2457.108796
694.020665	2463.460650
694.357251	2455.722479
694.693786	2465.905610
695.030272	2460.864456
695.366707	2462.880917
695.703093	2465.829992
696.039429	2464.670527
696.375716	2455.621656
696.711952	2463.511062
697.048139	2459.931842
697.384276	2463.435444
697.720363	2455.319187
698.056400	2469.988944
698.392388	2463.006946
698.728326	2473.870633
699.064214	2460.738427
699.400053	2467.065075
699.735842	2458.167438
700.071581	2462.880917
700.407270	2455.092335
700.742910	2470.266208
701.078501	2460.309929
701.414042	2465.956021
701.749533	2464.443675
702.084974	2470.644294
702.420366	2461.771863
702.755709	2456.201388
703.091002	2458.041410
703.426246	2469.283183
703.761440	2460.738427
704.096584	2465.477112
704.431679	2464.972996
704.766725	2466.334108
705.101721	2456.529063
705.436668	2463.536267
705.771565	2465.451906
706.106413	2465.829992
706.441212	2461.721452
706.775961	2454.411779
707.110661	2462.376802
707.445311	2464.242029
707.779913	2459.654579
708.114465	2469.610858
708.448967	2459.276492
708.783421	2464.544498
709.117825	2465.199848
709.452180	2453.479165
709.786485	2468.653038
710.120742	2456.377829
710.454949	2451.210646
710.789107	2459.679785
711.123216	2454.537808
711.457275	2463.385033
711.791286	2470.140179
712.125247	2471.576908
712.459159	2460.713221
712.793023	2461.923098
713.126837	2456.781121
713.460602	2464.594910
713.794318	2456.503858
714.127985	2465.880404
714.461602	2468.325363
714.795171	2463.057358
715.128691	2472.333081
715.462162	2467.518779
715.795584	2452.949844
716.128957	2463.662296
716.462281	2468.174129
716.795556	2454.084104
717.128782	2458.999229
717.461960	2450.303238
717.795088	2466.384519
718.128167	2460.335135
718.461198	2463.183387
718.794180	2462.628860
719.127113	2463.183387
719.459997	2465.174642
719.792833	2456.907150
720.125619	2460.032665
720.458357	2458.444702
720.791046	2466.939046
721.123686	2455.571244
721.456278	2462.477625
721.788821	2462.704477
722.121315	2462.654065
722.453761	2462.956535
722.786158	2459.478138
723.118506	2460.007460
723.450805	2469.207565
723.783056	2456.957562
724.115259	2453.554783
724.447412	2461.166925
724.779518	2459.100052
725.111574	2469.661269
725.443582	2460.209106
725.775542	2464.998202
726.107453	2458.847994
726.439315	2464.443675
726.771129	2464.090794
727.102895	2455.016717
727.434612	2462.023921
727.766281	2458.847994
728.097901	2456.655092
728.429473	2456.881944
728.760996	2462.805300
729.092471	2460.889662
729.423897	2459.755402
729.755276	2464.242029
730.086606	2459.629373
730.417887	2470.896352
730.749120	2467.997688
731.080305	2467.644808
731.411442	2457.864969
731.742530	2461.872687
732.073570	2455.520833
732.404562	2470.745117
732.735506	2459.578962
733.066401	2461.393777
733.397249	2464.746144
733.728048	2458.923612
734.058798	2468.552215
734.389501	2463.460650
734.720156	2461.595423
735.050762	2464.670527
735.381320	2468.930302
735.711831	2461.746658
736.042293	2460.511575
736.372707	2457.612912
736.703073	2463.309415
737.033391	2458.394290
737.363661	2467.342338
737.693883	2461.645835
738.024056	2458.444702
738.354182	2460.083077
738.684260	2459.856225
739.014290	2459.654579
739.344272	2469.535240
739.674207	2459.402521
740.004093	2465.199848
740.333931	2458.847994
740.663722	2460.486369
740.993464	2469.005919
741.323159	2460.940073
741.652806	2467.115487
741.982405	2458.721965
742.311956	2459.578962
742.641460	2452.445729
742.970915	2456.251800
743.300323	2464.947790
743.629683	2455.974537
743.958996	2451.865996
744.288260	2452.168465
744.617477	2458.066615
744.946647	2460.183900
745.275768	2459.629373
745.604842	2460.587192
745.933869	2456.226594
746.262847	2455.999742
746.591778	2453.554783
746.920662	2456.856738
747.249498	2452.370112
747.578286	2448.891715
747.907027	2465.401494
748.235720	2455.268775
748.564365	2462.780094
748.892963	2464.443675
749.221514	2469.459623
749.550017	2456.907150
749.878473	2461.292954
750.206881	2466.636577
750.535242	2463.536267
750.863555	2467.241515
751.191821	2461.192131
751.520039	2461.620629
751.848210	2462.931329
752.176334	2465.779581
752.504411	2463.863942
752.832440	2462.452419
753.160421	2462.225567
753.488356	2466.334108
753.816243	2457.386060
754.144082	2460.410752
754.471875	2459.024435
754.799620	2463.385033
755.127318	2466.308902
755.454969	2453.201902
755.782572	2460.461163
756.110129	2455.697273
756.437638	2455.974537
756.765100	2465.603140
757.092515	2459.150463
757.419882	2462.502831
757.747203	2469.686475
758.074477	2457.713735
758.401703	2459.478138
758.728882	2464.872173
759.056014	2460.259517
759.383099	2458.570731
759.710138	2464.746144
760.037129	2453.756429
760.364073	2465.250260
760.690970	2460.133488
761.017820	2461.671040
761.344623	2453.731223
761.671379	2465.880404
761.998088	2457.965792
762.324751	2456.201388
762.651366	2450.832560
762.977935	2458.016204
763.304456	2463.183387
763.630931	2452.470935
763.957359	2461.696246
764.283740	2458.343879
764.610074	2465.956021
764.936362	2466.838223
765.262602	2455.722479
765.588796	2462.250773
765.914943	2458.293467
766.241044	2458.646348
766.567097	2461.444188
766.893104	2464.342852
767.219064	2460.788838
767.544978	2459.100052
767.870845	2462.376802
768.196665	2461.091308
768.522438	2464.594910
768.848165	2455.394804
769.173846	2461.872687
769.499479	2457.965792
769.825066	2453.756429
770.150607	2453.983281
770.476101	2457.688529
770.801548	2453.453960
771.126949	2460.284723
771.452303	2453.731223
771.777611	2461.519806
772.102872	2459.831019
772.428087	2453.176696
772.753256	2456.881944
773.078378	2459.251287
773.403453	2455.495627
773.728482	2462.200362
774.053465	2458.974023
774.378401	2456.377829
774.703291	2462.528037
775.028135	2456.050154
775.352932	2459.377315
775.677683	2459.831019
776.002388	2468.678244
776.327046	2455.974537
776.651658	2454.865483
776.976224	2448.564040
777.300743	2456.075360
777.625216	2460.814044
777.949643	2452.118054
778.274024	2453.479165
778.598359	2454.310956
778.922647	2470.266208
779.246889	2461.746658
779.571086	2460.688015
779.895236	2460.990485
780.219339	2465.603140
780.543397	2465.829992
780.867409	2456.932356
781.191374	2464.897379
781.515294	2458.797583
781.839167	2457.738940
782.162995	2456.806327
782.486776	2458.747171
782.810511	2460.864456
783.134201	2451.538321
783.457844	2454.109310
783.781441	2456.680298
784.104993	2460.032665
784.428498	2464.821762
784.751958	2459.024435
785.075372	2453.605194
785.398739	2464.746144
785.722061	2453.932869
786.045337	2458.419496
786.368568	2453.983281
786.691752	2457.083590
787.014891	2460.940073
787.337983	2453.756429
787.661030	2459.931842
787.984031	2464.191617
788.306987	2454.689042
788.629897	2461.267748
788.952760	2463.763119
789.275579	2454.008487
789.598351	2461.545012
789.921078	2454.285750
790.243759	2453.252313
790.566395	2456.856738
790.888984	2458.570731
791.211529	2462.175156
791.534027	2456.075360
791.856480	2463.838737
792.178888	2466.460137
792.501249	2452.899433
792.823566	2451.865996
793.145836	2451.941613
793.468062	2451.992025
793.790241	2448.463217
794.112375	2452.521346
794.434464	2453.403548
794.756507	2458.797583
795.078505	2459.553756
795.400457	2460.511575
795.722364	2461.066102
796.044226	2459.553756
796.366042	2457.335648
796.687812	2457.940587
797.009538	2454.638631
797.331218	2457.360854
797.652852	2457.915381
797.974442	2456.907150
798.295986	2457.360854
798.617484	2447.454987
798.938938	2451.286263
799.260346	2459.578962
799.581709	2458.117027
799.903026	2459.452933
800.224299	2465.275465
800.545526	2461.545012
800.866708	2454.159721
801.187845	2455.167952
801.508936	2464.015177
801.829983	2453.579988
802.150984	2459.654579
802.471940	2458.318673
802.792851	2453.882458
803.113717	2468.905096
803.434538	2461.645835
803.755314	2459.831019
804.076045	2452.445729
804.396731	2460.007460
804.717372	2460.662810
805.037967	2461.545012
805.358518	2452.067642
805.679024	2461.368571
805.999485	2463.435444
806.319901	2453.932869
806.640272	2461.923098
806.960598	2460.637604
807.280879	2451.865996
807.601115	2461.948304
807.921306	2457.915381
808.241453	2453.655606
808.561554	2456.251800
808.881611	2452.596963
809.201623	2451.009000
809.521590	2456.655092
809.841513	2460.083077
810.161390	2454.361367
810.481223	2458.570731
810.801011	2453.731223
811.120755	2461.620629
811.440453	2459.755402
811.760107	2466.006433
812.079716	2452.143260
812.399281	2461.822275
812.718801	2459.831019
813.038276	2466.913840
813.357707	2460.133488
813.677093	2459.024435
813.996434	2461.519806
814.315731	2454.840277
814.634983	2459.150463
814.954191	2455.747685
815.273354	2455.319187
815.592473	2462.351596
815.911547	2460.511575
816.230577	2456.478652
816.549562	2453.378342
816.868502	2456.277006
817.187399	2455.520833
817.506250	2461.998715
817.825058	2459.831019
818.143821	2455.546038
818.462539	2466.157667
818.781213	2457.234825
819.099843	2459.276492
819.418429	2458.318673
819.736970	2448.916921
820.055466	2450.605708
820.373919	2459.452933
820.692327	2453.227108
821.010691	2465.275465
821.329011	2466.636577
821.647286	2460.259517
821.965517	2458.545525
822.283704	2472.610344
822.601847	2469.686475
822.919945	2477.046560
823.237999	2471.022381
823.556010	2478.029585
823.873976	2466.838223
824.191897	2470.971969
824.509775	2466.787812
824.827609	2454.411779
825.145398	2456.377829
825.463144	2457.587706
825.780845	2457.537294
826.098502	2457.209619
826.416116	2463.132975
826.733685	2462.603654
827.051210	2455.898919
827.368692	2467.720425
827.686129	2457.940587
828.003522	2456.705504
828.320872	2462.477625
828.638177	2463.586679
828.955439	2466.863429
829.272656	2463.737913
829.589830	2458.721965
829.906960	2462.402008
830.224046	2450.782148
830.541088	2462.124744
830.858086	2452.244083
831.175041	2460.990485
831.491952	2464.468881
831.808819	2451.437498
832.125642	2453.756429
832.442421	2457.335648
832.759157	2455.747685
833.075849	2464.191617
833.392497	2462.654065
833.709101	2467.670013
834.025662	2449.244596
834.342179	2460.839250
834.658653	2463.788325
834.975083	2455.092335
835.291469	2463.662296
835.607811	2460.788838
835.924110	2450.983794
836.240366	2457.461677
836.556578	2457.486883
836.872746	2447.404575
837.188871	2453.529577
837.504952	2456.932356
837.820990	2459.856225
838.136984	2449.773917
838.452935	2457.638117
838.768842	2452.470935
839.084706	2451.739967
839.400526	2460.410752
839.716303	2461.771863
840.032037	2451.210646
840.347727	2458.696760
840.663373	2449.521860
840.978977	2455.369598
841.294537	2453.126285
841.610054	2453.680812
841.925527	2455.142746
842.240957	2458.217850
842.556344	2455.470421
842.871687	2452.849021
843.186987	2459.024435
843.502244	2457.234825
843.817458	2455.344392
844.132629	2457.612912
844.447756	2459.427727
844.762840	2458.419496
845.077881	2461.418983
845.392879	2447.833073
845.707833	2444.027002
846.022745	2455.495627
846.337613	2453.227108
846.652438	2458.343879
846.967221	2452.546552
847.281960	2464.720938
847.596656	2454.386573
847.911309	2461.973510
848.225919	2453.353137
848.540485	2452.546552
848.855009	2455.319187
849.169490	2450.404062
849.483928	2458.243056
849.798323	2451.336675
850.112675	2461.091308
850.426984	2455.394804
850.741251	2456.529063
851.055474	2444.304265
851.369654	2454.815071
851.683792	2454.436985
851.997887	2463.737913
852.311938	2457.713735
852.625947	2462.074333
852.939914	2448.564040
853.253837	2452.370112
853.567718	2457.159208
853.881555	2462.225567
854.195350	2463.158181
854.509103	2456.176183
854.822812	2456.554269
855.136479	2451.084617
855.450103	2449.874740
855.763685	2457.612912
856.077224	2456.226594
856.390720	2448.992538
856.704173	2450.756942
857.017584	2453.176696
857.330953	2458.394290
857.644278	2453.277519
857.957561	2458.167438
858.270802	2458.545525
858.584000	2450.983794
858.897155	2459.906637
859.210268	2450.177210
859.523339	2452.193671
859.836367	2457.915381
860.149352	2459.276492
860.462295	2450.882971
860.775195	2450.958588
861.088054	2457.965792
861.400869	2450.025975
861.713642	2459.805813
862.026373	2454.361367
862.339062	2456.100565
862.651708	2454.436985
862.964312	2447.026488
863.276873	2457.990998
863.589392	2457.512088
863.901869	2458.192644
864.214303	2452.647375
864.526696	2456.100565
864.839045	2449.950358
865.151353	2456.705504
865.463619	2456.529063
865.775842	2456.428240
866.088023	2461.494600
866.400162	2452.571758
866.712258	2458.595937
867.024313	2456.024948
867.336325	2458.621142
867.648296	2452.924638
867.960224	2454.285750
868.272110	2456.251800
868.583954	2462.376802
868.895755	2456.629887
869.207515	2457.033179
869.519233	2452.143260
869.830909	2467.014663
870.142542	2448.211160
870.454134	2448.639658
870.765684	2448.866510
871.077191	2455.445215
871.388657	2458.066615
871.700081	2458.595937
872.011463	2450.933383
872.322803	2455.369598
872.634101	2457.486883
872.945357	2460.940073
873.256571	2456.680298
873.567744	2449.143773
873.878874	2453.605194
874.189963	2453.025462
874.501010	2446.295521
874.812015	2454.815071
875.122979	2458.016204
875.433900	2453.655606
875.744780	2446.850048
876.055618	2455.369598
876.366415	2454.789865
876.677169	2460.133488
876.987882	2448.841304
877.298554	2447.152517
877.609183	2450.656119
877.919771	2446.547579
878.230317	2445.362908
878.540822	2458.318673
878.851285	2453.453960
879.161707	2453.403548
879.472087	2451.009000
879.782425	2452.143260
880.092722	2461.242542
880.402977	2453.151490
880.713191	2460.461163
881.023363	2451.941613
881.333494	2469.081537
881.643583	2455.798096
881.953631	2462.250773
882.263637	2450.101592
882.573602	2460.435958
882.883526	2460.864456
883.193408	2461.721452
883.503248	2456.982767
883.813048	2453.302725
884.122806	2460.864456
884.432522	2466.031638
884.742197	2462.376802
885.051831	2456.629887
885.361424	2450.303238
885.670975	2468.148923
885.980485	2453.554783
886.289954	2454.487396
886.599382	2444.909204
886.908768	2452.849021
887.218113	2447.001283
887.527417	2449.496654
887.836680	2449.925152
888.145901	2449.950358
888.455082	2456.478652
888.764221	2455.722479
889.073319	2459.402521
889.382376	2455.495627
889.691392	2455.067129
890.000366	2454.815071
890.309300	2457.839763
890.618193	2457.159208
890.927044	2456.705504
891.235855	2451.538321
891.544625	2456.856738
891.853353	2452.672581
892.162041	2459.730196
892.470687	2459.049640
892.779293	2452.773404
893.087858	2454.537808
893.396381	2463.712708
893.704864	2450.756942
894.013306	2456.831533
894.321707	2455.092335
894.630068	2460.940073
894.938387	2455.420010
895.246665	2456.579475
895.554903	2453.479165
895.863100	2448.916921
896.171256	2449.068156
896.479371	2453.983281
896.787446	2457.209619
897.095480	2449.269802
897.403473	2450.429267
897.711425	2452.244083
898.019336	2454.991512
898.327207	2447.681838
898.635038	2454.134515
898.942827	2455.672067
899.250576	2451.084617
899.558284	2461.595423
899.865952	2459.276492
900.173579	2448.211160
900.481165	2455.445215
900.788711	2456.831533
901.096216	2453.529577
901.403681	2458.066615
901.711105	2455.546038
902.018489	2450.479679
902.325832	2448.085131
902.633135	2456.503858
902.940397	2449.547065
903.247619	2455.495627
903.554800	2452.647375
903.861941	2451.059412
904.169041	2443.522887
904.476101	2463.989971
904.783121	2452.193671
905.090100	2464.040383
905.397039	2456.024948
905.703938	2457.386060
906.010796	2455.268775
906.317614	2465.729169
906.624391	2464.191617
906.931129	2459.326904
907.237826	2456.604681
907.544483	2448.059925
907.851099	2447.253340
908.157675	2451.966819
908.464211	2458.142233
908.770707	2455.117540
909.077163	2452.672581
909.383578	2460.688015
909.689954	2451.487910
909.996289	2452.975050
910.302584	2450.983794
910.608839	2456.403035
910.915054	2456.226594
911.221229	2457.411265
911.527363	2458.091821
911.833458	2450.152004
912.139513	2445.766200
912.445527	2447.530604
912.751502	2449.446242
913.057436	2450.378856
913.363331	2455.546038
913.669186	2448.816098
913.975000	2458.772377
914.280775	2457.814558
914.586510	2454.915894
914.892205	2451.059412
915.197859	2451.664350
915.503475	2455.949331
915.809050	2454.184927
916.114585	2455.420010
916.420081	2457.058385
916.725536	2461.897892
917.030952	2456.075360
917.336328	2451.084617
917.641665	2450.933383
917.946961	2456.781121
918.252218	2449.874740
918.557435	2448.513629
918.862612	2454.033692
919.167750	2457.839763
919.472848	2453.882458
919.777906	2445.892229
920.082925	2453.579988
920.387904	2450.580502
920.692843	2456.327417
920.997743	2454.991512
921.302603	2458.369085
921.607423	2457.360854
921.912204	2451.059412
922.216946	2456.982767
922.521647	2454.890688
922.826310	2447.102106
923.130932	2459.780608
923.435516	2456.352623
923.740059	2450.000769
924.044564	2445.085644
924.349028	2452.344906
924.653454	2458.268262
924.957840	2449.547065
925.262186	2452.773404
925.566493	2454.058898
925.870761	2450.454473
926.174989	2455.722479
926.479178	2450.479679
926.783328	2458.847994
927.087438	2456.277006
927.391509	2454.941100
927.695541	2455.041923
927.999533	2458.343879
928.303486	2449.773917
928.607400	2451.059412
928.911275	2454.159721
929.215110	2458.318673
929.518906	2451.992025
929.822663	2452.294494
930.126381	2439.363935
930.430060	2452.496140
930.733699	2453.201902
931.037299	2453.806840
931.340861	2450.454473
931.644383	2454.966306
931.947866	2451.487910
932.251309	2456.680298
932.554714	2459.730196
932.858080	2448.009513
933.161407	2443.497681
933.464694	2445.488937
933.767943	2442.439038
934.071153	2454.512602
934.374323	2448.866510
934.677455	2453.529577
934.980548	2453.655606
935.283602	2456.856738
935.586617	2453.680812
935.889593	2446.900460
936.192530	2452.042437
936.495428	2452.370112
936.798287	2452.017231
937.101108	2452.975050
937.403890	2455.949331
937.706632	2450.378856
938.009336	2456.781121
938.312002	2458.016204
938.614628	2453.075873
938.917216	2454.210133
939.219765	2448.816098
939.522275	2450.404062
939.824747	2454.159721
940.127179	2455.470421
940.429573	2455.772890
940.731929	2453.201902
941.034246	2451.160235
941.336524	2456.201388
941.638763	2454.789865
941.940964	2456.075360
942.243126	2450.605708
942.545250	2454.689042
942.847335	2457.587706
943.149381	2455.596450
943.451389	2450.782148
943.753359	2450.076387
944.055290	2449.698300
944.357182	2450.076387
944.659036	2451.084617
944.960851	2449.042950
945.262628	2457.738940
945.564367	2450.504885
945.866067	2453.857252
946.167729	2452.823815
946.469352	2456.302212
946.770937	2458.974023
947.072484	2460.612398
947.373992	2460.234312
947.675462	2456.176183
947.976893	2449.168979
948.278286	2448.614452
948.579641	2453.806840
948.880958	2450.958588
949.182236	2451.865996
949.483476	2453.832046
949.784678	2451.361881
950.085841	2457.789352
950.386967	2451.916408
950.688054	2451.059412
950.989103	2444.657146
951.290114	2450.000769
951.591087	2459.629373
951.892021	2455.798096
952.192917	2451.739967
952.493776	2449.421037
952.794596	2454.310956
953.095378	2451.916408
953.396122	2457.638117
953.696828	2449.622683
953.997496	2453.428754
954.298126	2453.706017
954.598718	2452.218877
954.899272	2449.421037
955.199788	2451.412292
955.500266	2458.595937
955.800706	2449.975563
956.101108	2454.260544
956.401472	2449.597477
956.701798	2453.151490
957.002087	2450.908177
957.302337	2450.857765
957.602550	2450.983794
957.902724	2449.446242
958.202861	2444.707558
958.502960	2450.303238
958.803022	2454.260544
959.103045	2455.319187
959.403031	2458.847994
959.702979	2457.184413
960.002889	2451.311469
960.302762	2456.050154
960.602596	2449.799123
960.902393	2454.033692
961.202153	2448.967333
961.501875	2451.487910
961.801559	2451.941613
962.101205	2460.007460
962.400814	2451.412292
962.700385	2455.772890
962.999918	2453.201902
963.299414	2452.924638
963.598873	2447.303752
963.898293	2444.657146
964.197677	2455.445215
964.497022	2446.824842
964.796331	2455.747685
965.095601	2449.370625
965.394835	2445.740994
965.694030	2442.212187
965.993189	2441.657660
966.292309	2452.924638
966.591393	2454.613425
966.890439	2457.486883
967.189447	2447.908690
967.488419	2457.612912
967.787353	2455.621656
968.086249	2453.302725
968.385108	2458.847994
968.683930	2457.663323
968.982714	2445.085644
969.281462	2452.521346
969.580172	2452.773404
969.878844	2451.160235
970.177480	2452.470935
970.476078	2449.017744
970.774639	2443.699327
971.073162	2452.899433
971.371649	2454.537808
971.670098	2453.605194
971.968510	2451.689556
972.266885	2453.706017
972.565223	2449.647888
972.863524	2463.586679
973.161788	2449.698300
973.460014	2445.514142
973.758204	2447.253340
974.056356	2455.117540
974.354471	2452.672581
974.652550	2447.581015
974.950591	2449.068156
975.248595	2450.328444
975.546563	2450.857765
975.844493	2457.990998
976.142386	2454.689042
976.440243	2449.017744
976.738062	2453.579988
977.035845	2447.152517
977.333590	2454.487396
977.631299	2448.564040
977.928971	2452.748198
978.226606	2449.421037
978.524204	2449.597477
978.821765	2453.453960
979.119290	2453.403548
979.416777	2452.823815
979.714228	2457.890175
980.011642	2459.931842
980.309020	2457.411265
980.606360	2449.320213
980.903664	2451.664350
981.200931	2452.697787
981.498162	2455.646862
981.795356	2452.496140
982.092513	2456.100565
982.389633	2454.739454
982.686717	2450.933383
982.983764	2452.546552
983.280775	2451.084617
983.577749	2449.874740
983.874686	2453.655606
984.171587	2458.898406
984.468451	2453.025462
984.765279	2447.707044
985.062070	2444.379883
985.358824	2445.816612
985.655543	2459.074846
985.952224	2448.488423
986.248869	2444.959615
986.545478	2450.429267
986.842050	2448.841304
987.138586	2451.815585
987.435086	2455.798096
987.731549	2457.688529
988.027975	2456.579475
988.324366	2457.839763
988.620719	2450.076387
988.917037	2452.672581
989.213318	2452.370112
989.509563	2452.143260
989.805772	2460.461163
990.101944	2447.631427
990.398080	2445.010027
990.694180	2447.228135
990.990244	2447.807867
991.286271	2450.908177
991.582262	2455.394804
991.878217	2455.445215
992.174136	2452.496140
992.470019	2448.816098
992.765865	2450.252827
993.061676	2443.573298
993.357450	2451.361881
993.653188	2444.153031
993.948890	2452.143260
994.244556	2455.823302
994.540186	2447.858279
994.835780	2451.487910
995.131337	2446.522373
995.426859	2443.724533
995.722345	2450.983794
996.017795	2451.865996
996.313208	2449.622683
996.608586	2454.235338
996.903928	2447.354163
997.199234	2449.824329
997.494504	2452.042437
997.789738	2448.185954
998.084936	2450.202415
998.380099	2450.479679
998.675225	2448.765687
998.970316	2450.479679
999.265371	2448.538835
999.560390	2446.925665
999.855373	2452.092848
1000.150320	2442.136569
1000.445232	2451.815585
1000.740108	2453.353137
1001.034948	2454.815071
1001.329752	2458.066615
1001.624521	2455.924125
1001.919254	2444.606735
1002.213951	2452.168465
1002.508613	2455.646862
1002.803239	2458.167438
1003.097829	2443.522887
1003.392384	2450.933383
1003.686903	2449.345419
1003.981386	2452.092848
1004.275834	2450.580502
1004.570246	2453.756429
1004.864623	2454.537808
1005.158964	2446.144287
1005.453270	2453.907663
1005.747540	2439.842844
1006.041775	2449.168979
1006.335974	2452.420523
1006.630138	2448.790892
1006.924266	2456.302212
1007.218359	2448.690069
1007.512416	2447.908690
1007.806438	2452.622169
1008.100425	2451.059412
1008.394376	2450.126798
1008.688292	2442.439038
1008.982172	2451.034206
1009.276017	2449.899946
1009.569827	2451.235852
1009.863602	2444.329471
1010.157341	2454.336162
1010.451045	2455.193158
1010.744714	2444.253854
1011.038347	2452.294494
1011.331945	2452.546552
1011.625508	2442.691096
1011.919036	2451.765173
1012.212528	2447.202929
1012.505986	2459.730196
1012.799408	2449.824329
1013.092795	2447.656633
1013.386147	2458.999229
1013.679464	2445.715788
1013.972745	2449.572271
1014.265992	2449.496654
1014.559204	2455.092335
1014.852380	2441.985335
1015.145521	2450.000769
1015.438628	2452.193671
1015.731699	2454.714248
1016.024736	2449.017744
1016.317737	2449.143773
1016.610703	2449.748712
1016.903635	2457.436471
1017.196531	2450.882971
1017.489393	2445.740994
1017.782219	2450.731737
1018.075011	2452.420523
1018.367768	2453.201902
1018.660490	2448.185954
1018.953177	2448.185954
1019.245829	2448.185954
