Dividing Wavelength (nm)	Counts (n)	Slit_number_4_of_a_total_of_40	
326.493990	2045.322144
326.888308	2045.322144
327.282561	2045.322144
327.676750	2022.914215
328.070874	2022.788187
328.464933	2025.560821
328.858929	2039.827287
329.252859	2040.709488
329.646726	2065.310319
330.040528	2074.333985
330.434265	2092.759402
330.827938	2114.461569
331.221547	2133.113838
331.615091	2161.344300
332.008571	2183.979081
332.401986	2205.832483
332.795338	2226.400390
333.188625	2242.280025
333.581847	2258.361306
333.975006	2273.888060
334.368100	2293.825823
334.761129	2313.309883
335.154095	2331.180773
335.546996	2350.261540
335.939833	2372.845910
336.332606	2383.029040
336.725315	2397.043448
337.117960	2415.166396
337.510540	2424.517737
337.903056	2426.937490
338.295508	2434.600044
338.687896	2443.976590
339.080220	2454.563013
339.472480	2454.739454
339.864676	2458.520319
340.256807	2459.251287
340.648875	2457.260031
341.040879	2466.359313
341.432818	2465.099025
341.824694	2469.736887
342.216506	2465.880404
342.608253	2455.898919
342.999937	2469.434417
343.391557	2461.444188
343.783113	2464.443675
344.174605	2457.335648
344.566033	2456.806327
344.957397	2446.648402
345.348697	2453.227108
345.739934	2460.713221
346.131106	2456.503858
346.522215	2449.496654
346.913260	2453.453960
347.304241	2439.162288
347.695159	2438.809408
348.086012	2452.143260
348.476802	2434.600044
348.867528	2435.986362
349.258191	2428.979158
349.648789	2441.052721
350.039324	2433.465785
350.429796	2436.314037
350.820203	2428.197779
351.210548	2430.415887
351.600828	2427.164342
351.991045	2426.609815
352.381198	2431.877821
352.771288	2431.398912
353.161314	2432.760023
353.551276	2424.845412
353.941175	2434.146340
354.331010	2429.004363
354.720782	2439.086671
355.110490	2429.936977
355.500135	2429.130392
355.889717	2431.802204
356.279235	2432.003850
356.668689	2441.329985
357.058080	2433.642225
357.447408	2430.894796
357.836672	2437.120621
358.225873	2435.381423
358.615010	2429.785742
359.004084	2428.500248
359.393095	2447.076900
359.782043	2442.464244
360.170927	2429.659713
360.559748	2441.052721
360.948505	2434.574838
361.337199	2443.396858
361.725830	2435.280600
362.114398	2440.699840
362.502903	2441.708071
362.891344	2446.093875
363.279722	2443.573298
363.668037	2440.800663
364.056289	2435.860333
364.444478	2435.356217
364.832603	2443.245623
365.220665	2441.027515
365.608665	2445.236879
365.996601	2440.472988
366.384474	2449.925152
366.772284	2447.202929
367.160031	2448.942127
367.547715	2440.775458
367.935336	2446.572785
368.322893	2440.145313
368.710388	2440.825869
369.097820	2444.127825
369.485189	2444.682352
369.872495	2450.278033
370.259738	2438.179263
370.646918	2439.590787
371.034035	2450.177210
371.421090	2446.799637
371.808081	2459.377315
372.195010	2446.169492
372.581875	2443.396858
372.968678	2437.246650
373.355418	2445.236879
373.742096	2446.295521
374.128710	2439.716815
374.515262	2438.506938
374.901751	2445.942640
375.288177	2451.765173
375.674540	2452.168465
376.060841	2459.553756
376.447079	2444.833587
376.833254	2457.486883
377.219367	2448.135542
377.605417	2454.361367
377.991404	2446.572785
378.377329	2458.747171
378.763191	2447.581015
379.148991	2454.840277
379.534727	2450.756942
379.920402	2456.957562
380.306013	2446.850048
380.691563	2454.260544
381.077049	2448.311983
381.462474	2451.412292
381.847835	2450.378856
382.233134	2451.387087
382.618371	2452.571758
383.003545	2452.092848
383.388657	2452.924638
383.773706	2451.966819
384.158693	2451.714762
384.543618	2457.764146
384.928480	2449.068156
385.313280	2459.906637
385.698017	2451.437498
386.082692	2447.530604
386.467305	2445.287290
386.851856	2447.202929
387.236344	2462.931329
387.620770	2458.772377
388.005133	2447.505398
388.389435	2450.202415
388.773674	2448.110337
389.157851	2461.923098
389.541965	2459.352110
389.926018	2459.150463
390.310008	2459.024435
390.693936	2452.975050
391.077802	2464.872173
391.461606	2454.336162
391.845348	2460.410752
392.229027	2460.889662
392.612645	2454.462190
392.996200	2467.291927
393.379694	2454.310956
393.763125	2461.267748
394.146494	2466.460137
394.529801	2453.151490
394.913047	2451.765173
395.296230	2468.098512
395.679351	2460.209106
396.062410	2463.385033
396.445408	2462.301185
396.828343	2458.293467
397.211217	2455.016717
397.594028	2466.636577
397.976778	2459.856225
398.359466	2457.713735
398.742092	2458.797583
399.124656	2465.300671
399.507158	2462.780094
399.889598	2464.872173
400.271977	2458.394290
400.654294	2464.821762
401.036549	2456.226594
401.418742	2468.073306
401.800874	2462.225567
402.182944	2471.627319
402.564952	2466.157667
402.946898	2464.317646
403.328783	2458.243056
403.710606	2459.654579
404.092367	2464.620115
404.474067	2464.494087
404.855705	2470.719912
405.237282	2464.720938
405.618797	2465.426700
406.000250	2470.568677
406.381642	2463.460650
406.762972	2468.073306
407.144240	2457.990998
407.525447	2456.755915
407.906593	2462.427213
408.287677	2470.291413
408.668700	2459.931842
409.049661	2472.559933
409.430560	2463.737913
409.811399	2466.082050
410.192176	2469.182360
410.572891	2469.585652
410.953545	2468.955508
411.334138	2461.418983
411.714669	2471.249233
412.095139	2470.669500
412.475547	2464.368058
412.855894	2467.796042
413.236180	2470.039356
413.616405	2475.458596
413.996568	2459.957048
414.376670	2482.768269
414.756711	2472.837196
415.136691	2470.543471
415.516609	2472.408698
415.896466	2472.938019
416.276262	2469.963738
416.655997	2473.442135
417.035670	2464.771350
417.415283	2469.711681
417.794834	2463.662296
418.174324	2467.947277
418.553753	2475.357773
418.933121	2463.410238
419.312428	2464.922585
419.691674	2464.065588
420.070859	2463.763119
420.449983	2467.796042
420.829045	2467.266721
421.208047	2462.477625
421.586988	2472.459110
421.965867	2473.542958
422.344686	2469.837710
422.723444	2472.963225
423.102141	2475.559419
423.480777	2464.065588
423.859352	2467.821248
424.237866	2466.434931
424.616319	2466.157667
424.994712	2468.224540
425.373044	2468.350569
425.751314	2464.620115
426.129524	2463.611885
426.507673	2468.501804
426.885762	2468.451392
427.263789	2463.410238
427.641756	2473.190077
428.019662	2474.652012
428.397508	2478.836169
428.775292	2471.224027
429.153016	2466.913840
429.530679	2481.482775
429.908282	2465.099025
430.285824	2471.047587
430.663305	2473.089254
431.040726	2471.778554
431.418086	2472.585138
431.795385	2463.132975
432.172624	2476.466827
432.549802	2470.871146
432.926920	2475.080510
433.303977	2473.593369
433.680974	2472.081023
434.057910	2473.719398
434.434786	2474.525983
434.811601	2478.836169
435.188355	2471.274438
435.565050	2473.643781
435.941683	2475.357773
436.318257	2471.929788
436.694770	2477.878350
437.071222	2472.938019
437.447614	2476.945737
437.823946	2471.249233
438.200218	2481.684421
438.576429	2472.635550
438.952580	2473.467340
439.328670	2478.206025
439.704700	2481.533187
440.080670	2472.307875
440.456580	2474.248719
440.832429	2481.054277
441.208218	2479.088227
441.583947	2473.442135
441.959616	2471.929788
442.335224	2479.289873
442.710773	2472.156640
443.086261	2469.610858
443.461689	2480.222487
443.837057	2474.072279
444.212365	2472.736373
444.587612	2466.838223
444.962800	2466.989458
445.337927	2481.205512
445.712995	2471.904583
446.088002	2469.988944
446.462949	2484.053763
446.837837	2474.122690
447.212664	2475.408185
447.587431	2476.214769
447.962139	2476.340798
448.336786	2484.835142
448.711374	2469.736887
449.085901	2473.215283
449.460369	2473.366517
449.834776	2481.810450
450.209124	2476.668473
450.583412	2483.978146
450.957640	2484.154587
451.331808	2471.576908
451.705917	2475.937506
452.079965	2473.442135
452.453954	2479.793988
452.827883	2482.743063
453.201752	2485.616521
453.575562	2478.684935
453.949311	2478.810963
454.323001	2473.316106
454.696632	2479.667960
455.070202	2482.818681
455.443713	2484.457056
455.817164	2485.213229
456.190556	2479.844400
456.563888	2480.852631
456.937160	2484.305821
457.310373	2480.751808
457.683526	2478.962198
458.056619	2476.945737
458.429653	2477.903556
458.802628	2476.189563
459.175542	2477.953967
459.548398	2488.011069
459.921194	2474.122690
460.293930	2482.087713
460.666607	2479.844400
461.039224	2469.106742
461.411782	2481.886067
461.784280	2475.004892
462.156719	2482.566623
462.529099	2485.087200
462.901419	2480.222487
463.273680	2484.809937
463.645882	2469.510035
464.018024	2477.727115
464.390106	2467.493573
464.762130	2480.978660
465.134094	2487.557365
465.505999	2491.035762
465.877845	2482.037302
466.249631	2483.474031
466.621358	2475.080510
466.993026	2492.951400
467.364634	2489.271358
467.736184	2482.238948
468.107674	2480.449338
468.479105	2477.727115
468.850477	2488.212715
469.221790	2477.953967
469.593043	2488.565596
469.964238	2480.600573
470.335373	2476.769296
470.706449	2483.499237
471.077467	2484.507467
471.448425	2487.229690
471.819324	2491.439054
472.190164	2489.044506
472.560945	2490.304794
472.931667	2488.288333
473.302330	2490.077942
473.672934	2477.122177
474.043479	2485.893785
474.413965	2493.808396
474.784393	2491.817140
475.154761	2484.709113
475.525070	2487.809423
475.895321	2492.800165
476.265513	2489.523415
476.635645	2489.220946
477.005719	2487.885040
477.375734	2487.481748
477.745691	2488.968888
478.115588	2497.337204
478.485427	2486.675163
478.855207	2489.498210
479.224928	2480.575367
479.594591	2489.851090
479.964194	2492.422079
480.333739	2485.238435
480.703226	2489.876296
481.072653	2491.313025
481.442022	2487.935452
481.811333	2487.330513
482.180584	2480.121663
482.549777	2492.598519
482.918912	2489.951913
483.287988	2491.565083
483.657005	2489.422592
484.025964	2493.228663
484.394864	2487.532160
484.763706	2493.757985
485.132489	2491.917963
485.501213	2492.724548
485.869879	2481.306335
486.238487	2493.783190
486.607036	2491.439054
486.975527	2495.850063
487.343959	2490.708087
487.712333	2493.959631
488.080648	2495.824858
488.448905	2490.556852
488.817104	2486.826398
489.185244	2487.254896
489.553326	2483.398413
489.921350	2485.465287
490.289315	2487.658188
490.657222	2499.328460
491.025070	2491.388642
491.392861	2492.195227
491.760593	2499.000785
492.128267	2499.404077
492.495883	2497.135558
492.863440	2497.538850
493.230939	2492.598519
493.598380	2493.707573
493.965763	2492.699342
494.333088	2488.313538
494.700354	2485.061994
495.067563	2498.320229
495.434713	2487.809423
495.801805	2495.270331
496.168839	2490.405617
496.535815	2484.532673
496.902733	2490.506440
497.269593	2500.664365
497.636395	2499.101608
498.003139	2489.321769
498.369825	2492.800165
498.736453	2489.926708
499.103023	2491.262613
499.469535	2500.866012
499.835989	2494.841833
500.202385	2493.354692
500.568723	2483.373208
500.935003	2492.800165
501.301226	2493.153046
501.667390	2484.583085
502.033497	2498.295023
502.399546	2490.481235
502.765537	2498.723521
503.131470	2492.875783
503.497345	2492.296050
503.863163	2488.842860
504.228923	2494.060454
504.594625	2496.833088
504.960269	2496.757471
505.325856	2503.563029
505.691385	2495.976092
506.056856	2489.649444
506.422270	2493.354692
506.787625	2497.538850
507.152924	2499.328460
507.518164	2502.680827
507.883347	2494.085660
508.248472	2505.781137
508.613540	2495.471977
508.978550	2500.286279
509.343503	2493.102635
509.708398	2504.394819
510.073236	2499.101608
510.438016	2504.092350
510.802738	2514.905625
511.167403	2514.653567
511.532010	2514.376304
511.896561	2514.325892
512.261053	2512.788340
512.625488	2507.016219
512.989866	2508.377331
513.354186	2514.401510
513.718449	2514.527538
514.082655	2520.072808
514.446803	2518.333610
514.810894	2523.349558
515.174927	2525.718900
515.538904	2524.710669
515.902822	2519.997190
516.266684	2533.280631
516.630488	2534.389685
516.994235	2524.811492
517.357925	2524.584640
517.721558	2529.903058
518.085133	2534.112421
518.448651	2526.878365
518.812112	2535.927237
519.175516	2536.683410
519.538863	2536.053265
519.902152	2541.321271
520.265385	2548.454504
520.628560	2553.394835
520.991678	2551.983312
521.354739	2547.244627
521.717743	2553.294012
522.080690	2560.049158
522.443580	2549.714792
522.806413	2552.588250
523.169189	2562.216854
523.531908	2553.571275
523.894569	2561.939590
524.257174	2555.058415
524.619722	2559.998746
524.982213	2569.803790
525.344647	2571.215313
525.707025	2573.105746
526.069345	2570.156671
526.431608	2575.601117
526.793815	2575.147413
527.155964	2573.912331
527.518057	2573.105746
527.880093	2576.886612
528.242072	2581.297621
528.603995	2588.582088
528.965860	2582.406675
529.327669	2580.112950
529.689421	2591.001842
530.051117	2589.892788
530.412755	2591.203488
530.774337	2590.951431
531.135862	2588.934969
531.497331	2587.750298
531.858743	2592.841863
532.220098	2605.520365
532.581396	2586.742067
532.942638	2598.866042
533.303824	2603.176229
533.664953	2598.160281
534.026025	2592.211719
534.387040	2608.242588
534.747999	2609.074379
535.108902	2604.890221
535.469748	2599.748244
535.830537	2612.300717
536.191270	2601.865529
536.551947	2605.772423
536.912567	2605.948863
537.273131	2603.428287
537.633638	2603.352669
537.994089	2617.694752
538.354483	2598.412338
538.714821	2607.889708
539.075103	2607.637650
539.435328	2620.719444
539.795497	2623.038375
540.155609	2615.048146
540.515665	2613.586212
540.875665	2615.174175
541.235609	2618.249279
541.595496	2615.980760
541.955328	2614.392796
542.315102	2631.860394
542.674821	2621.727675
543.034483	2623.290433
543.394090	2620.568210
543.753640	2616.812550
544.113134	2630.524488
544.472571	2620.316152
544.831953	2628.558438
545.191278	2632.641773
545.550548	2634.406177
545.909761	2624.928808
546.268918	2628.684467
546.628019	2629.163377
546.987064	2625.458129
547.346053	2622.130967
547.704986	2632.515744
548.063863	2629.213788
548.422684	2629.692698
548.781449	2625.735392
549.140158	2619.156687
549.498811	2627.525002
549.857408	2624.954013
550.215949	2634.355765
550.574434	2638.993627
550.932864	2626.567183
551.291237	2623.517285
551.649555	2627.877883
552.007817	2633.523975
552.366022	2618.425719
552.724173	2632.944242
553.082267	2626.088273
553.440305	2630.801752
553.798288	2628.961731
554.156215	2630.045579
554.514086	2624.878396
554.871902	2629.087760
555.229661	2623.970988
555.587365	2621.828498
555.945014	2630.700929
556.302606	2630.020373
556.660143	2624.802779
557.017625	2626.516771
557.375050	2624.424692
557.732421	2622.181379
558.089735	2624.701956
558.446994	2625.508540
558.804197	2632.288892
559.161345	2616.005965
559.518437	2620.820267
559.875474	2616.409258
560.232455	2610.914400
560.589381	2622.987963
560.946251	2616.182406
561.303065	2619.660802
561.659825	2610.158227
562.016528	2614.569237
562.373177	2615.274998
562.729770	2614.770883
563.086307	2611.494133
563.442789	2611.141252
563.799216	2603.755962
564.155587	2606.881477
564.511904	2606.679831
564.868164	2600.832092
565.224370	2611.065635
565.580520	2600.529623
565.936615	2598.462750
566.292654	2608.771910
566.648638	2607.309975
567.004567	2595.715321
567.360441	2604.159254
567.716260	2592.564600
568.072023	2595.589292
568.427732	2609.805346
568.783385	2592.388160
569.138982	2598.235898
569.494525	2599.244129
569.850013	2590.648962
570.205445	2596.345465
570.560823	2596.320260
570.916145	2590.346492
571.271412	2591.001842
571.626625	2586.036306
571.981782	2597.429313
572.336884	2589.514702
572.691931	2582.734350
573.046923	2578.550192
573.401860	2578.751838
573.756743	2583.944227
574.111570	2578.222517
574.466342	2582.053794
574.821059	2576.810994
575.175722	2576.760583
575.530330	2579.281160
575.884882	2579.281160
576.239380	2577.340315
576.593823	2579.129925
576.948211	2581.549679
577.302544	2578.272929
577.656823	2579.583629
578.011047	2581.549679
578.365216	2585.103692
578.719330	2576.937023
579.073389	2572.147927
579.427394	2574.416446
579.781344	2571.971487
580.135239	2564.359344
580.489080	2576.155644
580.842866	2573.937537
581.196597	2571.517783
581.550273	2566.199365
581.903895	2567.081567
582.257463	2573.030129
582.610975	2574.744121
582.964434	2572.551219
583.317837	2578.096488
583.671186	2573.408215
584.024481	2575.399471
584.377721	2571.795046
584.730906	2582.028588
585.084037	2573.735890
585.437113	2579.356777
585.790135	2583.540935
586.143103	2578.524987
586.496016	2579.482806
586.848874	2573.937537
587.201679	2583.641758
587.554428	2581.095975
587.907124	2577.567167
588.259765	2576.962229
588.612352	2578.651015
588.964884	2581.020358
589.317362	2582.104206
589.669786	2586.111923
590.022155	2587.573858
590.374470	2585.431367
590.726731	2584.019844
591.078937	2589.363467
591.431090	2592.186513
591.783188	2588.153590
592.135232	2591.959662
592.487222	2596.446288
592.839157	2600.126331
593.191038	2594.177769
593.542866	2602.344438
593.894639	2600.630446
594.246358	2606.452979
594.598022	2602.873760
594.949633	2601.109356
595.301190	2608.746704
595.652692	2602.848554
596.004141	2603.831579
596.355535	2613.460183
596.706876	2610.737960
597.058162	2622.357819
597.409395	2609.452465
597.760573	2625.483335
598.111698	2620.190123
598.462768	2616.585698
598.813785	2621.929321
599.164748	2625.684981
599.515657	2629.818727
599.866511	2629.289406
600.217312	2634.280148
600.568060	2634.128913
600.918753	2640.001858
601.269392	2649.176758
601.619978	2646.605769
601.970510	2652.176244
602.320988	2658.225629
602.671412	2665.938594
603.021783	2660.494148
603.372100	2664.325425
603.722363	2673.626354
604.072572	2680.406706
604.422728	2680.608352
604.772830	2673.802794
605.122878	2682.070287
605.472872	2683.985925
605.822813	2701.050231
606.172701	2701.428317
606.522534	2697.496217
606.872314	2712.896942
607.222041	2715.392313
607.571714	2727.869169
607.921333	2719.122767
608.270899	2735.052813
608.620411	2738.732856
608.969870	2749.319279
609.319276	2758.141298
609.668627	2769.534306
610.017926	2785.010648
610.367171	2780.019906
610.716362	2778.936058
611.065500	2789.623304
611.414585	2818.735967
611.763616	2819.013231
612.112594	2828.036896
612.461518	2828.314160
612.810389	2844.723115
613.159207	2862.417565
613.507971	2875.096067
613.856682	2877.994731
614.205340	2896.546177
614.553945	2904.964904
614.902496	2917.214908
615.250994	2927.372833
615.599439	2943.958229
615.947830	2970.600727
616.296169	2981.666060
616.644454	2993.285919
616.992686	3010.879546
617.340864	3035.682023
617.688990	3043.999927
618.037063	3081.455700
618.385082	3095.495313
618.733048	3119.592029
619.080961	3152.283912
619.428821	3168.062723
619.776628	3187.118285
620.124382	3193.520550
620.472083	3213.080227
620.819731	3233.748958
621.167326	3225.481465
621.514868	3238.386819
621.862357	3249.578181
622.209793	3265.735079
622.557176	3263.895058
622.904506	3271.834875
623.251783	3276.119856
623.599007	3270.347735
623.946179	3289.655354
624.293297	3308.131183
624.640363	3310.777788
624.987376	3324.111640
625.334336	3341.982531
625.681243	3335.882735
626.028097	3353.602390
626.374899	3381.227913
626.721647	3392.847773
627.068343	3412.583890
627.414987	3434.008794
627.761577	3448.754169
628.108115	3475.321050
628.454600	3479.001092
628.801032	3506.223323
629.147412	3530.975388
629.493739	3555.626631
629.840014	3572.993406
630.186236	3599.686315
630.532405	3620.783544
630.878521	3656.802588
631.224585	3687.301569
631.570597	3704.617933
631.916556	3725.765573
632.262462	3764.532046
632.608316	3794.501706
632.954117	3813.204387
633.299866	3842.216227
633.645562	3854.466231
633.991206	3869.161194
634.336797	3854.062938
634.682336	3883.251219
635.027823	3893.031058
635.373257	3897.971388
635.718639	3910.044952
636.063968	3910.549067
636.409245	3921.311931
636.754470	3933.461112
637.099642	3939.460085
637.444762	3941.804221
637.789829	3969.404538
638.134845	3986.015140
638.479808	4002.751771
638.824719	4026.520812
639.169577	4025.865462
639.514383	4042.753327
639.859137	4059.389135
640.203839	4098.911781
640.548489	4102.869087
640.893086	4132.838746
641.237632	4142.391733
641.582125	4184.661808
641.926566	4194.794527
642.270955	4222.420050
642.615292	4253.801233
642.959576	4258.968415
643.303809	4297.003921
643.647990	4333.451463
643.992118	4361.253427
644.336195	4395.003952
644.680219	4416.731325
645.024192	4465.529694
645.368112	4545.053896
645.711981	4558.488571
646.055797	4657.522038
646.399562	4707.479873
646.743274	4799.556548
647.086935	4884.147110
647.430544	4918.149692
647.774101	4960.142504
648.117606	5022.678017
648.461059	5063.586981
648.804460	5074.904371
649.147810	5062.553544
649.491108	5060.663112
649.834354	5054.286052
650.177548	5021.871433
650.520690	5011.511862
650.863781	5039.767529
651.206820	5047.102408
651.549807	5052.849323
651.892742	5040.599319
652.235626	5050.227923
652.578458	5066.536056
652.921238	5043.548394
653.263967	5109.411069
653.606644	5124.963029
653.949269	5144.799969
654.291843	5137.187827
654.634365	5189.136917
654.976836	5192.489285
655.319255	5226.844748
655.661622	5261.200212
656.003938	5267.804123
656.346203	5295.858144
656.688416	5341.152912
657.030577	5365.501685
657.372687	5361.569585
657.714746	5417.475981
658.056753	5455.284635
658.398708	5433.355615
658.740612	5477.642152
659.082465	5515.627246
659.424266	5557.695675
659.766016	5578.641669
660.107715	5604.780052
660.449362	5648.990971
660.790958	5694.941088
661.132503	5725.238423
661.473996	5750.116517
661.815438	5811.845446
662.156829	5859.786819
662.498168	5871.734354
662.839456	5906.946813
663.180693	5965.575433
663.521879	6011.424727
663.863013	6040.965888
664.204097	6064.508077
664.545129	6160.844527
664.886110	6201.400610
665.227040	6234.092492
665.567918	6291.158354
665.908746	6337.184088
666.249522	6389.788529
666.590248	6438.712927
666.930922	6499.131156
667.271545	6525.546802
667.612118	6564.666156
667.952639	6587.880669
668.293109	6636.426981
668.633528	6654.398694
668.973896	6673.681108
669.314213	6717.539146
669.654480	6700.651281
669.994695	6753.961483
670.334859	6775.890502
670.674973	6791.266021
671.015035	6851.180135
671.355047	6877.721810
671.695008	6911.094248
672.034918	6955.078315
672.374777	6978.393652
672.714585	7021.369488
673.054342	7082.871565
673.394049	7098.121056
673.733705	7171.822725
674.073310	7176.939496
674.412864	7203.430760
674.752368	7185.660692
675.091820	7276.376256
675.431223	7244.516163
675.770574	7236.752787
676.109875	7256.892196
676.449125	7244.087665
676.788324	7254.522854
677.127473	7223.746610
677.466571	7241.138590
677.805619	7230.854637
678.144616	7261.202383
678.483562	7275.569671
678.822458	7249.884992
679.161303	7280.131915
679.500098	7306.950854
679.838842	7313.907646
680.177535	7366.663321
680.516179	7465.898435
680.854771	7530.425204
681.193314	7688.793052
681.531805	7945.312165
681.870247	8112.426415
682.208638	8300.789129
682.546978	8396.369406
682.885268	8446.251623
683.223508	8415.777848
683.561697	8398.940394
683.899836	8411.190398
684.237925	8350.242848
684.575963	8350.646140
684.913951	8317.475348
685.251889	8377.616313
685.589776	8419.281450
685.927614	8443.579812
686.265401	8531.371506
686.603137	8568.272752
686.940824	8720.011483
687.278460	8816.625196
687.616046	8897.157629
687.953582	9043.073827
688.291068	9065.305315
688.628504	9177.017285
688.965889	9199.400008
689.303224	9151.256988
689.640510	9161.994646
689.977745	9052.223521
690.314930	8927.177700
690.652065	8871.674596
690.989150	8765.054192
691.326185	8608.753217
691.663170	8499.687854
692.000105	8367.357565
692.336990	8258.367819
692.673825	8213.955254
693.010610	8122.886810
693.347345	8020.097683
693.684030	7900.950012
694.020665	7874.206690
694.357251	7769.804394
694.693786	7770.963860
695.030272	7743.918069
695.366707	7656.227198
695.703093	7603.320288
696.039429	7645.741598
696.375716	7608.361442
696.711952	7606.899508
697.048139	7619.552804
697.384276	7593.464833
697.720363	7658.924215
698.056400	7634.272973
698.392388	7625.879452
698.728326	7630.366079
699.064214	7606.092923
699.400053	7626.459185
699.735842	7588.675737
700.071581	7521.905654
700.407270	7507.210690
700.742910	7478.728171
701.078501	7427.081550
701.414042	7398.346973
701.749533	7351.060950
702.084974	7278.796010
702.420366	7364.445213
702.755709	7280.535208
703.091002	7231.207517
703.426246	7255.606702
703.761440	7254.900940
704.096584	7208.950823
704.431679	7224.099490
704.766725	7219.965744
705.101721	7199.322219
705.436668	7257.446723
705.771565	7195.894235
706.106413	7304.203425
706.441212	7318.646331
706.775961	7373.821760
707.110661	7399.103146
707.445311	7520.695777
707.779913	7478.526525
708.114465	7575.694765
708.448967	7686.953031
708.783421	7871.232410
709.117825	7959.452602
709.452180	8025.693363
709.786485	8135.439283
710.120742	8370.835962
710.454949	8363.979992
710.789107	8509.215635
711.123216	8693.747071
711.457275	8751.317048
711.791286	8942.502808
712.125247	8967.557342
712.459159	8917.044981
712.793023	9132.579513
713.126837	8858.996094
713.460602	8955.534190
713.794318	8909.180781
714.127985	8844.175102
714.461602	8658.811875
714.795171	8679.808281
715.128691	8419.029392
715.462162	8301.923388
715.795584	8200.646608
716.128957	8161.829723
716.462281	8058.007160
716.795556	8027.457767
717.128782	7919.198988
717.461960	7751.555417
717.795088	7759.772498
718.128167	7653.857856
718.461198	7549.455560
718.794180	7525.963783
719.127113	7421.939573
719.459997	7387.130406
719.792833	7300.472971
720.125619	7300.876263
720.458357	7214.622121
720.791046	7202.372117
721.123686	7146.163252
721.456278	7098.952846
721.788821	7091.844819
722.121315	7007.506315
722.453761	7060.463637
722.786158	7040.853548
723.118506	7049.549538
723.450805	7018.697677
723.783056	7078.309321
724.115259	7063.891621
724.447412	7048.843777
724.779518	7118.562935
725.111574	7143.869527
725.443582	7218.150929
725.775542	7216.562965
726.107453	7379.442646
726.439315	7344.179775
726.771129	7465.696788
727.102895	7601.807942
727.434612	7678.307452
727.766281	7715.032258
728.097901	7805.016854
728.429473	7846.102258
728.760996	7868.560598
729.092471	7909.595590
729.423897	7907.377483
729.755276	7876.828090
730.086606	7902.537975
730.417887	8104.360569
730.749120	8290.858056
731.080305	8356.619908
731.411442	8488.168817
731.742530	8539.966673
732.073570	8614.147252
732.404562	8722.733706
732.735506	8692.335548
733.066401	8615.735215
733.397249	8499.082915
733.728048	8342.706323
734.058798	8079.053977
734.389501	7870.198973
734.720156	7723.652631
735.050762	7544.994138
735.381320	7435.853158
735.711831	7345.994590
736.042293	7223.897844
736.372707	7236.651963
736.703073	7168.193094
737.033391	7233.551654
737.363661	7215.403500
737.693883	7244.616987
738.024056	7291.978627
738.354182	7343.070721
738.684260	7429.224040
739.014290	7493.498752
739.344272	7568.158240
739.674207	7668.956112
740.004093	7726.047179
740.333931	7740.414467
740.663722	7761.889783
740.993464	7767.687110
741.323159	7716.947896
741.652806	7664.217427
741.982405	7611.386135
742.311956	7520.443719
742.641460	7497.304823
742.970915	7402.052221
743.300323	7305.060421
743.629683	7241.138590
743.958996	7149.666854
744.288260	7073.368990
744.617477	6977.133363
744.946647	6965.765562
745.275768	6867.160592
745.604842	6806.439894
745.933869	6750.861173
746.262847	6742.820533
746.591778	6734.527835
746.920662	6682.377098
747.249498	6681.444485
747.578286	6733.469192
747.907027	6761.472802
748.235720	6849.365319
748.564365	6872.882302
748.892963	6838.451221
749.221514	6864.614810
749.550017	6815.791235
749.878473	6830.007288
750.206881	6760.212513
750.535242	6729.915179
750.863555	6705.263937
751.191821	6655.759806
751.520039	6688.098808
751.848210	6635.670808
752.176334	6645.904350
752.504411	6628.184694
752.832440	6576.235604
753.160421	6588.838488
753.488356	6533.814294
753.816243	6502.256671
754.144082	6450.988137
754.471875	6408.844090
754.799620	6395.359004
755.127318	6392.788015
755.454969	6380.437188
755.782572	6374.261775
756.110129	6377.765377
756.437638	6335.646537
756.765100	6331.714437
757.092515	6359.087902
757.419882	6347.468042
757.747203	6336.856413
758.074477	6382.378033
758.401703	6348.224215
758.728882	6437.830725
759.056014	6444.888340
759.383099	6478.412013
759.710138	6522.017994
760.037129	6565.649181
760.364073	6569.379635
760.690970	6583.797335
761.017820	6591.485094
761.344623	6664.884294
761.671379	6797.945550
761.998088	7041.307252
762.324751	7608.386648
762.651366	8636.731621
762.977935	10033.181648
763.304456	11021.676300
763.630931	11405.837429
763.957359	11120.029212
764.283740	10459.360794
764.610074	9740.945960
764.936362	8894.258965
765.262602	8259.073581
765.588796	7595.909792
765.914943	7171.444638
766.241044	6779.646162
766.567097	6495.854406
766.893104	6251.786942
767.219064	6097.099137
767.544978	5897.368621
767.870845	5752.889152
768.196665	5694.008475
768.522438	5590.059883
768.848165	5529.137538
769.173846	5451.503769
769.499479	5404.721862
769.825066	5331.650337
770.150607	5256.915231
770.476101	5236.876644
770.801548	5195.564388
771.126949	5131.768587
771.452303	5088.868367
771.777611	5012.419269
772.102872	5007.882231
772.428087	4971.056602
772.753256	4915.351852
773.078378	4887.549888
773.403453	4815.562212
773.728482	4764.016413
774.053465	4741.709308
774.378401	4704.530798
774.703291	4651.371831
775.028135	4615.655256
775.352932	4604.287454
775.677683	4559.572419
776.002388	4522.948437
776.327046	4524.964898
776.651658	4483.324967
776.976224	4447.633598
777.300743	4446.751396
777.625216	4414.311571
777.949643	4400.650044
778.274024	4392.533787
778.598359	4370.680385
778.922647	4370.882031
779.246889	4345.953525
779.571086	4332.569262
779.895236	4340.559490
780.219339	4347.995192
780.543397	4336.829037
780.867409	4364.530177
781.191374	4354.145400
781.515294	4356.943240
781.839167	4373.528637
782.162995	4365.966906
782.486776	4340.206610
782.810511	4328.183458
783.134201	4288.408754
783.457844	4292.366060
783.781441	4279.712763
784.104993	4264.463273
784.428498	4244.676744
784.751958	4241.979727
785.075372	4226.604208
785.398739	4202.078994
785.722061	4222.798137
786.045337	4219.975090
786.368568	4271.873769
786.691752	4260.581585
787.014891	4366.723079
787.337983	4477.729287
787.661030	4662.285929
787.984031	4854.605948
788.306987	4990.540662
788.629897	5055.269077
788.952760	5037.700656
789.275579	4975.039113
789.598351	4852.463458
789.921078	4737.046240
790.243759	4598.112040
790.566395	4497.667050
790.888984	4417.537910
791.211529	4352.582642
791.534027	4274.041465
791.856480	4202.734344
792.178888	4164.396369
792.501249	4136.367554
792.823566	4078.772371
793.145836	4087.443156
793.468062	4070.605702
793.790241	4045.904048
794.112375	4073.706012
794.434464	4106.448306
794.756507	4110.279583
795.078505	4161.825381
795.400457	4245.130448
795.722364	4356.590360
796.044226	4451.943785
796.366042	4534.593502
796.687812	4506.237012
797.009538	4525.897512
797.331218	4491.416019
797.652852	4468.176300
797.974442	4425.830608
798.295986	4384.316706
798.617484	4333.476669
798.938938	4278.124800
799.260346	4244.097012
799.581709	4178.309954
799.903026	4149.121673
800.224299	4126.764156
800.545526	4065.614960
800.866708	4021.479658
801.187845	4009.859798
801.508936	3964.464208
801.829983	3958.566058
802.150984	3897.618508
802.471940	3890.056777
802.792851	3876.092781
803.113717	3857.541335
803.434538	3853.508412
803.755314	3831.604598
804.076045	3825.328362
804.396731	3803.474960
804.717372	3811.011485
805.037967	3809.952842
805.358518	3819.455417
805.679024	3833.091738
805.999485	3838.334538
806.319901	3847.585056
806.640272	3860.162735
806.960598	3882.444635
807.280879	3870.270248
807.601115	3891.291860
807.921306	3882.192577
808.241453	3866.464177
808.561554	3868.455433
808.881611	3861.221377
809.201623	3863.867983
809.521590	3850.130838
809.841513	3840.199765
810.161390	3852.298535
810.481223	3803.046462
810.801011	3803.626194
811.120755	3793.821150
811.440453	3766.321656
811.760107	3767.380298
812.079716	3742.502204
812.399281	3718.355077
812.718801	3712.305692
813.038276	3700.206923
813.357707	3668.800535
813.677093	3701.265565
813.996434	3652.416785
814.315731	3668.548477
814.634983	3673.009898
814.954191	3670.363292
815.273354	3699.375133
815.592473	3719.413719
815.911547	3750.719285
816.230577	3767.279475
816.549562	3814.968790
816.868502	3840.149354
817.187399	3868.455433
817.506250	3898.122623
817.825058	3910.397833
818.143821	3979.990962
818.462539	4057.851583
818.781213	4160.867562
819.099843	4319.462262
819.418429	4595.541052
819.736970	4876.887848
820.055466	5210.133323
820.373919	5610.249704
820.692327	6238.629531
821.010691	7341.684404
821.329011	9749.994831
821.647286	13499.277387
821.965517	17825.318354
822.283704	20568.437013
822.601847	21721.903425
822.919945	20083.856100
823.237999	18079.190862
823.556010	15876.584717
823.873976	13850.822250
824.191897	11967.195115
824.509775	10575.055275
824.827609	9326.109410
825.145398	8557.635917
825.463144	8152.075090
825.780845	8218.517498
826.098502	8685.151904
826.416116	9661.472169
826.733685	10653.394806
827.051210	10973.583692
827.368692	10486.028498
827.686129	9421.488040
828.003522	8343.613731
828.320872	7326.460119
828.638177	6559.020063
828.955439	5983.496735
829.272656	5481.523840
829.589830	5067.367846
829.906960	4717.915062
830.224046	4470.167556
830.541088	4250.852158
830.858086	4111.313019
831.175041	4026.823281
831.491952	3978.982731
831.808819	3984.553206
832.125642	4076.957556
832.442421	4293.903612
832.759157	4779.770019
833.075849	5503.553683
833.392497	6356.516913
833.709101	6903.204842
834.025662	6877.898250
834.342179	6469.690817
834.658653	5887.462754
834.975083	5376.743458
835.291469	4955.227379
835.607811	4600.153708
835.924110	4358.077500
836.240366	4130.847490
836.556578	3911.456475
836.872746	3743.409612
837.188871	3602.660596
837.504952	3503.450688
837.820990	3412.256215
838.136984	3354.610621
838.452935	3322.926969
838.768842	3336.361644
839.084706	3439.957356
839.400526	3756.163731
839.716303	4158.523425
840.032037	4420.184515
840.347727	4396.365063
840.663373	4156.632992
840.978977	3903.188983
841.294537	3689.771735
841.610054	3537.629712
841.925527	3430.454781
842.240957	3328.875531
842.556344	3242.268508
842.871687	3172.952642
843.186987	3090.176896
843.502244	3025.221629
843.817458	2997.318842
844.132629	2958.275106
844.447756	2938.765840
844.762840	2912.879515
845.077881	2892.588871
845.392879	2877.742673
845.707833	2860.930425
846.022745	2857.830115
846.337613	2841.446365
846.652438	2839.782785
846.967221	2823.726710
847.281960	2810.871767
847.596656	2811.275060
847.911309	2809.712302
848.225919	2809.157775
848.540485	2795.924746
848.855009	2799.428348
849.169490	2786.850669
849.483928	2783.170627
849.798323	2778.784823
850.112675	2768.248812
850.426984	2778.810029
850.741251	2767.543050
851.055474	2770.240067
851.369654	2766.030704
851.683792	2770.718977
851.997887	2764.518358
852.311938	2770.240067
852.625947	2770.996240
852.939914	2762.779160
853.253837	2769.307454
853.567718	2767.467433
853.881555	2758.393356
854.195350	2761.468460
854.509103	2759.250352
854.822812	2761.292019
855.136479	2758.015269
855.450103	2760.510640
855.763685	2758.015269
856.077224	2759.048706
856.390720	2758.065681
856.704173	2764.846033
857.017584	2766.988523
857.330953	2767.013729
857.644278	2761.039962
857.957561	2775.432456
858.270802	2771.147475
858.584000	2774.953546
858.897155	2770.391302
859.210268	2764.896444
859.523339	2761.922163
859.836367	2756.780187
860.149352	2754.511667
860.462295	2748.890781
860.775195	2747.882550
861.088054	2751.134094
861.400869	2747.882550
861.713642	2742.009606
862.026373	2745.336767
862.339062	2745.210738
862.651708	2755.242635
862.964312	2750.478744
863.276873	2767.164963
863.589392	2774.676283
863.901869	2779.616613
864.214303	2795.345013
864.526696	2800.033287
864.839045	2815.711275
865.151353	2826.625373
865.463619	2814.224135
865.775842	2821.836277
866.088023	2815.434012
866.400162	2811.980821
866.712258	2815.585246
867.024313	2818.861996
867.336325	2810.065183
867.648296	2811.073413
867.960224	2813.619196
868.272110	2812.157262
868.583954	2814.198929
868.895755	2810.039977
869.207515	2814.980308
869.519233	2818.181440
869.830909	2821.584219
870.142542	2824.079590
870.454134	2825.339879
870.765684	2838.673731
871.077191	2832.573935
871.388657	2841.446365
871.700081	2852.436081
872.011463	2859.317256
872.322803	2863.400590
872.634101	2880.288456
872.945357	2884.296173
873.256571	2897.882083
873.567744	2907.485481
873.878874	2914.442273
874.189963	2923.566762
874.501010	2910.535379
874.812015	2914.593508
875.122979	2909.779206
875.433900	2917.567788
875.744780	2919.836308
876.055618	2915.148035
876.366415	2917.114085
876.677169	2923.062646
876.987882	2934.732917
877.298554	2939.849688
877.609183	2943.680965
877.919771	2964.223667
878.230317	2989.126967
878.540822	3025.297246
878.851285	3079.918148
879.161707	3166.424348
879.472087	3301.577683
879.782425	3552.929613
880.092722	4013.010519
880.402977	4804.043175
880.713191	5820.012115
881.023363	6847.273240
881.333494	7506.605752
881.643583	7755.311077
881.953631	7614.839325
882.263637	7285.904037
882.573602	6844.122519
882.883526	6435.158913
883.193408	6016.465881
883.503248	5617.761023
883.813048	5271.358137
884.122806	4947.791677
884.432522	4623.242192
884.742197	4323.091892
885.051831	4071.008994
885.361424	3848.769727
885.670975	3667.086542
885.980485	3522.052546
886.289954	3418.179571
886.599382	3313.399188
886.908768	3236.748444
887.218113	3157.677946
887.527417	3101.494287
887.836680	3051.939744
888.145901	3007.653208
888.455082	2972.566777
888.764221	2944.084258
889.073319	2921.499888
889.382376	2908.544123
889.691392	2898.260169
890.000366	2893.496279
890.309300	2879.154196
890.618193	2895.638769
890.927044	2888.782800
891.235855	2890.597615
891.544625	2894.353275
891.853353	2912.955133
892.162041	2922.810588
892.470687	2964.097638
892.779293	3008.787467
893.087858	3086.774117
893.396381	3190.092565
893.704864	3361.164121
894.013306	3585.747525
894.321707	3820.866940
894.630068	3974.798573
894.938387	3993.954958
895.246665	3922.899894
895.554903	3805.995537
895.863100	3666.733662
896.171256	3556.886919
896.479371	3452.484623
896.787446	3363.684698
897.095480	3273.574073
897.403473	3215.449569
897.711425	3151.048829
898.019336	3102.931015
898.327207	3064.643452
898.635038	3014.433560
898.942827	2981.136738
899.250576	2931.204110
899.558284	2897.957700
899.865952	2878.070348
900.173579	2844.823938
900.481165	2831.464881
900.788711	2814.123312
901.096216	2805.578556
901.403681	2791.715383
901.711105	2779.465379
902.018489	2783.473096
902.325832	2789.043571
902.633135	2800.360962
902.940397	2869.046683
903.247619	3014.030267
903.554800	3315.743325
903.861941	3721.228535
904.169041	4019.311962
904.476101	4133.242038
904.783121	4037.560938
905.090100	3867.648848
905.397039	3690.124615
905.703938	3554.920869
906.010796	3413.365269
906.317614	3313.273160
906.624391	3219.255640
906.931129	3144.394506
907.237826	3063.559604
907.544483	2992.000425
907.851099	2930.095056
908.157675	2854.376925
908.464211	2794.588840
908.770707	2762.224633
909.077163	2720.357850
909.383578	2697.647452
909.689954	2665.736948
909.996289	2658.553304
910.302584	2652.428302
910.608839	2647.941675
910.915054	2643.656694
911.221229	2640.884060
911.527363	2641.211735
911.833458	2648.546613
912.139513	2644.034781
912.445527	2652.755977
912.751502	2659.183448
913.057436	2682.423167
913.363331	2698.252390
913.669186	2731.524006
913.975000	2765.299737
914.280775	2843.462827
914.586510	2954.721092
914.892205	3094.235025
915.197859	3289.302473
915.503475	3524.371477
915.809050	3731.840163
916.114585	3859.053681
916.420081	3892.224473
916.725536	3864.548538
917.030952	3775.420938
917.336328	3686.646219
917.641665	3605.508848
917.946961	3499.720235
918.252218	3421.607556
918.557435	3342.738704
918.862612	3271.330760
919.167750	3201.989688
919.472848	3127.128554
919.777906	3062.929460
920.082925	2988.572440
920.387904	2924.675815
920.692843	2882.733415
920.997743	2836.732887
921.302603	2807.141313
921.607423	2778.784823
921.912204	2752.217942
922.216946	2734.120200
922.521647	2705.839327
922.826310	2696.563604
923.130932	2683.607838
923.435516	2659.889210
923.740059	2656.335196
924.044564	2645.597538
924.349028	2641.791467
924.653454	2625.231277
924.957840	2619.559979
925.262186	2599.092894
925.566493	2591.682398
925.870761	2583.717375
926.174989	2585.557396
926.479178	2571.895869
926.783328	2566.779098
927.087438	2561.410269
927.391509	2561.032183
927.695541	2559.897923
927.999533	2544.497198
928.303486	2551.126315
928.607400	2550.496171
928.911275	2549.084648
929.215110	2536.254912
929.518906	2534.339273
929.822663	2538.271373
930.126381	2538.699871
930.430060	2535.549150
930.733699	2532.171577
931.037299	2533.784746
931.340861	2533.583100
931.644383	2536.028060
931.947866	2532.524458
932.251309	2552.310987
932.554714	2540.388658
932.858080	2533.356248
933.161407	2529.827440
933.464694	2538.220962
933.767943	2537.061496
934.071153	2533.507483
934.374323	2530.634025
934.677455	2531.995137
934.980548	2526.147398
935.283602	2529.474560
935.586617	2521.938035
935.889593	2520.778569
936.192530	2526.853160
936.495428	2526.046575
936.798287	2527.962213
937.101108	2549.210677
937.403890	2546.085162
937.706632	2553.974567
938.009336	2571.038873
938.312002	2582.658733
938.614628	2591.556369
938.917216	2595.261617
939.219765	2600.554829
939.522275	2606.352156
939.824747	2600.630446
940.127179	2601.941146
940.429573	2598.992071
940.731929	2601.235385
941.034246	2595.009560
941.336524	2595.816144
941.638763	2597.000815
941.940964	2595.589292
942.243126	2578.424163
942.545250	2576.710171
942.847335	2566.451423
943.149381	2572.626837
943.451389	2563.451937
943.753359	2562.846998
944.055290	2558.209137
944.357182	2561.813562
944.659036	2544.119112
944.960851	2550.949875
945.262628	2542.531148
945.564367	2544.043494
945.866067	2551.832077
946.167729	2544.245140
946.469352	2549.437529
946.770937	2546.967363
947.072484	2544.371169
947.373992	2548.252858
947.675462	2539.456044
947.976893	2544.824873
948.278286	2534.944212
948.579641	2542.833617
948.880958	2530.911288
949.182236	2539.909748
949.483476	2536.305323
949.784678	2534.792977
950.085841	2536.506969
950.386967	2538.851106
950.688054	2539.884542
950.989103	2542.480737
951.290114	2545.253371
951.591087	2555.209650
951.892021	2543.741025
952.192917	2562.141237
952.493776	2555.386090
952.794596	2559.595454
953.095378	2571.290931
953.396122	2557.805844
953.696828	2561.485887
953.997496	2563.653583
954.298126	2556.318704
954.598718	2549.866027
954.899272	2553.697304
955.199788	2547.698331
955.500266	2535.498738
955.800706	2539.657690
956.101108	2535.523944
956.401472	2528.088242
956.701798	2525.290402
957.002087	2518.434433
957.302337	2516.896881
957.602550	2510.872702
957.902724	2504.646877
958.202861	2509.889677
958.502960	2506.108812
958.803022	2492.144815
959.103045	2495.850063
959.403031	2499.025990
959.702979	2497.664879
960.002889	2491.136585
960.302762	2491.817140
960.602596	2482.037302
960.902393	2487.481748
961.202153	2486.271871
961.501875	2480.625779
961.801559	2489.977119
962.101205	2489.775473
962.400814	2488.137098
962.700385	2479.869606
962.999918	2480.398927
963.299414	2482.465800
963.598873	2475.357773
963.898293	2472.837196
964.197677	2473.038842
964.497022	2474.929275
964.796331	2480.751808
965.095601	2474.173102
965.394835	2475.912300
965.694030	2477.096971
965.993189	2477.853144
966.292309	2480.172075
966.591393	2475.635037
966.890439	2470.367031
967.189447	2476.668473
967.488419	2472.509521
967.787353	2475.004892
968.086249	2471.274438
968.385108	2470.341825
968.683930	2478.659729
968.982714	2478.533700
969.281462	2487.229690
969.580172	2467.039869
969.878844	2489.750267
970.177480	2479.819194
970.476078	2479.491519
970.774639	2485.742550
971.073162	2486.322283
971.371649	2492.598519
971.670098	2491.111379
971.968510	2483.247179
972.266885	2489.599033
972.565223	2479.945223
972.863524	2486.675163
973.161788	2484.532673
973.460014	2480.424133
973.758204	2493.077429
974.056356	2490.834115
974.354471	2487.002838
974.652550	2479.088227
974.950591	2488.817654
975.248595	2482.793475
975.546563	2496.076915
975.844493	2485.490492
976.142386	2486.473517
976.440243	2477.953967
976.738062	2488.111892
977.035845	2486.902015
977.333590	2488.187510
977.631299	2479.894812
977.928971	2481.306335
978.226606	2478.911787
978.524204	2480.953454
978.821765	2470.593883
979.119290	2484.204998
979.416777	2471.425673
979.714228	2478.155613
980.011642	2477.449852
980.309020	2485.339258
980.606360	2479.743577
980.903664	2489.044506
981.200931	2487.885040
981.498162	2502.731238
981.795356	2505.327433
982.092513	2518.913342
982.389633	2529.802235
982.686717	2549.210677
982.983764	2561.637121
983.280775	2577.138669
983.577749	2576.861406
983.874686	2573.055335
984.171587	2561.158212
984.468451	2557.982285
984.765279	2553.092365
985.062070	2551.630431
985.358824	2532.650487
985.655543	2533.835158
985.952224	2532.221988
986.248869	2517.753877
986.545478	2501.067658
986.842050	2500.109838
987.138586	2490.153560
987.435086	2497.942142
987.731549	2482.692652
988.027975	2482.516212
988.324366	2475.559419
988.620719	2481.936479
988.917037	2480.398927
989.213318	2469.736887
989.509563	2473.971456
989.805772	2475.357773
990.101944	2465.351083
990.398080	2467.317133
990.694180	2469.257977
990.990244	2475.483802
991.286271	2472.030612
991.582262	2473.442135
991.878217	2468.476598
992.174136	2478.432877
992.470019	2462.906123
992.765865	2474.021867
993.061676	2475.912300
993.357450	2480.550162
993.653188	2470.593883
993.948890	2478.634523
994.244556	2480.323310
994.540186	2482.591829
994.835780	2488.111892
995.131337	2496.278562
995.426859	2494.816627
995.722345	2501.546567
996.017795	2508.780623
996.313208	2516.140708
996.608586	2518.207581
996.903928	2513.216838
997.199234	2520.627335
997.494504	2520.929804
997.789738	2509.914883
998.084936	2515.535769
998.380099	2505.352638
998.675225	2506.461692
998.970316	2496.681854
999.265371	2494.262100
999.560390	2485.137612
999.855373	2494.614981
1000.150320	2483.776500
1000.445232	2485.238435
1000.740108	2478.609317
1001.034948	2481.205512
1001.329752	2478.886581
1001.624521	2478.558906
1001.919254	2477.248206
1002.213951	2472.912813
1002.508613	2466.031638
1002.803239	2474.047073
1003.097829	2464.342852
1003.392384	2472.887608
1003.686903	2467.543985
1003.981386	2471.173615
1004.275834	2473.265694
1004.570246	2468.602627
1004.864623	2460.839250
1005.158964	2469.585652
1005.453270	2465.023408
1005.747540	2467.140692
1006.041775	2462.603654
1006.335974	2470.467854
1006.630138	2460.839250
1006.924266	2473.139665
1007.218359	2466.056844
1007.512416	2468.048100
1007.806438	2463.813531
1008.100425	2467.543985
1008.394376	2461.166925
1008.688292	2473.820221
1008.982172	2464.242029
1009.276017	2469.888121
1009.569827	2457.209619
1009.863602	2469.409212
1010.157341	2468.905096
1010.451045	2461.066102
1010.744714	2463.788325
1011.038347	2470.215796
1011.331945	2462.049127
1011.625508	2463.511062
1011.919036	2459.427727
1012.212528	2462.351596
1012.505986	2466.056844
1012.799408	2461.696246
1013.092795	2466.888635
1013.386147	2458.419496
1013.679464	2478.206025
1013.972745	2470.014150
1014.265992	2458.570731
1014.559204	2462.376802
1014.852380	2459.150463
1015.145521	2457.587706
1015.438628	2461.166925
1015.731699	2470.820735
1016.024736	2462.880917
1016.317737	2463.989971
1016.610703	2456.125771
1016.903635	2468.325363
1017.196531	2464.342852
1017.489393	2465.729169
1017.782219	2466.813017
1018.075011	2463.889148
1018.367768	2465.779581
1018.660490	2467.493573
1018.953177	2467.493573
1019.245829	2467.493573
