Dividing Wavelength (nm)	Counts (n)	Slit_number_11_of_a_total_of_40	
326.493990	2161.478731
326.888308	2161.478731
327.282561	2161.478731
327.676750	2125.098404
328.070874	2134.928654
328.464933	2135.180712
328.858929	2147.447519
329.252859	2157.361788
329.646726	2173.577500
330.040528	2194.666327
330.434265	2199.287385
330.827938	2230.962635
331.221547	2233.063115
331.615091	2264.906404
332.008571	2275.156750
332.401986	2313.637558
332.795338	2319.602923
333.188625	2352.118365
333.581847	2373.711308
333.975006	2384.381750
334.368100	2408.747327
334.761129	2399.757269
335.154095	2432.608788
335.546996	2451.681154
335.939833	2471.173615
336.332606	2492.934596
336.725315	2483.020327
337.117960	2517.804288
337.510540	2510.158538
337.903056	2530.743250
338.295508	2532.423635
338.687896	2516.544000
339.080220	2541.497712
339.472480	2542.673981
339.864676	2538.977135
340.256807	2560.822135
340.648875	2557.713423
341.040879	2561.830365
341.432818	2542.001827
341.824694	2547.127000
342.216506	2568.887981
342.608253	2550.235712
342.999937	2561.074192
343.391557	2554.688731
343.783113	2554.856769
344.174605	2538.641058
344.566033	2530.659231
344.957397	2548.639346
345.348697	2546.370827
345.739934	2540.153404
346.131106	2542.169865
346.522215	2540.405462
346.913260	2550.991885
347.304241	2548.975423
347.695159	2536.204500
348.086012	2527.298462
348.476802	2537.296750
348.867528	2532.339615
349.258191	2534.608135
349.648789	2532.339615
350.039324	2524.945923
350.429796	2526.122192
350.820203	2519.568692
351.210548	2521.081038
351.600828	2516.039885
351.991045	2532.423635
352.381198	2524.357788
352.771288	2514.275481
353.161314	2537.716846
353.551276	2524.441808
353.941175	2521.081038
354.331010	2524.357788
354.720782	2520.324865
355.110490	2538.977135
355.500135	2529.735019
355.889717	2524.693865
356.279235	2519.568692
356.668689	2538.893115
357.058080	2524.357788
357.447408	2538.725077
357.836672	2530.743250
358.225873	2531.751481
358.615010	2528.642769
359.004084	2534.440096
359.393095	2515.199692
359.782043	2531.835500
360.170927	2529.651000
360.559748	2538.473019
360.948505	2514.275481
361.337199	2525.029942
361.725830	2532.759712
362.114398	2547.379058
362.502903	2528.558750
362.891344	2540.321442
363.279722	2532.591673
363.668037	2537.632827
364.056289	2533.179808
364.444478	2540.573500
364.832603	2548.219250
365.220665	2533.935981
365.608665	2526.290231
365.996601	2531.331385
366.384474	2550.739827
366.772284	2537.044692
367.160031	2537.380769
367.547715	2537.884885
367.935336	2546.034750
368.322893	2534.692154
368.710388	2522.677404
369.097820	2535.616365
369.485189	2533.263827
369.872495	2541.497712
370.259738	2551.327962
370.646918	2558.049500
371.034035	2536.540577
371.421090	2536.540577
371.808081	2539.061154
372.195010	2539.397231
372.581875	2523.181519
372.968678	2554.772750
373.355418	2539.397231
373.742096	2534.608135
374.128710	2539.733308
374.515262	2539.985365
374.901751	2556.537154
375.288177	2550.487769
375.674540	2558.385577
376.060841	2546.370827
376.447079	2535.448327
376.833254	2550.991885
377.219367	2544.186327
377.605417	2546.958962
377.991404	2547.547096
378.377329	2559.561846
378.763191	2542.842019
379.148991	2545.194558
379.534727	2548.051212
379.920402	2546.958962
380.306013	2555.360885
380.691563	2544.774462
381.077049	2560.990173
381.462474	2536.792635
381.847835	2561.746346
382.233134	2543.766231
382.618371	2559.813904
383.003545	2552.420212
383.388657	2553.260404
383.773706	2546.118769
384.158693	2552.588250
384.543618	2538.641058
384.928480	2549.899635
385.313280	2546.790923
385.698017	2544.270346
386.082692	2555.780981
386.467305	2557.629404
386.851856	2538.977135
387.236344	2569.560135
387.620770	2551.832077
388.005133	2554.100596
388.389435	2561.158212
388.773674	2542.673981
389.157851	2554.772750
389.541965	2556.621173
389.926018	2561.998404
390.310008	2559.561846
390.693936	2542.505942
391.077802	2559.897923
391.461606	2552.252173
391.845348	2559.645865
392.229027	2553.092365
392.612645	2554.856769
392.996200	2554.184615
393.379694	2558.973712
393.763125	2551.411981
394.146494	2541.161635
394.529801	2546.454846
394.913047	2559.813904
395.296230	2551.580019
395.679351	2541.749769
396.062410	2559.141750
396.445408	2559.729885
396.828343	2550.319731
397.211217	2560.318019
397.594028	2552.672269
397.976778	2561.914385
398.359466	2549.311500
398.742092	2566.535442
399.124656	2564.939077
399.507158	2557.965481
399.889598	2551.411981
400.271977	2541.413692
400.654294	2556.957250
401.036549	2555.276865
401.418742	2550.907865
401.800874	2548.639346
402.182944	2554.436673
402.564952	2563.846827
402.946898	2558.637635
403.328783	2548.471308
403.710606	2547.967192
404.092367	2569.980231
404.474067	2561.578308
404.855705	2567.711712
405.237282	2551.832077
405.618797	2542.253885
406.000250	2555.865000
406.381642	2558.217538
406.762972	2556.957250
407.144240	2568.551904
407.525447	2558.721654
407.906593	2550.571788
408.287677	2556.033038
408.668700	2565.947308
409.049661	2551.327962
409.430560	2563.930846
409.811399	2572.248750
410.192176	2569.056019
410.572891	2565.611231
410.953545	2568.635923
411.334138	2552.756288
411.714669	2542.673981
412.095139	2553.092365
412.475547	2567.711712
412.855894	2571.660615
413.236180	2565.527212
413.616405	2569.308077
413.996568	2568.131808
414.376670	2555.780981
414.756711	2567.963769
415.136691	2564.855058
415.516609	2574.265212
415.896466	2570.652385
416.276262	2571.492577
416.655997	2562.502519
417.035670	2542.253885
417.415283	2552.756288
417.794834	2561.410269
418.174324	2560.822135
418.553753	2564.350942
418.933121	2556.033038
419.312428	2563.678788
419.691674	2559.561846
420.070859	2568.215827
420.449983	2554.100596
420.829045	2559.729885
421.208047	2571.744635
421.586988	2563.594769
421.965867	2565.359173
422.344686	2555.696962
422.723444	2566.115346
423.102141	2579.222346
423.480777	2542.001827
423.859352	2575.861577
424.237866	2579.726462
424.616319	2580.650673
424.994712	2570.484346
425.373044	2579.558423
425.751314	2562.166442
426.129524	2565.863288
426.507673	2568.719942
426.885762	2567.627692
427.263789	2559.729885
427.641756	2563.594769
428.019662	2567.711712
428.397508	2571.744635
428.775292	2569.812192
429.153016	2575.861577
429.530679	2569.140038
429.908282	2582.499096
430.285824	2577.625981
430.663305	2592.749442
431.040726	2583.423308
431.418086	2580.482635
431.795385	2568.719942
432.172624	2565.275154
432.549802	2581.406846
432.926920	2563.090654
433.303977	2580.062538
433.680974	2571.156500
434.057910	2583.591346
434.434786	2567.375635
434.811601	2580.650673
435.188355	2579.474404
435.565050	2568.887981
435.941683	2573.593058
436.318257	2569.392096
436.694770	2572.920904
437.071222	2576.197654
437.447614	2574.265212
437.823946	2569.896212
438.200218	2585.187712
438.576429	2591.573173
438.952580	2569.896212
439.328670	2578.634212
439.704700	2590.144846
440.080670	2573.677077
440.456580	2572.668846
440.832429	2574.433250
441.208218	2567.039558
441.583947	2592.665423
441.959616	2578.214115
442.335224	2583.087231
442.710773	2585.187712
443.086261	2566.535442
443.461689	2564.350942
443.837057	2567.795731
444.212365	2576.869808
444.587612	2575.693538
444.962800	2566.115346
445.337927	2568.551904
445.712995	2587.960346
446.088002	2580.398615
446.462949	2557.629404
446.837837	2570.484346
447.212664	2585.103692
447.587431	2566.283385
447.962139	2571.576596
448.336786	2577.625981
448.711374	2571.576596
449.085901	2579.474404
449.460369	2594.597865
449.834776	2579.054308
450.209124	2606.864673
450.583412	2578.970288
450.957640	2593.085519
451.331808	2577.625981
451.705917	2591.405135
452.079965	2583.339288
452.453954	2580.818712
452.827883	2585.859865
453.201752	2578.214115
453.575562	2598.294712
453.949311	2584.599577
454.323001	2574.853346
454.696632	2581.742923
455.070202	2585.271731
455.443713	2575.861577
455.817164	2586.027904
456.190556	2585.187712
456.563888	2590.396904
456.937160	2587.204173
457.310373	2598.546769
457.683526	2599.218923
458.056619	2596.782365
458.429653	2599.723038
458.802628	2591.993269
459.175542	2589.724750
459.548398	2580.062538
459.921194	2599.891077
460.293930	2597.370500
460.666607	2598.210692
461.039224	2595.186000
461.411782	2595.101981
461.784280	2603.587923
462.156719	2599.470981
462.529099	2585.607808
462.901419	2582.499096
463.273680	2602.915769
463.645882	2588.632500
464.018024	2606.696635
464.390106	2593.085519
464.762130	2598.462750
465.134094	2589.472692
465.505999	2597.622558
465.877845	2605.352327
466.249631	2620.223731
466.621358	2602.747731
466.993026	2616.862962
467.364634	2621.063923
467.736184	2615.518654
468.107674	2595.017962
468.479105	2611.233673
468.850477	2616.526885
469.221790	2604.596154
469.593043	2596.950404
469.964238	2606.444577
470.335373	2592.413365
470.706449	2600.983327
471.077467	2610.393481
471.448425	2608.713096
471.819324	2616.358846
472.190164	2613.334154
472.560945	2620.139712
472.931667	2609.721327
473.302330	2608.881135
473.672934	2619.887654
474.043479	2613.838269
474.413965	2615.014538
474.784393	2606.864673
475.154761	2610.729558
475.525070	2612.998077
475.895321	2607.116731
476.265513	2617.871192
476.635645	2622.828327
477.005719	2625.096846
477.375734	2617.703154
477.745691	2617.703154
478.115588	2634.002885
478.485427	2628.877712
478.855207	2646.437731
479.224928	2649.882519
479.594591	2643.076962
479.964194	2654.587596
480.333739	2650.554673
480.703226	2648.286154
481.072653	2651.898981
481.442022	2661.141096
481.811333	2660.132865
482.180584	2683.994327
482.549777	2680.297481
482.918912	2685.506673
483.287988	2682.481981
483.657005	2679.877385
484.025964	2690.883904
484.394864	2698.781712
484.763706	2687.187058
485.132489	2702.898654
485.501213	2709.956269
485.869879	2706.343442
486.238487	2712.140769
486.607036	2732.893519
486.975527	2733.145577
487.343959	2745.832481
487.712333	2755.410673
488.080648	2760.787904
488.448905	2767.257385
488.817104	2768.433654
489.185244	2774.146962
489.553326	2794.143538
489.921350	2828.339365
490.289315	2869.256731
490.657222	2903.368538
491.025070	2926.557846
491.392861	2933.951538
491.760593	2942.101404
492.128267	2956.468692
492.495883	2956.132615
492.863440	2964.282481
493.230939	2966.971096
493.598380	2979.910058
493.965763	3011.249231
494.333088	3028.893269
494.700354	3030.489635
495.067563	3053.174827
495.434713	3089.975250
495.801805	3126.187538
496.168839	3143.411481
496.535815	3161.727673
496.902733	3213.147442
497.269593	3227.766788
497.636395	3270.532577
498.003139	3299.855288
498.369825	3318.087462
498.736453	3383.118346
499.103023	3398.829942
499.469535	3447.813154
499.835989	3492.931481
500.202385	3541.242538
500.568723	3588.965462
500.935003	3653.828308
501.301226	3700.122904
501.667390	3770.362981
502.033497	3837.410327
502.399546	3884.125019
502.765537	3919.665154
503.131470	3996.374712
503.497345	4085.603135
503.863163	4099.718365
504.228923	4189.871000
504.594625	4281.620000
504.960269	4347.575096
505.325856	4453.691385
505.691385	4509.900250
506.056856	4616.856731
506.422270	4714.235019
506.787625	4793.801231
507.152924	4892.439808
507.518164	5000.656577
507.883347	5061.738558
508.248472	5171.467673
508.613540	5318.081231
508.978550	5442.513712
509.343503	5529.053519
509.708398	5659.619404
510.073236	5820.432212
510.438016	5956.627385
510.802738	6023.926788
511.167403	6185.663808
511.532010	6358.407346
511.896561	6509.725981
512.261053	6701.961981
512.625488	6816.396173
512.989866	6962.841692
513.354186	7090.214846
513.718449	7204.901096
514.082655	7451.917635
514.446803	7581.643327
514.810894	7799.757250
515.174927	7942.842000
515.538904	8065.089981
515.902822	8332.607212
516.266684	8404.695712
516.630488	8652.132346
516.994235	8787.739385
517.357925	9034.083769
517.721558	9238.166481
518.085133	9440.232731
518.448651	9630.032173
518.812112	9788.744500
519.175516	9958.715404
519.538863	10212.201423
519.902152	10363.268000
520.265385	10668.677904
520.628560	10823.609365
520.991678	10997.697212
521.354739	11199.007288
521.717743	11430.312231
522.080690	11600.451173
522.443580	11930.814788
522.806413	12143.467462
523.169189	12288.568673
523.531908	12526.259077
523.894569	12637.164462
524.257174	12891.826750
524.619722	13147.077173
524.982213	13323.685596
525.344647	13491.892096
525.707025	13692.530019
526.069345	13979.287654
526.431608	14127.749635
526.793815	14381.487712
527.155964	14427.698288
527.518057	14602.458288
527.880093	14752.600654
528.242072	15059.774962
528.603995	15129.090827
528.965860	15292.424212
529.327669	15514.991154
529.689421	15560.613596
530.051117	15741.338962
530.412755	15954.075654
530.774337	16084.641538
531.135862	16152.361038
531.497331	16348.882019
531.858743	16493.143038
532.220098	16717.978500
532.581396	16754.190788
532.942638	16767.297788
533.303824	16952.224115
533.664953	17000.955269
534.026025	17106.063327
534.387040	17356.020538
534.747999	17400.214654
535.108902	17557.246596
535.469748	17510.111808
535.830537	17618.244558
536.191270	17785.274788
536.551947	17748.558385
536.912567	17967.428481
537.273131	18056.404846
537.633638	17919.621538
537.994089	18051.615750
538.354483	18004.144885
538.714821	18246.036250
539.075103	18456.000308
539.435328	18402.143981
539.795497	18364.587385
540.155609	18387.440615
540.515665	18607.234923
540.875665	18399.791442
541.235609	18554.302808
541.595496	18553.882712
541.955328	18883.154077
542.315102	18623.870731
542.674821	18517.502385
543.034483	18505.739692
543.394090	18564.385115
543.753640	18446.338096
544.113134	18829.213731
544.472571	18470.955731
544.831953	18880.129385
545.191278	18561.780519
545.550548	18466.418692
545.909761	18579.004462
546.268918	18599.841231
546.628019	18670.333365
546.987064	18445.161827
547.346053	18163.865442
547.704986	18413.234519
548.063863	18156.555769
548.422684	18202.682327
548.781449	18011.622596
549.140158	18070.352038
549.498811	17944.911327
549.857408	17698.398904
550.215949	17847.869115
550.574434	17716.210981
550.932864	17562.539808
551.291237	17736.963731
551.649555	17488.014750
552.007817	17458.524000
552.366022	17216.716654
552.724173	17168.909712
553.082267	17171.430288
553.440305	17148.493038
553.798288	16793.091692
554.156215	16774.355404
554.514086	16748.309442
554.871902	16485.833365
555.229661	16406.183135
555.587365	16197.731423
555.945014	16047.757096
556.302606	15901.143538
556.660143	15813.091385
557.017625	15683.365692
557.375050	15496.002808
557.732421	15501.548077
558.089735	15349.305231
558.446994	15144.466346
558.804197	15113.799327
559.161345	14987.182346
559.518437	14620.858500
559.875474	14531.294000
560.232455	14412.826885
560.589381	14274.531231
560.946251	14112.290096
561.303065	14058.433769
561.659825	13895.352442
562.016528	13649.092077
562.373177	13378.634173
562.729770	13327.550481
563.086307	13068.519192
563.442789	13031.802788
563.799216	12856.118577
564.155587	12647.834904
564.511904	12450.137654
564.868164	12313.942481
565.224370	12214.379692
565.580520	11968.203346
565.936615	11879.815115
566.292654	11631.454269
566.648638	11508.198058
567.004567	11342.764192
567.360441	11208.165385
567.716260	10995.512712
568.072023	10898.470500
568.427732	10727.575385
568.783385	10527.693635
569.138982	10429.643192
569.494525	10255.471327
569.850013	10062.227096
570.205445	9913.008942
570.560823	9751.608000
570.916145	9580.208769
571.271412	9435.695692
571.626625	9249.761135
571.981782	9147.425712
572.336884	8944.939365
572.691931	8861.760327
573.046923	8695.570288
573.401860	8482.245462
573.756743	8350.251250
574.111570	8202.965538
574.466342	8073.323865
574.821059	7963.846808
575.175722	7759.512038
575.530330	7660.201308
575.884882	7483.256808
576.239380	7351.850731
576.593823	7194.902808
576.948211	7142.138731
577.302544	6958.388673
577.656823	6842.694192
578.011047	6771.697942
578.365216	6629.369365
578.719330	6506.029135
579.073389	6397.644327
579.427394	6316.481750
579.781344	6183.899404
580.135239	6080.219673
580.489080	5996.788577
580.842866	5875.296769
581.196597	5813.206558
581.550273	5724.062154
581.903895	5634.581673
582.257463	5579.801135
582.610975	5459.821673
582.964434	5401.596346
583.317837	5302.033558
583.671186	5226.668308
584.024481	5149.874731
584.377721	5068.712154
584.730906	5004.185385
585.084037	4951.001212
585.437113	4856.647615
585.790135	4784.475096
586.143103	4712.470615
586.496016	4645.507288
586.848874	4626.939038
587.201679	4525.947923
587.554428	4471.503462
587.907124	4403.783962
588.259765	4369.924212
588.612352	4334.132019
588.964884	4253.221500
589.317362	4213.900500
589.669786	4156.851442
590.022155	4131.225577
590.374470	4080.898058
590.726731	4017.883635
591.078937	3954.449115
591.431090	3939.073596
591.783188	3873.790654
592.135232	3815.061212
592.487222	3812.624654
592.839157	3763.809481
593.191038	3714.322154
593.542866	3688.696288
593.894639	3627.698327
594.246358	3623.497365
594.598022	3600.812173
594.949633	3540.906462
595.301190	3516.624904
595.652692	3479.908500
596.004141	3475.791558
596.355535	3407.567942
596.706876	3379.421500
597.058162	3359.172865
597.409395	3338.756192
597.760573	3323.800769
598.111698	3294.141981
598.462768	3266.163577
598.813785	3244.150538
599.164748	3224.153962
599.515657	3221.213288
599.866511	3193.823019
600.217312	3172.986250
600.568060	3150.301058
600.918753	3142.067173
601.269392	3126.439596
601.619978	3111.064077
601.970510	3105.434788
602.320988	3088.210846
602.671412	3068.130250
603.021783	3045.529077
603.372100	3035.026673
603.722363	3039.395673
604.072572	3009.904923
604.422728	2990.412462
604.772830	2982.178577
605.122878	2961.425827
605.472872	2958.989269
605.822813	2968.231385
606.172701	2957.981038
606.522534	2940.000923
606.872314	2931.851058
607.222041	2926.641865
607.571714	2903.452558
607.921333	2898.075327
608.270899	2902.024231
608.620411	2889.085269
608.969870	2882.195692
609.319276	2870.685058
609.668627	2864.047538
610.017926	2863.291365
610.367171	2850.352404
610.716362	2848.840058
611.065500	2841.278327
611.414585	2829.767692
611.763616	2826.406923
612.112594	2841.278327
612.461518	2821.785865
612.810389	2814.224135
613.159207	2804.561923
613.507971	2806.578385
613.856682	2806.998481
614.205340	2796.664115
614.553945	2797.252250
614.902496	2786.833865
615.250994	2786.497788
615.599439	2790.782769
615.947830	2772.382558
616.296169	2763.812596
616.644454	2772.046481
616.992686	2766.165135
617.340864	2755.158615
617.688990	2750.369519
618.037063	2761.712115
618.385082	2748.185019
618.733048	2767.761500
619.080961	2746.000519
619.428821	2733.397635
619.776628	2751.965885
620.124382	2736.086250
620.472083	2748.016981
620.819731	2735.246058
621.167326	2724.995712
621.514868	2733.313615
621.862357	2722.055038
622.209793	2714.913404
622.557176	2718.694269
622.904506	2702.478558
623.251783	2686.850981
623.599007	2694.160654
623.946179	2708.780000
624.293297	2700.966212
624.640363	2683.406192
624.987376	2692.228212
625.334336	2692.648308
625.681243	2676.600635
626.028097	2685.842750
626.374899	2679.289250
626.721647	2672.063596
627.068343	2679.373269
627.414987	2678.028962
627.761577	2670.971346
628.108115	2659.880808
628.454600	2669.038904
628.801032	2673.323885
629.147412	2681.473750
629.493739	2669.711058
629.840014	2673.491923
630.186236	2659.880808
630.532405	2658.452481
630.878521	2654.335538
631.224585	2649.462423
631.570597	2659.124635
631.916556	2639.884231
632.262462	2641.564615
632.608316	2639.968250
632.954117	2654.923673
633.299866	2640.808442
633.645562	2650.134577
633.991206	2645.009404
634.336797	2648.790269
634.682336	2660.300904
635.027823	2635.599250
635.373257	2631.566327
635.718639	2645.933615
636.063968	2640.304327
636.409245	2651.478885
636.754470	2640.640404
637.099642	2637.867769
637.444762	2638.371885
637.789829	2613.082096
638.134845	2637.699731
638.479808	2622.744308
638.824719	2633.162692
639.169577	2627.953500
639.514383	2626.945269
639.859137	2643.245000
640.203839	2633.666808
640.548489	2632.070442
640.893086	2628.373596
641.237632	2641.144519
641.582125	2615.518654
641.926566	2604.176058
642.270955	2623.836558
642.615292	2610.309462
642.959576	2620.643827
643.303809	2613.586212
643.647990	2627.449385
643.992118	2629.213788
644.336195	2621.147942
644.680219	2630.222019
645.024192	2622.408231
645.368112	2621.736077
645.711981	2616.862962
646.055797	2611.485731
646.399562	2614.762481
646.743274	2628.625654
647.086935	2622.072154
647.430544	2625.600962
647.774101	2613.334154
648.117606	2620.139712
648.461059	2611.401712
648.804460	2617.283058
649.147810	2613.922288
649.491108	2608.461038
649.834354	2634.843077
650.177548	2606.780654
650.520690	2602.411654
650.863781	2600.563231
651.206820	2608.461038
651.549807	2608.629077
651.892742	2606.612615
652.235626	2609.553288
652.578458	2602.495673
652.921238	2610.729558
653.263967	2613.418173
653.606644	2623.080385
653.949269	2606.360558
654.291843	2606.276538
654.634365	2619.887654
654.976836	2600.983327
655.319255	2609.973385
655.661622	2617.283058
656.003938	2609.217212
656.346203	2617.619135
656.688416	2600.563231
657.030577	2609.049173
657.372687	2602.999788
657.714746	2606.024481
658.056753	2612.998077
658.398708	2592.329346
658.740612	2613.838269
659.082465	2622.912346
659.424266	2587.960346
659.766016	2596.278250
660.107715	2605.688404
660.449362	2610.729558
660.790958	2600.563231
661.132503	2581.826942
661.473996	2612.830038
661.815438	2607.536827
662.156829	2592.329346
662.498168	2603.924000
662.839456	2589.472692
663.180693	2605.688404
663.521879	2598.546769
663.863013	2606.864673
664.204097	2607.032712
664.545129	2608.797115
664.886110	2595.690115
665.227040	2599.975096
665.567918	2614.762481
665.908746	2597.958635
666.249522	2606.696635
666.590248	2603.083808
666.930922	2596.866385
667.271545	2603.335865
667.612118	2605.184288
667.952639	2586.868096
668.293109	2598.630788
668.633528	2584.263500
668.973896	2589.052596
669.314213	2601.319404
669.654480	2591.069058
669.994695	2592.161308
670.334859	2606.024481
670.674973	2596.614327
671.015035	2589.472692
671.355047	2587.372212
671.695008	2597.202462
672.034918	2616.694923
672.374777	2603.839981
672.714585	2621.904115
673.054342	2610.057404
673.394049	2600.311173
673.733705	2596.362269
674.073310	2615.434635
674.412864	2597.118442
674.752368	2612.157885
675.091820	2607.704865
675.431223	2585.859865
675.770574	2581.574885
676.109875	2602.327635
676.449125	2599.386962
676.788324	2608.797115
677.127473	2600.311173
677.466571	2596.782365
677.805619	2614.678462
678.144616	2586.448000
678.483562	2599.723038
678.822458	2594.345808
679.161303	2608.881135
679.500098	2597.538538
679.838842	2596.698346
680.177535	2585.775846
680.516179	2593.085519
680.854771	2607.116731
681.193314	2596.026192
681.531805	2588.296423
681.870247	2586.279962
682.208638	2599.218923
682.546978	2585.271731
682.885268	2591.993269
683.223508	2600.731269
683.561697	2600.899308
683.899836	2584.515558
684.237925	2602.915769
684.575963	2600.563231
684.913951	2588.380442
685.251889	2596.866385
685.589776	2592.077288
685.927614	2604.176058
686.265401	2605.268308
686.603137	2578.634212
686.940824	2601.571462
687.278460	2607.284769
687.616046	2601.151365
687.953582	2595.270019
688.291068	2592.497385
688.628504	2593.001500
688.965889	2596.782365
689.303224	2595.690115
689.640510	2592.497385
689.977745	2599.386962
690.314930	2614.678462
690.652065	2584.935654
690.989150	2601.235385
691.326185	2592.749442
691.663170	2591.825231
692.000105	2597.874615
692.336990	2591.657192
692.673825	2596.362269
693.010610	2592.917481
693.347345	2594.513846
693.684030	2599.891077
694.020665	2595.017962
694.357251	2592.413365
694.693786	2587.120154
695.030272	2590.312885
695.366707	2590.901019
695.703093	2587.624269
696.039429	2589.724750
696.375716	2601.739500
696.711952	2603.083808
697.048139	2593.337577
697.384276	2598.966865
697.720363	2582.919192
698.056400	2584.935654
698.392388	2583.423308
698.728326	2583.171250
699.064214	2604.428115
699.400053	2599.050885
699.735842	2598.126673
700.071581	2576.029615
700.407270	2585.691827
700.742910	2580.062538
701.078501	2586.952115
701.414042	2600.815288
701.749533	2602.663712
702.084974	2586.279962
702.420366	2591.321115
702.755709	2576.533731
703.091002	2590.144846
703.426246	2576.113635
703.761440	2598.462750
704.096584	2574.517269
704.431679	2578.298135
704.766725	2596.278250
705.101721	2572.164731
705.436668	2590.648962
705.771565	2592.077288
706.106413	2591.909250
706.441212	2591.825231
706.775961	2589.472692
707.110661	2599.218923
707.445311	2581.406846
707.779913	2594.261788
708.114465	2597.118442
708.448967	2600.731269
708.783421	2591.657192
709.117825	2599.639019
709.452180	2581.070769
709.786485	2591.573173
710.120742	2574.601288
710.454949	2585.439769
710.789107	2594.429827
711.123216	2597.286481
711.457275	2582.079000
711.791286	2590.480923
712.125247	2578.550192
712.459159	2593.169538
712.793023	2591.909250
713.126837	2591.321115
713.460602	2567.039558
713.794318	2600.731269
714.127985	2586.868096
714.461602	2586.868096
714.795171	2590.817000
715.128691	2594.765904
715.462162	2587.036135
715.795584	2588.632500
716.128957	2592.749442
716.462281	2569.308077
716.795556	2602.411654
717.128782	2593.421596
717.461960	2595.186000
717.795088	2594.345808
718.128167	2581.574885
718.461198	2588.128385
718.794180	2589.136615
719.127113	2604.512135
719.459997	2580.650673
719.792833	2601.571462
720.125619	2568.887981
720.458357	2582.247038
720.791046	2596.110212
721.123686	2598.126673
721.456278	2580.986750
721.788821	2581.070769
722.121315	2590.144846
722.453761	2580.902731
722.786158	2591.153077
723.118506	2583.255269
723.450805	2583.087231
723.783056	2593.589635
724.115259	2595.690115
724.447412	2589.976808
724.779518	2586.616038
725.111574	2606.780654
725.443582	2569.224058
725.775542	2572.332769
726.107453	2591.825231
726.439315	2590.564942
726.771129	2601.319404
727.102895	2582.751154
727.434612	2582.751154
727.766281	2591.741212
728.097901	2593.925712
728.429473	2593.505615
728.760996	2592.413365
729.092471	2593.589635
729.423897	2584.011442
729.755276	2583.339288
730.086606	2570.484346
730.417887	2598.042654
730.749120	2587.120154
731.080305	2583.003212
731.411442	2584.263500
731.742530	2581.238808
732.073570	2594.261788
732.404562	2597.874615
732.735506	2574.097173
733.066401	2590.817000
733.397249	2581.238808
733.728048	2578.046077
734.058798	2579.306365
734.389501	2583.591346
734.720156	2579.810481
735.050762	2591.993269
735.381320	2578.634212
735.711831	2591.657192
736.042293	2593.169538
736.372707	2586.784077
736.703073	2584.851635
737.033391	2593.337577
737.363661	2584.179481
737.693883	2581.322827
738.024056	2578.466173
738.354182	2578.130096
738.684260	2593.841692
739.014290	2590.480923
739.344272	2592.833462
739.674207	2601.403423
740.004093	2583.339288
740.333931	2580.986750
740.663722	2590.648962
740.993464	2580.818712
741.323159	2588.548481
741.652806	2597.202462
741.982405	2599.134904
742.311956	2590.732981
742.641460	2605.184288
742.970915	2565.863288
743.300323	2574.685308
743.629683	2585.019673
743.958996	2576.953827
744.288260	2583.255269
744.617477	2573.425019
744.946647	2573.509038
745.275768	2584.515558
745.604842	2582.583115
745.933869	2582.331058
746.262847	2583.339288
746.591778	2584.347519
746.920662	2587.456231
747.249498	2585.019673
747.578286	2585.355750
747.907027	2577.541962
748.235720	2587.456231
748.564365	2582.079000
748.892963	2600.059115
749.221514	2576.365692
749.550017	2589.640731
749.878473	2593.589635
750.206881	2596.530308
750.535242	2591.237096
750.863555	2586.952115
751.191821	2591.657192
751.520039	2582.415077
751.848210	2595.017962
752.176334	2571.408558
752.504411	2573.929135
752.832440	2560.822135
753.160421	2595.270019
753.488356	2584.095462
753.816243	2573.593058
754.144082	2564.518981
754.471875	2576.869808
754.799620	2599.050885
755.127318	2579.222346
755.454969	2581.658904
755.782572	2579.306365
756.110129	2571.492577
756.437638	2588.968577
756.765100	2573.004923
757.092515	2573.256981
757.419882	2593.337577
757.747203	2592.749442
758.074477	2587.708288
758.401703	2587.288192
758.728882	2592.077288
759.056014	2569.308077
759.383099	2574.433250
759.710138	2573.593058
760.037129	2566.199365
760.364073	2586.952115
760.690970	2586.700058
761.017820	2572.668846
761.344623	2580.566654
761.671379	2590.817000
761.998088	2577.121865
762.324751	2588.716519
762.651366	2578.970288
762.977935	2592.245327
763.304456	2578.886269
763.630931	2590.396904
763.957359	2586.700058
764.283740	2590.732981
764.610074	2597.538538
764.936362	2590.901019
765.262602	2591.657192
765.588796	2591.993269
765.914943	2583.927423
766.241044	2587.708288
766.567097	2581.658904
766.893104	2582.583115
767.219064	2585.523788
767.544978	2584.683596
767.870845	2576.029615
768.196665	2582.667135
768.522438	2586.784077
768.848165	2583.675365
769.173846	2583.339288
769.499479	2577.625981
769.825066	2568.383865
770.150607	2584.767615
770.476101	2593.589635
770.801548	2583.255269
771.126949	2594.009731
771.452303	2586.532019
771.777611	2570.400327
772.102872	2582.079000
772.428087	2571.408558
772.753256	2584.935654
773.078378	2576.785788
773.403453	2573.929135
773.728482	2574.769327
774.053465	2586.784077
774.378401	2586.784077
774.703291	2578.214115
775.028135	2571.996692
775.352932	2571.156500
775.677683	2581.154788
776.002388	2568.887981
776.327046	2581.574885
776.651658	2585.859865
776.976224	2573.341000
777.300743	2577.625981
777.625216	2575.861577
777.949643	2585.355750
778.274024	2585.103692
778.598359	2583.087231
778.922647	2591.573173
779.246889	2587.792308
779.571086	2579.054308
779.895236	2559.141750
780.219339	2567.711712
780.543397	2587.960346
780.867409	2583.171250
781.191374	2559.645865
781.515294	2582.163019
781.839167	2582.499096
782.162995	2598.378731
782.486776	2581.070769
782.810511	2582.499096
783.134201	2576.785788
783.457844	2569.980231
783.781441	2565.443192
784.104993	2576.113635
784.428498	2577.794019
784.751958	2580.482635
785.075372	2590.564942
785.398739	2567.375635
785.722061	2570.484346
786.045337	2587.120154
786.368568	2588.968577
786.691752	2582.919192
787.014891	2583.423308
787.337983	2565.023096
787.661030	2590.817000
787.984031	2582.583115
788.306987	2583.591346
788.629897	2565.359173
788.952760	2578.382154
789.275579	2569.056019
789.598351	2579.138327
789.921078	2575.189423
790.243759	2558.805673
790.566395	2587.120154
790.888984	2578.634212
791.211529	2571.492577
791.534027	2571.744635
791.856480	2583.171250
792.178888	2565.779269
792.501249	2578.550192
792.823566	2586.363981
793.145836	2571.576596
793.468062	2574.433250
793.790241	2573.677077
794.112375	2583.087231
794.434464	2592.917481
794.756507	2581.238808
795.078505	2576.701769
795.400457	2588.044365
795.722364	2575.777558
796.044226	2579.222346
796.366042	2582.163019
796.687812	2561.410269
797.009538	2581.070769
797.331218	2591.321115
797.652852	2571.408558
797.974442	2582.163019
798.295986	2569.560135
798.617484	2592.749442
798.938938	2590.985038
799.260346	2570.652385
799.581709	2578.466173
799.903026	2594.009731
800.224299	2584.179481
800.545526	2570.568365
800.866708	2573.761096
801.187845	2579.642442
801.508936	2584.599577
801.829983	2560.570077
802.150984	2566.787500
802.471940	2564.603000
802.792851	2588.044365
803.113717	2583.255269
803.434538	2570.820423
803.755314	2586.532019
804.076045	2567.123577
804.396731	2577.794019
804.717372	2585.523788
805.037967	2584.683596
805.358518	2587.708288
805.679024	2578.886269
805.999485	2582.163019
806.319901	2583.675365
806.640272	2580.230577
806.960598	2582.247038
807.280879	2565.863288
807.601115	2576.365692
807.921306	2578.298135
808.241453	2571.492577
808.561554	2588.044365
808.881611	2562.670558
809.201623	2573.425019
809.521590	2572.332769
809.841513	2566.367404
810.161390	2577.541962
810.481223	2570.148269
810.801011	2571.324538
811.120755	2576.869808
811.440453	2572.248750
811.760107	2563.930846
812.079716	2573.088942
812.399281	2582.079000
812.718801	2577.794019
813.038276	2581.742923
813.357707	2578.214115
813.677093	2580.062538
813.996434	2589.724750
814.315731	2582.415077
814.634983	2567.459654
814.954191	2564.687019
815.273354	2574.937365
815.592473	2575.777558
815.911547	2573.509038
816.230577	2587.540250
816.549562	2577.794019
816.868502	2588.128385
817.187399	2569.392096
817.506250	2584.935654
817.825058	2574.601288
818.143821	2577.205885
818.462539	2574.097173
818.781213	2580.566654
819.099843	2590.228865
819.418429	2570.064250
819.736970	2584.851635
820.055466	2584.011442
820.373919	2573.509038
820.692327	2578.466173
821.010691	2593.589635
821.329011	2576.197654
821.647286	2591.489154
821.965517	2603.083808
822.283704	2604.680173
822.601847	2625.516942
822.919945	2614.090327
823.237999	2609.301231
823.556010	2601.571462
823.873976	2598.378731
824.191897	2585.943885
824.509775	2594.261788
824.827609	2589.388673
825.145398	2595.942173
825.463144	2594.765904
825.780845	2585.019673
826.098502	2599.639019
826.416116	2609.301231
826.733685	2587.372212
827.051210	2585.943885
827.368692	2586.195942
827.686129	2598.210692
828.003522	2592.833462
828.320872	2593.841692
828.638177	2591.237096
828.955439	2574.097173
829.272656	2582.667135
829.589830	2575.609519
829.906960	2571.744635
830.224046	2572.248750
830.541088	2571.408558
830.858086	2576.281673
831.175041	2589.640731
831.491952	2575.105404
831.808819	2592.245327
832.125642	2587.708288
832.442421	2571.660615
832.759157	2583.759385
833.075849	2574.853346
833.392497	2590.228865
833.709101	2573.172962
834.025662	2592.749442
834.342179	2586.195942
834.658653	2576.113635
834.975083	2581.070769
835.291469	2590.396904
835.607811	2580.146558
835.924110	2583.675365
836.240366	2587.540250
836.556578	2566.787500
836.872746	2573.341000
837.188871	2572.500808
837.504952	2576.533731
837.820990	2573.004923
838.136984	2575.441481
838.452935	2567.123577
838.768842	2575.693538
839.084706	2578.298135
839.400526	2566.871519
839.716303	2576.785788
840.032037	2576.113635
840.347727	2566.199365
840.663373	2586.279962
840.978977	2564.687019
841.294537	2579.054308
841.610054	2573.929135
841.925527	2565.359173
842.240957	2578.046077
842.556344	2578.718231
842.871687	2583.003212
843.186987	2573.004923
843.502244	2585.859865
843.817458	2586.868096
844.132629	2572.752865
844.447756	2570.820423
844.762840	2567.123577
845.077881	2574.097173
845.392879	2570.820423
845.707833	2584.935654
846.022745	2573.509038
846.337613	2576.953827
846.652438	2562.502519
846.967221	2574.181192
847.281960	2594.177769
847.596656	2592.245327
847.911309	2576.029615
848.225919	2566.703481
848.540485	2586.195942
848.855009	2579.222346
849.169490	2570.316308
849.483928	2572.920904
849.798323	2571.996692
850.112675	2574.013154
850.426984	2584.851635
850.741251	2592.329346
851.055474	2570.568365
851.369654	2575.105404
851.683792	2553.764519
851.997887	2573.172962
852.311938	2574.853346
852.625947	2554.352654
852.939914	2565.863288
853.253837	2580.146558
853.567718	2576.449712
853.881555	2575.021385
854.195350	2575.273442
854.509103	2566.955538
854.822812	2585.271731
855.136479	2589.724750
855.450103	2562.418500
855.763685	2572.500808
856.077224	2571.576596
856.390720	2573.004923
856.704173	2586.448000
857.017584	2585.439769
857.330953	2561.410269
857.644278	2563.762808
857.957561	2599.639019
858.270802	2581.742923
858.584000	2568.887981
858.897155	2574.769327
859.210268	2575.105404
859.523339	2586.027904
859.836367	2575.273442
860.149352	2594.093750
860.462295	2572.920904
860.775195	2576.953827
861.088054	2579.222346
861.400869	2576.785788
861.713642	2592.161308
862.026373	2575.021385
862.339062	2585.103692
862.651708	2567.795731
862.964312	2574.685308
863.276873	2570.316308
863.589392	2585.607808
863.901869	2582.835173
864.214303	2571.828654
864.526696	2586.279962
864.839045	2585.019673
865.151353	2570.820423
865.463619	2583.339288
865.775842	2585.943885
866.088023	2561.998404
866.400162	2579.558423
866.712258	2571.156500
867.024313	2586.952115
867.336325	2575.693538
867.648296	2575.525500
867.960224	2571.072481
868.272110	2571.660615
868.583954	2578.970288
868.895755	2575.525500
869.207515	2580.482635
869.519233	2571.660615
869.830909	2575.525500
870.142542	2585.607808
870.454134	2585.439769
870.765684	2575.441481
871.077191	2576.029615
871.388657	2563.426731
871.700081	2571.660615
872.011463	2567.291615
872.322803	2564.350942
872.634101	2556.789212
872.945357	2577.121865
873.256571	2580.314596
873.567744	2585.439769
873.878874	2573.929135
874.189963	2570.988462
874.501010	2575.357462
874.812015	2586.700058
875.122979	2576.365692
875.433900	2593.085519
875.744780	2579.978519
876.055618	2588.212404
876.366415	2580.650673
876.677169	2587.960346
876.987882	2576.113635
877.298554	2577.205885
877.609183	2558.469596
877.919771	2561.578308
878.230317	2560.570077
878.540822	2584.515558
878.851285	2584.431538
879.161707	2555.612942
879.472087	2571.912673
879.782425	2596.614327
880.092722	2576.869808
880.402977	2578.802250
880.713191	2566.955538
881.023363	2581.994981
881.333494	2601.235385
881.643583	2589.136615
881.953631	2585.103692
882.263637	2590.901019
882.573602	2582.751154
882.883526	2589.052596
883.193408	2598.042654
883.503248	2572.080712
883.813048	2598.546769
884.122806	2598.294712
884.432522	2575.273442
884.742197	2584.179481
885.051831	2580.398615
885.361424	2600.059115
885.670975	2581.742923
885.980485	2571.912673
886.289954	2584.431538
886.599382	2579.978519
886.908768	2577.794019
887.218113	2573.004923
887.527417	2576.281673
887.836680	2567.879750
888.145901	2581.658904
888.455082	2576.197654
888.764221	2588.548481
889.073319	2559.981942
889.382376	2572.164731
889.691392	2582.499096
890.000366	2585.019673
890.309300	2590.396904
890.618193	2576.113635
890.927044	2577.794019
891.235855	2558.889692
891.544625	2586.363981
891.853353	2579.978519
892.162041	2567.039558
892.470687	2579.642442
892.779293	2576.113635
893.087858	2575.021385
893.396381	2583.003212
893.704864	2579.390385
894.013306	2588.464462
894.321707	2569.476115
894.630068	2588.632500
894.938387	2591.237096
895.246665	2585.019673
895.554903	2577.205885
895.863100	2566.451423
896.171256	2582.919192
896.479371	2567.459654
896.787446	2572.164731
897.095480	2570.568365
897.403473	2594.345808
897.711425	2559.897923
898.019336	2570.400327
898.327207	2569.476115
898.635038	2559.729885
898.942827	2566.031327
899.250576	2573.004923
899.558284	2589.808769
899.865952	2567.207596
900.173579	2590.985038
900.481165	2563.510750
900.788711	2580.062538
901.096216	2574.769327
901.403681	2568.131808
901.711105	2579.642442
902.018489	2566.703481
902.325832	2573.172962
902.633135	2570.904442
902.940397	2570.568365
903.247619	2585.775846
903.554800	2583.255269
903.861941	2584.347519
904.169041	2579.726462
904.476101	2581.070769
904.783121	2596.194231
905.090100	2577.878038
905.397039	2575.357462
905.703938	2574.013154
906.010796	2584.095462
906.317614	2570.820423
906.624391	2589.304654
906.931129	2583.255269
907.237826	2583.675365
907.544483	2578.802250
907.851099	2571.072481
908.157675	2549.731596
908.464211	2567.879750
908.770707	2577.878038
909.077163	2577.541962
909.383578	2576.869808
909.689954	2566.955538
909.996289	2550.151692
910.302584	2573.425019
910.608839	2574.349231
910.915054	2558.385577
911.221229	2575.693538
911.527363	2566.871519
911.833458	2590.817000
912.139513	2585.607808
912.445527	2581.070769
912.751502	2578.550192
913.057436	2558.721654
913.363331	2575.525500
913.669186	2576.029615
913.975000	2565.863288
914.280775	2567.879750
914.586510	2567.039558
914.892205	2565.779269
915.197859	2576.533731
915.503475	2573.425019
915.809050	2593.085519
916.114585	2588.212404
916.420081	2588.464462
916.725536	2584.095462
917.030952	2582.835173
917.336328	2576.533731
917.641665	2572.332769
917.946961	2580.314596
918.252218	2583.507327
918.557435	2576.029615
918.862612	2562.250462
919.167750	2583.171250
919.472848	2575.525500
919.777906	2566.787500
920.082925	2575.693538
920.387904	2575.357462
920.692843	2584.683596
920.997743	2574.769327
921.302603	2577.289904
921.607423	2571.744635
921.912204	2580.650673
922.216946	2571.324538
922.521647	2575.441481
922.826310	2574.601288
923.130932	2571.912673
923.435516	2575.105404
923.740059	2574.349231
924.044564	2569.812192
924.349028	2573.004923
924.653454	2570.148269
924.957840	2573.761096
925.262186	2574.853346
925.566493	2576.617750
925.870761	2562.922615
926.174989	2566.619462
926.479178	2577.541962
926.783328	2570.400327
927.087438	2571.996692
927.391509	2553.764519
927.695541	2566.535442
927.999533	2577.121865
928.303486	2550.991885
928.607400	2582.919192
928.911275	2573.425019
929.215110	2558.889692
929.518906	2561.746346
929.822663	2584.179481
930.126381	2575.693538
930.430060	2563.510750
930.733699	2560.822135
931.037299	2574.601288
931.340861	2574.181192
931.644383	2571.240519
931.947866	2569.308077
932.251309	2551.748058
932.554714	2586.027904
932.858080	2573.341000
933.161407	2566.367404
933.464694	2574.937365
933.767943	2560.906154
934.071153	2554.940788
934.374323	2574.853346
934.677455	2567.375635
934.980548	2555.276865
935.283602	2585.355750
935.586617	2558.889692
935.889593	2565.107115
936.192530	2576.869808
936.495428	2571.996692
936.798287	2565.611231
937.101108	2563.006635
937.403890	2560.570077
937.706632	2571.744635
938.009336	2559.645865
938.312002	2570.820423
938.614628	2569.728173
938.917216	2568.047788
939.219765	2557.713423
939.522275	2570.148269
939.824747	2579.726462
940.127179	2574.349231
940.429573	2574.013154
940.731929	2572.836885
941.034246	2577.625981
941.336524	2555.444904
941.638763	2575.525500
941.940964	2573.425019
942.243126	2566.535442
942.545250	2573.425019
942.847335	2564.014865
943.149381	2578.718231
943.451389	2568.131808
943.753359	2574.601288
944.055290	2578.718231
944.357182	2564.687019
944.659036	2579.558423
944.960851	2571.492577
945.262628	2576.029615
945.564367	2573.004923
945.866067	2589.304654
946.167729	2566.703481
946.469352	2560.822135
946.770937	2564.603000
947.072484	2576.869808
947.373992	2581.406846
947.675462	2592.077288
947.976893	2570.400327
948.278286	2574.181192
948.579641	2571.156500
948.880958	2577.205885
949.182236	2562.670558
949.483476	2565.443192
949.784678	2567.039558
950.085841	2572.080712
950.386967	2579.222346
950.688054	2569.476115
950.989103	2572.752865
951.290114	2568.719942
951.591087	2586.616038
951.892021	2571.576596
952.192917	2562.922615
952.493776	2564.266923
952.794596	2575.777558
953.095378	2558.805673
953.396122	2571.492577
953.696828	2583.843404
953.997496	2558.637635
954.298126	2563.510750
954.598718	2564.687019
954.899272	2560.234000
955.199788	2571.072481
955.500266	2576.953827
955.800706	2557.461365
956.101108	2570.652385
956.401472	2574.433250
956.701798	2577.205885
957.002087	2578.718231
957.302337	2578.298135
957.602550	2567.795731
957.902724	2566.199365
958.202861	2581.070769
958.502960	2574.685308
958.803022	2576.113635
959.103045	2568.972000
959.403031	2571.828654
959.702979	2567.375635
960.002889	2572.836885
960.302762	2567.795731
960.602596	2548.471308
960.902393	2557.461365
961.202153	2567.459654
961.501875	2573.256981
961.801559	2575.357462
962.101205	2579.726462
962.400814	2567.711712
962.700385	2580.986750
962.999918	2567.459654
963.299414	2577.625981
963.598873	2563.594769
963.898293	2563.426731
964.197677	2575.693538
964.497022	2559.309788
964.796331	2556.789212
965.095601	2573.509038
965.394835	2570.316308
965.694030	2576.029615
965.993189	2570.148269
966.292309	2570.484346
966.591393	2581.910962
966.890439	2573.341000
967.189447	2575.273442
967.488419	2579.642442
967.787353	2573.172962
968.086249	2575.441481
968.385108	2568.215827
968.683930	2566.451423
968.982714	2571.324538
969.281462	2567.711712
969.580172	2583.927423
969.878844	2571.996692
970.177480	2569.896212
970.476078	2566.619462
970.774639	2575.609519
971.073162	2569.560135
971.371649	2569.896212
971.670098	2556.873231
971.968510	2576.449712
972.266885	2541.833788
972.565223	2582.415077
972.863524	2549.815615
973.161788	2552.000115
973.460014	2576.197654
973.758204	2569.056019
974.056356	2585.355750
974.354471	2572.836885
974.652550	2568.803962
974.950591	2563.594769
975.248595	2544.270346
975.546563	2570.232288
975.844493	2584.935654
976.142386	2567.291615
976.440243	2565.107115
976.738062	2569.644154
977.035845	2567.123577
977.333590	2562.838596
977.631299	2573.172962
977.928971	2568.383865
978.226606	2564.518981
978.524204	2559.561846
978.821765	2569.644154
979.119290	2562.586538
979.416777	2559.309788
979.714228	2573.088942
980.011642	2576.197654
980.309020	2565.527212
980.606360	2573.088942
980.903664	2573.172962
981.200931	2567.543673
981.498162	2548.387288
981.795356	2559.729885
982.092513	2573.593058
982.389633	2554.016577
982.686717	2589.976808
982.983764	2566.871519
983.280775	2561.746346
983.577749	2566.787500
983.874686	2569.056019
984.171587	2580.062538
984.468451	2570.736404
984.765279	2574.349231
985.062070	2571.996692
985.358824	2561.998404
985.655543	2572.248750
985.952224	2561.998404
986.248869	2577.121865
986.545478	2570.484346
986.842050	2563.426731
987.138586	2564.939077
987.435086	2584.431538
987.731549	2551.664038
988.027975	2567.795731
988.324366	2571.324538
988.620719	2555.696962
988.917037	2567.375635
989.213318	2571.156500
989.509563	2569.308077
989.805772	2555.024808
990.101944	2579.726462
990.398080	2574.853346
990.694180	2569.308077
990.990244	2567.207596
991.286271	2567.711712
991.582262	2568.635923
991.878217	2572.164731
992.174136	2567.039558
992.470019	2564.182904
992.765865	2566.787500
993.061676	2555.444904
993.357450	2577.289904
993.653188	2560.654096
993.948890	2581.406846
994.244556	2577.037846
994.540186	2583.087231
994.835780	2581.742923
995.131337	2572.836885
995.426859	2574.601288
995.722345	2580.230577
996.017795	2571.492577
996.313208	2571.408558
996.608586	2565.611231
996.903928	2572.332769
997.199234	2568.131808
997.494504	2572.584827
997.789738	2562.334481
998.084936	2569.308077
998.380099	2568.719942
998.675225	2572.332769
998.970316	2562.334481
999.265371	2565.107115
999.560390	2568.131808
999.855373	2569.476115
1000.150320	2570.736404
1000.445232	2585.523788
1000.740108	2576.281673
1001.034948	2568.383865
1001.329752	2568.803962
1001.624521	2570.988462
1001.919254	2574.769327
1002.213951	2559.729885
1002.508613	2553.176385
1002.803239	2569.140038
1003.097829	2561.410269
1003.392384	2556.201077
1003.686903	2560.822135
1003.981386	2566.703481
1004.275834	2565.527212
1004.570246	2558.721654
1004.864623	2569.812192
1005.158964	2561.662327
1005.453270	2559.477827
1005.747540	2565.023096
1006.041775	2562.754577
1006.335974	2582.331058
1006.630138	2571.408558
1006.924266	2566.703481
1007.218359	2564.014865
1007.512416	2555.528923
1007.806438	2582.163019
1008.100425	2565.527212
1008.394376	2571.492577
1008.688292	2569.308077
1008.982172	2569.812192
1009.276017	2567.543673
1009.569827	2574.853346
1009.863602	2571.324538
1010.157341	2565.695250
1010.451045	2569.560135
1010.744714	2563.846827
1011.038347	2561.830365
1011.331945	2572.248750
1011.625508	2552.504231
1011.919036	2565.863288
1012.212528	2561.662327
1012.505986	2558.301558
1012.799408	2580.398615
1013.092795	2543.598192
1013.386147	2559.141750
1013.679464	2571.660615
1013.972745	2554.772750
1014.265992	2568.972000
1014.559204	2565.611231
1014.852380	2563.930846
1015.145521	2573.929135
1015.438628	2563.510750
1015.731699	2572.920904
1016.024736	2566.451423
1016.317737	2558.721654
1016.610703	2562.250462
1016.903635	2583.171250
1017.196531	2575.777558
1017.489393	2557.545385
1017.782219	2564.603000
1018.075011	2573.929135
1018.367768	2571.492577
1018.660490	2567.291615
1018.953177	2567.291615
1019.245829	2567.291615
