Dividing Wavelength (nm)	Counts (n)	Slit_number_14_of_a_total_of_40	
326.493990	2036.626154
326.888308	2036.626154
327.282561	2036.626154
327.676750	2010.412154
328.070874	2047.716692
328.464933	2019.234173
328.858929	2029.820596
329.252859	2071.410115
329.646726	2052.001673
330.040528	2090.566500
330.434265	2084.517115
330.827938	2128.879269
331.221547	2137.197173
331.615091	2156.857673
332.008571	2164.671462
332.401986	2208.781558
332.795338	2202.732173
333.188625	2227.181769
333.581847	2271.291865
333.975006	2247.850500
334.368100	2298.009981
334.761129	2311.116981
335.154095	2318.426654
335.546996	2348.925635
335.939833	2354.470904
336.332606	2374.887577
336.725315	2389.254865
337.117960	2415.468865
337.510540	2377.156096
337.903056	2408.663308
338.295508	2443.447269
338.687896	2444.203442
339.080220	2410.175654
339.472480	2438.658173
339.864676	2435.129365
340.256807	2452.269288
340.648875	2456.050154
341.040879	2461.595423
341.432818	2463.611885
341.824694	2447.984308
342.216506	2431.852615
342.608253	2436.641712
342.999937	2448.236365
343.391557	2450.000769
343.783113	2445.967846
344.174605	2447.480192
344.566033	2427.819692
344.957397	2474.702423
345.348697	2429.836154
345.739934	2454.033692
346.131106	2449.244596
346.522215	2439.162288
346.913260	2462.855712
347.304241	2427.315577
347.695159	2413.200346
348.086012	2453.277519
348.476802	2429.332038
348.867528	2439.162288
349.258191	2421.518250
349.648789	2399.337173
350.039324	2412.948288
350.429796	2404.630385
350.820203	2403.622154
351.210548	2396.816596
351.600828	2415.972981
351.991045	2448.992538
352.381198	2402.865981
352.771288	2430.088212
353.161314	2393.035731
353.551276	2433.364962
353.941175	2440.422577
354.331010	2403.622154
354.720782	2425.551173
355.110490	2397.320712
355.500135	2422.022365
355.889717	2421.518250
356.279235	2405.386558
356.668689	2413.200346
357.058080	2422.274423
357.447408	2423.534712
357.836672	2424.795000
358.225873	2414.964750
358.615010	2428.827923
359.004084	2423.030596
359.393095	2422.526481
359.782043	2423.786769
360.170927	2407.907135
360.559748	2458.570731
360.948505	2417.233269
361.337199	2439.414346
361.725830	2431.852615
362.114398	2432.608788
362.502903	2450.252827
362.891344	2429.836154
363.279722	2415.468865
363.668037	2421.014135
364.056289	2426.055288
364.444478	2421.266192
364.832603	2411.183885
365.220665	2453.277519
365.608665	2434.625250
365.996601	2456.554269
366.384474	2428.323808
366.772284	2430.592327
367.160031	2432.104673
367.547715	2438.154058
367.935336	2420.762077
368.322893	2430.844385
368.710388	2429.836154
369.097820	2448.740481
369.485189	2440.422577
369.872495	2420.510019
370.259738	2440.422577
370.646918	2439.162288
371.034035	2412.444173
371.421090	2443.951385
371.808081	2430.844385
372.195010	2414.712692
372.581875	2429.584096
372.968678	2454.285750
373.355418	2430.592327
373.742096	2429.836154
374.128710	2438.154058
374.515262	2424.795000
374.901751	2425.551173
375.288177	2422.274423
375.674540	2455.798096
376.060841	2432.104673
376.447079	2421.518250
376.833254	2455.293981
377.219367	2440.170519
377.605417	2447.228135
377.991404	2455.546038
378.377329	2437.145827
378.763191	2449.748712
379.148991	2444.203442
379.534727	2445.463731
379.920402	2424.290885
380.306013	2439.162288
380.691563	2436.137596
381.077049	2459.831019
381.462474	2460.839250
381.847835	2408.411250
382.233134	2434.121135
382.618371	2435.885538
383.003545	2422.022365
383.388657	2440.170519
383.773706	2453.781635
384.158693	2420.005904
384.543618	2450.504885
384.928480	2438.154058
385.313280	2433.869077
385.698017	2420.762077
386.082692	2459.578962
386.467305	2442.691096
386.851856	2469.661269
387.236344	2443.951385
387.620770	2445.715788
388.005133	2434.625250
388.389435	2436.641712
388.773674	2446.976077
389.157851	2449.244596
389.541965	2413.452404
389.926018	2412.696231
390.310008	2460.587192
390.693936	2456.554269
391.077802	2452.269288
391.461606	2460.587192
391.845348	2476.718885
392.229027	2419.501788
392.612645	2444.455500
392.996200	2435.633481
393.379694	2453.025462
393.763125	2434.625250
394.146494	2442.439038
394.529801	2460.839250
394.913047	2437.145827
395.296230	2447.480192
395.679351	2448.488423
396.062410	2465.124231
396.445408	2450.252827
396.828343	2460.335135
397.211217	2450.252827
397.594028	2421.266192
397.976778	2444.959615
398.359466	2449.496654
398.742092	2440.674635
399.124656	2448.236365
399.507158	2440.170519
399.889598	2452.017231
400.271977	2456.554269
400.654294	2476.718885
401.036549	2439.918462
401.418742	2463.863942
401.800874	2441.682865
402.182944	2428.071750
402.564952	2479.995635
402.946898	2422.022365
403.328783	2487.809423
403.710606	2472.181846
404.092367	2452.269288
404.474067	2458.822788
404.855705	2446.724019
405.237282	2444.707558
405.618797	2462.855712
406.000250	2455.293981
406.381642	2456.806327
406.762972	2446.219904
407.144240	2463.359827
407.525447	2447.228135
407.906593	2457.310442
408.287677	2431.600558
408.668700	2439.666404
409.049661	2439.666404
409.430560	2443.447269
409.811399	2467.896865
410.192176	2466.888635
410.572891	2431.600558
410.953545	2461.091308
411.334138	2441.430808
411.714669	2477.979173
412.095139	2475.458596
412.475547	2476.214769
412.855894	2464.368058
413.236180	2454.285750
413.616405	2465.124231
413.996568	2458.570731
414.376670	2465.628346
414.756711	2474.702423
415.136691	2465.124231
415.516609	2465.124231
415.896466	2454.033692
416.276262	2474.702423
416.655997	2474.702423
417.035670	2460.587192
417.415283	2455.041923
417.794834	2471.425673
418.174324	2478.735346
418.553753	2480.751808
418.933121	2449.244596
419.312428	2467.392750
419.691674	2446.219904
420.070859	2499.908192
420.449983	2460.335135
420.829045	2475.710654
421.208047	2440.926692
421.586988	2470.669500
421.965867	2454.033692
422.344686	2464.368058
422.723444	2454.789865
423.102141	2486.801192
423.480777	2476.214769
423.859352	2448.488423
424.237866	2480.247692
424.616319	2471.677731
424.994712	2469.157154
425.373044	2473.694192
425.751314	2450.504885
426.129524	2464.368058
426.507673	2471.173615
426.885762	2460.587192
427.263789	2485.288846
427.641756	2469.913327
428.019662	2492.598519
428.397508	2470.921558
428.775292	2462.099538
429.153016	2461.343365
429.530679	2475.206538
429.908282	2448.236365
430.285824	2480.247692
430.663305	2456.806327
431.040726	2442.691096
431.418086	2487.809423
431.795385	2450.756942
432.172624	2502.680827
432.549802	2462.099538
432.926920	2464.116000
433.303977	2495.875269
433.680974	2491.338231
434.057910	2478.735346
434.434786	2469.409212
434.811601	2491.842346
435.188355	2486.297077
435.565050	2485.540904
435.941683	2469.913327
436.318257	2478.483288
436.694770	2458.822788
437.071222	2477.979173
437.447614	2479.239462
437.823946	2481.507981
438.200218	2475.458596
438.576429	2445.211673
438.952580	2499.656135
439.328670	2480.247692
439.704700	2484.784731
440.080670	2500.412308
440.456580	2467.644808
440.832429	2496.883500
441.208218	2485.036788
441.583947	2482.516212
441.959616	2502.428769
442.335224	2492.850577
442.710773	2489.573827
443.086261	2496.379385
443.461689	2510.998731
443.837057	2485.792962
444.212365	2509.234327
444.587612	2484.532673
444.962800	2501.420538
445.337927	2494.867038
445.712995	2511.754904
446.088002	2525.618077
446.462949	2497.387615
446.837837	2513.771365
447.212664	2531.163346
447.587431	2478.987404
447.962139	2531.415404
448.336786	2515.283712
448.711374	2537.212731
449.085901	2555.360885
449.460369	2519.316635
449.834776	2514.779596
450.209124	2517.552231
450.583412	2524.357788
450.957640	2545.278577
451.331808	2567.963769
451.705917	2551.327962
452.079965	2574.769327
452.453954	2564.687019
452.827883	2580.314596
453.201752	2565.443192
453.575562	2585.355750
453.949311	2593.673654
454.323001	2644.589308
454.696632	2631.482308
455.070202	2653.663385
455.443713	2647.614000
455.817164	2693.236442
456.190556	2733.313615
456.563888	2755.242635
456.937160	2773.894904
457.310373	2790.530712
457.683526	2803.889769
458.056619	2811.703558
458.429653	2870.937115
458.802628	2889.589385
459.175542	2934.203596
459.548398	2980.330154
459.921194	3032.506096
460.293930	3121.230404
460.666607	3209.954712
461.039224	3290.109058
461.411782	3408.072058
461.784280	3462.264462
462.156719	3478.648212
462.529099	3529.815923
462.901419	3533.596788
463.273680	3565.104000
463.645882	3612.994962
464.018024	3677.269673
464.390106	3736.503231
464.762130	3937.897327
465.134094	4148.365500
465.505999	4557.959250
465.877845	5044.934712
466.249631	5339.086038
466.621358	5473.432788
466.993026	5535.691038
467.364634	5516.030538
467.736184	5444.446154
468.107674	5531.910173
468.479105	5598.705462
468.850477	5779.430827
469.221790	5742.882462
469.593043	5710.619077
469.964238	5810.685981
470.335373	5947.049192
470.706449	6137.856865
471.077467	6368.237596
471.448425	7049.297481
471.819324	7815.300808
472.190164	8228.675423
472.560945	7997.790577
472.931667	7712.209212
473.302330	7691.036365
473.672934	7697.085750
474.043479	7926.206192
474.413965	7959.981923
474.784393	8092.060154
475.154761	8435.110673
475.525070	8626.422462
475.895321	8763.793904
476.265513	9104.575904
476.635645	9457.204615
477.005719	9656.078135
477.375734	9958.043250
477.745691	10260.764538
478.115588	10786.556885
478.485427	11345.116731
478.855207	12207.406096
479.224928	13190.683154
479.594591	14135.143327
479.964194	14669.505635
480.333739	14985.585981
480.703226	15219.495519
481.072653	15622.283712
481.442022	16078.004019
481.811333	16732.345788
482.180584	16728.816981
482.549777	17013.642173
482.918912	17081.697750
483.287988	17330.730750
483.657005	17412.649500
484.025964	17485.494173
484.394864	17916.260769
484.763706	18117.402808
485.132489	18184.954269
485.501213	18345.262962
485.869879	18760.654038
486.238487	18822.408173
486.607036	19131.935019
486.975527	19303.838365
487.343959	19611.096692
487.712333	20022.706904
488.080648	20224.101000
488.448905	20613.026019
488.817104	21005.983962
489.185244	21506.066423
489.553326	22053.031615
489.921350	23273.999077
490.289315	24971.355577
490.657222	26226.602885
491.025070	27182.909769
491.392861	27224.247231
491.760593	27211.896404
492.128267	26716.098923
492.495883	26161.319942
492.863440	25719.966923
493.230939	25177.286712
493.598380	24649.225846
493.965763	24629.061231
494.333088	24228.541558
494.700354	24175.609442
495.067563	24117.636173
495.434713	24183.675288
495.801805	24289.791577
496.168839	24167.039481
496.535815	24067.728750
496.902733	24239.127981
497.269593	24067.476692
497.636395	24097.471558
498.003139	24355.830692
498.369825	24153.176308
498.736453	24381.540577
499.103023	24159.729808
499.469535	24027.147462
499.835989	24204.848135
500.202385	23938.423154
500.568723	24051.597058
500.935003	24066.216404
501.301226	23712.327404
501.667390	24129.230827
502.033497	24411.283385
502.399546	24027.651577
502.765537	23694.683365
503.131470	23830.290404
503.497345	23816.427231
503.863163	23177.965096
504.228923	23269.462038
504.594625	23378.855077
504.960269	23039.837481
505.325856	23209.724365
505.691385	22607.054423
506.056856	22543.787942
506.422270	22678.134692
506.787625	22436.411365
507.152924	22196.704500
507.518164	22182.085154
507.883347	21553.201212
508.248472	21654.780462
508.613540	21602.100404
508.978550	21472.290692
509.343503	21258.797827
509.708398	21195.531346
510.073236	21145.875981
510.438016	20820.721558
510.802738	20370.294462
511.167403	20490.525981
511.532010	20297.701846
511.896561	20308.288269
512.261053	20369.538288
512.625488	20007.835500
512.989866	19709.399192
513.354186	19332.068827
513.718449	19107.989538
514.082655	19132.691192
514.446803	18733.683865
514.810894	18486.163212
515.174927	18270.905942
515.538904	17945.499462
515.902822	17974.234038
516.266684	17402.567192
516.630488	17268.220442
516.994235	17082.705981
517.357925	16885.596865
517.721558	16766.625635
518.085133	16497.428019
518.448651	16315.694423
518.812112	15982.978269
519.175516	15768.729231
519.538863	15499.783673
519.902152	15320.066538
520.265385	15118.420385
520.628560	15046.836000
520.991678	14590.107462
521.354739	14439.376962
521.717743	14274.027115
522.080690	13837.967308
522.443580	13810.745077
522.806413	13514.073173
523.169189	13217.149212
523.531908	13122.879635
523.894569	12847.632635
524.257174	12477.611942
524.619722	12412.581058
524.982213	12114.648865
525.344647	11913.506827
525.707025	11625.404885
526.069345	11461.063269
526.431608	11271.767942
526.793815	11065.080635
527.155964	10738.413865
527.518057	10534.247135
527.880093	10385.785154
528.242072	10186.659577
528.603995	9942.919788
528.965860	9732.955731
529.327669	9547.945385
529.689421	9380.074962
530.051117	9170.362962
530.412755	8933.428731
530.774337	8809.668404
531.135862	8592.898788
531.497331	8391.756750
531.858743	8224.138385
532.220098	8052.235038
532.581396	7891.422231
532.942638	7702.378962
533.303824	7601.555885
533.664953	7442.003365
534.026025	7215.655558
534.387040	7117.101000
534.747999	6914.194558
535.108902	6857.733635
535.469748	6670.958885
535.830537	6558.289096
536.191270	6379.832250
536.551947	6241.452577
536.912567	6135.588346
537.273131	6038.798192
537.633638	5853.535788
537.994089	5822.028577
538.354483	5660.207538
538.714821	5588.875212
539.075103	5465.366942
539.435328	5363.031519
539.795497	5244.564404
540.155609	5116.519096
540.515665	5080.222788
540.875665	4928.232000
541.235609	4858.664077
541.595496	4781.282365
541.955328	4745.490173
542.315102	4646.431500
542.674821	4542.583731
543.034483	4469.487000
543.394090	4419.579577
543.753640	4300.608346
544.113134	4279.435500
544.472571	4175.587731
544.831953	4180.880942
545.191278	4052.835635
545.550548	3989.821212
545.909761	3928.067077
546.268918	3912.439500
546.628019	3881.688462
546.987064	3828.000173
547.346053	3756.415788
547.704986	3710.289231
548.063863	3672.480577
548.422684	3656.348885
548.781449	3592.074173
549.140158	3580.983635
549.498811	3541.914692
549.857408	3495.788135
550.215949	3462.264462
550.574434	3427.228442
550.932864	3416.137904
551.291237	3436.554577
551.649555	3355.392000
552.007817	3319.095692
552.366022	3327.161538
552.724173	3298.679019
553.082267	3311.786019
553.440305	3286.580250
553.798288	3255.829212
554.156215	3217.516442
554.514086	3221.549365
554.871902	3179.203673
555.229661	3190.798327
555.587365	3163.828154
555.945014	3144.419712
556.302606	3112.660442
556.660143	3084.429981
557.017625	3083.421750
557.375050	3100.813731
557.732421	3099.805500
558.089735	3062.248904
558.446994	3062.753019
558.804197	3034.774615
559.161345	3036.791077
559.518437	3011.837365
559.875474	3026.960827
560.232455	2991.924808
560.589381	2983.606904
560.946251	2963.946404
561.303065	2953.864096
561.659825	2972.768423
562.016528	2953.612038
562.373177	2931.935077
562.729770	2904.712846
563.086307	2903.704615
563.442789	2915.551327
563.799216	2908.745769
564.155587	2915.299269
564.511904	2888.329096
564.868164	2863.879500
565.224370	2862.115096
565.580520	2847.495750
565.936615	2843.210769
566.292654	2827.331135
566.648638	2821.029692
567.004567	2820.273519
567.360441	2782.716923
567.716260	2798.596558
568.072023	2787.253962
568.427732	2778.179885
568.783385	2772.634615
569.138982	2792.043058
569.494525	2767.845519
569.850013	2740.623288
570.205445	2766.333173
570.560823	2763.056423
570.916145	2756.502923
571.271412	2756.754981
571.626625	2736.842423
571.981782	2720.206615
572.336884	2717.181923
572.691931	2715.165462
573.046923	2710.376365
573.401860	2686.935000
573.756743	2701.554346
574.111570	2699.537885
574.466342	2690.715865
574.821059	2688.195288
575.175722	2665.005981
575.530330	2678.112981
575.884882	2672.567712
576.239380	2664.753923
576.593823	2666.518327
576.948211	2665.510096
577.302544	2630.726135
577.656823	2616.106788
578.011047	2621.400000
578.365216	2638.287865
578.719330	2637.783750
579.073389	2628.961731
579.427394	2621.400000
579.781344	2615.854731
580.135239	2612.073865
580.489080	2614.846500
580.842866	2628.205558
581.196597	2617.367077
581.550273	2607.788885
581.903895	2600.983327
582.257463	2609.049173
582.610975	2583.339288
582.964434	2598.966865
583.317837	2602.243615
583.671186	2582.079000
584.024481	2563.174673
584.377721	2612.830038
584.730906	2577.541962
585.084037	2574.769327
585.437113	2590.144846
585.790135	2567.711712
586.143103	2562.922615
586.496016	2546.790923
586.848874	2574.517269
587.201679	2558.637635
587.554428	2532.423635
587.907124	2557.125288
588.259765	2550.319731
588.612352	2584.851635
588.964884	2552.588250
589.317362	2567.963769
589.669786	2575.021385
590.022155	2553.092365
590.374470	2559.645865
590.726731	2544.270346
591.078937	2550.067673
591.431090	2553.596481
591.783188	2551.327962
592.135232	2532.675692
592.487222	2567.459654
592.839157	2551.327962
593.191038	2520.576923
593.542866	2570.736404
593.894639	2526.878365
594.246358	2534.188038
594.598022	2544.018288
594.949633	2526.374250
595.301190	2540.489481
595.652692	2549.563558
596.004141	2554.604712
596.355535	2527.634538
596.706876	2522.593385
597.058162	2532.675692
597.409395	2565.695250
597.760573	2529.651000
598.111698	2506.209635
598.462768	2521.081038
598.813785	2507.469923
599.164748	2524.105731
599.515657	2521.081038
599.866511	2513.267250
600.217312	2504.697288
600.568060	2531.163346
600.918753	2530.155115
601.269392	2527.886596
601.619978	2548.555327
601.970510	2507.974038
602.320988	2547.295038
602.671412	2530.659231
603.021783	2507.721981
603.372100	2525.618077
603.722363	2493.354692
604.072572	2523.853673
604.422728	2516.291942
604.772830	2517.300173
605.122878	2510.746673
605.472872	2536.708615
605.822813	2493.606750
606.172701	2528.390712
606.522534	2520.072808
606.872314	2506.209635
607.222041	2512.006962
607.571714	2537.968904
607.921333	2539.985365
608.270899	2518.056346
608.620411	2492.598519
608.969870	2538.220962
609.319276	2506.209635
609.668627	2505.453462
610.017926	2521.837212
610.367171	2539.985365
610.716362	2495.623212
611.065500	2539.229192
611.414585	2561.410269
611.763616	2541.749769
612.112594	2541.497712
612.461518	2528.894827
612.810389	2505.453462
613.159207	2526.374250
613.507971	2529.651000
613.856682	2530.155115
614.205340	2513.015192
614.553945	2528.642769
614.902496	2525.366019
615.250994	2520.828981
615.599439	2518.056346
615.947830	2503.941115
616.296169	2498.395846
616.644454	2526.374250
616.992686	2481.507981
617.340864	2493.102635
617.688990	2514.779596
618.037063	2527.130423
618.385082	2515.283712
618.733048	2514.779596
619.080961	2529.903058
619.428821	2516.291942
619.776628	2506.209635
620.124382	2516.796058
620.472083	2509.990500
620.819731	2519.568692
621.167326	2545.530635
621.514868	2507.469923
621.862357	2523.853673
622.209793	2535.196269
622.557176	2520.324865
622.904506	2513.771365
623.251783	2525.618077
623.599007	2502.680827
623.946179	2523.853673
624.293297	2510.242558
624.640363	2500.664365
624.987376	2475.458596
625.334336	2483.776500
625.681243	2485.540904
626.028097	2491.842346
626.374899	2517.048115
626.721647	2515.787827
627.068343	2507.469923
627.414987	2508.982269
627.761577	2512.006962
628.108115	2535.952442
628.454600	2526.374250
628.801032	2494.362923
629.147412	2510.494615
629.493739	2501.672596
629.840014	2497.639673
630.186236	2507.217865
630.532405	2507.974038
630.878521	2513.519308
631.224585	2520.072808
631.570597	2524.609846
631.916556	2509.738442
632.262462	2485.288846
632.608316	2506.965808
632.954117	2502.680827
633.299866	2493.354692
633.645562	2500.160250
633.991206	2498.395846
634.336797	2494.867038
634.682336	2516.544000
635.027823	2497.891731
635.373257	2511.754904
635.718639	2495.119096
636.063968	2477.979173
636.409245	2510.494615
636.754470	2520.828981
637.099642	2476.718885
637.444762	2504.697288
637.789829	2483.020327
638.134845	2518.308404
638.479808	2483.524442
638.824719	2500.160250
639.169577	2463.611885
639.514383	2507.217865
639.859137	2499.404077
640.203839	2522.089269
640.548489	2501.420538
640.893086	2502.932885
641.237632	2502.680827
641.582125	2507.217865
641.926566	2478.231231
642.270955	2492.598519
642.615292	2486.297077
642.959576	2507.721981
643.303809	2452.269288
643.647990	2525.870135
643.992118	2510.746673
644.336195	2487.809423
644.680219	2519.820750
645.024192	2498.143788
645.368112	2499.908192
645.711981	2487.053250
646.055797	2499.908192
646.399562	2492.850577
646.743274	2507.217865
647.086935	2525.113962
647.430544	2496.127327
647.774101	2482.768269
648.117606	2519.316635
648.461059	2528.642769
648.804460	2488.061481
649.147810	2506.209635
649.491108	2490.834115
649.834354	2481.255923
650.177548	2514.779596
650.520690	2503.184942
650.863781	2487.305308
651.206820	2493.102635
651.549807	2491.842346
651.892742	2484.532673
652.235626	2497.891731
652.578458	2486.297077
652.921238	2511.502846
653.263967	2475.206538
653.606644	2488.061481
653.949269	2503.941115
654.291843	2481.760038
654.634365	2512.006962
654.976836	2496.127327
655.319255	2512.763135
655.661622	2502.176712
656.003938	2476.466827
656.346203	2467.896865
656.688416	2471.677731
657.030577	2508.478154
657.372687	2491.086173
657.714746	2494.362923
658.056753	2508.730212
658.398708	2512.006962
658.740612	2521.081038
659.082465	2489.573827
659.424266	2475.458596
659.766016	2483.020327
660.107715	2468.653038
660.449362	2498.143788
660.790958	2492.346462
661.132503	2499.656135
661.473996	2495.371154
661.815438	2495.875269
662.156829	2490.582058
662.498168	2496.631442
662.839456	2482.012096
663.180693	2520.324865
663.521879	2507.974038
663.863013	2497.387615
664.204097	2504.697288
664.545129	2503.689058
664.886110	2487.305308
665.227040	2491.338231
665.567918	2511.250788
665.908746	2481.507981
666.249522	2502.932885
666.590248	2484.280615
666.930922	2468.905096
667.271545	2508.226096
667.612118	2498.143788
667.952639	2491.842346
668.293109	2489.573827
668.633528	2504.697288
668.973896	2474.450365
669.314213	2507.469923
669.654480	2501.924654
669.994695	2498.647904
670.334859	2486.045019
670.674973	2517.552231
671.015035	2493.606750
671.355047	2474.954481
671.695008	2502.932885
672.034918	2511.754904
672.374777	2494.867038
672.714585	2509.234327
673.054342	2497.387615
673.394049	2515.283712
673.733705	2471.677731
674.073310	2491.086173
674.412864	2500.916423
674.752368	2502.680827
675.091820	2497.135558
675.431223	2498.143788
675.770574	2525.113962
676.109875	2504.949346
676.449125	2468.400981
676.788324	2490.582058
677.127473	2483.524442
677.466571	2513.519308
677.805619	2479.995635
678.144616	2506.461692
678.483562	2462.099538
678.822458	2489.321769
679.161303	2480.247692
679.500098	2471.173615
679.838842	2487.053250
680.177535	2482.516212
680.516179	2487.557365
680.854771	2497.639673
681.193314	2486.045019
681.531805	2482.516212
681.870247	2506.209635
682.208638	2476.970942
682.546978	2502.932885
682.885268	2481.003865
683.223508	2490.077942
683.561697	2503.184942
683.899836	2492.850577
684.237925	2505.705519
684.575963	2497.135558
684.913951	2495.623212
685.251889	2519.064577
685.589776	2472.433904
685.927614	2484.784731
686.265401	2464.872173
686.603137	2488.817654
686.940824	2495.371154
687.278460	2499.152019
687.616046	2508.226096
687.953582	2475.458596
688.291068	2513.015192
688.628504	2463.611885
688.965889	2480.247692
689.303224	2489.825885
689.640510	2492.346462
689.977745	2482.012096
690.314930	2494.362923
690.652065	2509.486385
690.989150	2466.888635
691.326185	2471.929788
691.663170	2493.354692
692.000105	2484.280615
692.336990	2488.061481
692.673825	2489.573827
693.010610	2493.354692
693.347345	2486.045019
693.684030	2461.847481
694.020665	2463.359827
694.357251	2484.280615
694.693786	2501.924654
695.030272	2476.970942
695.366707	2485.540904
695.703093	2478.987404
696.039429	2478.483288
696.375716	2472.433904
696.711952	2461.595423
697.048139	2493.354692
697.384276	2492.598519
697.720363	2509.486385
698.056400	2468.148923
698.392388	2501.924654
698.728326	2487.053250
699.064214	2495.875269
699.400053	2461.343365
699.735842	2480.751808
700.071581	2468.905096
700.407270	2496.379385
700.742910	2521.585154
701.078501	2439.414346
701.414042	2451.261058
701.749533	2490.077942
702.084974	2471.425673
702.420366	2469.157154
702.755709	2478.483288
703.091002	2472.938019
703.426246	2491.842346
703.761440	2502.428769
704.096584	2491.590288
704.431679	2479.491519
704.766725	2479.743577
705.101721	2487.305308
705.436668	2511.502846
705.771565	2491.590288
706.106413	2491.086173
706.441212	2496.883500
706.775961	2491.590288
707.110661	2468.905096
707.445311	2475.962712
707.779913	2472.433904
708.114465	2473.694192
708.448967	2475.962712
708.783421	2494.614981
709.117825	2505.201404
709.452180	2507.721981
709.786485	2495.119096
710.120742	2476.214769
710.454949	2477.727115
710.789107	2452.521346
711.123216	2495.623212
711.457275	2474.198308
711.791286	2485.036788
712.125247	2501.420538
712.459159	2502.680827
712.793023	2497.639673
713.126837	2482.012096
713.460602	2505.201404
713.794318	2485.288846
714.127985	2496.379385
714.461602	2495.371154
714.795171	2495.119096
715.128691	2492.850577
715.462162	2492.094404
715.795584	2480.247692
716.128957	2493.354692
716.462281	2468.905096
716.795556	2480.247692
717.128782	2500.916423
717.461960	2466.384519
717.795088	2493.102635
718.128167	2508.226096
718.461198	2465.376288
718.794180	2462.603654
719.127113	2501.672596
719.459997	2485.036788
719.792833	2468.400981
720.125619	2491.842346
720.458357	2483.524442
720.791046	2480.247692
721.123686	2517.804288
721.456278	2503.689058
721.788821	2498.143788
722.121315	2476.466827
722.453761	2463.611885
722.786158	2466.888635
723.118506	2472.433904
723.450805	2488.313538
723.783056	2469.661269
724.115259	2472.685962
724.447412	2471.677731
724.779518	2501.924654
725.111574	2485.036788
725.443582	2476.466827
725.775542	2470.669500
726.107453	2485.036788
726.439315	2485.288846
726.771129	2490.330000
727.102895	2465.880404
727.434612	2490.582058
727.766281	2479.743577
728.097901	2491.086173
728.429473	2490.077942
728.760996	2506.461692
729.092471	2477.979173
729.423897	2491.338231
729.755276	2490.077942
730.086606	2480.751808
730.417887	2470.669500
730.749120	2490.330000
731.080305	2489.573827
731.411442	2505.705519
731.742530	2501.924654
732.073570	2498.395846
732.404562	2477.475058
732.735506	2496.631442
733.066401	2466.636577
733.397249	2486.801192
733.728048	2462.855712
734.058798	2497.891731
734.389501	2492.346462
734.720156	2457.814558
735.050762	2499.908192
735.381320	2486.297077
735.711831	2483.776500
736.042293	2468.148923
736.372707	2463.107769
736.703073	2483.020327
737.033391	2466.384519
737.363661	2479.491519
737.693883	2465.124231
738.024056	2455.293981
738.354182	2468.905096
738.684260	2486.549135
739.014290	2493.354692
739.344272	2489.069712
739.674207	2477.727115
740.004093	2481.003865
740.333931	2464.116000
740.663722	2493.606750
740.993464	2484.784731
741.323159	2487.809423
741.652806	2473.694192
741.982405	2502.428769
742.311956	2483.776500
742.641460	2450.000769
742.970915	2490.077942
743.300323	2457.562500
743.629683	2486.801192
743.958996	2472.433904
744.288260	2489.069712
744.617477	2487.557365
744.946647	2461.847481
745.275768	2478.735346
745.604842	2496.883500
745.933869	2500.160250
746.262847	2490.582058
746.591778	2465.628346
746.920662	2460.839250
747.249498	2471.425673
747.578286	2477.979173
747.907027	2467.392750
748.235720	2499.656135
748.564365	2495.875269
748.892963	2475.458596
749.221514	2486.801192
749.550017	2455.546038
749.878473	2450.000769
750.206881	2472.938019
750.535242	2489.825885
750.863555	2490.834115
751.191821	2480.751808
751.520039	2481.507981
751.848210	2472.433904
752.176334	2463.611885
752.504411	2478.987404
752.832440	2466.384519
753.160421	2492.850577
753.488356	2482.012096
753.816243	2490.330000
754.144082	2490.330000
754.471875	2456.050154
754.799620	2472.938019
755.127318	2509.990500
755.454969	2487.305308
755.782572	2481.507981
756.110129	2471.173615
756.437638	2465.880404
756.765100	2469.157154
757.092515	2458.318673
757.419882	2467.392750
757.747203	2503.941115
758.074477	2462.603654
758.401703	2503.689058
758.728882	2500.664365
759.056014	2489.573827
759.383099	2480.247692
759.710138	2480.247692
760.037129	2483.776500
760.364073	2466.132462
760.690970	2487.305308
761.017820	2491.590288
761.344623	2467.644808
761.671379	2464.368058
761.998088	2502.680827
762.324751	2475.710654
762.651366	2485.792962
762.977935	2478.735346
763.304456	2498.395846
763.630931	2484.028558
763.957359	2489.573827
764.283740	2499.656135
764.610074	2491.842346
764.936362	2510.494615
765.262602	2493.606750
765.588796	2472.181846
765.914943	2492.598519
766.241044	2511.754904
766.567097	2451.765173
766.893104	2466.888635
767.219064	2463.359827
767.544978	2465.628346
767.870845	2474.198308
768.196665	2492.094404
768.522438	2473.694192
768.848165	2460.839250
769.173846	2499.404077
769.499479	2468.148923
769.825066	2470.921558
770.150607	2479.995635
770.476101	2504.949346
770.801548	2451.261058
771.126949	2501.168481
771.452303	2476.970942
771.777611	2492.094404
772.102872	2478.483288
772.428087	2484.784731
772.753256	2490.330000
773.078378	2475.458596
773.403453	2458.570731
773.728482	2483.524442
774.053465	2477.223000
774.378401	2489.321769
774.703291	2455.293981
775.028135	2474.450365
775.352932	2492.850577
775.677683	2480.247692
776.002388	2439.162288
776.327046	2452.269288
776.651658	2458.570731
776.976224	2448.488423
777.300743	2478.987404
777.625216	2490.330000
777.949643	2487.305308
778.274024	2478.735346
778.598359	2490.582058
778.922647	2486.297077
779.246889	2484.784731
779.571086	2471.929788
779.895236	2476.466827
780.219339	2462.099538
780.543397	2459.074846
780.867409	2483.020327
781.191374	2500.160250
781.515294	2458.570731
781.839167	2493.858808
782.162995	2476.970942
782.486776	2473.694192
782.810511	2495.119096
783.134201	2465.628346
783.457844	2465.880404
783.781441	2455.041923
784.104993	2492.598519
784.428498	2466.132462
784.751958	2477.223000
785.075372	2475.710654
785.398739	2479.491519
785.722061	2482.012096
786.045337	2495.875269
786.368568	2503.941115
786.691752	2456.050154
787.014891	2460.335135
787.337983	2460.587192
787.661030	2485.540904
787.984031	2452.521346
788.306987	2463.359827
788.629897	2464.620115
788.952760	2462.351596
789.275579	2497.387615
789.598351	2467.644808
789.921078	2474.954481
790.243759	2482.012096
790.566395	2461.847481
790.888984	2483.020327
791.211529	2482.516212
791.534027	2473.946250
791.856480	2453.025462
792.178888	2460.839250
792.501249	2467.896865
792.823566	2479.491519
793.145836	2440.422577
793.468062	2481.507981
793.790241	2472.938019
794.112375	2470.417442
794.434464	2484.784731
794.756507	2472.938019
795.078505	2473.946250
795.400457	2481.003865
795.722364	2463.359827
796.044226	2463.863942
796.366042	2472.433904
796.687812	2460.083077
797.009538	2461.595423
797.331218	2470.921558
797.652852	2464.368058
797.974442	2487.305308
798.295986	2493.354692
798.617484	2445.463731
798.938938	2476.970942
799.260346	2474.702423
799.581709	2475.206538
799.903026	2478.987404
800.224299	2455.293981
800.545526	2483.776500
800.866708	2468.148923
801.187845	2469.913327
801.508936	2467.392750
801.829983	2504.445231
802.150984	2468.653038
802.471940	2497.135558
802.792851	2454.033692
803.113717	2464.620115
803.434538	2484.280615
803.755314	2468.400981
804.076045	2462.855712
804.396731	2454.537808
804.717372	2475.962712
805.037967	2466.636577
805.358518	2466.888635
805.679024	2449.748712
805.999485	2520.324865
806.319901	2460.083077
806.640272	2491.842346
806.960598	2484.784731
807.280879	2447.228135
807.601115	2483.776500
807.921306	2485.540904
808.241453	2489.321769
808.561554	2471.929788
808.881611	2472.181846
809.201623	2469.913327
809.521590	2462.603654
809.841513	2474.702423
810.161390	2490.834115
810.481223	2486.045019
810.801011	2488.061481
811.120755	2474.450365
811.440453	2462.099538
811.760107	2469.157154
812.079716	2477.979173
812.399281	2469.913327
812.718801	2463.611885
813.038276	2468.400981
813.357707	2474.954481
813.677093	2470.417442
813.996434	2467.896865
814.315731	2486.045019
814.634983	2497.387615
814.954191	2468.400981
815.273354	2483.524442
815.592473	2452.773404
815.911547	2505.705519
816.230577	2463.863942
816.549562	2459.831019
816.868502	2460.083077
817.187399	2476.466827
817.506250	2485.036788
817.825058	2476.466827
818.143821	2497.639673
818.462539	2467.896865
818.781213	2489.573827
819.099843	2482.768269
819.418429	2463.863942
819.736970	2480.247692
820.055466	2461.595423
820.373919	2470.669500
820.692327	2491.086173
821.010691	2507.974038
821.329011	2485.792962
821.647286	2500.664365
821.965517	2535.196269
822.283704	2557.377346
822.601847	2592.917481
822.919945	2569.980231
823.237999	2570.484346
823.556010	2547.799154
823.873976	2557.125288
824.191897	2547.799154
824.509775	2517.552231
824.827609	2528.390712
825.145398	2510.494615
825.463144	2505.957577
825.780845	2485.792962
826.098502	2521.333096
826.416116	2497.891731
826.733685	2519.820750
827.051210	2505.453462
827.368692	2513.267250
827.686129	2511.754904
828.003522	2508.982269
828.320872	2496.379385
828.638177	2526.626308
828.955439	2491.338231
829.272656	2481.760038
829.589830	2477.727115
829.906960	2494.362923
830.224046	2489.825885
830.541088	2466.384519
830.858086	2455.293981
831.175041	2473.694192
831.491952	2467.140692
831.808819	2476.214769
832.125642	2465.628346
832.442421	2474.198308
832.759157	2502.680827
833.075849	2481.003865
833.392497	2484.784731
833.709101	2487.557365
834.025662	2512.763135
834.342179	2488.565596
834.658653	2498.899962
834.975083	2498.395846
835.291469	2503.184942
835.607811	2509.738442
835.924110	2495.371154
836.240366	2471.173615
836.556578	2491.842346
836.872746	2475.206538
837.188871	2474.702423
837.504952	2494.110865
837.820990	2449.244596
838.136984	2484.280615
838.452935	2484.028558
838.768842	2457.814558
839.084706	2477.223000
839.400526	2440.926692
839.716303	2457.310442
840.032037	2470.921558
840.347727	2464.116000
840.663373	2500.916423
840.978977	2474.702423
841.294537	2454.789865
841.610054	2465.376288
841.925527	2462.351596
842.240957	2443.951385
842.556344	2470.417442
842.871687	2480.751808
843.186987	2446.219904
843.502244	2478.987404
843.817458	2467.644808
844.132629	2471.677731
844.447756	2477.979173
844.762840	2466.888635
845.077881	2476.718885
845.392879	2472.685962
845.707833	2489.321769
846.022745	2476.718885
846.337613	2461.847481
846.652438	2461.595423
846.967221	2462.855712
847.281960	2488.313538
847.596656	2460.839250
847.911309	2457.310442
848.225919	2488.565596
848.540485	2464.368058
848.855009	2438.658173
849.169490	2469.913327
849.483928	2465.628346
849.798323	2477.979173
850.112675	2465.376288
850.426984	2458.570731
850.741251	2477.727115
851.055474	2447.732250
851.369654	2467.140692
851.683792	2483.020327
851.997887	2475.710654
852.311938	2478.483288
852.625947	2492.598519
852.939914	2462.099538
853.253837	2464.872173
853.567718	2481.760038
853.881555	2458.822788
854.195350	2464.368058
854.509103	2470.921558
854.822812	2435.885538
855.136479	2457.310442
855.450103	2484.280615
855.763685	2438.406115
856.077224	2477.223000
856.390720	2469.913327
856.704173	2466.132462
857.017584	2462.099538
857.330953	2487.809423
857.644278	2470.921558
857.957561	2463.107769
858.270802	2454.537808
858.584000	2454.789865
858.897155	2479.491519
859.210268	2475.962712
859.523339	2479.239462
859.836367	2466.636577
860.149352	2451.513115
860.462295	2477.475058
860.775195	2443.699327
861.088054	2465.628346
861.400869	2464.872173
861.713642	2460.839250
862.026373	2461.091308
862.339062	2462.351596
862.651708	2450.504885
862.964312	2468.905096
863.276873	2472.938019
863.589392	2460.587192
863.901869	2499.404077
864.214303	2475.962712
864.526696	2440.674635
864.839045	2483.776500
865.151353	2481.255923
865.463619	2463.107769
865.775842	2464.368058
866.088023	2465.880404
866.400162	2468.400981
866.712258	2452.269288
867.024313	2471.929788
867.336325	2465.880404
867.648296	2472.938019
867.960224	2464.116000
868.272110	2473.694192
868.583954	2461.091308
868.895755	2463.611885
869.207515	2478.231231
869.519233	2465.376288
869.830909	2496.631442
870.142542	2469.661269
870.454134	2476.718885
870.765684	2472.433904
871.077191	2459.578962
871.388657	2475.458596
871.700081	2450.504885
872.011463	2458.318673
872.322803	2451.765173
872.634101	2461.847481
872.945357	2490.582058
873.256571	2470.921558
873.567744	2478.735346
873.878874	2476.214769
874.189963	2456.554269
874.501010	2486.297077
874.812015	2487.053250
875.122979	2471.425673
875.433900	2470.921558
875.744780	2476.718885
876.055618	2491.338231
876.366415	2469.409212
876.677169	2466.888635
876.987882	2493.858808
877.298554	2479.995635
877.609183	2456.554269
877.919771	2467.644808
878.230317	2495.119096
878.540822	2468.400981
878.851285	2446.724019
879.161707	2485.288846
879.472087	2479.491519
879.782425	2482.768269
880.092722	2477.727115
880.402977	2444.203442
880.713191	2529.398942
881.023363	2494.110865
881.333494	2500.412308
881.643583	2547.547096
881.953631	2520.828981
882.263637	2512.259019
882.573602	2516.291942
882.883526	2516.796058
883.193408	2492.346462
883.503248	2481.003865
883.813048	2497.891731
884.122806	2494.867038
884.432522	2484.028558
884.742197	2497.387615
885.051831	2481.255923
885.361424	2460.335135
885.670975	2474.450365
885.980485	2500.664365
886.289954	2471.677731
886.599382	2474.450365
886.908768	2497.891731
887.218113	2455.041923
887.527417	2472.433904
887.836680	2441.178750
888.145901	2481.507981
888.455082	2457.562500
888.764221	2476.214769
889.073319	2470.417442
889.382376	2468.148923
889.691392	2448.992538
890.000366	2468.400981
890.309300	2480.247692
890.618193	2446.724019
890.927044	2467.140692
891.235855	2462.603654
891.544625	2461.091308
891.853353	2484.784731
892.162041	2476.214769
892.470687	2500.160250
892.779293	2443.699327
893.087858	2455.798096
893.396381	2463.107769
893.704864	2457.310442
894.013306	2465.628346
894.321707	2464.620115
894.630068	2463.863942
894.938387	2499.656135
895.246665	2473.946250
895.554903	2503.689058
895.863100	2470.165385
896.171256	2507.974038
896.479371	2472.181846
896.787446	2471.173615
897.095480	2477.727115
897.403473	2452.773404
897.711425	2497.135558
898.019336	2477.727115
898.327207	2481.003865
898.635038	2472.685962
898.942827	2454.537808
899.250576	2475.962712
899.558284	2467.392750
899.865952	2468.905096
900.173579	2500.160250
900.481165	2436.893769
900.788711	2492.598519
901.096216	2438.910231
901.403681	2475.206538
901.711105	2460.335135
902.018489	2459.831019
902.325832	2463.107769
902.633135	2450.252827
902.940397	2473.442135
903.247619	2470.417442
903.554800	2472.685962
903.861941	2468.653038
904.169041	2490.077942
904.476101	2485.036788
904.783121	2502.428769
905.090100	2486.297077
905.397039	2496.127327
905.703938	2482.264154
906.010796	2445.967846
906.317614	2491.590288
906.624391	2475.458596
906.931129	2479.743577
907.237826	2477.979173
907.544483	2458.066615
907.851099	2460.335135
908.157675	2479.743577
908.464211	2448.992538
908.770707	2465.376288
909.077163	2478.231231
909.383578	2484.784731
909.689954	2482.768269
909.996289	2476.970942
910.302584	2484.028558
910.608839	2467.392750
910.915054	2481.760038
911.221229	2468.400981
911.527363	2488.313538
911.833458	2482.012096
912.139513	2467.644808
912.445527	2487.809423
912.751502	2479.239462
913.057436	2456.554269
913.363331	2477.475058
913.669186	2476.214769
913.975000	2468.653038
914.280775	2479.995635
914.586510	2446.724019
914.892205	2462.855712
915.197859	2455.041923
915.503475	2462.603654
915.809050	2484.280615
916.114585	2501.924654
916.420081	2496.127327
916.725536	2489.069712
917.030952	2464.872173
917.336328	2494.110865
917.641665	2470.417442
917.946961	2480.247692
918.252218	2501.168481
918.557435	2468.905096
918.862612	2473.442135
919.167750	2496.379385
919.472848	2481.003865
919.777906	2475.710654
920.082925	2471.425673
920.387904	2471.677731
920.692843	2452.521346
920.997743	2453.529577
921.302603	2472.938019
921.607423	2471.425673
921.912204	2450.756942
922.216946	2474.450365
922.521647	2464.368058
922.826310	2457.562500
923.130932	2470.417442
923.435516	2497.135558
923.740059	2459.326904
924.044564	2453.025462
924.349028	2460.587192
924.653454	2482.012096
924.957840	2465.628346
925.262186	2471.677731
925.566493	2454.789865
925.870761	2475.962712
926.174989	2467.140692
926.479178	2474.954481
926.783328	2473.442135
927.087438	2464.872173
927.391509	2488.817654
927.695541	2437.649942
927.999533	2467.392750
928.303486	2466.384519
928.607400	2463.359827
928.911275	2451.009000
929.215110	2453.529577
929.518906	2451.765173
929.822663	2460.587192
930.126381	2438.910231
930.430060	2456.806327
930.733699	2443.195212
931.037299	2461.343365
931.340861	2457.562500
931.644383	2466.636577
931.947866	2495.875269
932.251309	2450.000769
932.554714	2485.540904
932.858080	2444.455500
933.161407	2452.521346
933.464694	2500.412308
933.767943	2455.798096
934.071153	2452.773404
934.374323	2465.628346
934.677455	2447.480192
934.980548	2482.012096
935.283602	2445.967846
935.586617	2477.475058
935.889593	2461.343365
936.192530	2483.776500
936.495428	2463.107769
936.798287	2465.628346
937.101108	2480.247692
937.403890	2481.507981
937.706632	2494.110865
938.009336	2471.425673
938.312002	2453.277519
938.614628	2470.417442
938.917216	2443.951385
939.219765	2482.516212
939.522275	2478.231231
939.824747	2473.190077
940.127179	2450.252827
940.429573	2446.724019
940.731929	2445.715788
941.034246	2461.091308
941.336524	2475.962712
941.638763	2475.206538
941.940964	2486.297077
942.243126	2478.483288
942.545250	2474.198308
942.847335	2493.354692
943.149381	2453.781635
943.451389	2461.847481
943.753359	2435.381423
944.055290	2466.888635
944.357182	2487.557365
944.659036	2474.954481
944.960851	2482.264154
945.262628	2465.628346
945.564367	2469.409212
945.866067	2471.677731
946.167729	2485.036788
946.469352	2437.902000
946.770937	2474.198308
947.072484	2465.376288
947.373992	2466.384519
947.675462	2482.516212
947.976893	2470.669500
948.278286	2484.028558
948.579641	2469.157154
948.880958	2483.776500
949.182236	2450.000769
949.483476	2481.760038
949.784678	2481.760038
950.085841	2439.666404
950.386967	2478.231231
950.688054	2464.620115
950.989103	2463.611885
951.290114	2491.590288
951.591087	2454.789865
951.892021	2456.302212
952.192917	2448.992538
952.493776	2457.562500
952.794596	2454.789865
953.095378	2474.450365
953.396122	2457.562500
953.696828	2483.776500
953.997496	2454.285750
954.298126	2476.970942
954.598718	2448.740481
954.899272	2443.447269
955.199788	2452.269288
955.500266	2473.694192
955.800706	2488.565596
956.101108	2480.751808
956.401472	2468.653038
956.701798	2473.442135
957.002087	2465.124231
957.302337	2426.811462
957.602550	2487.053250
957.902724	2481.507981
958.202861	2479.491519
958.502960	2473.442135
958.803022	2445.715788
959.103045	2456.302212
959.403031	2477.223000
959.702979	2461.847481
960.002889	2480.751808
960.302762	2471.929788
960.602596	2468.653038
960.902393	2445.715788
961.202153	2473.442135
961.501875	2466.384519
961.801559	2463.107769
962.101205	2467.896865
962.400814	2438.154058
962.700385	2442.186981
962.999918	2476.214769
963.299414	2467.644808
963.598873	2458.570731
963.898293	2444.959615
964.197677	2472.685962
964.497022	2460.839250
964.796331	2469.913327
965.095601	2455.546038
965.394835	2470.165385
965.694030	2472.181846
965.993189	2448.236365
966.292309	2472.181846
966.591393	2462.855712
966.890439	2463.359827
967.189447	2449.244596
967.488419	2459.326904
967.787353	2461.595423
968.086249	2470.417442
968.385108	2487.053250
968.683930	2489.321769
968.982714	2465.124231
969.281462	2447.732250
969.580172	2458.318673
969.878844	2453.781635
970.177480	2471.425673
970.476078	2452.017231
970.774639	2466.132462
971.073162	2456.806327
971.371649	2460.839250
971.670098	2468.148923
971.968510	2483.524442
972.266885	2434.121135
972.565223	2448.236365
972.863524	2463.611885
973.161788	2462.351596
973.460014	2477.223000
973.758204	2472.433904
974.056356	2471.173615
974.354471	2464.872173
974.652550	2449.496654
974.950591	2476.214769
975.248595	2479.239462
975.546563	2483.020327
975.844493	2448.992538
976.142386	2465.880404
976.440243	2444.707558
976.738062	2464.620115
977.035845	2486.045019
977.333590	2456.806327
977.631299	2469.661269
977.928971	2466.384519
978.226606	2483.776500
978.524204	2466.636577
978.821765	2482.264154
979.119290	2476.466827
979.416777	2470.921558
979.714228	2440.926692
980.011642	2465.880404
980.309020	2441.178750
980.606360	2497.639673
980.903664	2445.211673
981.200931	2498.143788
981.498162	2461.595423
981.795356	2458.822788
982.092513	2464.368058
982.389633	2446.976077
982.686717	2459.326904
982.983764	2467.644808
983.280775	2477.727115
983.577749	2481.760038
983.874686	2454.537808
984.171587	2445.463731
984.468451	2453.025462
984.765279	2461.343365
985.062070	2420.762077
985.358824	2458.822788
985.655543	2463.359827
985.952224	2470.417442
986.248869	2476.718885
986.545478	2475.710654
986.842050	2441.934923
987.138586	2453.277519
987.435086	2452.017231
987.731549	2461.091308
988.027975	2446.724019
988.324366	2449.496654
988.620719	2435.381423
988.917037	2463.107769
989.213318	2471.173615
989.509563	2439.162288
989.805772	2443.951385
990.101944	2449.244596
990.398080	2432.356731
990.694180	2441.430808
990.990244	2448.992538
991.286271	2468.400981
991.582262	2470.165385
991.878217	2452.269288
992.174136	2466.132462
992.470019	2466.384519
992.765865	2449.244596
993.061676	2459.831019
993.357450	2454.285750
993.653188	2448.740481
993.948890	2458.066615
994.244556	2447.984308
994.540186	2470.165385
994.835780	2442.439038
995.131337	2449.496654
995.426859	2454.285750
995.722345	2452.017231
996.017795	2467.392750
996.313208	2450.504885
996.608586	2465.880404
996.903928	2469.409212
997.199234	2456.554269
997.494504	2463.863942
997.789738	2455.798096
998.084936	2467.140692
998.380099	2447.732250
998.675225	2465.376288
998.970316	2443.699327
999.265371	2492.346462
999.560390	2473.946250
999.855373	2447.984308
1000.150320	2471.677731
1000.445232	2450.252827
1000.740108	2474.954481
1001.034948	2438.658173
1001.329752	2443.951385
1001.624521	2461.595423
1001.919254	2439.162288
1002.213951	2474.702423
1002.508613	2469.409212
1002.803239	2462.855712
1003.097829	2465.880404
1003.392384	2451.009000
1003.686903	2451.009000
1003.981386	2461.091308
1004.275834	2462.603654
1004.570246	2469.157154
1004.864623	2446.471962
1005.158964	2466.132462
1005.453270	2449.244596
1005.747540	2460.335135
1006.041775	2456.554269
1006.335974	2440.674635
1006.630138	2483.272385
1006.924266	2448.992538
1007.218359	2438.154058
1007.512416	2459.326904
1007.806438	2455.798096
1008.100425	2461.343365
1008.394376	2431.852615
1008.688292	2465.124231
1008.982172	2453.277519
1009.276017	2452.521346
1009.569827	2460.839250
1009.863602	2449.244596
1010.157341	2471.425673
1010.451045	2457.310442
1010.744714	2460.083077
1011.038347	2458.066615
1011.331945	2462.099538
1011.625508	2460.083077
1011.919036	2454.789865
1012.212528	2454.285750
1012.505986	2465.124231
1012.799408	2473.190077
1013.092795	2482.516212
1013.386147	2468.653038
1013.679464	2476.214769
1013.972745	2468.905096
1014.265992	2450.252827
1014.559204	2451.513115
1014.852380	2452.269288
1015.145521	2459.831019
1015.438628	2481.760038
1015.731699	2471.677731
1016.024736	2481.507981
1016.317737	2467.644808
1016.610703	2432.104673
1016.903635	2456.554269
1017.196531	2468.400981
1017.489393	2484.532673
1017.782219	2470.921558
1018.075011	2448.488423
1018.367768	2475.962712
1018.660490	2466.888635
1018.953177	2466.888635
1019.245829	2466.888635
