Dividing Wavelength (nm)	Counts (n)	Slit_number_40_of_a_total_of_40	
326.493990	2039.524817
326.888308	2039.524817
327.282561	2039.524817
327.676750	2010.084479
328.070874	2015.377690
328.464933	2025.182735
328.858929	2023.947652
329.252859	2038.995496
329.646726	2062.235215
330.040528	2066.847871
330.434265	2085.701787
330.827938	2111.537700
331.221547	2132.080402
331.615091	2148.060860
332.008571	2168.578356
332.401986	2194.615915
332.795338	2205.479602
333.188625	2229.122613
333.581847	2247.548031
333.975006	2264.738365
334.368100	2283.289812
334.761129	2300.354117
335.154095	2308.092288
335.546996	2335.087667
335.939833	2341.162258
336.332606	2352.857735
336.725315	2364.452388
337.117960	2378.870088
337.510540	2385.322765
337.903056	2388.372663
338.295508	2404.680796
338.687896	2412.343350
339.080220	2417.510533
339.472480	2422.627304
339.864676	2424.240473
340.256807	2431.499735
340.648875	2434.146340
341.040879	2420.232756
341.432818	2425.500762
341.824694	2433.516196
342.216506	2436.692123
342.608253	2427.844898
342.999937	2437.523913
343.391557	2426.181317
343.783113	2427.517223
344.174605	2429.558890
344.566033	2432.230702
344.957397	2418.241500
345.348697	2422.854156
345.739934	2414.712692
346.131106	2415.670512
346.522215	2413.376787
346.913260	2416.981212
347.304241	2415.115985
347.695159	2404.277504
348.086012	2413.704462
348.476802	2405.537792
348.867528	2414.385017
349.258191	2410.906621
349.648789	2396.085629
350.039324	2402.966804
350.429796	2407.781106
350.820203	2397.850033
351.210548	2396.640156
351.600828	2395.581513
351.991045	2397.950856
352.381198	2402.286248
352.771288	2404.075858
353.161314	2401.151988
353.551276	2401.303223
353.941175	2404.126269
354.331010	2395.531102
354.720782	2395.959600
355.110490	2405.941085
355.500135	2402.109808
355.889717	2399.690054
356.279235	2393.565052
356.668689	2394.648900
357.058080	2406.999727
357.447408	2400.874725
357.836672	2402.235837
358.225873	2403.949829
358.615010	2402.135013
359.004084	2398.429765
359.393095	2405.084088
359.782043	2415.746129
360.170927	2407.554254
360.559748	2397.724004
360.948505	2397.219888
361.337199	2408.940571
361.725830	2410.654563
362.114398	2411.612383
362.502903	2410.780592
362.891344	2411.763617
363.279722	2404.075858
363.668037	2411.385531
364.056289	2411.360325
364.444478	2416.426685
364.832603	2411.007444
365.220665	2410.730181
365.608665	2411.234296
365.996601	2411.385531
366.384474	2412.418967
366.772284	2409.646333
367.160031	2414.712692
367.547715	2403.395302
367.935336	2416.300656
368.322893	2404.882442
368.710388	2403.672565
369.097820	2408.814542
369.485189	2403.042421
369.872495	2410.654563
370.259738	2417.258475
370.646918	2419.678229
371.034035	2411.814029
371.421090	2415.771335
371.808081	2411.410737
372.195010	2414.763104
372.581875	2412.998700
372.968678	2415.670512
373.355418	2411.914852
373.742096	2415.443660
374.128710	2427.164342
374.515262	2422.047571
374.901751	2413.578433
375.288177	2412.570202
375.674540	2416.678742
376.060841	2420.056315
376.447079	2402.210631
376.833254	2422.123188
377.219367	2413.124729
377.605417	2426.332552
377.991404	2418.619587
378.377329	2421.997160
378.763191	2425.778025
379.148991	2416.225038
379.534727	2424.290885
379.920402	2422.501275
380.306013	2423.988415
380.691563	2418.266706
381.077049	2417.334092
381.462474	2420.383990
381.847835	2417.661767
382.233134	2421.997160
382.618371	2420.913312
383.003545	2424.845412
383.388657	2420.459608
383.773706	2419.123702
384.158693	2418.619587
384.543618	2419.325348
384.928480	2422.551687
385.313280	2433.163315
385.698017	2421.896337
386.082692	2425.122675
386.467305	2422.148394
386.851856	2417.888619
387.236344	2418.644792
387.620770	2429.861360
388.005133	2420.232756
388.389435	2422.224012
388.773674	2417.434915
389.157851	2421.644279
389.541965	2423.307860
389.926018	2425.677202
390.310008	2424.290885
390.693936	2426.433375
391.077802	2419.980698
391.461606	2426.080494
391.845348	2427.542429
392.229027	2429.054775
392.612645	2428.197779
392.996200	2430.264652
393.379694	2428.071750
393.763125	2431.172060
394.146494	2417.939031
394.529801	2434.272369
394.913047	2427.542429
395.296230	2423.610329
395.679351	2428.349013
396.062410	2429.382450
396.445408	2425.525967
396.828343	2425.904054
397.211217	2428.248190
397.594028	2425.299115
397.976778	2436.061979
398.359466	2426.332552
398.742092	2429.306833
399.124656	2432.003850
399.507158	2423.484300
399.889598	2429.458067
400.271977	2423.585123
400.654294	2436.792946
401.036549	2432.760023
401.418742	2435.179777
401.800874	2430.063006
402.182944	2434.877308
402.564952	2429.710125
402.946898	2438.103646
403.328783	2429.785742
403.710606	2433.490990
404.092367	2433.894283
404.474067	2441.808894
404.855705	2433.062492
405.237282	2434.700867
405.618797	2438.935437
406.000250	2432.886052
406.381642	2434.146340
406.762972	2427.517223
407.144240	2427.744075
407.525447	2428.500248
407.906593	2426.332552
408.287677	2442.590273
408.668700	2422.072777
409.049661	2434.171546
409.430560	2430.113417
409.811399	2437.549119
410.192176	2430.768767
410.572891	2441.128338
410.953545	2441.506425
411.334138	2437.624737
411.714669	2437.952412
412.095139	2428.424631
412.475547	2433.188521
412.855894	2440.397371
413.236180	2441.556837
413.616405	2437.145827
413.996568	2428.122162
414.376670	2440.599017
414.756711	2442.590273
415.136691	2427.895310
415.516609	2432.961669
415.896466	2439.414346
416.276262	2438.532144
416.655997	2438.380910
417.035670	2439.943667
417.415283	2443.774944
417.794834	2439.389140
418.174324	2434.020312
418.553753	2432.785229
418.933121	2443.371652
419.312428	2434.549633
419.691674	2438.355704
420.070859	2434.121135
420.449983	2441.355190
420.829045	2435.230188
421.208047	2438.229675
421.586988	2433.743048
421.965867	2439.338729
422.344686	2441.657660
422.723444	2441.884512
423.102141	2433.465785
423.480777	2434.650456
423.859352	2441.859306
424.237866	2437.145827
424.616319	2439.263112
424.994712	2438.280087
425.373044	2433.793460
425.751314	2440.573812
426.129524	2430.189035
426.507673	2432.936463
426.885762	2439.212700
427.263789	2442.741508
427.641756	2442.615479
428.019662	2442.262598
428.397508	2441.556837
428.775292	2434.826896
429.153016	2435.583069
429.530679	2441.859306
429.908282	2441.128338
430.285824	2441.304779
430.663305	2441.329985
431.040726	2443.825356
431.418086	2438.885025
431.795385	2443.396858
432.172624	2444.077413
432.549802	2447.681838
432.926920	2442.665890
433.303977	2450.152004
433.680974	2433.541402
434.057910	2445.766200
434.434786	2447.454987
434.811601	2442.539862
435.188355	2441.682865
435.565050	2448.790892
435.941683	2438.557350
436.318257	2439.540375
436.694770	2442.665890
437.071222	2440.750252
437.447614	2441.456013
437.823946	2444.203442
438.200218	2440.472988
438.576429	2452.748198
438.952580	2447.707044
439.328670	2447.454987
439.704700	2444.203442
440.080670	2447.328958
440.456580	2439.968873
440.832429	2441.859306
441.208218	2442.413833
441.583947	2441.859306
441.959616	2438.582556
442.335224	2445.892229
442.710773	2450.378856
443.086261	2453.453960
443.461689	2442.943154
443.837057	2447.454987
444.212365	2443.245623
444.587612	2434.247163
444.962800	2435.104160
445.337927	2442.111363
445.712995	2442.691096
446.088002	2442.917948
446.462949	2446.043463
446.837837	2446.774431
447.212664	2454.563013
447.587431	2454.462190
447.962139	2448.463217
448.336786	2448.513629
448.711374	2448.564040
449.085901	2449.874740
449.460369	2444.077413
449.834776	2445.640171
450.209124	2442.691096
450.583412	2445.463731
450.957640	2450.756942
451.331808	2454.386573
451.705917	2446.093875
452.079965	2436.440065
452.453954	2449.773917
452.827883	2448.261571
453.201752	2442.439038
453.575562	2452.193671
453.949311	2443.069183
454.323001	2448.135542
454.696632	2445.463731
455.070202	2455.193158
455.443713	2447.833073
455.817164	2446.068669
456.190556	2450.882971
456.563888	2448.034719
456.937160	2450.101592
457.310373	2452.823815
457.683526	2447.328958
458.056619	2448.488423
458.429653	2442.262598
458.802628	2458.847994
459.175542	2438.380910
459.548398	2454.033692
459.921194	2445.438525
460.293930	2454.134515
460.666607	2450.882971
461.039224	2452.975050
461.411782	2440.926692
461.784280	2444.354677
462.156719	2441.027515
462.529099	2431.247677
462.901419	2450.378856
463.273680	2447.757456
463.645882	2442.842331
464.018024	2450.051181
464.390106	2454.260544
464.762130	2453.227108
465.134094	2447.228135
465.505999	2443.371652
465.877845	2453.781635
466.249631	2449.748712
466.621358	2452.344906
466.993026	2457.184413
467.364634	2459.755402
467.736184	2444.379883
468.107674	2449.194185
468.479105	2445.186467
468.850477	2454.966306
469.221790	2452.042437
469.593043	2452.420523
469.964238	2449.673094
470.335373	2442.186981
470.706449	2447.379369
471.077467	2446.597990
471.448425	2452.143260
471.819324	2453.983281
472.190164	2451.084617
472.560945	2449.395831
472.931667	2447.278546
473.302330	2447.076900
473.672934	2446.623196
474.043479	2453.882458
474.413965	2454.436985
474.784393	2448.488423
475.154761	2452.294494
475.525070	2454.663837
475.895321	2454.336162
476.265513	2450.530090
476.635645	2446.270315
477.005719	2460.183900
477.375734	2457.285237
477.745691	2453.554783
478.115588	2449.849535
478.485427	2463.989971
478.855207	2462.855712
479.224928	2444.808381
479.594591	2451.739967
479.964194	2448.034719
480.333739	2454.739454
480.703226	2452.546552
481.072653	2452.672581
481.442022	2452.798610
481.811333	2453.327931
482.180584	2449.849535
482.549777	2456.604681
482.918912	2441.329985
483.287988	2455.520833
483.657005	2454.563013
484.025964	2461.847481
484.394864	2454.033692
484.763706	2451.336675
485.132489	2452.773404
485.501213	2451.412292
485.869879	2454.663837
486.238487	2454.487396
486.607036	2447.581015
486.975527	2458.091821
487.343959	2449.345419
487.712333	2451.714762
488.080648	2451.361881
488.448905	2454.789865
488.817104	2451.765173
489.185244	2451.966819
489.553326	2449.118567
489.921350	2461.267748
490.289315	2466.888635
490.657222	2454.613425
491.025070	2456.201388
491.392861	2452.143260
491.760593	2451.689556
492.128267	2454.436985
492.495883	2451.387087
492.863440	2451.765173
493.230939	2456.453446
493.598380	2451.664350
493.965763	2449.395831
494.333088	2453.983281
494.700354	2459.024435
495.067563	2450.555296
495.434713	2450.152004
495.801805	2447.631427
496.168839	2456.428240
496.535815	2460.083077
496.902733	2451.361881
497.269593	2468.249746
497.636395	2458.545525
498.003139	2446.749225
498.369825	2453.126285
498.736453	2455.293981
499.103023	2455.823302
499.469535	2454.361367
499.835989	2458.217850
500.202385	2453.327931
500.568723	2447.328958
500.935003	2446.345933
501.301226	2450.605708
501.667390	2452.395317
502.033497	2452.218877
502.399546	2458.974023
502.765537	2442.842331
503.131470	2461.545012
503.497345	2447.530604
503.863163	2458.217850
504.228923	2454.714248
504.594625	2461.998715
504.960269	2455.344392
505.325856	2453.151490
505.691385	2450.278033
506.056856	2454.008487
506.422270	2455.344392
506.787625	2455.520833
507.152924	2459.276492
507.518164	2455.420010
507.883347	2451.664350
508.248472	2451.387087
508.613540	2455.672067
508.978550	2450.328444
509.343503	2455.193158
509.708398	2456.226594
510.073236	2451.790379
510.438016	2449.950358
510.802738	2456.125771
511.167403	2459.730196
511.532010	2450.958588
511.896561	2450.605708
512.261053	2453.252313
512.625488	2455.344392
512.989866	2449.647888
513.354186	2462.654065
513.718449	2450.580502
514.082655	2458.142233
514.446803	2453.353137
514.810894	2457.159208
515.174927	2458.343879
515.538904	2461.570217
515.902822	2464.342852
516.266684	2454.512602
516.630488	2455.041923
516.994235	2445.287290
517.357925	2455.873713
517.721558	2456.503858
518.085133	2459.679785
518.448651	2455.949331
518.812112	2454.436985
519.175516	2447.757456
519.538863	2446.572785
519.902152	2452.546552
520.265385	2452.344906
520.628560	2453.882458
520.991678	2460.990485
521.354739	2449.874740
521.717743	2451.084617
522.080690	2452.193671
522.443580	2449.068156
522.806413	2454.663837
523.169189	2449.143773
523.531908	2458.520319
523.894569	2454.815071
524.257174	2457.461677
524.619722	2456.881944
524.982213	2457.663323
525.344647	2450.454473
525.707025	2454.386573
526.069345	2466.056844
526.431608	2454.815071
526.793815	2460.637604
527.155964	2452.647375
527.518057	2449.748712
527.880093	2457.486883
528.242072	2459.326904
528.603995	2454.689042
528.965860	2455.268775
529.327669	2456.554269
529.689421	2452.143260
530.051117	2458.495113
530.412755	2465.275465
530.774337	2458.621142
531.135862	2447.354163
531.497331	2451.588733
531.858743	2451.210646
532.220098	2456.352623
532.581396	2451.437498
532.942638	2455.268775
533.303824	2456.705504
533.664953	2457.436471
534.026025	2454.109310
534.387040	2462.427213
534.747999	2450.756942
535.108902	2458.671554
535.469748	2453.806840
535.830537	2462.628860
536.191270	2457.436471
536.551947	2448.286777
536.912567	2452.319700
537.273131	2452.218877
537.633638	2448.916921
537.994089	2460.083077
538.354483	2452.168465
538.714821	2463.435444
539.075103	2454.336162
539.435328	2457.638117
539.795497	2457.159208
540.155609	2456.377829
540.515665	2454.235338
540.875665	2460.814044
541.235609	2461.545012
541.595496	2457.260031
541.955328	2459.730196
542.315102	2455.268775
542.674821	2450.278033
543.034483	2461.267748
543.394090	2461.797069
543.753640	2459.049640
544.113134	2461.923098
544.472571	2449.572271
544.831953	2454.815071
545.191278	2450.983794
545.550548	2452.697787
545.909761	2452.319700
546.268918	2454.436985
546.628019	2454.436985
546.987064	2460.536781
547.346053	2449.723506
547.704986	2459.049640
548.063863	2455.016717
548.422684	2465.603140
548.781449	2457.285237
549.140158	2453.050667
549.498811	2456.302212
549.857408	2456.226594
550.215949	2454.058898
550.574434	2452.092848
550.932864	2449.975563
551.291237	2468.829479
551.649555	2458.772377
552.007817	2463.763119
552.366022	2458.797583
552.724173	2467.594396
553.082267	2466.283696
553.440305	2453.680812
553.798288	2466.712194
554.156215	2460.108283
554.514086	2455.117540
554.871902	2454.537808
555.229661	2457.234825
555.587365	2452.697787
555.945014	2458.646348
556.302606	2459.629373
556.660143	2459.074846
557.017625	2466.283696
557.375050	2454.210133
557.732421	2459.780608
558.089735	2450.404062
558.446994	2463.132975
558.804197	2455.495627
559.161345	2460.587192
559.518437	2449.421037
559.875474	2456.226594
560.232455	2463.006946
560.589381	2454.033692
560.946251	2458.167438
561.303065	2452.949844
561.659825	2461.469394
562.016528	2460.561987
562.373177	2458.948817
562.729770	2455.672067
563.086307	2453.227108
563.442789	2458.822788
563.799216	2455.319187
564.155587	2456.781121
564.511904	2454.764660
564.868164	2447.102106
565.224370	2465.250260
565.580520	2452.067642
565.936615	2461.393777
566.292654	2461.645835
566.648638	2461.948304
567.004567	2459.831019
567.360441	2456.503858
567.716260	2454.361367
568.072023	2456.806327
568.427732	2464.947790
568.783385	2460.410752
569.138982	2456.377829
569.494525	2455.319187
569.850013	2457.184413
570.205445	2453.680812
570.560823	2456.050154
570.916145	2453.655606
571.271412	2464.846967
571.626625	2458.268262
571.981782	2455.621656
572.336884	2454.159721
572.691931	2456.655092
573.046923	2445.967846
573.401860	2456.881944
573.756743	2457.083590
574.111570	2460.914867
574.466342	2457.512088
574.821059	2453.832046
575.175722	2458.822788
575.530330	2462.830506
575.884882	2454.689042
576.239380	2465.199848
576.593823	2460.889662
576.948211	2459.805813
577.302544	2460.435958
577.656823	2455.999742
578.011047	2459.805813
578.365216	2461.066102
578.719330	2456.352623
579.073389	2465.905610
579.427394	2458.217850
579.781344	2458.318673
580.135239	2463.863942
580.489080	2457.562500
580.842866	2457.789352
581.196597	2465.376288
581.550273	2454.915894
581.903895	2457.537294
582.257463	2457.587706
582.610975	2458.747171
582.964434	2459.704990
583.317837	2456.881944
583.671186	2460.688015
584.024481	2453.655606
584.377721	2461.771863
584.730906	2449.068156
585.084037	2461.973510
585.437113	2460.284723
585.790135	2459.074846
586.143103	2459.704990
586.496016	2459.831019
586.848874	2460.486369
587.201679	2455.218363
587.554428	2464.972996
587.907124	2456.428240
588.259765	2457.209619
588.612352	2460.965279
588.964884	2453.983281
589.317362	2453.504371
589.669786	2456.806327
590.022155	2450.278033
590.374470	2455.898919
590.726731	2465.124231
591.078937	2450.000769
591.431090	2458.343879
591.783188	2455.949331
592.135232	2458.419496
592.487222	2466.611371
592.839157	2457.915381
593.191038	2464.342852
593.542866	2460.158694
593.894639	2460.788838
594.246358	2462.553242
594.598022	2453.176696
594.949633	2459.982254
595.301190	2453.932869
595.652692	2461.418983
596.004141	2455.420010
596.355535	2460.259517
596.706876	2462.023921
597.058162	2458.091821
597.409395	2461.217337
597.760573	2460.965279
598.111698	2455.722479
598.462768	2470.064562
598.813785	2455.167952
599.164748	2465.401494
599.515657	2459.780608
599.866511	2469.560446
600.217312	2454.537808
600.568060	2457.612912
600.918753	2463.435444
601.269392	2466.535754
601.619978	2459.377315
601.970510	2460.158694
602.320988	2458.898406
602.671412	2463.763119
603.021783	2459.629373
603.372100	2458.192644
603.722363	2455.520833
604.072572	2451.790379
604.422728	2458.974023
604.772830	2455.798096
605.122878	2459.276492
605.472872	2459.074846
605.822813	2457.159208
606.172701	2463.939560
606.522534	2453.680812
606.872314	2455.041923
607.222041	2462.250773
607.571714	2461.217337
607.921333	2459.100052
608.270899	2468.602627
608.620411	2456.680298
608.969870	2474.047073
609.319276	2451.361881
609.668627	2463.964765
610.017926	2453.252313
610.367171	2458.873200
610.716362	2454.613425
611.065500	2463.057358
611.414585	2455.873713
611.763616	2465.905610
612.112594	2460.461163
612.461518	2452.647375
612.810389	2456.024948
613.159207	2456.453446
613.507971	2451.916408
613.856682	2465.401494
614.205340	2453.781635
614.553945	2465.124231
614.902496	2459.856225
615.250994	2461.519806
615.599439	2456.579475
615.947830	2460.435958
616.296169	2452.370112
616.644454	2470.845940
616.992686	2460.435958
617.340864	2464.645321
617.688990	2451.992025
618.037063	2460.990485
618.385082	2458.948817
618.733048	2452.496140
619.080961	2461.973510
619.428821	2454.789865
619.776628	2463.032152
620.124382	2462.502831
620.472083	2458.016204
620.819731	2453.655606
621.167326	2458.293467
621.514868	2452.017231
621.862357	2456.150977
622.209793	2463.006946
622.557176	2457.713735
622.904506	2455.520833
623.251783	2459.352110
623.599007	2455.420010
623.946179	2462.175156
624.293297	2454.991512
624.640363	2458.873200
624.987376	2457.587706
625.334336	2457.209619
625.681243	2461.091308
626.028097	2458.167438
626.374899	2457.159208
626.721647	2457.285237
627.068343	2450.580502
627.414987	2451.462704
627.761577	2460.108283
628.108115	2458.721965
628.454600	2458.772377
628.801032	2454.764660
629.147412	2461.948304
629.493739	2463.435444
629.840014	2461.469394
630.186236	2452.218877
630.532405	2461.620629
630.878521	2462.880917
631.224585	2455.672067
631.570597	2451.613938
631.916556	2452.445729
632.262462	2452.294494
632.608316	2451.916408
632.954117	2460.032665
633.299866	2457.411265
633.645562	2462.528037
633.991206	2462.754888
634.336797	2459.957048
634.682336	2457.940587
635.027823	2462.351596
635.373257	2462.452419
635.718639	2463.284210
636.063968	2463.662296
636.409245	2456.554269
636.754470	2452.067642
637.099642	2454.411779
637.444762	2456.302212
637.789829	2457.461677
638.134845	2456.554269
638.479808	2461.393777
638.824719	2459.251287
639.169577	2462.074333
639.514383	2461.897892
639.859137	2464.972996
640.203839	2462.452419
640.548489	2459.553756
640.893086	2460.763633
641.237632	2456.932356
641.582125	2472.635550
641.926566	2453.201902
642.270955	2450.454473
642.615292	2451.865996
642.959576	2449.723506
643.303809	2451.261058
643.647990	2469.862915
643.992118	2459.276492
644.336195	2459.301698
644.680219	2459.957048
645.024192	2456.352623
645.368112	2455.092335
645.711981	2461.166925
646.055797	2453.428754
646.399562	2464.040383
646.743274	2453.504371
647.086935	2458.369085
647.430544	2461.570217
647.774101	2470.593883
648.117606	2458.343879
648.461059	2459.452933
648.804460	2463.435444
649.147810	2461.166925
649.491108	2448.185954
649.834354	2461.872687
650.177548	2451.513115
650.520690	2455.646862
650.863781	2454.991512
651.206820	2457.108796
651.549807	2459.856225
651.892742	2460.259517
652.235626	2448.916921
652.578458	2456.100565
652.921238	2460.612398
653.263967	2455.092335
653.606644	2462.855712
653.949269	2459.352110
654.291843	2450.454473
654.634365	2453.983281
654.976836	2463.511062
655.319255	2453.882458
655.661622	2464.141206
656.003938	2457.864969
656.346203	2456.655092
656.688416	2460.536781
657.030577	2459.402521
657.372687	2458.016204
657.714746	2459.100052
658.056753	2459.629373
658.398708	2455.672067
658.740612	2464.065588
659.082465	2447.454987
659.424266	2456.377829
659.766016	2450.076387
660.107715	2456.680298
660.449362	2453.327931
660.790958	2452.344906
661.132503	2447.833073
661.473996	2457.713735
661.815438	2457.411265
662.156829	2449.194185
662.498168	2454.210133
662.839456	2456.856738
663.180693	2448.059925
663.521879	2458.167438
663.863013	2456.100565
664.204097	2459.654579
664.545129	2465.653552
664.886110	2463.208592
665.227040	2459.704990
665.567918	2454.915894
665.908746	2454.865483
666.249522	2459.150463
666.590248	2466.006433
666.930922	2460.234312
667.271545	2459.957048
667.612118	2451.613938
667.952639	2456.680298
668.293109	2466.182873
668.633528	2459.503344
668.973896	2456.100565
669.314213	2456.529063
669.654480	2464.569704
669.994695	2461.923098
670.334859	2456.604681
670.674973	2458.545525
671.015035	2444.682352
671.355047	2462.855712
671.695008	2449.899946
672.034918	2448.967333
672.374777	2459.931842
672.714585	2457.814558
673.054342	2456.453446
673.394049	2463.586679
673.733705	2463.460650
674.073310	2462.049127
674.412864	2454.310956
674.752368	2461.444188
675.091820	2447.807867
675.431223	2455.772890
675.770574	2458.343879
676.109875	2459.906637
676.449125	2451.538321
676.788324	2452.748198
677.127473	2452.092848
677.466571	2457.184413
677.805619	2461.872687
678.144616	2461.771863
678.483562	2454.638631
678.822458	2463.309415
679.161303	2452.748198
679.500098	2461.343365
679.838842	2451.009000
680.177535	2455.596450
680.516179	2465.199848
680.854771	2452.949844
681.193314	2451.261058
681.531805	2456.806327
681.870247	2460.083077
682.208638	2453.378342
682.546978	2460.410752
682.885268	2459.074846
683.223508	2448.816098
683.561697	2456.302212
683.899836	2460.083077
684.237925	2461.595423
684.575963	2463.208592
684.913951	2460.335135
685.251889	2460.133488
685.589776	2453.025462
685.927614	2460.108283
686.265401	2455.268775
686.603137	2458.066615
686.940824	2460.940073
687.278460	2453.277519
687.616046	2448.967333
687.953582	2457.184413
688.291068	2453.302725
688.628504	2455.999742
688.965889	2457.436471
689.303224	2452.546552
689.640510	2454.588219
689.977745	2458.696760
690.314930	2456.201388
690.652065	2455.722479
690.989150	2463.788325
691.326185	2455.344392
691.663170	2463.183387
692.000105	2459.276492
692.336990	2457.007973
692.673825	2447.933896
693.010610	2452.571758
693.347345	2452.949844
693.684030	2453.101079
694.020665	2462.553242
694.357251	2447.202929
694.693786	2449.118567
695.030272	2459.604167
695.366707	2455.924125
695.703093	2459.503344
696.039429	2453.050667
696.375716	2456.655092
696.711952	2459.982254
697.048139	2470.417442
697.384276	2458.167438
697.720363	2453.605194
698.056400	2457.234825
698.392388	2462.200362
698.728326	2455.142746
699.064214	2461.091308
699.400053	2450.278033
699.735842	2458.217850
700.071581	2459.553756
700.407270	2454.537808
700.742910	2454.411779
701.078501	2448.463217
701.414042	2467.392750
701.749533	2458.974023
702.084974	2457.108796
702.420366	2452.748198
702.755709	2452.975050
703.091002	2455.848508
703.426246	2464.216823
703.761440	2454.159721
704.096584	2453.252313
704.431679	2454.462190
704.766725	2457.663323
705.101721	2465.653552
705.436668	2461.116513
705.771565	2460.536781
706.106413	2459.704990
706.441212	2453.252313
706.775961	2460.410752
707.110661	2453.479165
707.445311	2460.057871
707.779913	2445.488937
708.114465	2461.620629
708.448967	2456.806327
708.783421	2460.940073
709.117825	2452.143260
709.452180	2462.175156
709.786485	2451.235852
710.120742	2456.251800
710.454949	2445.413319
710.789107	2461.771863
711.123216	2455.571244
711.457275	2456.629887
711.791286	2454.008487
712.125247	2463.939560
712.459159	2454.134515
712.793023	2462.603654
713.126837	2459.478138
713.460602	2460.688015
713.794318	2454.285750
714.127985	2464.040383
714.461602	2459.251287
714.795171	2454.134515
715.128691	2450.353650
715.462162	2463.435444
715.795584	2459.301698
716.128957	2460.057871
716.462281	2453.025462
716.795556	2448.160748
717.128782	2459.452933
717.461960	2449.017744
717.795088	2452.294494
718.128167	2454.537808
718.461198	2462.023921
718.794180	2459.049640
719.127113	2460.183900
719.459997	2459.326904
719.792833	2454.512602
720.125619	2458.646348
720.458357	2454.462190
720.791046	2448.034719
721.123686	2457.461677
721.456278	2454.865483
721.788821	2463.385033
722.121315	2463.561473
722.453761	2456.982767
722.786158	2458.469908
723.118506	2458.646348
723.450805	2463.737913
723.783056	2446.194698
724.115259	2457.864969
724.447412	2454.084104
724.779518	2455.420010
725.111574	2463.208592
725.443582	2454.109310
725.775542	2456.050154
726.107453	2461.444188
726.439315	2453.378342
726.771129	2455.117540
727.102895	2455.747685
727.434612	2452.697787
727.766281	2447.858279
728.097901	2456.579475
728.429473	2445.640171
728.760996	2458.016204
729.092471	2454.563013
729.423897	2453.579988
729.755276	2454.638631
730.086606	2457.033179
730.417887	2451.538321
730.749120	2451.109823
731.080305	2456.881944
731.411442	2457.134002
731.742530	2452.899433
732.073570	2455.898919
732.404562	2451.966819
732.735506	2461.217337
733.066401	2450.479679
733.397249	2458.117027
733.728048	2457.990998
734.058798	2453.907663
734.389501	2460.486369
734.720156	2460.057871
735.050762	2447.581015
735.381320	2459.150463
735.711831	2452.672581
736.042293	2461.368571
736.372707	2456.352623
736.703073	2455.520833
737.033391	2454.789865
737.363661	2463.763119
737.693883	2450.479679
738.024056	2455.747685
738.354182	2448.992538
738.684260	2455.041923
739.014290	2455.772890
739.344272	2449.521860
739.674207	2454.159721
740.004093	2455.949331
740.333931	2451.437498
740.663722	2452.218877
740.993464	2456.100565
741.323159	2457.663323
741.652806	2451.765173
741.982405	2465.174642
742.311956	2458.696760
742.641460	2461.267748
742.970915	2455.319187
743.300323	2445.539348
743.629683	2450.479679
743.958996	2449.874740
744.288260	2453.907663
744.617477	2457.512088
744.946647	2453.075873
745.275768	2459.377315
745.604842	2456.957562
745.933869	2453.453960
746.262847	2456.579475
746.591778	2445.388113
746.920662	2456.781121
747.249498	2447.505398
747.578286	2461.696246
747.907027	2459.957048
748.235720	2456.806327
748.564365	2458.948817
748.892963	2459.730196
749.221514	2453.932869
749.550017	2463.284210
749.878473	2453.050667
750.206881	2454.008487
750.535242	2457.108796
750.863555	2462.149950
751.191821	2452.924638
751.520039	2453.378342
751.848210	2454.663837
752.176334	2454.008487
752.504411	2456.277006
752.832440	2456.251800
753.160421	2454.915894
753.488356	2461.217337
753.816243	2458.595937
754.144082	2456.705504
754.471875	2454.588219
754.799620	2461.822275
755.127318	2455.293981
755.454969	2455.924125
755.782572	2458.041410
756.110129	2462.780094
756.437638	2450.756942
756.765100	2460.788838
757.092515	2453.101079
757.419882	2449.925152
757.747203	2449.622683
758.074477	2449.874740
758.401703	2450.731737
758.728882	2452.722992
759.056014	2458.192644
759.383099	2455.369598
759.710138	2453.857252
760.037129	2461.166925
760.364073	2453.025462
760.690970	2447.228135
761.017820	2458.142233
761.344623	2456.428240
761.671379	2458.545525
761.998088	2459.478138
762.324751	2445.060438
762.651366	2454.159721
762.977935	2448.891715
763.304456	2448.059925
763.630931	2457.789352
763.957359	2459.150463
764.283740	2449.899946
764.610074	2452.143260
764.936362	2454.411779
765.262602	2455.092335
765.588796	2448.135542
765.914943	2460.965279
766.241044	2451.966819
766.567097	2459.024435
766.893104	2454.764660
767.219064	2447.278546
767.544978	2459.402521
767.870845	2453.201902
768.196665	2453.075873
768.522438	2454.361367
768.848165	2460.612398
769.173846	2446.547579
769.499479	2462.578448
769.825066	2453.630400
770.150607	2454.991512
770.476101	2458.545525
770.801548	2453.832046
771.126949	2451.588733
771.452303	2447.858279
771.777611	2450.504885
772.102872	2459.528550
772.428087	2459.881431
772.753256	2459.049640
773.078378	2454.890688
773.403453	2455.646862
773.728482	2462.049127
774.053465	2444.657146
774.378401	2462.049127
774.703291	2452.395317
775.028135	2453.832046
775.352932	2457.461677
775.677683	2462.502831
776.002388	2454.890688
776.327046	2452.496140
776.651658	2456.251800
776.976224	2447.959102
777.300743	2451.639144
777.625216	2458.721965
777.949643	2459.226081
778.274024	2458.747171
778.598359	2452.975050
778.922647	2450.000769
779.246889	2455.672067
779.571086	2459.200875
779.895236	2451.336675
780.219339	2453.479165
780.543397	2452.823815
780.867409	2452.596963
781.191374	2458.016204
781.515294	2448.992538
781.839167	2452.899433
782.162995	2454.638631
782.486776	2447.177723
782.810511	2454.361367
783.134201	2457.310442
783.457844	2447.707044
783.781441	2456.806327
784.104993	2449.521860
784.428498	2455.495627
784.751958	2452.823815
785.075372	2452.092848
785.398739	2459.478138
785.722061	2458.621142
786.045337	2447.631427
786.368568	2452.722992
786.691752	2457.234825
787.014891	2445.740994
787.337983	2459.604167
787.661030	2458.495113
787.984031	2455.949331
788.306987	2456.352623
788.629897	2453.579988
788.952760	2455.747685
789.275579	2453.227108
789.598351	2448.589246
789.921078	2453.731223
790.243759	2453.025462
790.566395	2464.746144
790.888984	2453.101079
791.211529	2453.706017
791.534027	2470.190590
791.856480	2454.235338
792.178888	2451.513115
792.501249	2450.908177
792.823566	2449.849535
793.145836	2452.697787
793.468062	2454.991512
793.790241	2446.245110
794.112375	2459.553756
794.434464	2460.259517
794.756507	2454.941100
795.078505	2456.377829
795.400457	2453.706017
795.722364	2452.092848
796.044226	2461.847481
796.366042	2454.487396
796.687812	2461.545012
797.009538	2456.554269
797.331218	2457.864969
797.652852	2457.890175
797.974442	2451.739967
798.295986	2454.159721
798.617484	2459.024435
798.938938	2453.756429
799.260346	2456.831533
799.581709	2456.881944
799.903026	2456.503858
800.224299	2460.561987
800.545526	2452.420523
800.866708	2453.504371
801.187845	2458.268262
801.508936	2456.176183
801.829983	2459.251287
802.150984	2458.016204
802.471940	2452.622169
802.792851	2455.772890
803.113717	2449.673094
803.434538	2454.008487
803.755314	2453.151490
804.076045	2456.302212
804.396731	2449.849535
804.717372	2458.091821
805.037967	2459.503344
805.358518	2449.421037
805.679024	2464.443675
805.999485	2457.764146
806.319901	2453.075873
806.640272	2451.790379
806.960598	2450.933383
807.280879	2447.933896
807.601115	2447.253340
807.921306	2456.176183
808.241453	2448.362394
808.561554	2449.622683
808.881611	2446.774431
809.201623	2446.875254
809.521590	2460.057871
809.841513	2457.007973
810.161390	2456.680298
810.481223	2457.083590
810.801011	2447.732250
811.120755	2448.715275
811.440453	2454.058898
811.760107	2448.538835
812.079716	2450.530090
812.399281	2458.898406
812.718801	2456.907150
813.038276	2453.806840
813.357707	2456.226594
813.677093	2453.227108
813.996434	2448.765687
814.315731	2459.024435
814.634983	2449.849535
814.954191	2454.537808
815.273354	2450.378856
815.592473	2453.630400
815.911547	2457.033179
816.230577	2457.738940
816.549562	2449.698300
816.868502	2447.732250
817.187399	2453.403548
817.506250	2451.815585
817.825058	2459.881431
818.143821	2448.740481
818.462539	2453.126285
818.781213	2458.570731
819.099843	2459.881431
819.418429	2444.405088
819.736970	2444.253854
820.055466	2457.007973
820.373919	2449.748712
820.692327	2459.125258
821.010691	2451.059412
821.329011	2454.815071
821.647286	2457.007973
821.965517	2458.091821
822.283704	2463.485856
822.601847	2450.656119
822.919945	2458.192644
823.237999	2454.184927
823.556010	2455.848508
823.873976	2456.579475
824.191897	2452.420523
824.509775	2446.875254
824.827609	2446.925665
825.145398	2447.555810
825.463144	2460.183900
825.780845	2455.293981
826.098502	2451.664350
826.416116	2453.731223
826.733685	2457.360854
827.051210	2453.630400
827.368692	2459.125258
827.686129	2454.890688
828.003522	2455.344392
828.320872	2442.514656
828.638177	2451.966819
828.955439	2442.212187
829.272656	2457.058385
829.589830	2445.110850
829.906960	2455.949331
830.224046	2458.041410
830.541088	2448.438012
830.858086	2450.454473
831.175041	2449.446242
831.491952	2452.622169
831.808819	2456.680298
832.125642	2446.850048
832.442421	2457.764146
832.759157	2457.310442
833.075849	2450.731737
833.392497	2443.699327
833.709101	2455.646862
834.025662	2451.613938
834.342179	2445.110850
834.658653	2453.832046
834.975083	2453.075873
835.291469	2459.352110
835.607811	2450.303238
835.924110	2461.116513
836.240366	2454.159721
836.556578	2455.999742
836.872746	2456.176183
837.188871	2448.664863
837.504952	2441.985335
837.820990	2454.134515
838.136984	2458.394290
838.452935	2452.874227
838.768842	2456.226594
839.084706	2444.228648
839.400526	2459.175669
839.716303	2455.772890
840.032037	2453.025462
840.347727	2447.379369
840.663373	2451.916408
840.978977	2446.547579
841.294537	2457.512088
841.610054	2447.429781
841.925527	2454.739454
842.240957	2448.916921
842.556344	2446.371138
842.871687	2447.606221
843.186987	2456.806327
843.502244	2453.983281
843.817458	2455.646862
844.132629	2446.320727
844.447756	2451.714762
844.762840	2459.200875
845.077881	2458.066615
845.392879	2448.387600
845.707833	2449.975563
846.022745	2450.706531
846.337613	2445.413319
846.652438	2441.481219
846.967221	2465.502317
847.281960	2446.320727
847.596656	2460.965279
847.911309	2451.992025
848.225919	2453.176696
848.540485	2445.614965
848.855009	2450.429267
849.169490	2452.899433
849.483928	2444.657146
849.798323	2461.721452
850.112675	2452.294494
850.426984	2454.739454
850.741251	2449.168979
851.055474	2453.932869
851.369654	2454.739454
851.683792	2455.823302
851.997887	2452.672581
852.311938	2445.614965
852.625947	2457.965792
852.939914	2443.800150
853.253837	2454.789865
853.567718	2454.008487
853.881555	2446.194698
854.195350	2450.504885
854.509103	2450.278033
854.822812	2456.251800
855.136479	2452.218877
855.450103	2459.755402
855.763685	2444.052208
856.077224	2453.857252
856.390720	2450.958588
856.704173	2448.841304
857.017584	2460.234312
857.330953	2460.183900
857.644278	2449.345419
857.957561	2461.267748
858.270802	2452.571758
858.584000	2446.673608
858.897155	2453.327931
859.210268	2453.731223
859.523339	2451.487910
859.836367	2446.522373
860.149352	2458.066615
860.462295	2450.933383
860.775195	2449.925152
861.088054	2456.604681
861.400869	2452.168465
861.713642	2455.722479
862.026373	2456.554269
862.339062	2449.244596
862.651708	2457.007973
862.964312	2447.001283
863.276873	2458.142233
863.589392	2450.252827
863.901869	2448.664863
864.214303	2448.488423
864.526696	2456.856738
864.839045	2456.428240
865.151353	2464.620115
865.463619	2453.075873
865.775842	2455.823302
866.088023	2451.261058
866.400162	2449.673094
866.712258	2447.177723
867.024313	2455.546038
867.336325	2450.706531
867.648296	2456.024948
867.960224	2453.378342
868.272110	2449.874740
868.583954	2447.833073
868.895755	2452.420523
869.207515	2457.663323
869.519233	2458.696760
869.830909	2450.530090
870.142542	2444.783175
870.454134	2447.883485
870.765684	2452.622169
871.077191	2452.143260
871.388657	2450.756942
871.700081	2448.488423
872.011463	2449.395831
872.322803	2450.706531
872.634101	2451.664350
872.945357	2449.547065
873.256571	2456.226594
873.567744	2448.816098
873.878874	2456.251800
874.189963	2452.143260
874.501010	2456.024948
874.812015	2455.394804
875.122979	2455.772890
875.433900	2455.218363
875.744780	2448.236365
876.055618	2440.599017
876.366415	2449.673094
876.677169	2439.792433
876.987882	2458.293467
877.298554	2453.000256
877.609183	2452.193671
877.919771	2456.100565
878.230317	2446.270315
878.540822	2452.521346
878.851285	2439.187494
879.161707	2456.655092
879.472087	2451.059412
879.782425	2449.244596
880.092722	2459.200875
880.402977	2447.051694
880.713191	2453.731223
881.023363	2452.823815
881.333494	2457.713735
881.643583	2453.227108
881.953631	2448.942127
882.263637	2444.455500
882.573602	2451.009000
882.883526	2449.950358
883.193408	2454.739454
883.503248	2451.739967
883.813048	2443.850562
884.122806	2452.722992
884.432522	2460.032665
884.742197	2449.017744
885.051831	2456.629887
885.361424	2452.647375
885.670975	2446.497167
885.980485	2450.706531
886.289954	2455.546038
886.599382	2452.294494
886.908768	2444.127825
887.218113	2447.606221
887.527417	2447.581015
887.836680	2441.960129
888.145901	2450.983794
888.455082	2451.714762
888.764221	2452.773404
889.073319	2445.413319
889.382376	2446.976077
889.691392	2451.765173
890.000366	2445.413319
890.309300	2450.731737
890.618193	2451.059412
890.927044	2446.018258
891.235855	2453.302725
891.544625	2456.982767
891.853353	2445.085644
892.162041	2451.538321
892.470687	2449.950358
892.779293	2446.850048
893.087858	2448.715275
893.396381	2444.001796
893.704864	2463.939560
894.013306	2451.639144
894.321707	2451.790379
894.630068	2454.941100
894.938387	2459.780608
895.246665	2452.470935
895.554903	2451.588733
895.863100	2451.135029
896.171256	2446.320727
896.479371	2446.219904
896.787446	2445.967846
897.095480	2450.378856
897.403473	2452.722992
897.711425	2449.647888
898.019336	2451.966819
898.327207	2447.051694
898.635038	2448.916921
898.942827	2446.824842
899.250576	2449.622683
899.558284	2446.320727
899.865952	2444.304265
900.173579	2444.455500
900.481165	2449.547065
900.788711	2443.094388
901.096216	2456.327417
901.403681	2450.378856
901.711105	2451.034206
902.018489	2454.210133
902.325832	2453.101079
902.633135	2454.260544
902.940397	2443.497681
903.247619	2451.084617
903.554800	2454.008487
903.861941	2448.765687
904.169041	2449.093362
904.476101	2455.898919
904.783121	2451.437498
905.090100	2448.211160
905.397039	2441.556837
905.703938	2454.991512
906.010796	2447.328958
906.317614	2442.413833
906.624391	2438.254881
906.931129	2452.496140
907.237826	2450.404062
907.544483	2444.102619
907.851099	2447.404575
908.157675	2452.798610
908.464211	2450.328444
908.770707	2450.152004
909.077163	2455.546038
909.383578	2446.623196
909.689954	2450.076387
909.996289	2446.976077
910.302584	2447.228135
910.608839	2453.000256
910.915054	2452.092848
911.221229	2455.067129
911.527363	2448.589246
911.833458	2449.874740
912.139513	2453.151490
912.445527	2450.983794
912.751502	2458.797583
913.057436	2454.739454
913.363331	2444.354677
913.669186	2447.908690
913.975000	2447.303752
914.280775	2456.907150
914.586510	2449.748712
914.892205	2459.856225
915.197859	2455.974537
915.503475	2444.732763
915.809050	2447.354163
916.114585	2456.377829
916.420081	2453.655606
916.725536	2448.337188
917.030952	2456.755915
917.336328	2451.412292
917.641665	2452.143260
917.946961	2446.396344
918.252218	2448.916921
918.557435	2448.690069
918.862612	2448.438012
919.167750	2459.704990
919.472848	2450.958588
919.777906	2444.127825
920.082925	2448.362394
920.387904	2444.757969
920.692843	2445.993052
920.997743	2455.697273
921.302603	2449.320213
921.607423	2444.909204
921.912204	2450.782148
922.216946	2442.716302
922.521647	2445.967846
922.826310	2446.824842
923.130932	2452.924638
923.435516	2450.832560
923.740059	2454.109310
924.044564	2440.649429
924.349028	2446.698813
924.653454	2450.681325
924.957840	2443.170006
925.262186	2440.800663
925.566493	2443.623710
925.870761	2447.076900
926.174989	2442.086158
926.479178	2454.008487
926.783328	2451.462704
927.087438	2460.234312
927.391509	2442.439038
927.695541	2450.025975
927.999533	2452.244083
928.303486	2452.042437
928.607400	2459.654579
928.911275	2445.463731
929.215110	2458.318673
929.518906	2451.689556
929.822663	2449.118567
930.126381	2449.622683
930.430060	2445.085644
930.733699	2461.267748
931.037299	2453.176696
931.340861	2451.916408
931.644383	2445.665377
931.947866	2444.253854
932.251309	2447.530604
932.554714	2457.486883
932.858080	2445.539348
933.161407	2447.026488
933.464694	2446.371138
933.767943	2448.690069
934.071153	2447.253340
934.374323	2450.227621
934.677455	2443.422063
934.980548	2452.042437
935.283602	2451.916408
935.586617	2451.336675
935.889593	2447.202929
936.192530	2451.563527
936.495428	2444.581529
936.798287	2445.035233
937.101108	2453.781635
937.403890	2447.429781
937.706632	2452.697787
938.009336	2445.085644
938.312002	2451.336675
938.614628	2445.867023
938.917216	2453.680812
939.219765	2451.034206
939.522275	2446.497167
939.824747	2444.052208
940.127179	2450.782148
940.429573	2445.892229
940.731929	2449.975563
941.034246	2450.782148
941.336524	2449.824329
941.638763	2441.481219
941.940964	2455.772890
942.243126	2437.902000
942.545250	2451.009000
942.847335	2446.320727
943.149381	2450.101592
943.451389	2450.051181
943.753359	2451.160235
944.055290	2449.219390
944.357182	2440.523400
944.659036	2444.934410
944.960851	2450.580502
945.262628	2444.883998
945.564367	2442.313010
945.866067	2453.932869
946.167729	2446.043463
946.469352	2450.706531
946.770937	2454.084104
947.072484	2449.799123
947.373992	2452.042437
947.675462	2454.134515
947.976893	2444.001796
948.278286	2456.579475
948.579641	2442.287804
948.880958	2444.077413
949.182236	2447.177723
949.483476	2456.982767
949.784678	2448.740481
950.085841	2448.488423
950.386967	2447.530604
950.688054	2446.900460
950.989103	2447.026488
951.290114	2451.588733
951.591087	2454.184927
951.892021	2451.286263
952.192917	2448.387600
952.493776	2451.941613
952.794596	2452.269288
953.095378	2449.168979
953.396122	2453.983281
953.696828	2441.405602
953.997496	2453.353137
954.298126	2458.117027
954.598718	2451.765173
954.899272	2440.271342
955.199788	2446.522373
955.500266	2454.915894
955.800706	2456.781121
956.101108	2450.681325
956.401472	2445.438525
956.701798	2444.757969
957.002087	2448.311983
957.302337	2449.521860
957.602550	2445.867023
957.902724	2454.159721
958.202861	2450.530090
958.502960	2448.564040
958.803022	2453.806840
959.103045	2454.411779
959.403031	2448.866510
959.702979	2447.253340
960.002889	2453.756429
960.302762	2449.421037
960.602596	2447.581015
960.902393	2445.161262
961.202153	2446.799637
961.501875	2452.294494
961.801559	2448.690069
962.101205	2449.017744
962.400814	2451.084617
962.700385	2447.202929
962.999918	2444.606735
963.299414	2437.725560
963.598873	2439.515169
963.898293	2448.337188
964.197677	2446.572785
964.497022	2456.957562
964.796331	2456.201388
965.095601	2449.017744
965.394835	2454.638631
965.694030	2446.724019
965.993189	2453.680812
966.292309	2445.917435
966.591393	2446.471962
966.890439	2454.033692
967.189447	2453.000256
967.488419	2444.682352
967.787353	2452.521346
968.086249	2444.077413
968.385108	2442.035746
968.683930	2452.420523
968.982714	2442.489450
969.281462	2448.211160
969.580172	2447.908690
969.878844	2443.245623
970.177480	2444.379883
970.476078	2445.060438
970.774639	2445.892229
971.073162	2447.681838
971.371649	2441.077927
971.670098	2450.630913
971.968510	2445.362908
972.266885	2450.857765
972.565223	2447.707044
972.863524	2449.597477
973.161788	2445.110850
973.460014	2448.488423
973.758204	2453.907663
974.056356	2446.446756
974.354471	2443.195212
974.652550	2454.386573
974.950591	2451.992025
975.248595	2451.311469
975.546563	2446.950871
975.844493	2447.253340
976.142386	2445.337702
976.440243	2444.102619
976.738062	2442.640685
977.035845	2441.456013
977.333590	2444.228648
977.631299	2449.017744
977.928971	2452.218877
978.226606	2438.204469
978.524204	2446.169492
978.821765	2438.204469
979.119290	2444.657146
979.416777	2449.093362
979.714228	2446.169492
980.011642	2445.085644
980.309020	2449.975563
980.606360	2443.774944
980.903664	2449.295008
981.200931	2452.798610
981.498162	2459.326904
981.795356	2448.034719
982.092513	2449.723506
982.389633	2445.262085
982.686717	2451.387087
982.983764	2453.706017
983.280775	2448.362394
983.577749	2447.278546
983.874686	2448.362394
984.171587	2442.565067
984.468451	2447.656633
984.765279	2450.126798
985.062070	2446.850048
985.358824	2453.227108
985.655543	2448.387600
985.952224	2445.362908
986.248869	2446.623196
986.545478	2447.354163
986.842050	2441.355190
987.138586	2439.842844
987.435086	2447.707044
987.731549	2447.631427
988.027975	2450.983794
988.324366	2453.025462
988.620719	2451.361881
988.917037	2443.951385
989.213318	2452.244083
989.509563	2448.488423
989.805772	2455.369598
990.101944	2440.094902
990.398080	2446.320727
990.694180	2445.312496
990.990244	2454.915894
991.286271	2454.285750
991.582262	2445.362908
991.878217	2445.740994
992.174136	2452.596963
992.470019	2450.076387
992.765865	2447.581015
993.061676	2444.783175
993.357450	2442.968360
993.653188	2442.716302
993.948890	2436.994592
994.244556	2453.050667
994.540186	2439.817638
994.835780	2449.824329
995.131337	2449.446242
995.426859	2443.573298
995.722345	2445.993052
996.017795	2437.952412
996.313208	2450.530090
996.608586	2442.691096
996.903928	2450.152004
997.199234	2448.614452
997.494504	2448.085131
997.789738	2446.421550
998.084936	2444.707558
998.380099	2441.934923
998.675225	2453.403548
998.970316	2446.900460
999.265371	2447.656633
999.560390	2445.967846
999.855373	2443.951385
1000.150320	2446.547579
1000.445232	2445.438525
1000.740108	2441.582042
1001.034948	2460.511575
1001.329752	2442.313010
1001.624521	2446.547579
1001.919254	2446.043463
1002.213951	2448.387600
1002.508613	2449.899946
1002.803239	2451.865996
1003.097829	2451.992025
1003.392384	2447.177723
1003.686903	2442.539862
1003.981386	2447.429781
1004.275834	2441.229162
1004.570246	2440.750252
1004.864623	2453.176696
1005.158964	2452.143260
1005.453270	2453.655606
1005.747540	2447.606221
1006.041775	2445.186467
1006.335974	2443.170006
1006.630138	2442.943154
1006.924266	2443.623710
1007.218359	2446.522373
1007.512416	2436.792946
1007.806438	2440.876281
1008.100425	2442.817125
1008.394376	2445.564554
1008.688292	2445.690583
1008.982172	2444.984821
1009.276017	2449.370625
1009.569827	2446.799637
1009.863602	2451.513115
1010.157341	2442.741508
1010.451045	2451.992025
1010.744714	2450.807354
1011.038347	2441.909717
1011.331945	2439.464758
1011.625508	2445.337702
1011.919036	2451.966819
1012.212528	2447.555810
1012.505986	2447.480192
1012.799408	2449.597477
1013.092795	2445.740994
1013.386147	2449.496654
1013.679464	2443.220417
1013.972745	2450.807354
1014.265992	2442.514656
1014.559204	2452.546552
1014.852380	2441.733277
1015.145521	2447.707044
1015.438628	2445.060438
1015.731699	2437.977617
1016.024736	2445.010027
1016.317737	2444.984821
1016.610703	2443.522887
1016.903635	2446.875254
1017.196531	2445.211673
1017.489393	2451.941613
1017.782219	2455.571244
1018.075011	2448.463217
1018.367768	2441.355190
1018.660490	2454.613425
1018.953177	2454.613425
1019.245829	2454.613425
