Dividing Wavelength (nm)	Counts (n)	Slit_number_40_of_a_total_of_40	
326.493990	2143.414596
326.888308	2143.414596
327.282561	2143.414596
327.676750	2107.286327
328.070874	2113.923846
328.464933	2115.184135
328.858929	2116.108346
329.252859	2138.709519
329.646726	2142.742442
330.040528	2179.458846
330.434265	2200.127577
330.827938	2201.471885
331.221547	2229.282250
331.615091	2262.301808
332.008571	2274.820673
332.401986	2295.909500
332.795338	2307.000038
333.188625	2337.415000
333.581847	2340.019596
333.975006	2370.182500
334.368100	2387.574481
334.761129	2401.689712
335.154095	2424.290885
335.546996	2438.826212
335.939833	2454.453788
336.332606	2460.083077
336.725315	2469.829308
337.117960	2489.993923
337.510540	2495.623212
337.903056	2512.931173
338.295508	2504.613269
338.687896	2513.015192
339.080220	2513.771365
339.472480	2536.288519
339.864676	2534.944212
340.256807	2531.499423
340.648875	2542.169865
341.040879	2537.968904
341.432818	2517.720269
341.824694	2544.690442
342.216506	2551.075904
342.608253	2530.659231
342.999937	2541.833788
343.391557	2534.020000
343.783113	2525.786115
344.174605	2532.675692
344.566033	2538.220962
344.957397	2537.884885
345.348697	2526.038173
345.739934	2532.087558
346.131106	2531.079327
346.522215	2531.247365
346.913260	2523.769654
347.304241	2512.427058
347.695159	2517.216154
348.086012	2509.906481
348.476802	2507.721981
348.867528	2510.914712
349.258191	2501.756615
349.648789	2504.445231
350.039324	2503.773077
350.429796	2515.871846
350.820203	2516.712038
351.210548	2499.236038
351.600828	2511.502846
351.991045	2512.763135
352.381198	2517.216154
352.771288	2495.623212
353.161314	2507.133846
353.551276	2492.346462
353.941175	2508.562173
354.331010	2497.807712
354.720782	2520.156827
355.110490	2515.535769
355.500135	2511.586865
355.889717	2520.913000
356.279235	2503.521019
356.668689	2518.812519
357.058080	2514.023423
357.447408	2507.553942
357.836672	2511.754904
358.225873	2513.771365
358.615010	2508.226096
359.004084	2509.822462
359.393095	2512.175000
359.782043	2502.428769
360.170927	2507.133846
360.559748	2495.959288
360.948505	2506.965808
361.337199	2506.545712
361.725830	2515.619788
362.114398	2505.285423
362.502903	2505.285423
362.891344	2522.005250
363.279722	2513.603327
363.668037	2507.217865
364.056289	2529.314923
364.444478	2517.300173
364.832603	2516.796058
365.220665	2513.183231
365.608665	2532.003538
365.996601	2518.728500
366.384474	2505.117385
366.772284	2527.886596
367.160031	2523.937692
367.547715	2522.005250
367.935336	2509.906481
368.322893	2529.398942
368.710388	2511.334808
369.097820	2538.977135
369.485189	2515.031654
369.872495	2525.197981
370.259738	2497.723692
370.646918	2508.646192
371.034035	2524.021712
371.421090	2513.519308
371.808081	2512.763135
372.195010	2534.440096
372.581875	2509.234327
372.968678	2514.191462
373.355418	2527.298462
373.742096	2517.552231
374.128710	2503.521019
374.515262	2525.197981
374.901751	2518.056346
375.288177	2518.980558
375.674540	2511.166769
376.060841	2531.583442
376.447079	2519.904769
376.833254	2526.038173
377.219367	2529.735019
377.605417	2526.290231
377.991404	2522.677404
378.377329	2530.743250
378.763191	2544.690442
379.148991	2526.794346
379.534727	2539.229192
379.920402	2535.700385
380.306013	2514.779596
380.691563	2510.326577
381.077049	2528.558750
381.462474	2529.566981
381.847835	2542.673981
382.233134	2512.595096
382.618371	2523.853673
383.003545	2536.960673
383.388657	2514.359500
383.773706	2534.356077
384.158693	2531.751481
384.543618	2520.660942
384.928480	2526.542288
385.313280	2529.230904
385.698017	2525.954154
386.082692	2529.482962
386.467305	2522.089269
386.851856	2532.843731
387.236344	2531.247365
387.620770	2522.341327
388.005133	2532.759712
388.389435	2531.751481
388.773674	2526.206212
389.157851	2531.667462
389.541965	2540.489481
389.926018	2511.670885
390.310008	2515.283712
390.693936	2540.069385
391.077802	2541.749769
391.461606	2536.372538
391.845348	2533.767942
392.229027	2513.603327
392.612645	2550.319731
392.996200	2543.346135
393.379694	2532.255596
393.763125	2545.110538
394.146494	2530.239135
394.529801	2542.505942
394.913047	2534.440096
395.296230	2537.380769
395.679351	2530.239135
396.062410	2534.776173
396.445408	2542.505942
396.828343	2538.725077
397.211217	2545.110538
397.594028	2518.812519
397.976778	2527.802577
398.359466	2540.153404
398.742092	2551.916096
399.124656	2534.440096
399.507158	2545.278577
399.889598	2530.071096
400.271977	2538.641058
400.654294	2537.128712
401.036549	2548.303269
401.418742	2533.347846
401.800874	2534.860192
402.182944	2547.631115
402.564952	2541.749769
402.946898	2552.840308
403.328783	2532.927750
403.710606	2528.726788
404.092367	2522.929462
404.474067	2533.011769
404.855705	2539.817327
405.237282	2521.333096
405.618797	2540.321442
406.000250	2525.954154
406.381642	2544.102308
406.762972	2545.866712
407.144240	2529.314923
407.525447	2529.566981
407.906593	2538.977135
408.287677	2523.601615
408.668700	2533.851962
409.049661	2533.935981
409.430560	2534.272058
409.811399	2535.112250
410.192176	2556.453135
410.572891	2558.049500
410.953545	2528.642769
411.334138	2561.074192
411.714669	2532.927750
412.095139	2526.038173
412.475547	2541.917808
412.855894	2546.202788
413.236180	2543.430154
413.616405	2549.059442
413.996568	2536.960673
414.376670	2530.239135
414.756711	2544.354365
415.136691	2542.421923
415.516609	2539.901346
415.896466	2538.473019
416.276262	2555.024808
416.655997	2549.647577
417.035670	2547.715135
417.415283	2535.532346
417.794834	2563.006635
418.174324	2530.743250
418.553753	2555.192846
418.933121	2537.632827
419.312428	2541.833788
419.691674	2542.337904
420.070859	2557.293327
420.449983	2542.337904
420.829045	2546.958962
421.208047	2527.634538
421.586988	2537.632827
421.965867	2537.128712
422.344686	2538.389000
422.723444	2550.571788
423.102141	2548.975423
423.480777	2554.268635
423.859352	2536.120481
424.237866	2546.622885
424.616319	2555.360885
424.994712	2548.807385
425.373044	2550.319731
425.751314	2551.496000
426.129524	2538.641058
426.507673	2555.528923
426.885762	2534.692154
427.263789	2543.094077
427.641756	2539.397231
428.019662	2545.866712
428.397508	2542.085846
428.775292	2544.438385
429.153016	2537.464788
429.530679	2558.973712
429.908282	2546.118769
430.285824	2543.346135
430.663305	2536.204500
431.040726	2542.926038
431.418086	2535.616365
431.795385	2538.809096
432.172624	2561.746346
432.549802	2550.151692
432.926920	2538.473019
433.303977	2546.034750
433.680974	2546.118769
434.057910	2559.561846
434.434786	2544.858481
434.811601	2549.983654
435.188355	2555.192846
435.565050	2559.309788
435.941683	2549.311500
436.318257	2555.444904
436.694770	2540.741538
437.071222	2550.823846
437.447614	2547.295038
437.823946	2553.596481
438.200218	2540.909577
438.576429	2548.639346
438.952580	2549.899635
439.328670	2551.496000
439.704700	2544.102308
440.080670	2556.453135
440.456580	2549.815615
440.832429	2567.375635
441.208218	2540.069385
441.583947	2551.748058
441.959616	2537.548808
442.335224	2553.260404
442.710773	2548.975423
443.086261	2543.934269
443.461689	2558.049500
443.837057	2554.184615
444.212365	2537.044692
444.587612	2562.838596
444.962800	2549.899635
445.337927	2545.446615
445.712995	2565.863288
446.088002	2549.899635
446.462949	2546.622885
446.837837	2563.258692
447.212664	2555.024808
447.587431	2550.655808
447.962139	2572.668846
448.336786	2549.983654
448.711374	2556.705192
449.085901	2565.695250
449.460369	2545.194558
449.834776	2568.887981
450.209124	2565.359173
450.583412	2547.883173
450.957640	2567.207596
451.331808	2547.631115
451.705917	2566.199365
452.079965	2549.143462
452.453954	2549.479538
452.827883	2553.428442
453.201752	2539.985365
453.575562	2546.118769
453.949311	2557.209308
454.323001	2555.024808
454.696632	2550.151692
455.070202	2553.932558
455.443713	2545.698673
455.817164	2562.922615
456.190556	2548.471308
456.563888	2547.631115
456.937160	2553.848538
457.310373	2542.169865
457.683526	2550.739827
458.056619	2559.141750
458.429653	2550.151692
458.802628	2553.344423
459.175542	2563.258692
459.548398	2558.469596
459.921194	2562.418500
460.293930	2560.822135
460.666607	2553.008346
461.039224	2555.696962
461.411782	2548.051212
461.784280	2561.578308
462.156719	2549.563558
462.529099	2555.949019
462.901419	2543.598192
463.273680	2554.604712
463.645882	2551.748058
464.018024	2550.151692
464.390106	2548.219250
464.762130	2560.654096
465.134094	2554.856769
465.505999	2567.711712
465.877845	2547.883173
466.249631	2560.654096
466.621358	2549.059442
466.993026	2545.530635
467.364634	2585.019673
467.736184	2558.805673
468.107674	2552.336192
468.479105	2550.571788
468.850477	2556.957250
469.221790	2554.184615
469.593043	2552.672269
469.964238	2564.771038
470.335373	2557.797442
470.706449	2560.065962
471.077467	2556.705192
471.448425	2558.721654
471.819324	2561.074192
472.190164	2571.324538
472.560945	2553.512462
472.931667	2556.537154
473.302330	2566.619462
473.672934	2553.344423
474.043479	2565.947308
474.413965	2558.301558
474.784393	2549.311500
475.154761	2558.217538
475.525070	2554.520692
475.895321	2562.250462
476.265513	2550.571788
476.635645	2559.225769
477.005719	2556.201077
477.375734	2552.000115
477.745691	2570.400327
478.115588	2557.797442
478.485427	2552.588250
478.855207	2562.418500
479.224928	2549.647577
479.594591	2561.494288
479.964194	2565.275154
480.333739	2555.865000
480.703226	2542.926038
481.072653	2556.537154
481.442022	2552.000115
481.811333	2566.619462
482.180584	2546.790923
482.549777	2557.461365
482.918912	2556.033038
483.287988	2561.242231
483.657005	2555.444904
484.025964	2548.471308
484.394864	2561.494288
484.763706	2560.738115
485.132489	2567.291615
485.501213	2565.863288
485.869879	2548.555327
486.238487	2538.473019
486.607036	2544.186327
486.975527	2557.293327
487.343959	2559.645865
487.712333	2560.065962
488.080648	2548.975423
488.448905	2565.275154
488.817104	2558.301558
489.185244	2552.504231
489.553326	2553.176385
489.921350	2568.467885
490.289315	2565.107115
490.657222	2571.240519
491.025070	2564.434962
491.392861	2568.467885
491.760593	2564.434962
492.128267	2575.021385
492.495883	2550.739827
492.863440	2535.952442
493.230939	2558.553615
493.598380	2557.209308
493.965763	2546.706904
494.333088	2562.502519
494.700354	2561.746346
495.067563	2562.922615
495.434713	2558.385577
495.801805	2564.855058
496.168839	2567.543673
496.535815	2567.711712
496.902733	2554.268635
497.269593	2555.024808
497.636395	2566.283385
498.003139	2564.014865
498.369825	2556.369115
498.736453	2570.232288
499.103023	2556.537154
499.469535	2563.258692
499.835989	2549.059442
500.202385	2545.110538
500.568723	2550.907865
500.935003	2574.433250
501.301226	2556.537154
501.667390	2552.252173
502.033497	2568.803962
502.399546	2560.822135
502.765537	2543.262115
503.131470	2568.047788
503.497345	2560.486058
503.863163	2568.719942
504.228923	2566.199365
504.594625	2567.879750
504.960269	2564.098885
505.325856	2558.637635
505.691385	2564.687019
506.056856	2542.253885
506.422270	2564.098885
506.787625	2566.367404
507.152924	2563.174673
507.518164	2549.815615
507.883347	2552.000115
508.248472	2562.082423
508.613540	2565.191135
508.978550	2552.504231
509.343503	2557.209308
509.708398	2566.787500
510.073236	2555.444904
510.438016	2561.998404
510.802738	2581.322827
511.167403	2568.383865
511.532010	2548.135231
511.896561	2548.891404
512.261053	2563.258692
512.625488	2556.369115
512.989866	2567.543673
513.354186	2559.561846
513.718449	2563.594769
514.082655	2566.955538
514.446803	2562.670558
514.810894	2557.881462
515.174927	2566.535442
515.538904	2567.123577
515.902822	2551.748058
516.266684	2563.342712
516.630488	2549.899635
516.994235	2562.082423
517.357925	2554.352654
517.721558	2562.334481
518.085133	2575.273442
518.448651	2579.138327
518.812112	2563.678788
519.175516	2560.065962
519.538863	2559.141750
519.902152	2575.021385
520.265385	2574.265212
520.628560	2563.594769
520.991678	2556.705192
521.354739	2554.184615
521.717743	2557.713423
522.080690	2573.425019
522.443580	2568.887981
522.806413	2560.234000
523.169189	2574.769327
523.531908	2571.408558
523.894569	2551.916096
524.257174	2575.189423
524.619722	2561.494288
524.982213	2567.711712
525.344647	2561.326250
525.707025	2564.603000
526.069345	2570.064250
526.431608	2550.907865
526.793815	2568.299846
527.155964	2578.466173
527.518057	2551.327962
527.880093	2552.420212
528.242072	2566.199365
528.603995	2545.026519
528.965860	2553.344423
529.327669	2575.609519
529.689421	2566.955538
530.051117	2573.088942
530.412755	2551.748058
530.774337	2577.373923
531.135862	2566.283385
531.497331	2571.156500
531.858743	2540.993596
532.220098	2580.314596
532.581396	2577.878038
532.942638	2558.889692
533.303824	2545.530635
533.664953	2563.342712
534.026025	2555.696962
534.387040	2552.672269
534.747999	2569.812192
535.108902	2560.738115
535.469748	2548.051212
535.830537	2567.207596
536.191270	2565.443192
536.551947	2563.006635
536.912567	2565.023096
537.273131	2566.787500
537.633638	2571.072481
537.994089	2560.486058
538.354483	2562.418500
538.714821	2559.057731
539.075103	2554.436673
539.435328	2565.863288
539.795497	2554.436673
540.155609	2555.612942
540.515665	2562.922615
540.875665	2568.719942
541.235609	2560.402038
541.595496	2568.887981
541.955328	2549.479538
542.315102	2571.576596
542.674821	2567.375635
543.034483	2576.701769
543.394090	2566.703481
543.753640	2562.166442
544.113134	2562.922615
544.472571	2564.603000
544.831953	2561.914385
545.191278	2558.553615
545.550548	2579.222346
545.909761	2560.065962
546.268918	2567.459654
546.628019	2569.560135
546.987064	2549.479538
547.346053	2577.289904
547.704986	2582.835173
548.063863	2552.840308
548.422684	2560.486058
548.781449	2558.217538
549.140158	2562.670558
549.498811	2555.276865
549.857408	2568.887981
550.215949	2568.551904
550.574434	2577.373923
550.932864	2567.795731
551.291237	2548.639346
551.649555	2561.578308
552.007817	2556.873231
552.366022	2569.896212
552.724173	2563.342712
553.082267	2548.135231
553.440305	2557.209308
553.798288	2564.939077
554.156215	2571.156500
554.514086	2565.863288
554.871902	2561.914385
555.229661	2555.949019
555.587365	2553.344423
555.945014	2555.360885
556.302606	2566.451423
556.660143	2557.797442
557.017625	2573.593058
557.375050	2554.184615
557.732421	2547.883173
558.089735	2561.410269
558.446994	2576.113635
558.804197	2566.199365
559.161345	2571.072481
559.518437	2562.754577
559.875474	2562.250462
560.232455	2562.502519
560.589381	2560.486058
560.946251	2573.845115
561.303065	2552.252173
561.659825	2557.965481
562.016528	2554.688731
562.373177	2548.723365
562.729770	2555.360885
563.086307	2571.240519
563.442789	2572.920904
563.799216	2548.135231
564.155587	2558.301558
564.511904	2562.334481
564.868164	2572.080712
565.224370	2572.668846
565.580520	2555.696962
565.936615	2549.563558
566.292654	2564.014865
566.648638	2559.057731
567.004567	2566.199365
567.360441	2574.097173
567.716260	2558.301558
568.072023	2566.283385
568.427732	2564.350942
568.783385	2569.644154
569.138982	2559.897923
569.494525	2564.771038
569.850013	2563.594769
570.205445	2566.955538
570.560823	2559.309788
570.916145	2558.805673
571.271412	2569.812192
571.626625	2574.181192
571.981782	2567.459654
572.336884	2563.090654
572.691931	2574.769327
573.046923	2550.571788
573.401860	2552.420212
573.756743	2567.963769
574.111570	2570.232288
574.466342	2548.639346
574.821059	2565.611231
575.175722	2554.688731
575.530330	2565.359173
575.884882	2578.802250
576.239380	2565.779269
576.593823	2574.601288
576.948211	2577.541962
577.302544	2579.138327
577.656823	2577.037846
578.011047	2553.176385
578.365216	2573.425019
578.719330	2569.392096
579.073389	2561.746346
579.427394	2567.879750
579.781344	2565.191135
580.135239	2560.234000
580.489080	2583.003212
580.842866	2555.108827
581.196597	2555.108827
581.550273	2567.039558
581.903895	2544.102308
582.257463	2552.588250
582.610975	2549.815615
582.964434	2568.047788
583.317837	2569.056019
583.671186	2555.276865
584.024481	2576.029615
584.377721	2562.586538
584.730906	2574.265212
585.084037	2559.981942
585.437113	2576.953827
585.790135	2565.107115
586.143103	2570.988462
586.496016	2565.023096
586.848874	2563.426731
587.201679	2578.550192
587.554428	2560.065962
587.907124	2567.627692
588.259765	2554.856769
588.612352	2563.258692
588.964884	2538.977135
589.317362	2559.561846
589.669786	2555.780981
590.022155	2571.324538
590.374470	2545.866712
590.726731	2569.224058
591.078937	2548.303269
591.431090	2576.281673
591.783188	2555.612942
592.135232	2564.518981
592.487222	2560.570077
592.839157	2556.285096
593.191038	2553.764519
593.542866	2552.084135
593.894639	2554.268635
594.246358	2565.611231
594.598022	2568.635923
594.949633	2566.115346
595.301190	2573.761096
595.652692	2560.065962
596.004141	2557.041269
596.355535	2563.930846
596.706876	2579.138327
597.058162	2565.443192
597.409395	2558.301558
597.760573	2556.453135
598.111698	2556.117058
598.462768	2574.349231
598.813785	2584.599577
599.164748	2568.467885
599.515657	2563.594769
599.866511	2562.670558
600.217312	2574.265212
600.568060	2576.869808
600.918753	2573.845115
601.269392	2559.309788
601.619978	2566.451423
601.970510	2560.318019
602.320988	2557.293327
602.671412	2575.945596
603.021783	2556.789212
603.372100	2571.156500
603.722363	2560.738115
604.072572	2567.879750
604.422728	2571.072481
604.772830	2568.635923
605.122878	2559.645865
605.472872	2580.062538
605.822813	2563.846827
606.172701	2540.993596
606.522534	2567.879750
606.872314	2547.883173
607.222041	2569.980231
607.571714	2572.080712
607.921333	2554.100596
608.270899	2566.619462
608.620411	2571.576596
608.969870	2561.746346
609.319276	2561.578308
609.668627	2561.158212
610.017926	2565.947308
610.367171	2565.359173
610.716362	2557.713423
611.065500	2563.342712
611.414585	2560.486058
611.763616	2559.729885
612.112594	2567.207596
612.461518	2555.192846
612.810389	2568.803962
613.159207	2561.494288
613.507971	2564.518981
613.856682	2547.967192
614.205340	2564.350942
614.553945	2567.291615
614.902496	2569.896212
615.250994	2560.402038
615.599439	2565.443192
615.947830	2571.156500
616.296169	2556.705192
616.644454	2554.436673
616.992686	2563.762808
617.340864	2571.660615
617.688990	2571.156500
618.037063	2565.191135
618.385082	2578.130096
618.733048	2569.224058
619.080961	2569.140038
619.428821	2563.426731
619.776628	2568.299846
620.124382	2573.088942
620.472083	2555.192846
620.819731	2570.316308
621.167326	2569.896212
621.514868	2570.820423
621.862357	2577.541962
622.209793	2562.166442
622.557176	2557.629404
622.904506	2566.031327
623.251783	2570.484346
623.599007	2583.003212
623.946179	2558.049500
624.293297	2560.149981
624.640363	2557.377346
624.987376	2563.258692
625.334336	2553.932558
625.681243	2561.662327
626.028097	2566.703481
626.374899	2554.772750
626.721647	2557.125288
627.068343	2569.728173
627.414987	2570.736404
627.761577	2567.039558
628.108115	2564.603000
628.454600	2565.275154
628.801032	2558.889692
629.147412	2556.369115
629.493739	2551.832077
629.840014	2559.225769
630.186236	2555.612942
630.532405	2560.990173
630.878521	2555.444904
631.224585	2558.553615
631.570597	2557.125288
631.916556	2589.388673
632.262462	2572.584827
632.608316	2560.402038
632.954117	2566.619462
633.299866	2571.240519
633.645562	2554.436673
633.991206	2569.308077
634.336797	2580.734692
634.682336	2564.939077
635.027823	2555.024808
635.373257	2567.291615
635.718639	2567.039558
636.063968	2554.436673
636.409245	2570.904442
636.754470	2545.782692
637.099642	2574.013154
637.444762	2565.611231
637.789829	2560.318019
638.134845	2562.166442
638.479808	2585.691827
638.824719	2558.637635
639.169577	2560.738115
639.514383	2565.443192
639.859137	2551.748058
640.203839	2579.306365
640.548489	2566.367404
640.893086	2552.840308
641.237632	2563.342712
641.582125	2558.217538
641.926566	2548.891404
642.270955	2563.342712
642.615292	2577.373923
642.959576	2573.845115
643.303809	2564.518981
643.647990	2572.752865
643.992118	2546.370827
644.336195	2564.350942
644.680219	2559.309788
645.024192	2551.411981
645.368112	2574.601288
645.711981	2575.945596
646.055797	2563.342712
646.399562	2564.098885
646.743274	2564.518981
647.086935	2562.670558
647.430544	2557.545385
647.774101	2555.108827
648.117606	2559.981942
648.461059	2561.830365
648.804460	2581.070769
649.147810	2577.121865
649.491108	2561.998404
649.834354	2567.123577
650.177548	2567.795731
650.520690	2554.604712
650.863781	2567.963769
651.206820	2562.166442
651.549807	2556.957250
651.892742	2563.258692
652.235626	2557.377346
652.578458	2560.570077
652.921238	2559.225769
653.263967	2544.774462
653.606644	2566.619462
653.949269	2573.593058
654.291843	2550.823846
654.634365	2568.803962
654.976836	2561.914385
655.319255	2561.746346
655.661622	2552.000115
656.003938	2565.191135
656.346203	2549.563558
656.688416	2565.443192
657.030577	2558.889692
657.372687	2550.319731
657.714746	2557.629404
658.056753	2565.443192
658.398708	2568.803962
658.740612	2540.489481
659.082465	2562.082423
659.424266	2567.627692
659.766016	2565.863288
660.107715	2556.453135
660.449362	2543.934269
660.790958	2571.996692
661.132503	2560.234000
661.473996	2561.494288
661.815438	2553.008346
662.156829	2559.393808
662.498168	2568.719942
662.839456	2571.996692
663.180693	2562.922615
663.521879	2564.518981
663.863013	2553.932558
664.204097	2556.705192
664.545129	2559.309788
664.886110	2554.604712
665.227040	2564.182904
665.567918	2564.939077
665.908746	2564.939077
666.249522	2566.283385
666.590248	2567.795731
666.930922	2558.721654
667.271545	2566.619462
667.612118	2559.141750
667.952639	2562.922615
668.293109	2554.772750
668.633528	2580.146558
668.973896	2552.420212
669.314213	2567.459654
669.654480	2566.283385
669.994695	2552.336192
670.334859	2569.812192
670.674973	2550.487769
671.015035	2544.774462
671.355047	2550.235712
671.695008	2563.930846
672.034918	2567.291615
672.374777	2557.545385
672.714585	2556.957250
673.054342	2572.584827
673.394049	2559.813904
673.733705	2563.174673
674.073310	2558.217538
674.412864	2563.090654
674.752368	2552.504231
675.091820	2558.469596
675.431223	2563.258692
675.770574	2552.420212
676.109875	2556.705192
676.449125	2559.981942
676.788324	2552.420212
677.127473	2574.097173
677.466571	2557.965481
677.805619	2550.487769
678.144616	2556.705192
678.483562	2564.939077
678.822458	2572.080712
679.161303	2564.434962
679.500098	2549.815615
679.838842	2543.178096
680.177535	2546.874942
680.516179	2551.243942
680.854771	2567.207596
681.193314	2555.024808
681.531805	2556.621173
681.870247	2557.629404
682.208638	2569.560135
682.546978	2559.141750
682.885268	2571.660615
683.223508	2554.604712
683.561697	2563.846827
683.899836	2583.507327
684.237925	2558.385577
684.575963	2551.243942
684.913951	2554.688731
685.251889	2561.830365
685.589776	2563.342712
685.927614	2568.383865
686.265401	2573.088942
686.603137	2544.438385
686.940824	2568.803962
687.278460	2567.459654
687.616046	2560.486058
687.953582	2565.023096
688.291068	2567.627692
688.628504	2562.502519
688.965889	2554.352654
689.303224	2557.041269
689.640510	2571.240519
689.977745	2568.972000
690.314930	2561.326250
690.652065	2570.148269
690.989150	2570.484346
691.326185	2550.067673
691.663170	2560.486058
692.000105	2555.360885
692.336990	2568.719942
692.673825	2569.056019
693.010610	2560.570077
693.347345	2566.031327
693.684030	2563.594769
694.020665	2557.797442
694.357251	2554.772750
694.693786	2564.014865
695.030272	2552.756288
695.366707	2561.998404
695.703093	2573.341000
696.039429	2558.553615
696.375716	2558.637635
696.711952	2556.705192
697.048139	2557.545385
697.384276	2556.033038
697.720363	2550.571788
698.056400	2571.744635
698.392388	2565.275154
698.728326	2576.869808
699.064214	2557.965481
699.400053	2562.418500
699.735842	2563.258692
700.071581	2554.352654
700.407270	2561.746346
700.742910	2556.705192
701.078501	2556.285096
701.414042	2559.813904
701.749533	2563.762808
702.084974	2566.031327
702.420366	2557.209308
702.755709	2562.586538
703.091002	2562.166442
703.426246	2561.830365
703.761440	2544.102308
704.096584	2547.631115
704.431679	2556.873231
704.766725	2558.973712
705.101721	2549.395519
705.436668	2556.957250
705.771565	2560.402038
706.106413	2569.728173
706.441212	2542.589962
706.775961	2558.385577
707.110661	2562.586538
707.445311	2563.006635
707.779913	2557.545385
708.114465	2572.164731
708.448967	2553.596481
708.783421	2559.981942
709.117825	2547.127000
709.452180	2564.771038
709.786485	2577.289904
710.120742	2554.352654
710.454949	2561.242231
710.789107	2553.092365
711.123216	2559.057731
711.457275	2557.293327
711.791286	2558.133519
712.125247	2565.023096
712.459159	2572.248750
712.793023	2563.846827
713.126837	2561.998404
713.460602	2560.402038
713.794318	2561.494288
714.127985	2576.533731
714.461602	2558.805673
714.795171	2551.580019
715.128691	2561.410269
715.462162	2558.889692
715.795584	2560.570077
716.128957	2561.158212
716.462281	2562.082423
716.795556	2551.411981
717.128782	2552.504231
717.461960	2563.426731
717.795088	2553.848538
718.128167	2565.947308
718.461198	2569.140038
718.794180	2551.243942
719.127113	2556.033038
719.459997	2566.535442
719.792833	2566.115346
720.125619	2569.140038
720.458357	2554.856769
720.791046	2558.973712
721.123686	2557.881462
721.456278	2563.510750
721.788821	2562.502519
722.121315	2547.967192
722.453761	2557.377346
722.786158	2549.899635
723.118506	2549.899635
723.450805	2560.149981
723.783056	2557.545385
724.115259	2563.510750
724.447412	2556.453135
724.779518	2557.041269
725.111574	2568.719942
725.443582	2573.509038
725.775542	2568.803962
726.107453	2554.268635
726.439315	2539.901346
726.771129	2591.741212
727.102895	2551.411981
727.434612	2564.098885
727.766281	2560.318019
728.097901	2566.703481
728.429473	2565.611231
728.760996	2577.794019
729.092471	2556.201077
729.423897	2562.586538
729.755276	2544.522404
730.086606	2557.209308
730.417887	2550.907865
730.749120	2552.756288
731.080305	2572.416788
731.411442	2547.799154
731.742530	2552.336192
732.073570	2558.721654
732.404562	2547.799154
732.735506	2554.436673
733.066401	2549.815615
733.397249	2560.906154
733.728048	2550.487769
734.058798	2562.670558
734.389501	2556.201077
734.720156	2543.766231
735.050762	2559.729885
735.381320	2558.385577
735.711831	2560.570077
736.042293	2563.930846
736.372707	2568.215827
736.703073	2570.484346
737.033391	2559.393808
737.363661	2552.336192
737.693883	2554.772750
738.024056	2562.754577
738.354182	2567.039558
738.684260	2563.342712
739.014290	2560.318019
739.344272	2566.199365
739.674207	2549.983654
740.004093	2552.420212
740.333931	2556.537154
740.663722	2565.779269
740.993464	2568.047788
741.323159	2559.477827
741.652806	2559.393808
741.982405	2563.090654
742.311956	2552.252173
742.641460	2563.762808
742.970915	2558.217538
743.300323	2560.234000
743.629683	2544.018288
743.958996	2561.578308
744.288260	2571.156500
744.617477	2549.395519
744.946647	2557.965481
745.275768	2567.795731
745.604842	2567.711712
745.933869	2559.225769
746.262847	2561.326250
746.591778	2549.143462
746.920662	2552.420212
747.249498	2560.738115
747.578286	2557.461365
747.907027	2564.266923
748.235720	2565.275154
748.564365	2568.551904
748.892963	2559.393808
749.221514	2563.174673
749.550017	2552.336192
749.878473	2556.537154
750.206881	2560.570077
750.535242	2558.805673
750.863555	2561.662327
751.191821	2564.434962
751.520039	2554.520692
751.848210	2571.156500
752.176334	2562.166442
752.504411	2559.225769
752.832440	2561.074192
753.160421	2553.932558
753.488356	2570.904442
753.816243	2553.596481
754.144082	2568.719942
754.471875	2566.031327
754.799620	2553.092365
755.127318	2551.748058
755.454969	2561.578308
755.782572	2552.336192
756.110129	2557.041269
756.437638	2550.907865
756.765100	2552.084135
757.092515	2558.721654
757.419882	2552.756288
757.747203	2559.477827
758.074477	2559.309788
758.401703	2559.225769
758.728882	2567.039558
759.056014	2544.858481
759.383099	2557.797442
759.710138	2558.217538
760.037129	2542.253885
760.364073	2571.996692
760.690970	2575.945596
761.017820	2553.764519
761.344623	2555.360885
761.671379	2543.766231
761.998088	2563.594769
762.324751	2567.291615
762.651366	2553.932558
762.977935	2551.916096
763.304456	2574.433250
763.630931	2547.042981
763.957359	2558.133519
764.283740	2550.487769
764.610074	2554.184615
764.936362	2553.344423
765.262602	2568.047788
765.588796	2551.243942
765.914943	2564.266923
766.241044	2552.336192
766.567097	2570.064250
766.893104	2568.551904
767.219064	2566.199365
767.544978	2569.560135
767.870845	2562.502519
768.196665	2549.899635
768.522438	2565.275154
768.848165	2563.174673
769.173846	2541.161635
769.499479	2568.635923
769.825066	2550.235712
770.150607	2551.411981
770.476101	2563.174673
770.801548	2548.807385
771.126949	2554.184615
771.452303	2560.486058
771.777611	2559.477827
772.102872	2562.838596
772.428087	2541.329673
772.753256	2565.863288
773.078378	2559.729885
773.403453	2573.929135
773.728482	2566.451423
774.053465	2546.538865
774.378401	2574.433250
774.703291	2566.787500
775.028135	2562.754577
775.352932	2551.496000
775.677683	2553.092365
776.002388	2552.000115
776.327046	2571.660615
776.651658	2539.229192
776.976224	2549.815615
777.300743	2552.336192
777.625216	2553.260404
777.949643	2554.436673
778.274024	2558.301558
778.598359	2555.024808
778.922647	2565.527212
779.246889	2566.535442
779.571086	2554.352654
779.895236	2546.790923
780.219339	2548.723365
780.543397	2554.016577
780.867409	2553.764519
781.191374	2562.502519
781.515294	2555.865000
781.839167	2555.360885
782.162995	2565.023096
782.486776	2556.789212
782.810511	2564.855058
783.134201	2555.696962
783.457844	2544.438385
783.781441	2543.682212
784.104993	2566.115346
784.428498	2566.955538
784.751958	2563.846827
785.075372	2578.970288
785.398739	2574.769327
785.722061	2564.855058
786.045337	2546.286808
786.368568	2567.291615
786.691752	2550.823846
787.014891	2551.411981
787.337983	2572.164731
787.661030	2561.410269
787.984031	2553.596481
788.306987	2559.561846
788.629897	2559.897923
788.952760	2574.769327
789.275579	2569.644154
789.598351	2552.420212
789.921078	2570.064250
790.243759	2548.051212
790.566395	2550.571788
790.888984	2567.123577
791.211529	2559.057731
791.534027	2548.135231
791.856480	2554.352654
792.178888	2570.736404
792.501249	2554.604712
792.823566	2545.278577
793.145836	2556.621173
793.468062	2562.166442
793.790241	2552.924327
794.112375	2553.428442
794.434464	2553.008346
794.756507	2552.168154
795.078505	2567.795731
795.400457	2560.402038
795.722364	2562.082423
796.044226	2564.098885
796.366042	2545.278577
796.687812	2564.855058
797.009538	2569.140038
797.331218	2541.833788
797.652852	2566.787500
797.974442	2558.469596
798.295986	2564.687019
798.617484	2551.748058
798.938938	2561.746346
799.260346	2551.411981
799.581709	2558.973712
799.903026	2560.906154
800.224299	2561.410269
800.545526	2562.250462
800.866708	2554.268635
801.187845	2568.972000
801.508936	2559.645865
801.829983	2569.728173
802.150984	2549.059442
802.471940	2577.878038
802.792851	2563.258692
803.113717	2551.159923
803.434538	2556.369115
803.755314	2557.965481
804.076045	2555.024808
804.396731	2543.010058
804.717372	2549.395519
805.037967	2552.084135
805.358518	2563.594769
805.679024	2546.202788
805.999485	2566.199365
806.319901	2548.807385
806.640272	2560.234000
806.960598	2554.688731
807.280879	2553.428442
807.601115	2563.174673
807.921306	2551.243942
808.241453	2555.865000
808.561554	2550.067673
808.881611	2563.594769
809.201623	2558.469596
809.521590	2550.067673
809.841513	2563.342712
810.161390	2561.158212
810.481223	2559.393808
810.801011	2559.981942
811.120755	2548.807385
811.440453	2556.789212
811.760107	2544.438385
812.079716	2557.629404
812.399281	2568.215827
812.718801	2557.881462
813.038276	2557.713423
813.357707	2545.782692
813.677093	2563.510750
813.996434	2547.883173
814.315731	2554.268635
814.634983	2562.502519
814.954191	2559.141750
815.273354	2566.703481
815.592473	2552.672269
815.911547	2558.469596
816.230577	2562.334481
816.549562	2552.840308
816.868502	2548.219250
817.187399	2549.143462
817.506250	2545.530635
817.825058	2563.930846
818.143821	2549.227481
818.462539	2570.400327
818.781213	2557.125288
819.099843	2556.453135
819.418429	2558.553615
819.736970	2559.561846
820.055466	2568.887981
820.373919	2553.596481
820.692327	2551.243942
821.010691	2557.965481
821.329011	2543.850250
821.647286	2558.385577
821.965517	2555.696962
822.283704	2547.295038
822.601847	2565.023096
822.919945	2569.308077
823.237999	2560.234000
823.556010	2566.283385
823.873976	2558.385577
824.191897	2542.505942
824.509775	2579.138327
824.827609	2566.199365
825.145398	2562.166442
825.463144	2552.840308
825.780845	2556.621173
826.098502	2550.319731
826.416116	2553.932558
826.733685	2549.899635
827.051210	2551.327962
827.368692	2546.034750
827.686129	2550.907865
828.003522	2561.410269
828.320872	2557.545385
828.638177	2547.379058
828.955439	2554.268635
829.272656	2538.304981
829.589830	2552.756288
829.906960	2556.873231
830.224046	2557.209308
830.541088	2562.670558
830.858086	2556.369115
831.175041	2572.080712
831.491952	2552.588250
831.808819	2561.494288
832.125642	2558.049500
832.442421	2539.145173
832.759157	2555.528923
833.075849	2571.408558
833.392497	2564.182904
833.709101	2576.365692
834.025662	2557.377346
834.342179	2574.181192
834.658653	2561.578308
834.975083	2555.865000
835.291469	2572.752865
835.607811	2554.688731
835.924110	2569.560135
836.240366	2558.133519
836.556578	2557.545385
836.872746	2573.088942
837.188871	2562.334481
837.504952	2574.181192
837.820990	2570.820423
838.136984	2566.367404
838.452935	2558.049500
838.768842	2561.494288
839.084706	2564.182904
839.400526	2558.889692
839.716303	2568.047788
840.032037	2554.436673
840.347727	2561.410269
840.663373	2554.856769
840.978977	2560.822135
841.294537	2559.813904
841.610054	2575.861577
841.925527	2545.278577
842.240957	2559.981942
842.556344	2541.581731
842.871687	2556.453135
843.186987	2561.914385
843.502244	2553.008346
843.817458	2566.283385
844.132629	2556.705192
844.447756	2558.553615
844.762840	2551.243942
845.077881	2550.823846
845.392879	2562.250462
845.707833	2576.785788
846.022745	2561.746346
846.337613	2568.299846
846.652438	2567.459654
846.967221	2562.418500
847.281960	2563.426731
847.596656	2558.301558
847.911309	2546.958962
848.225919	2569.560135
848.540485	2554.856769
848.855009	2560.486058
849.169490	2543.766231
849.483928	2550.151692
849.798323	2559.477827
850.112675	2553.428442
850.426984	2554.688731
850.741251	2571.744635
851.055474	2554.016577
851.369654	2555.696962
851.683792	2556.957250
851.997887	2561.578308
852.311938	2573.172962
852.625947	2551.327962
852.939914	2545.614654
853.253837	2544.774462
853.567718	2554.268635
853.881555	2568.972000
854.195350	2568.803962
854.509103	2552.252173
854.822812	2550.151692
855.136479	2558.805673
855.450103	2551.411981
855.763685	2543.010058
856.077224	2557.629404
856.390720	2560.065962
856.704173	2536.204500
857.017584	2548.051212
857.330953	2545.110538
857.644278	2551.496000
857.957561	2570.064250
858.270802	2559.225769
858.584000	2551.327962
858.897155	2562.586538
859.210268	2553.344423
859.523339	2549.731596
859.836367	2552.336192
860.149352	2555.528923
860.462295	2547.211019
860.775195	2548.639346
861.088054	2563.930846
861.400869	2542.253885
861.713642	2560.906154
862.026373	2548.219250
862.339062	2549.815615
862.651708	2543.010058
862.964312	2556.369115
863.276873	2546.874942
863.589392	2540.657519
863.901869	2571.324538
864.214303	2562.418500
864.526696	2553.680500
864.839045	2548.471308
865.151353	2545.110538
865.463619	2549.647577
865.775842	2543.682212
866.088023	2552.840308
866.400162	2568.719942
866.712258	2565.275154
867.024313	2559.393808
867.336325	2559.561846
867.648296	2553.848538
867.960224	2550.151692
868.272110	2550.571788
868.583954	2557.713423
868.895755	2552.084135
869.207515	2564.939077
869.519233	2562.502519
869.830909	2551.748058
870.142542	2556.957250
870.454134	2561.914385
870.765684	2543.934269
871.077191	2562.334481
871.388657	2561.830365
871.700081	2562.418500
872.011463	2539.229192
872.322803	2560.906154
872.634101	2553.428442
872.945357	2564.098885
873.256571	2553.092365
873.567744	2548.723365
873.878874	2555.024808
874.189963	2548.051212
874.501010	2556.033038
874.812015	2540.069385
875.122979	2557.629404
875.433900	2549.479538
875.744780	2556.285096
876.055618	2549.899635
876.366415	2557.125288
876.677169	2555.696962
876.987882	2535.952442
877.298554	2572.080712
877.609183	2559.981942
877.919771	2560.234000
878.230317	2551.075904
878.540822	2554.520692
878.851285	2560.822135
879.161707	2556.957250
879.472087	2561.662327
879.782425	2560.738115
880.092722	2547.547096
880.402977	2561.074192
880.713191	2569.812192
881.023363	2541.749769
881.333494	2530.407173
881.643583	2555.528923
881.953631	2554.688731
882.263637	2555.360885
882.573602	2563.510750
882.883526	2567.795731
883.193408	2546.538865
883.503248	2558.133519
883.813048	2558.721654
884.122806	2565.443192
884.432522	2565.695250
884.742197	2555.949019
885.051831	2550.487769
885.361424	2554.604712
885.670975	2564.182904
885.980485	2551.159923
886.289954	2539.313212
886.599382	2544.354365
886.908768	2554.184615
887.218113	2559.477827
887.527417	2541.413692
887.836680	2559.309788
888.145901	2544.186327
888.455082	2565.779269
888.764221	2544.438385
889.073319	2566.871519
889.382376	2557.293327
889.691392	2555.865000
890.000366	2545.362596
890.309300	2549.647577
890.618193	2546.118769
890.927044	2543.514173
891.235855	2560.738115
891.544625	2549.899635
891.853353	2571.660615
892.162041	2568.299846
892.470687	2540.909577
892.779293	2567.627692
893.087858	2556.369115
893.396381	2552.168154
893.704864	2565.443192
894.013306	2561.914385
894.321707	2552.588250
894.630068	2569.728173
894.938387	2569.140038
895.246665	2555.360885
895.554903	2556.957250
895.863100	2580.398615
896.171256	2559.645865
896.479371	2546.286808
896.787446	2555.696962
897.095480	2548.387288
897.403473	2547.127000
897.711425	2555.696962
898.019336	2558.049500
898.327207	2565.191135
898.635038	2548.891404
898.942827	2536.204500
899.250576	2564.350942
899.558284	2542.589962
899.865952	2554.016577
900.173579	2550.319731
900.481165	2561.746346
900.788711	2550.655808
901.096216	2558.973712
901.403681	2558.469596
901.711105	2556.369115
902.018489	2551.411981
902.325832	2546.790923
902.633135	2572.332769
902.940397	2556.621173
903.247619	2559.477827
903.554800	2559.897923
903.861941	2542.926038
904.169041	2558.889692
904.476101	2551.664038
904.783121	2562.166442
905.090100	2553.428442
905.397039	2552.756288
905.703938	2540.909577
906.010796	2544.438385
906.317614	2567.207596
906.624391	2550.487769
906.931129	2553.764519
907.237826	2550.991885
907.544483	2551.159923
907.851099	2542.505942
908.157675	2550.907865
908.464211	2551.832077
908.770707	2566.955538
909.077163	2551.748058
909.383578	2563.426731
909.689954	2550.991885
909.996289	2557.629404
910.302584	2541.245654
910.608839	2560.318019
910.915054	2557.293327
911.221229	2550.823846
911.527363	2560.318019
911.833458	2556.285096
912.139513	2559.141750
912.445527	2552.420212
912.751502	2558.133519
913.057436	2543.934269
913.363331	2551.327962
913.669186	2546.874942
913.975000	2536.120481
914.280775	2559.729885
914.586510	2552.000115
914.892205	2561.662327
915.197859	2551.664038
915.503475	2546.706904
915.809050	2538.893115
916.114585	2562.754577
916.420081	2564.098885
916.725536	2541.749769
917.030952	2555.024808
917.336328	2568.215827
917.641665	2551.832077
917.946961	2565.443192
918.252218	2564.098885
918.557435	2545.614654
918.862612	2552.084135
919.167750	2555.360885
919.472848	2545.446615
919.777906	2556.789212
920.082925	2556.285096
920.387904	2554.016577
920.692843	2547.547096
920.997743	2574.685308
921.302603	2566.871519
921.607423	2554.184615
921.912204	2549.983654
922.216946	2547.379058
922.521647	2548.891404
922.826310	2547.463077
923.130932	2556.789212
923.435516	2558.553615
923.740059	2558.721654
924.044564	2561.326250
924.349028	2552.336192
924.653454	2556.201077
924.957840	2560.654096
925.262186	2565.443192
925.566493	2560.654096
925.870761	2549.815615
926.174989	2554.016577
926.479178	2558.553615
926.783328	2554.268635
927.087438	2553.344423
927.391509	2531.163346
927.695541	2569.728173
927.999533	2565.191135
928.303486	2550.067673
928.607400	2543.094077
928.911275	2541.581731
929.215110	2549.731596
929.518906	2552.840308
929.822663	2557.041269
930.126381	2552.756288
930.430060	2554.520692
930.733699	2550.151692
931.037299	2561.914385
931.340861	2544.270346
931.644383	2562.082423
931.947866	2550.655808
932.251309	2544.522404
932.554714	2563.510750
932.858080	2545.782692
933.161407	2559.813904
933.464694	2545.026519
933.767943	2550.487769
934.071153	2554.520692
934.374323	2561.410269
934.677455	2557.293327
934.980548	2564.350942
935.283602	2543.514173
935.586617	2563.342712
935.889593	2542.253885
936.192530	2551.496000
936.495428	2546.958962
936.798287	2545.950731
937.101108	2559.393808
937.403890	2556.537154
937.706632	2553.764519
938.009336	2550.655808
938.312002	2544.606423
938.614628	2552.504231
938.917216	2559.309788
939.219765	2554.772750
939.522275	2559.225769
939.824747	2553.512462
940.127179	2560.906154
940.429573	2560.738115
940.731929	2556.621173
941.034246	2560.149981
941.336524	2553.932558
941.638763	2539.649288
941.940964	2553.596481
942.243126	2553.512462
942.545250	2558.301558
942.847335	2555.276865
943.149381	2549.227481
943.451389	2552.336192
943.753359	2566.619462
944.055290	2565.947308
944.357182	2548.051212
944.659036	2540.573500
944.960851	2564.939077
945.262628	2550.907865
945.564367	2543.514173
945.866067	2549.227481
946.167729	2544.270346
946.469352	2548.387288
946.770937	2551.411981
947.072484	2545.278577
947.373992	2559.813904
947.675462	2564.014865
947.976893	2539.985365
948.278286	2557.041269
948.579641	2559.729885
948.880958	2532.255596
949.182236	2556.033038
949.483476	2555.024808
949.784678	2553.932558
950.085841	2555.276865
950.386967	2556.285096
950.688054	2563.342712
950.989103	2540.489481
951.290114	2544.942500
951.591087	2551.832077
951.892021	2548.471308
952.192917	2565.863288
952.493776	2555.780981
952.794596	2562.838596
953.095378	2550.319731
953.396122	2545.446615
953.696828	2544.942500
953.997496	2561.074192
954.298126	2549.983654
954.598718	2556.621173
954.899272	2542.337904
955.199788	2557.629404
955.500266	2573.004923
955.800706	2553.680500
956.101108	2553.176385
956.401472	2545.278577
956.701798	2541.161635
957.002087	2543.850250
957.302337	2552.336192
957.602550	2550.655808
957.902724	2540.321442
958.202861	2551.916096
958.502960	2554.436673
958.803022	2547.883173
959.103045	2553.932558
959.403031	2555.108827
959.702979	2546.370827
960.002889	2558.301558
960.302762	2552.084135
960.602596	2542.926038
960.902393	2542.421923
961.202153	2548.387288
961.501875	2553.428442
961.801559	2547.042981
962.101205	2555.276865
962.400814	2568.215827
962.700385	2569.728173
962.999918	2552.336192
963.299414	2555.108827
963.598873	2557.461365
963.898293	2564.098885
964.197677	2556.621173
964.497022	2541.245654
964.796331	2547.042981
965.095601	2540.321442
965.394835	2544.102308
965.694030	2543.934269
965.993189	2538.389000
966.292309	2552.168154
966.591393	2540.405462
966.890439	2552.672269
967.189447	2544.186327
967.488419	2566.199365
967.787353	2536.540577
968.086249	2546.706904
968.385108	2549.227481
968.683930	2539.229192
968.982714	2554.688731
969.281462	2559.225769
969.580172	2558.469596
969.878844	2543.766231
970.177480	2550.991885
970.476078	2550.991885
970.774639	2549.311500
971.073162	2545.698673
971.371649	2554.436673
971.670098	2556.369115
971.968510	2547.967192
972.266885	2565.359173
972.565223	2550.235712
972.863524	2539.565269
973.161788	2556.705192
973.460014	2555.360885
973.758204	2551.748058
974.056356	2545.530635
974.354471	2556.537154
974.652550	2548.639346
974.950591	2557.881462
975.248595	2542.926038
975.546563	2553.092365
975.844493	2538.304981
976.142386	2561.662327
976.440243	2537.884885
976.738062	2542.253885
977.035845	2563.846827
977.333590	2559.057731
977.631299	2555.276865
977.928971	2556.789212
978.226606	2546.790923
978.524204	2552.588250
978.821765	2563.090654
979.119290	2566.871519
979.416777	2551.496000
979.714228	2548.219250
980.011642	2547.211019
980.309020	2570.064250
980.606360	2551.243942
980.903664	2557.545385
981.200931	2549.395519
981.498162	2555.612942
981.795356	2548.303269
982.092513	2558.805673
982.389633	2551.411981
982.686717	2541.833788
982.983764	2545.698673
983.280775	2551.411981
983.577749	2553.512462
983.874686	2540.573500
984.171587	2547.547096
984.468451	2559.393808
984.765279	2555.192846
985.062070	2550.823846
985.358824	2565.191135
985.655543	2553.260404
985.952224	2561.494288
986.248869	2550.907865
986.545478	2567.963769
986.842050	2534.944212
987.138586	2557.881462
987.435086	2551.075904
987.731549	2562.586538
988.027975	2550.991885
988.324366	2552.672269
988.620719	2561.242231
988.917037	2539.229192
989.213318	2559.309788
989.509563	2543.934269
989.805772	2554.520692
990.101944	2547.715135
990.398080	2537.464788
990.694180	2550.487769
990.990244	2538.893115
991.286271	2564.266923
991.582262	2536.456558
991.878217	2535.448327
992.174136	2566.031327
992.470019	2546.706904
992.765865	2535.868423
993.061676	2572.584827
993.357450	2553.176385
993.653188	2556.453135
993.948890	2537.296750
994.244556	2543.682212
994.540186	2553.344423
994.835780	2561.494288
995.131337	2549.983654
995.426859	2545.782692
995.722345	2561.998404
996.017795	2544.606423
996.313208	2547.127000
996.608586	2545.278577
996.903928	2561.830365
997.199234	2546.118769
997.494504	2558.637635
997.789738	2543.514173
998.084936	2544.690442
998.380099	2549.899635
998.675225	2556.453135
998.970316	2546.958962
999.265371	2555.949019
999.560390	2564.939077
999.855373	2552.756288
1000.150320	2549.395519
1000.445232	2550.655808
1000.740108	2545.698673
1001.034948	2556.621173
1001.329752	2536.876654
1001.624521	2544.690442
1001.919254	2549.647577
1002.213951	2555.360885
1002.508613	2540.405462
1002.803239	2547.295038
1003.097829	2558.469596
1003.392384	2550.739827
1003.686903	2551.664038
1003.981386	2537.128712
1004.275834	2548.303269
1004.570246	2570.568365
1004.864623	2554.688731
1005.158964	2548.975423
1005.453270	2546.706904
1005.747540	2549.983654
1006.041775	2537.632827
1006.335974	2565.191135
1006.630138	2547.127000
1006.924266	2542.085846
1007.218359	2544.438385
1007.512416	2549.143462
1007.806438	2547.799154
1008.100425	2548.807385
1008.394376	2557.965481
1008.688292	2553.008346
1008.982172	2551.243942
1009.276017	2547.631115
1009.569827	2557.629404
1009.863602	2564.182904
1010.157341	2557.377346
1010.451045	2542.421923
1010.744714	2545.026519
1011.038347	2554.436673
1011.331945	2556.621173
1011.625508	2545.950731
1011.919036	2549.143462
1012.212528	2548.639346
1012.505986	2539.817327
1012.799408	2551.664038
1013.092795	2556.033038
1013.386147	2551.916096
1013.679464	2551.243942
1013.972745	2548.807385
1014.265992	2552.000115
1014.559204	2540.741538
1014.852380	2537.632827
1015.145521	2551.832077
1015.438628	2549.059442
1015.731699	2544.186327
1016.024736	2537.800865
1016.317737	2550.487769
1016.610703	2535.700385
1016.903635	2552.084135
1017.196531	2547.631115
1017.489393	2540.321442
1017.782219	2557.797442
1018.075011	2528.726788
1018.367768	2552.756288
1018.660490	2553.260404
1018.953177	2553.260404
1019.245829	2553.260404
