Dividing Wavelength (nm)	Counts (n)	Slit_number_6_of_a_total_of_40	
326.493990	2142.322346
326.888308	2142.322346
327.282561	2142.322346
327.676750	2124.090173
328.070874	2128.543192
328.464933	2127.787019
328.858929	2147.867615
329.252859	2161.814808
329.646726	2171.140942
330.040528	2199.287385
330.434265	2216.847404
330.827938	2232.306942
331.221547	2249.530885
331.615091	2265.158462
332.008571	2288.263750
332.401986	2304.899558
332.795338	2323.215750
333.188625	2344.724673
333.581847	2356.487365
333.975006	2389.170846
334.368100	2395.892385
334.761129	2419.753846
335.154095	2421.434231
335.546996	2451.345077
335.939833	2466.804615
336.332606	2492.094404
336.725315	2495.875269
337.117960	2524.441808
337.510540	2514.779596
337.903056	2534.188038
338.295508	2545.782692
338.687896	2531.163346
339.080220	2554.268635
339.472480	2552.000115
339.864676	2553.008346
340.256807	2569.560135
340.648875	2557.713423
341.040879	2574.265212
341.432818	2540.489481
341.824694	2554.856769
342.216506	2559.393808
342.608253	2563.678788
342.999937	2565.695250
343.391557	2553.260404
343.783113	2559.897923
344.174605	2568.467885
344.566033	2551.664038
344.957397	2558.469596
345.348697	2556.201077
345.739934	2533.011769
346.131106	2546.790923
346.522215	2540.069385
346.913260	2539.061154
347.304241	2534.272058
347.695159	2535.784404
348.086012	2530.995308
348.476802	2537.044692
348.867528	2540.909577
349.258191	2542.421923
349.648789	2542.505942
350.039324	2544.942500
350.429796	2536.876654
350.820203	2540.153404
351.210548	2529.819038
351.600828	2529.398942
351.991045	2533.935981
352.381198	2535.784404
352.771288	2530.575212
353.161314	2539.145173
353.551276	2534.608135
353.941175	2535.868423
354.331010	2537.380769
354.720782	2513.435288
355.110490	2533.515885
355.500135	2526.122192
355.889717	2520.828981
356.279235	2533.599904
356.668689	2524.609846
357.058080	2525.702096
357.447408	2544.522404
357.836672	2535.868423
358.225873	2519.820750
358.615010	2545.782692
359.004084	2540.573500
359.393095	2523.265538
359.782043	2537.548808
360.170927	2537.128712
360.559748	2538.725077
360.948505	2532.591673
361.337199	2533.179808
361.725830	2535.700385
362.114398	2517.216154
362.502903	2534.608135
362.891344	2551.580019
363.279722	2530.491192
363.668037	2532.171577
364.056289	2539.733308
364.444478	2546.958962
364.832603	2535.280288
365.220665	2542.085846
365.608665	2542.589962
365.996601	2540.909577
366.384474	2544.774462
366.772284	2560.402038
367.160031	2551.411981
367.547715	2543.094077
367.935336	2536.792635
368.322893	2563.426731
368.710388	2550.907865
369.097820	2544.438385
369.485189	2534.776173
369.872495	2539.145173
370.259738	2540.909577
370.646918	2538.473019
371.034035	2554.772750
371.421090	2542.169865
371.808081	2552.000115
372.195010	2535.952442
372.581875	2542.169865
372.968678	2536.204500
373.355418	2543.010058
373.742096	2542.253885
374.128710	2534.356077
374.515262	2558.133519
374.901751	2552.672269
375.288177	2536.708615
375.674540	2554.604712
376.060841	2549.647577
376.447079	2558.805673
376.833254	2534.944212
377.219367	2566.031327
377.605417	2555.612942
377.991404	2550.235712
378.377329	2545.782692
378.763191	2564.098885
379.148991	2541.917808
379.534727	2555.528923
379.920402	2544.186327
380.306013	2554.940788
380.691563	2562.082423
381.077049	2554.016577
381.462474	2552.168154
381.847835	2541.413692
382.233134	2538.641058
382.618371	2548.303269
383.003545	2549.983654
383.388657	2548.975423
383.773706	2541.581731
384.158693	2564.434962
384.543618	2552.168154
384.928480	2554.604712
385.313280	2560.402038
385.698017	2546.874942
386.082692	2556.033038
386.467305	2561.074192
386.851856	2559.309788
387.236344	2559.981942
387.620770	2550.571788
388.005133	2562.250462
388.389435	2566.367404
388.773674	2562.670558
389.157851	2566.451423
389.541965	2547.715135
389.926018	2557.125288
390.310008	2570.148269
390.693936	2561.662327
391.077802	2561.410269
391.461606	2559.057731
391.845348	2570.904442
392.229027	2553.512462
392.612645	2547.967192
392.996200	2547.295038
393.379694	2550.739827
393.763125	2554.016577
394.146494	2553.764519
394.529801	2554.772750
394.913047	2552.504231
395.296230	2552.168154
395.679351	2559.309788
396.062410	2565.191135
396.445408	2569.728173
396.828343	2564.771038
397.211217	2560.906154
397.594028	2551.496000
397.976778	2560.402038
398.359466	2555.024808
398.742092	2558.385577
399.124656	2573.341000
399.507158	2576.281673
399.889598	2560.570077
400.271977	2549.143462
400.654294	2572.164731
401.036549	2557.545385
401.418742	2554.268635
401.800874	2567.039558
402.182944	2570.652385
402.564952	2570.400327
402.946898	2552.504231
403.328783	2575.021385
403.710606	2568.887981
404.092367	2558.049500
404.474067	2559.477827
404.855705	2558.469596
405.237282	2572.584827
405.618797	2562.166442
406.000250	2560.654096
406.381642	2570.484346
406.762972	2575.021385
407.144240	2561.746346
407.525447	2571.492577
407.906593	2562.670558
408.287677	2561.410269
408.668700	2561.578308
409.049661	2562.670558
409.430560	2565.779269
409.811399	2553.932558
410.192176	2554.772750
410.572891	2562.250462
410.953545	2570.316308
411.334138	2558.301558
411.714669	2572.164731
412.095139	2566.787500
412.475547	2565.275154
412.855894	2563.342712
413.236180	2572.164731
413.616405	2565.527212
413.996568	2562.754577
414.376670	2558.889692
414.756711	2567.711712
415.136691	2569.392096
415.516609	2572.584827
415.896466	2561.746346
416.276262	2573.929135
416.655997	2569.644154
417.035670	2561.410269
417.415283	2579.894500
417.794834	2568.972000
418.174324	2579.474404
418.553753	2576.869808
418.933121	2554.016577
419.312428	2546.034750
419.691674	2565.779269
420.070859	2579.054308
420.449983	2575.861577
420.829045	2577.625981
421.208047	2574.769327
421.586988	2573.004923
421.965867	2567.207596
422.344686	2562.166442
422.723444	2564.434962
423.102141	2581.406846
423.480777	2572.080712
423.859352	2578.130096
424.237866	2573.761096
424.616319	2584.599577
424.994712	2553.764519
425.373044	2569.140038
425.751314	2565.359173
426.129524	2569.140038
426.507673	2580.986750
426.885762	2565.443192
427.263789	2574.853346
427.641756	2581.742923
428.019662	2573.172962
428.397508	2587.960346
428.775292	2575.105404
429.153016	2580.818712
429.530679	2585.859865
429.908282	2580.062538
430.285824	2559.561846
430.663305	2566.283385
431.040726	2574.685308
431.418086	2574.433250
431.795385	2557.881462
432.172624	2572.416788
432.549802	2567.543673
432.926920	2569.056019
433.303977	2578.886269
433.680974	2588.212404
434.057910	2566.703481
434.434786	2569.728173
434.811601	2575.441481
435.188355	2564.687019
435.565050	2579.222346
435.941683	2568.551904
436.318257	2556.705192
436.694770	2586.952115
437.071222	2579.306365
437.447614	2585.355750
437.823946	2565.527212
438.200218	2577.962058
438.576429	2583.339288
438.952580	2564.518981
439.328670	2574.685308
439.704700	2574.265212
440.080670	2579.390385
440.456580	2577.121865
440.832429	2576.869808
441.208218	2580.314596
441.583947	2580.818712
441.959616	2568.635923
442.335224	2585.103692
442.710773	2581.490865
443.086261	2575.693538
443.461689	2578.886269
443.837057	2580.314596
444.212365	2560.738115
444.587612	2578.970288
444.962800	2581.238808
445.337927	2567.459654
445.712995	2579.138327
446.088002	2597.790596
446.462949	2577.205885
446.837837	2571.996692
447.212664	2574.013154
447.587431	2588.548481
447.962139	2583.087231
448.336786	2578.466173
448.711374	2583.675365
449.085901	2574.097173
449.460369	2564.518981
449.834776	2590.648962
450.209124	2563.090654
450.583412	2578.130096
450.957640	2597.874615
451.331808	2561.914385
451.705917	2581.574885
452.079965	2589.136615
452.453954	2564.771038
452.827883	2581.658904
453.201752	2585.523788
453.575562	2582.247038
453.949311	2577.878038
454.323001	2582.835173
454.696632	2583.087231
455.070202	2578.130096
455.443713	2575.777558
455.817164	2574.769327
456.190556	2573.172962
456.563888	2579.978519
456.937160	2579.054308
457.310373	2584.515558
457.683526	2579.390385
458.056619	2590.396904
458.429653	2579.474404
458.802628	2581.910962
459.175542	2593.505615
459.548398	2574.685308
459.921194	2580.986750
460.293930	2587.960346
460.666607	2591.825231
461.039224	2568.887981
461.411782	2576.617750
461.784280	2591.321115
462.156719	2585.019673
462.529099	2577.205885
462.901419	2582.751154
463.273680	2589.892788
463.645882	2577.541962
464.018024	2575.945596
464.390106	2585.187712
464.762130	2590.985038
465.134094	2574.097173
465.505999	2579.306365
465.877845	2594.765904
466.249631	2589.892788
466.621358	2577.541962
466.993026	2588.632500
467.364634	2608.208981
467.736184	2588.380442
468.107674	2586.700058
468.479105	2585.103692
468.850477	2573.509038
469.221790	2586.111923
469.593043	2582.835173
469.964238	2579.894500
470.335373	2593.169538
470.706449	2586.027904
471.077467	2588.296423
471.448425	2569.644154
471.819324	2582.079000
472.190164	2577.121865
472.560945	2574.181192
472.931667	2586.952115
473.302330	2585.943885
473.672934	2580.398615
474.043479	2576.953827
474.413965	2595.522077
474.784393	2576.449712
475.154761	2592.413365
475.525070	2579.390385
475.895321	2571.744635
476.265513	2578.634212
476.635645	2592.749442
477.005719	2585.523788
477.375734	2583.843404
477.745691	2584.515558
478.115588	2584.431538
478.485427	2589.472692
478.855207	2571.324538
479.224928	2590.144846
479.594591	2582.415077
479.964194	2591.405135
480.333739	2584.515558
480.703226	2588.800538
481.072653	2598.042654
481.442022	2589.724750
481.811333	2591.321115
482.180584	2604.344096
482.549777	2586.111923
482.918912	2589.052596
483.287988	2581.910962
483.657005	2591.825231
484.025964	2597.034423
484.394864	2578.886269
484.763706	2593.421596
485.132489	2599.723038
485.501213	2573.172962
485.869879	2590.312885
486.238487	2584.347519
486.607036	2590.228865
486.975527	2594.261788
487.343959	2589.976808
487.712333	2601.067346
488.080648	2584.683596
488.448905	2578.634212
488.817104	2601.907538
489.185244	2579.474404
489.553326	2602.243615
489.921350	2593.841692
490.289315	2593.925712
490.657222	2593.421596
491.025070	2603.167827
491.392861	2590.564942
491.760593	2587.960346
492.128267	2583.507327
492.495883	2586.448000
492.863440	2598.294712
493.230939	2589.808769
493.598380	2597.706577
493.965763	2582.331058
494.333088	2601.991558
494.700354	2598.798827
495.067563	2589.724750
495.434713	2582.667135
495.801805	2602.999788
496.168839	2601.907538
496.535815	2607.536827
496.902733	2597.706577
497.269593	2606.444577
497.636395	2594.597865
498.003139	2610.309462
498.369825	2607.284769
498.736453	2589.724750
499.103023	2582.163019
499.469535	2611.653769
499.835989	2597.286481
500.202385	2602.411654
500.568723	2606.360558
500.935003	2590.228865
501.301226	2596.110212
501.667390	2613.166115
502.033497	2623.248423
502.399546	2616.442865
502.765537	2608.545058
503.131470	2624.592731
503.497345	2602.411654
503.863163	2598.378731
504.228923	2607.536827
504.594625	2616.190808
504.960269	2605.016250
505.325856	2612.325923
505.691385	2607.620846
506.056856	2618.543346
506.422270	2592.665423
506.787625	2605.268308
507.152924	2621.988135
507.518164	2613.670231
507.883347	2619.887654
508.248472	2600.815288
508.613540	2631.062212
508.978550	2594.849923
509.343503	2612.241904
509.708398	2629.213788
510.073236	2620.139712
510.438016	2634.338962
510.802738	2616.274827
511.167403	2620.727846
511.532010	2619.131481
511.896561	2605.688404
512.261053	2624.508712
512.625488	2616.694923
512.989866	2607.200750
513.354186	2624.844788
513.718449	2615.350615
514.082655	2622.660288
514.446803	2631.314269
514.810894	2622.240192
515.174927	2634.759058
515.538904	2633.162692
515.902822	2629.969962
516.266684	2628.793692
516.630488	2634.422981
516.994235	2620.559808
517.357925	2627.785462
517.721558	2621.400000
518.085133	2626.525173
518.448651	2619.635596
518.812112	2627.281346
519.175516	2633.414750
519.538863	2626.189096
519.902152	2625.264885
520.265385	2625.684981
520.628560	2617.955212
520.991678	2638.035808
521.354739	2625.096846
521.717743	2640.388346
522.080690	2628.625654
522.443580	2645.849596
522.806413	2641.060500
523.169189	2641.396577
523.531908	2644.253231
523.894569	2627.617423
524.257174	2629.885942
524.619722	2631.566327
524.982213	2629.465846
525.344647	2631.818385
525.707025	2641.144519
526.069345	2633.414750
526.431608	2623.836558
526.793815	2629.633885
527.155964	2635.515231
527.518057	2622.072154
527.880093	2621.063923
528.242072	2628.793692
528.603995	2610.981615
528.965860	2639.380115
529.327669	2629.885942
529.689421	2643.497058
530.051117	2630.138000
530.412755	2637.111596
530.774337	2634.507000
531.135862	2639.884231
531.497331	2637.951788
531.858743	2646.773808
532.220098	2633.078673
532.581396	2633.246712
532.942638	2642.404808
533.303824	2651.730942
533.664953	2639.212077
534.026025	2632.574558
534.387040	2645.345481
534.747999	2640.976481
535.108902	2636.103365
535.469748	2649.210365
535.830537	2641.396577
536.191270	2638.203846
536.551947	2635.683269
536.912567	2649.630462
537.273131	2639.800212
537.633638	2640.472365
537.994089	2640.052269
538.354483	2637.867769
538.714821	2647.361942
539.075103	2648.958308
539.435328	2653.831423
539.795497	2635.683269
540.155609	2657.276212
540.515665	2638.371885
540.875665	2642.404808
541.235609	2639.044038
541.595496	2639.464135
541.955328	2644.001173
542.315102	2640.724423
542.674821	2639.800212
543.034483	2634.170923
543.394090	2630.474077
543.753640	2661.141096
544.113134	2630.726135
544.472571	2647.698019
544.831953	2644.085192
545.191278	2641.480596
545.550548	2653.915442
545.909761	2665.258038
546.268918	2657.612288
546.628019	2652.319077
546.987064	2659.376692
547.346053	2652.991231
547.704986	2659.124635
548.063863	2654.251519
548.422684	2654.335538
548.781449	2659.376692
549.140158	2652.907212
549.498811	2661.645212
549.857408	2649.210365
550.215949	2664.921962
550.574434	2652.823192
550.932864	2679.625327
551.291237	2654.839654
551.649555	2661.225115
552.007817	2648.538212
552.366022	2671.559481
552.724173	2676.600635
553.082267	2668.114692
553.440305	2663.577654
553.798288	2679.709346
554.156215	2669.122923
554.514086	2664.501865
554.871902	2671.475462
555.229661	2667.190481
555.587365	2676.768673
555.945014	2674.752212
556.302606	2693.824577
556.660143	2682.818058
557.017625	2699.369846
557.375050	2690.715865
557.732421	2672.399673
558.089735	2679.625327
558.446994	2691.388019
558.804197	2695.673000
559.161345	2693.824577
559.518437	2699.537885
559.875474	2704.411000
560.232455	2703.654827
560.589381	2715.921635
560.946251	2709.872250
561.303065	2708.359904
561.659825	2714.073212
562.016528	2724.071500
562.373177	2719.618481
562.729770	2725.751885
563.086307	2717.602019
563.442789	2732.641462
563.799216	2730.709019
564.155587	2734.237827
564.511904	2746.084538
564.868164	2741.127404
565.224370	2738.102712
565.580520	2755.158615
565.936615	2762.132212
566.292654	2755.494692
566.648638	2757.259096
567.004567	2759.611635
567.360441	2752.890096
567.716260	2771.794423
568.072023	2783.137019
568.427732	2792.883250
568.783385	2790.530712
569.138982	2790.446692
569.494525	2798.176462
569.850013	2801.621250
570.205445	2806.074269
570.560823	2823.466250
570.916145	2820.273519
571.271412	2839.093827
571.626625	2834.892865
571.981782	2854.133269
572.336884	2844.050962
572.691931	2859.174423
573.046923	2870.433000
573.401860	2875.474154
573.756743	2876.818462
574.111570	2899.923750
574.466342	2899.251596
574.821059	2907.401462
575.175722	2911.350365
575.530330	2915.551327
575.884882	2933.783500
576.239380	2934.455654
576.593823	2957.560942
576.948211	2941.261212
577.302544	2966.130904
577.656823	2977.305462
578.011047	2979.489962
578.365216	2990.832558
578.719330	2979.489962
579.073389	2991.672750
579.427394	3003.183385
579.781344	3030.993750
580.135239	3037.379212
580.489080	3059.896365
580.842866	3057.459808
581.196597	3084.850077
581.550273	3099.469423
581.903895	3112.660442
582.257463	3115.181019
582.610975	3128.540077
582.964434	3133.077115
583.317837	3153.073692
583.671186	3165.172462
584.024481	3186.597365
584.377721	3211.887154
584.730906	3212.643327
585.084037	3244.066519
585.437113	3250.620019
585.790135	3270.280519
586.143103	3278.934500
586.496016	3305.652615
586.848874	3301.367635
587.201679	3328.589865
587.554428	3367.574788
587.907124	3373.540154
588.259765	3402.526788
588.612352	3413.953404
588.964884	3420.506904
589.317362	3429.580981
589.669786	3473.943135
590.022155	3490.578942
590.374470	3516.540885
590.726731	3536.621481
591.078937	3544.855365
591.431090	3572.665731
591.783188	3587.873212
592.135232	3621.228846
592.487222	3631.563212
592.839157	3653.828308
593.191038	3689.032365
593.542866	3712.809808
593.894639	3722.976135
594.246358	3745.829365
594.598022	3785.066346
594.949633	3789.351327
595.301190	3812.708673
595.652692	3853.373981
596.004141	3867.405192
596.355535	3863.372269
596.706876	3876.731327
597.058162	3921.681615
597.409395	3959.154192
597.760573	3984.528000
598.111698	4011.330135
598.462768	4042.837346
598.813785	4059.809231
599.164748	4086.527346
599.515657	4131.393615
599.866511	4125.260212
600.217312	4210.455712
600.568060	4172.142942
600.918753	4269.941327
601.269392	4282.208135
601.619978	4289.433788
601.970510	4354.548692
602.320988	4404.120038
602.671412	4455.875885
603.021783	4462.093308
603.372100	4495.448942
603.722363	4541.827558
604.072572	4570.730173
604.422728	4635.677038
604.772830	4655.337538
605.122878	4670.965115
605.472872	4734.231596
605.822813	4777.585519
606.172701	4822.871885
606.522534	4872.107154
606.872314	4946.464173
607.222041	4994.439154
607.571714	5045.102750
607.921333	5036.364750
608.270899	5123.744750
608.620411	5174.240308
608.969870	5211.712885
609.319276	5272.374769
609.668627	5324.046596
610.017926	5379.835365
610.367171	5453.940327
610.716362	5507.964692
611.065500	5560.812788
611.414585	5610.048058
611.763616	5698.772365
612.112594	5700.956865
612.461518	5808.501481
612.810389	5869.835519
613.159207	5915.037865
613.507971	5978.724442
613.856682	6049.552654
614.205340	6121.053019
614.553945	6253.551346
614.902496	6243.469038
615.250994	6353.282173
615.599439	6392.519154
615.947830	6488.721173
616.296169	6528.714327
616.644454	6612.061404
616.992686	6718.093673
617.340864	6780.772019
617.688990	6798.920173
618.037063	6964.270019
618.385082	6977.040942
618.733048	7094.919923
619.080961	7171.713500
619.428821	7208.093827
619.776628	7312.025615
620.124382	7327.485154
620.472083	7388.987231
620.819731	7478.383692
621.167326	7510.815115
621.514868	7565.007519
621.862357	7550.136115
622.209793	7605.672827
622.557176	7659.025038
622.904506	7694.649192
623.251783	7689.103923
623.599007	7712.545288
623.946179	7752.622462
624.293297	7833.364942
624.640363	7797.152654
624.987376	7810.259654
625.334336	7872.601923
625.681243	7868.569000
626.028097	7896.295346
626.374899	7954.856750
626.721647	7990.985019
627.068343	8011.233654
627.414987	8039.632154
627.761577	8069.038885
628.108115	8149.277250
628.454600	8157.427115
628.801032	8225.650731
629.147412	8290.261519
629.493739	8303.620577
629.840014	8299.335596
630.186236	8400.326712
630.532405	8371.172038
630.878521	8477.624404
631.224585	8502.494096
631.570597	8511.148077
631.916556	8540.974904
632.262462	8590.210173
632.608316	8630.959500
632.954117	8694.562058
633.299866	8740.520577
633.645562	8769.255154
633.991206	8730.522288
634.336797	8720.103904
634.682336	8768.414962
635.027823	8786.311058
635.373257	8798.409827
635.718639	8850.333712
636.063968	8845.544615
636.409245	8821.011000
636.754470	8815.633769
637.099642	8830.253115
637.444762	8779.085404
637.789829	8892.427346
638.134845	8872.934885
638.479808	8906.878654
638.824719	8915.112538
639.169577	8871.758615
639.514383	8938.805962
639.859137	8866.549423
640.203839	8975.774423
640.548489	8932.588538
640.893086	9000.224019
641.237632	8997.787462
641.582125	9022.321077
641.926566	9055.844750
642.270955	9093.737423
642.615292	9108.356769
642.959576	9151.206577
643.303809	9175.488135
643.647990	9246.736442
643.992118	9248.920942
644.336195	9265.892827
644.680219	9318.740923
645.024192	9389.065019
645.368112	9471.319846
645.711981	9483.250577
646.055797	9679.939596
646.399562	9652.969423
646.743274	9854.279500
647.086935	9936.786385
647.430544	9939.811077
647.774101	10024.502462
648.117606	10095.582731
648.461059	10180.694212
648.804460	10172.880423
649.147810	10082.139654
649.491108	10143.305654
649.834354	10093.566269
650.177548	9966.697231
650.520690	9937.878635
650.863781	9921.746942
651.206820	9956.026788
651.549807	9858.564481
651.892742	9807.732846
652.235626	9775.721519
652.578458	9767.571654
652.921238	9629.696096
653.263967	9780.678654
653.606644	9703.380962
653.949269	9693.634731
654.291843	9642.383000
654.634365	9747.827135
654.976836	9697.163538
655.319255	9702.540769
655.661622	9737.660808
656.003938	9687.501327
656.346203	9680.359692
656.688416	9761.018154
657.030577	9732.703673
657.372687	9700.692346
657.714746	9770.260269
658.056753	9822.940327
658.398708	9708.674173
658.740612	9701.448519
659.082465	9756.313077
659.424266	9811.681750
659.766016	9808.405000
660.107715	9768.159788
660.449362	9815.378596
660.790958	9830.670096
661.132503	9870.243154
661.473996	9825.460904
661.815438	9876.460577
662.156829	9916.537750
662.498168	9906.371423
662.839456	9917.630000
663.180693	9963.084404
663.521879	9985.097442
663.863013	9980.308346
664.204097	9995.263769
664.545129	10092.390000
664.886110	10087.180808
665.227040	10109.361885
665.567918	10121.796731
665.908746	10163.890365
666.249522	10181.198327
666.590248	10185.063212
666.930922	10228.669192
667.271545	10236.651019
667.612118	10241.860212
667.952639	10208.000462
668.293109	10225.224404
668.633528	10249.253904
668.973896	10185.147231
669.314213	10255.807404
669.654480	10202.539212
669.994695	10225.896558
670.334859	10148.514846
670.674973	10150.531308
671.015035	10208.588596
671.355047	10200.942846
671.695008	10172.292288
672.034918	10180.862250
672.374777	10179.097846
672.714585	10125.661615
673.054342	10128.686308
673.394049	10149.271019
673.733705	10176.493250
674.073310	10132.635212
674.412864	10160.865673
674.752368	10038.113577
675.091820	10153.219923
675.431223	10021.309731
675.770574	10003.497654
676.109875	9984.005192
676.449125	9938.970885
676.788324	9936.618346
677.127473	9794.961923
677.466571	9812.017827
677.805619	9702.120673
678.144616	9723.125481
678.483562	9705.229385
678.822458	9605.582577
679.161303	9634.401173
679.500098	9593.147731
679.838842	9575.671731
680.177535	9574.243404
680.516179	9585.333942
680.854771	9601.801712
681.193314	9759.589827
681.531805	9872.679712
681.870247	10012.067615
682.208638	10207.244288
682.546978	10348.396596
682.885268	10359.487135
683.223508	10268.158231
683.561697	10225.812538
683.899836	10151.875615
684.237925	10032.400269
684.575963	10007.698615
684.913951	9868.982865
685.251889	9881.753788
685.589776	9836.215365
685.927614	9739.425212
686.265401	9746.314788
686.603137	9757.153269
686.940824	9820.671808
687.278460	9844.365231
687.616046	9820.503769
687.953582	9877.720865
688.291068	9837.727712
688.628504	9895.280885
688.965889	9920.822731
689.303224	9855.875865
689.640510	9771.436538
689.977745	9668.933077
690.314930	9533.073981
690.652065	9468.547212
690.989150	9318.824942
691.326185	9128.437365
691.663170	9040.301192
692.000105	8878.480154
692.336990	8737.075788
692.673825	8648.351481
693.010610	8542.655288
693.347345	8402.595231
693.684030	8253.041000
694.020665	8167.593442
694.357251	8002.411635
694.693786	7997.538519
695.030272	7954.100577
695.366707	7804.126250
695.703093	7740.439673
696.039429	7727.584731
696.375716	7626.677635
696.711952	7587.944769
697.048139	7534.508538
697.384276	7446.792462
697.720363	7508.294538
698.056400	7388.903212
698.392388	7350.926519
698.728326	7364.285577
699.064214	7311.773558
699.400053	7299.842827
699.735842	7232.375385
700.071581	7151.464865
700.407270	7105.590365
700.742910	7079.040288
701.078501	7004.095135
701.414042	6934.275154
701.749533	6877.226096
702.084974	6772.034019
702.420366	6823.117712
702.755709	6733.469192
703.091002	6639.367654
703.426246	6639.199615
703.761440	6629.789462
704.096584	6553.415981
704.431679	6493.846346
704.766725	6479.983173
705.101721	6485.780500
705.436668	6481.495519
705.771565	6375.967365
706.106413	6424.950577
706.441212	6419.909423
706.775961	6398.568538
707.110661	6401.089115
707.445311	6467.464308
707.779913	6404.113808
708.114465	6458.642288
708.448967	6489.309308
708.783421	6579.629981
709.117825	6609.624846
709.452180	6612.985615
709.786485	6690.535365
710.120742	6810.514827
710.454949	6769.009327
710.789107	6840.929788
711.123216	6948.054308
711.457275	6971.663712
711.791286	7033.585885
712.125247	7053.498442
712.459159	7011.152750
712.793023	7140.878442
713.126837	6946.205885
713.460602	7001.826615
713.794318	6947.130096
714.127985	6869.328288
714.461602	6726.579615
714.795171	6726.747654
715.128691	6526.445808
715.462162	6441.838442
715.795584	6323.119269
716.128957	6275.648404
716.462281	6201.879519
716.795556	6126.346231
717.128782	6028.715885
717.461960	5893.192865
717.795088	5900.418519
718.128167	5776.994269
718.461198	5693.731212
718.794180	5633.657462
719.127113	5575.936250
719.459997	5527.037058
719.792833	5423.609385
720.125619	5423.693404
720.458357	5317.157019
720.791046	5303.209827
721.123686	5260.276000
721.456278	5188.271519
721.788821	5188.187500
722.121315	5123.072596
722.453761	5134.499212
722.786158	5086.440212
723.118506	5081.819154
723.450805	5060.562288
723.783056	5059.806115
724.115259	5014.939846
724.447412	5011.327019
724.779518	5037.961115
725.111574	5005.445673
725.443582	5031.071538
725.775542	5027.878808
726.107453	5061.234442
726.439315	5043.254327
726.771129	5094.254000
727.102895	5119.795846
727.434612	5160.461154
727.766281	5208.184077
728.097901	5232.465635
728.429473	5261.200212
728.760996	5227.172423
729.092471	5248.429288
729.423897	5194.152865
729.755276	5183.818500
730.086606	5169.115135
730.417887	5223.559596
730.749120	5313.880269
731.080305	5318.165250
731.411442	5376.558615
731.742530	5345.807577
732.073570	5364.963962
732.404562	5412.098750
732.735506	5394.118635
733.066401	5361.771231
733.397249	5305.982462
733.728048	5209.612404
734.058798	5072.577038
734.389501	4949.152788
734.720156	4838.079365
735.050762	4739.524808
735.381320	4655.253519
735.711831	4576.947596
736.042293	4508.808000
736.372707	4504.775077
736.703073	4466.462308
737.033391	4467.806615
737.363661	4431.174231
737.693883	4437.727731
738.024056	4453.187269
738.354182	4488.475346
738.684260	4503.010673
739.014290	4536.534346
739.344272	4549.725365
739.674207	4597.616327
740.004093	4638.449673
740.333931	4639.205846
740.663722	4638.785750
740.993464	4628.955500
741.323159	4605.598154
741.652806	4572.578596
741.982405	4512.504846
742.311956	4459.572731
742.641460	4443.104962
742.970915	4372.024692
743.300323	4324.973923
743.629683	4272.461904
743.958996	4223.898788
744.288260	4191.551385
744.617477	4118.454654
744.946647	4095.433385
745.275768	4055.440231
745.604842	3993.602077
745.933869	3979.906942
746.262847	3942.686423
746.591778	3937.729288
746.920662	3899.836615
747.249498	3900.592788
747.578286	3898.576327
747.907027	3927.058846
748.235720	3936.216942
748.564365	3946.383269
748.892963	3937.981346
749.221514	3927.899038
749.550017	3925.210423
749.878473	3898.408288
750.206881	3863.036192
750.535242	3842.367462
750.863555	3842.955596
751.191821	3803.634596
751.520039	3800.693923
751.848210	3775.236096
752.176334	3787.670942
752.504411	3761.877038
752.832440	3739.527923
753.160421	3743.644865
753.488356	3720.875654
753.816243	3719.279288
754.144082	3695.081750
754.471875	3677.101635
754.799620	3662.230231
755.127318	3647.442846
755.454969	3642.569731
755.782572	3632.739481
756.110129	3630.975077
756.437638	3626.185981
756.765100	3617.868077
757.092515	3614.759365
757.419882	3612.826923
757.747203	3598.879731
758.074477	3607.785769
758.401703	3582.664019
758.728882	3609.802231
759.056014	3620.220615
759.383099	3632.823500
759.710138	3626.606077
760.037129	3641.981596
760.364073	3632.487423
760.690970	3623.077269
761.017820	3635.932212
761.344623	3644.754231
761.671379	3654.080365
761.998088	3663.826596
762.324751	3744.148981
762.651366	3953.188827
762.977935	4316.319942
763.304456	4634.332731
763.630931	4826.148635
763.957359	4773.720635
764.283740	4602.489442
764.610074	4432.770596
764.936362	4214.572654
765.262602	4054.179942
765.588796	3863.792365
765.914943	3743.728885
766.241044	3621.901000
766.567097	3529.227788
766.893104	3464.112885
767.219064	3408.576173
767.544978	3358.416692
767.870845	3328.169769
768.196665	3292.041500
768.522438	3255.745192
768.848165	3239.025365
769.173846	3217.432423
769.499479	3193.486942
769.825066	3174.246538
770.150607	3154.418000
770.476101	3147.612442
770.801548	3136.773962
771.126949	3124.843231
771.452303	3112.324365
771.777611	3079.304808
772.102872	3081.405288
772.428087	3069.390538
772.753256	3043.344577
773.078378	3054.771192
773.403453	3015.366173
773.728482	3006.376115
774.053465	3000.998885
774.378401	3007.636404
774.703291	2985.455327
775.028135	2978.481731
775.352932	2963.778365
775.677683	2964.198462
776.002388	2938.404558
776.327046	2947.394615
776.651658	2932.523212
776.976224	2935.211827
777.300743	2920.844538
777.625216	2914.963192
777.949643	2908.241654
778.274024	2902.528346
778.598359	2914.795154
778.922647	2913.450846
779.246889	2901.940212
779.571086	2901.604135
779.895236	2890.093500
780.219339	2892.866135
780.543397	2903.788635
780.867409	2903.536577
781.191374	2909.754000
781.515294	2908.745769
781.839167	2898.411404
782.162995	2897.655231
782.486776	2896.478962
782.810511	2886.144596
783.134201	2899.587673
783.457844	2872.197404
783.781441	2860.602750
784.104993	2865.727923
784.428498	2856.821885
784.751958	2875.054058
785.075372	2847.159673
785.398739	2844.219000
785.722061	2850.436423
786.045337	2852.788962
786.368568	2850.184365
786.691752	2851.360635
787.014891	2850.604462
787.337983	2881.019423
787.661030	2911.602423
787.984031	2942.857577
788.306987	2966.803058
788.629897	2994.865481
788.952760	2970.499904
789.275579	2965.878846
789.598351	2951.427538
789.921078	2925.381577
790.243759	2899.251596
790.566395	2886.648712
790.888984	2856.149731
791.211529	2855.897673
791.534027	2828.339365
791.856480	2837.497462
792.178888	2815.400404
792.501249	2800.360962
792.823566	2805.486135
793.145836	2801.453212
793.468062	2793.219327
793.790241	2785.993673
794.112375	2789.102385
794.434464	2790.866788
794.756507	2799.268712
795.078505	2798.008423
795.400457	2795.067750
795.722364	2844.975173
796.044226	2859.594519
796.366042	2861.779019
796.687812	2874.045827
797.009538	2890.681635
797.331218	2863.291365
797.652852	2859.426481
797.974442	2842.370577
798.295986	2841.698423
798.617484	2827.919269
798.938938	2825.230654
799.260346	2825.734769
799.581709	2798.764596
799.903026	2812.375712
800.224299	2801.873308
800.545526	2781.456635
800.866708	2788.934346
801.187845	2772.214519
801.508936	2774.651077
801.829983	2778.179885
802.150984	2772.298538
802.471940	2766.921308
802.792851	2750.789615
803.113717	2775.407250
803.434538	2758.015269
803.755314	2748.269038
804.076045	2743.732000
804.396731	2756.334885
804.717372	2749.949423
805.037967	2740.623288
805.358518	2759.275558
805.679024	2765.829058
805.999485	2763.896615
806.319901	2760.031731
806.640272	2747.512865
806.960598	2763.308481
807.280879	2761.376038
807.601115	2778.684000
807.921306	2773.390788
808.241453	2756.586942
808.561554	2760.115750
808.881611	2742.219654
809.201623	2740.791327
809.521590	2754.486462
809.841513	2752.974115
810.161390	2765.997096
810.481223	2729.784808
810.801011	2750.789615
811.120755	2736.590365
811.440453	2738.354769
811.760107	2739.699077
812.079716	2739.447019
812.399281	2736.254288
812.718801	2731.213135
813.038276	2721.634942
813.357707	2720.458673
813.677093	2722.055038
813.996434	2728.356481
814.315731	2711.636654
814.634983	2707.687750
814.954191	2701.722385
815.273354	2710.880481
815.592473	2714.913404
815.911547	2731.045096
816.230577	2715.669577
816.549562	2716.929865
816.868502	2729.448731
817.187399	2734.657923
817.506250	2745.748462
817.825058	2732.809500
818.143821	2731.465192
818.462539	2735.162038
818.781213	2745.076308
819.099843	2773.474808
819.418429	2796.916173
819.736970	2813.551981
820.055466	2858.670308
820.373919	2893.622308
820.692327	2933.867519
821.010691	3025.196423
821.329011	3248.435519
821.647286	3724.152404
821.965517	4503.178712
822.283704	5149.958750
822.601847	5516.870731
822.919945	5305.226288
823.237999	4964.444288
823.556010	4612.655769
823.873976	4297.499635
824.191897	4038.972462
824.509775	3832.369173
824.827609	3630.302923
825.145398	3473.186962
825.463144	3344.133423
825.780845	3294.226000
826.098502	3286.160154
826.416116	3356.652288
826.733685	3499.484981
827.051210	3551.828962
827.368692	3553.761404
827.686129	3455.542923
828.003522	3326.489385
828.320872	3210.290788
828.638177	3126.523615
828.955439	3044.268788
829.272656	2988.396000
829.589830	2925.129519
829.906960	2859.174423
830.224046	2842.370577
830.541088	2793.639423
830.858086	2765.913077
831.175041	2758.939481
831.491952	2742.135635
831.808819	2736.254288
832.125642	2735.330077
832.442421	2756.082827
832.759157	2778.179885
833.075849	2845.395269
833.392497	2922.945019
833.709101	3006.796212
834.025662	3050.906308
834.342179	3035.278731
834.658653	2964.618558
834.975083	2937.648385
835.291469	2889.589385
835.607811	2830.103769
835.924110	2786.497788
836.240366	2776.751558
836.556578	2755.746750
836.872746	2732.725481
837.188871	2719.030346
837.504952	2696.597212
837.820990	2670.467231
838.136984	2688.867442
838.452935	2681.137673
838.768842	2679.289250
839.084706	2655.595827
839.400526	2691.304000
839.716303	2734.237827
840.032037	2768.937769
840.347727	2782.884962
840.663373	2771.878442
840.978977	2754.822538
841.294537	2730.877058
841.610054	2700.882192
841.925527	2695.504962
842.240957	2687.775192
842.556344	2663.157558
842.871687	2644.841365
843.186987	2645.177442
843.502244	2634.254942
843.817458	2649.630462
844.132629	2621.820096
844.447756	2626.609192
844.762840	2621.820096
845.077881	2630.222019
845.392879	2626.609192
845.707833	2615.602673
846.022745	2616.526885
846.337613	2615.434635
846.652438	2608.965154
846.967221	2603.167827
847.281960	2597.034423
847.596656	2608.124962
847.911309	2615.182577
848.225919	2598.798827
848.540485	2604.680173
848.855009	2609.133192
849.169490	2607.872904
849.483928	2612.577981
849.798323	2621.484019
850.112675	2607.200750
850.426984	2614.006308
850.741251	2594.093750
851.055474	2607.452808
851.369654	2614.090327
851.683792	2600.647250
851.997887	2589.976808
852.311938	2598.210692
852.625947	2618.207269
852.939914	2594.597865
853.253837	2610.897596
853.567718	2605.184288
853.881555	2615.938750
854.195350	2611.737788
854.509103	2604.428115
854.822812	2618.459327
855.136479	2598.294712
855.450103	2601.655481
855.763685	2594.009731
856.077224	2606.444577
856.390720	2596.194231
856.704173	2612.241904
857.017584	2599.555000
857.330953	2620.979904
857.644278	2598.210692
857.957561	2621.820096
858.270802	2608.545058
858.584000	2601.739500
858.897155	2589.136615
859.210268	2610.393481
859.523339	2606.864673
859.836367	2605.016250
860.149352	2598.294712
860.462295	2605.520365
860.775195	2607.956923
861.088054	2612.493962
861.400869	2611.905827
861.713642	2603.755962
862.026373	2601.739500
862.339062	2609.385250
862.651708	2595.774135
862.964312	2605.184288
863.276873	2601.487442
863.589392	2614.090327
863.901869	2618.879423
864.214303	2594.261788
864.526696	2608.881135
864.839045	2620.643827
865.151353	2604.260077
865.463619	2614.846500
865.775842	2589.892788
866.088023	2606.108500
866.400162	2613.082096
866.712258	2609.889365
867.024313	2611.317692
867.336325	2618.711385
867.648296	2614.258365
867.960224	2600.479212
868.272110	2618.543346
868.583954	2615.014538
868.895755	2609.301231
869.207515	2602.411654
869.519233	2608.208981
869.830909	2620.475788
870.142542	2614.006308
870.454134	2622.408231
870.765684	2614.762481
871.077191	2622.408231
871.388657	2623.920577
871.700081	2612.409942
872.011463	2616.946981
872.322803	2621.820096
872.634101	2607.620846
872.945357	2620.391769
873.256571	2615.098558
873.567744	2617.031000
873.878874	2610.141423
874.189963	2621.820096
874.501010	2607.284769
874.812015	2618.123250
875.122979	2638.035808
875.433900	2617.283058
875.744780	2613.082096
876.055618	2617.703154
876.366415	2613.082096
876.677169	2615.602673
876.987882	2610.141423
877.298554	2616.778942
877.609183	2626.441154
877.919771	2619.047462
878.230317	2616.862962
878.540822	2632.658577
878.851285	2631.734365
879.161707	2637.111596
879.472087	2642.320788
879.782425	2656.267981
880.092722	2681.389731
880.402977	2755.158615
880.713191	2838.337654
881.023363	3013.937846
881.333494	3138.454346
881.643583	3213.315481
881.953631	3217.852519
882.263637	3156.182404
882.573602	3101.821962
882.883526	3034.942654
883.193408	3027.548962
883.503248	2968.903538
883.813048	2929.246462
884.122806	2894.294462
884.432522	2855.225519
884.742197	2815.988538
885.051831	2784.649365
885.361424	2745.244346
885.670975	2725.835904
885.980485	2705.671288
886.289954	2689.539596
886.599382	2661.057077
886.908768	2656.940135
887.218113	2666.518327
887.527417	2654.083481
887.836680	2663.577654
888.145901	2627.449385
888.455082	2628.205558
888.764221	2621.147942
889.073319	2618.795404
889.382376	2615.266596
889.691392	2611.233673
890.000366	2615.602673
890.309300	2620.391769
890.618193	2615.350615
890.927044	2612.830038
891.235855	2614.762481
891.544625	2614.174346
891.853353	2604.008019
892.162041	2618.627365
892.470687	2631.230250
892.779293	2625.096846
893.087858	2637.783750
893.396381	2639.296096
893.704864	2639.212077
894.013306	2671.643500
894.321707	2685.338635
894.630068	2691.556058
894.938387	2714.913404
895.246665	2703.066692
895.554903	2702.478558
895.863100	2682.313942
896.171256	2680.381500
896.479371	2674.164077
896.787446	2659.712769
897.095480	2657.444250
897.403473	2670.887327
897.711425	2646.689788
898.019336	2631.230250
898.327207	2629.633885
898.635038	2628.037519
898.942827	2617.871192
899.250576	2608.545058
899.558284	2619.131481
899.865952	2621.400000
900.173579	2611.149654
900.481165	2612.998077
900.788711	2610.561519
901.096216	2606.276538
901.403681	2600.647250
901.711105	2606.192519
902.018489	2596.614327
902.325832	2611.485731
902.633135	2608.124962
902.940397	2604.932231
903.247619	2595.942173
903.554800	2640.136288
903.861941	2655.091712
904.169041	2690.211750
904.476101	2720.458673
904.783121	2721.382885
905.090100	2723.147288
905.397039	2705.923346
905.703938	2685.506673
906.010796	2673.912019
906.317614	2645.597538
906.624391	2670.803308
906.931129	2643.329019
907.237826	2648.874288
907.544483	2649.546442
907.851099	2643.413038
908.157675	2622.492250
908.464211	2615.854731
908.770707	2614.930519
909.077163	2616.106788
909.383578	2597.790596
909.689954	2600.983327
909.996289	2601.487442
910.302584	2598.126673
910.608839	2605.352327
910.915054	2583.759385
911.221229	2591.825231
911.527363	2594.597865
911.833458	2595.186000
912.139513	2602.663712
912.445527	2606.024481
912.751502	2591.489154
913.057436	2596.026192
913.363331	2597.454519
913.669186	2608.124962
913.975000	2593.925712
914.280775	2601.655481
914.586510	2609.889365
914.892205	2616.862962
915.197859	2642.320788
915.503475	2660.300904
915.809050	2677.188769
916.114585	2694.916827
916.420081	2668.954885
916.725536	2704.579038
917.030952	2686.262846
917.336328	2680.381500
917.641665	2669.038904
917.946961	2685.674712
918.252218	2659.208654
918.557435	2664.081769
918.862612	2657.108173
919.167750	2655.007692
919.472848	2653.159269
919.777906	2630.558096
920.082925	2626.609192
920.387904	2625.600962
920.692843	2611.905827
920.997743	2623.752538
921.302603	2595.606096
921.607423	2603.167827
921.912204	2580.230577
922.216946	2603.083808
922.521647	2597.538538
922.826310	2588.800538
923.130932	2605.520365
923.435516	2594.009731
923.740059	2584.347519
924.044564	2587.960346
924.349028	2570.400327
924.653454	2599.975096
924.957840	2596.194231
925.262186	2584.011442
925.566493	2607.452808
925.870761	2590.312885
926.174989	2585.775846
926.479178	2585.103692
926.783328	2588.464462
927.087438	2578.886269
927.391509	2595.690115
927.695541	2584.095462
927.999533	2588.380442
928.303486	2598.378731
928.607400	2587.456231
928.911275	2587.036135
929.215110	2590.060827
929.518906	2579.558423
929.822663	2591.069058
930.126381	2580.566654
930.430060	2579.978519
930.733699	2591.573173
931.037299	2579.978519
931.340861	2576.197654
931.644383	2588.968577
931.947866	2581.910962
932.251309	2578.466173
932.554714	2583.087231
932.858080	2570.568365
933.161407	2584.095462
933.464694	2565.779269
933.767943	2583.423308
934.071153	2571.996692
934.374323	2586.448000
934.677455	2591.405135
934.980548	2589.472692
935.283602	2579.726462
935.586617	2596.026192
935.889593	2584.179481
936.192530	2583.087231
936.495428	2586.111923
936.798287	2587.708288
937.101108	2578.298135
937.403890	2589.808769
937.706632	2574.097173
938.009336	2578.970288
938.312002	2584.179481
938.614628	2567.543673
938.917216	2584.515558
939.219765	2602.075577
939.522275	2587.204173
939.824747	2592.077288
940.127179	2599.723038
940.429573	2590.228865
940.731929	2576.029615
941.034246	2585.439769
941.336524	2601.655481
941.638763	2591.825231
941.940964	2589.808769
942.243126	2594.093750
942.545250	2584.179481
942.847335	2581.910962
943.149381	2584.263500
943.451389	2581.070769
943.753359	2584.347519
944.055290	2591.993269
944.357182	2585.607808
944.659036	2588.968577
944.960851	2593.589635
945.262628	2572.332769
945.564367	2577.541962
945.866067	2585.859865
946.167729	2573.004923
946.469352	2592.161308
946.770937	2578.550192
947.072484	2589.640731
947.373992	2582.163019
947.675462	2580.902731
947.976893	2570.484346
948.278286	2570.316308
948.579641	2601.067346
948.880958	2577.205885
949.182236	2573.256981
949.483476	2584.263500
949.784678	2585.355750
950.085841	2584.179481
950.386967	2580.314596
950.688054	2580.734692
950.989103	2585.103692
951.290114	2581.322827
951.591087	2598.294712
951.892021	2584.095462
952.192917	2574.181192
952.493776	2582.919192
952.794596	2582.415077
953.095378	2584.599577
953.396122	2591.405135
953.696828	2575.357462
953.997496	2589.724750
954.298126	2584.935654
954.598718	2596.362269
954.899272	2583.171250
955.199788	2585.943885
955.500266	2568.299846
955.800706	2575.441481
956.101108	2567.627692
956.401472	2585.691827
956.701798	2556.033038
957.002087	2575.945596
957.302337	2582.835173
957.602550	2592.749442
957.902724	2584.431538
958.202861	2576.449712
958.502960	2582.751154
958.803022	2574.265212
959.103045	2561.662327
959.403031	2570.316308
959.702979	2568.803962
960.002889	2558.301558
960.302762	2565.947308
960.602596	2572.752865
960.902393	2577.625981
961.202153	2583.591346
961.501875	2566.115346
961.801559	2576.029615
962.101205	2579.054308
962.400814	2566.451423
962.700385	2561.074192
962.999918	2569.560135
963.299414	2564.014865
963.598873	2586.700058
963.898293	2559.729885
964.197677	2576.617750
964.497022	2571.072481
964.796331	2547.295038
965.095601	2572.248750
965.394835	2569.224058
965.694030	2574.685308
965.993189	2571.996692
966.292309	2559.309788
966.591393	2572.500808
966.890439	2573.677077
967.189447	2589.052596
967.488419	2574.181192
967.787353	2566.787500
968.086249	2580.986750
968.385108	2571.576596
968.683930	2578.382154
968.982714	2575.525500
969.281462	2583.255269
969.580172	2567.543673
969.878844	2570.736404
970.177480	2567.879750
970.476078	2555.612942
970.774639	2585.271731
971.073162	2579.726462
971.371649	2576.869808
971.670098	2570.988462
971.968510	2582.247038
972.266885	2577.037846
972.565223	2581.322827
972.863524	2576.365692
973.161788	2570.316308
973.460014	2582.247038
973.758204	2574.349231
974.056356	2578.718231
974.354471	2574.853346
974.652550	2569.140038
974.950591	2578.130096
975.248595	2575.357462
975.546563	2569.896212
975.844493	2575.273442
976.142386	2579.642442
976.440243	2582.667135
976.738062	2578.466173
977.035845	2581.070769
977.333590	2578.130096
977.631299	2577.289904
977.928971	2579.810481
978.226606	2578.046077
978.524204	2576.365692
978.821765	2573.004923
979.119290	2584.683596
979.416777	2566.283385
979.714228	2567.291615
980.011642	2587.036135
980.309020	2565.611231
980.606360	2576.869808
980.903664	2574.853346
981.200931	2574.853346
981.498162	2582.331058
981.795356	2551.664038
982.092513	2558.973712
982.389633	2572.332769
982.686717	2576.113635
982.983764	2585.103692
983.280775	2577.541962
983.577749	2571.576596
983.874686	2581.910962
984.171587	2580.566654
984.468451	2565.695250
984.765279	2571.240519
985.062070	2584.347519
985.358824	2569.896212
985.655543	2572.752865
985.952224	2551.496000
986.248869	2588.800538
986.545478	2591.321115
986.842050	2561.410269
987.138586	2567.627692
987.435086	2571.576596
987.731549	2562.250462
988.027975	2568.551904
988.324366	2562.754577
988.620719	2575.777558
988.917037	2555.444904
989.213318	2564.350942
989.509563	2565.023096
989.805772	2568.972000
990.101944	2566.955538
990.398080	2577.541962
990.694180	2567.459654
990.990244	2561.746346
991.286271	2564.855058
991.582262	2578.802250
991.878217	2576.701769
992.174136	2567.291615
992.470019	2567.375635
992.765865	2562.334481
993.061676	2589.052596
993.357450	2572.836885
993.653188	2553.008346
993.948890	2569.728173
994.244556	2570.316308
994.540186	2579.810481
994.835780	2570.568365
995.131337	2569.056019
995.426859	2581.742923
995.722345	2567.879750
996.017795	2581.910962
996.313208	2587.036135
996.608586	2574.601288
996.903928	2569.056019
997.199234	2564.939077
997.494504	2560.906154
997.789738	2576.953827
998.084936	2571.072481
998.380099	2570.820423
998.675225	2584.179481
998.970316	2561.746346
999.265371	2571.744635
999.560390	2582.835173
999.855373	2580.146558
1000.150320	2580.314596
1000.445232	2576.197654
1000.740108	2571.324538
1001.034948	2566.703481
1001.329752	2557.545385
1001.624521	2579.642442
1001.919254	2590.396904
1002.213951	2574.013154
1002.508613	2580.650673
1002.803239	2563.846827
1003.097829	2576.365692
1003.392384	2567.375635
1003.686903	2560.654096
1003.981386	2570.400327
1004.275834	2572.500808
1004.570246	2580.146558
1004.864623	2568.131808
1005.158964	2565.779269
1005.453270	2569.392096
1005.747540	2558.133519
1006.041775	2576.869808
1006.335974	2566.199365
1006.630138	2569.308077
1006.924266	2574.769327
1007.218359	2563.006635
1007.512416	2569.980231
1007.806438	2582.919192
1008.100425	2562.670558
1008.394376	2567.123577
1008.688292	2562.418500
1008.982172	2556.033038
1009.276017	2577.710000
1009.569827	2577.205885
1009.863602	2573.845115
1010.157341	2555.192846
1010.451045	2563.174673
1010.744714	2571.240519
1011.038347	2580.398615
1011.331945	2567.711712
1011.625508	2570.148269
1011.919036	2584.095462
1012.212528	2584.011442
1012.505986	2564.771038
1012.799408	2569.644154
1013.092795	2577.289904
1013.386147	2559.309788
1013.679464	2564.266923
1013.972745	2573.509038
1014.265992	2574.601288
1014.559204	2564.098885
1014.852380	2568.803962
1015.145521	2566.955538
1015.438628	2562.502519
1015.731699	2576.029615
1016.024736	2572.164731
1016.317737	2562.418500
1016.610703	2562.586538
1016.903635	2564.518981
1017.196531	2567.879750
1017.489393	2557.881462
1017.782219	2582.247038
1018.075011	2568.047788
1018.367768	2573.004923
1018.660490	2570.652385
1018.953177	2570.652385
1019.245829	2570.652385
