Dividing Wavelength (nm)	Counts (n)	Slit_number_13_of_a_total_of_40	
326.493990	2048.548483
326.888308	2048.548483
327.282561	2048.548483
327.676750	2019.486231
328.070874	2017.242917
328.464933	2034.206400
328.858929	2033.475433
329.252859	2041.364838
329.646726	2059.815462
330.040528	2068.435835
330.434265	2097.094794
330.827938	2120.737806
331.221547	2136.062913
331.615091	2160.084012
332.008571	2175.635971
332.401986	2198.648838
332.795338	2212.915304
333.188625	2236.684344
333.581847	2254.756881
333.975006	2271.443100
334.368100	2293.372119
334.761129	2303.706485
335.154095	2322.131902
335.546996	2343.430777
335.939833	2365.410208
336.332606	2370.829448
336.725315	2378.744060
337.117960	2395.102604
337.510540	2401.933367
337.903056	2414.687487
338.295508	2419.098496
338.687896	2423.005390
339.080220	2425.929260
339.472480	2438.330498
339.864676	2436.918975
340.256807	2439.288317
340.648875	2451.210646
341.040879	2442.615479
341.432818	2444.253854
341.824694	2434.675662
342.216506	2448.690069
342.608253	2452.168465
342.999937	2434.600044
343.391557	2449.496654
343.783113	2434.852102
344.174605	2445.514142
344.566033	2436.087185
344.957397	2438.254881
345.348697	2435.356217
345.739934	2437.145827
346.131106	2428.575865
346.522215	2426.811462
346.913260	2429.332038
347.304241	2430.441092
347.695159	2417.838208
348.086012	2430.667944
348.476802	2424.542942
348.867528	2419.098496
349.258191	2412.469379
349.648789	2420.762077
350.039324	2414.838721
350.429796	2420.157138
350.820203	2422.652510
351.210548	2418.342323
351.600828	2417.611356
351.991045	2411.133473
352.381198	2412.923083
352.771288	2415.393248
353.161314	2405.033677
353.551276	2409.495098
353.941175	2411.461148
354.331010	2423.433888
354.720782	2417.888619
355.110490	2412.570202
355.500135	2420.661254
355.889717	2421.921542
356.279235	2416.477096
356.668689	2412.923083
357.058080	2416.829977
357.447408	2423.736358
357.836672	2422.274423
358.225873	2418.695204
358.615010	2413.628844
359.004084	2418.821233
359.393095	2420.988929
359.782043	2417.460121
360.170927	2427.391194
360.559748	2420.333579
360.948505	2419.980698
361.337199	2421.266192
361.725830	2437.196238
362.114398	2421.215781
362.502903	2421.114958
362.891344	2420.661254
363.279722	2427.391194
363.668037	2427.315577
364.056289	2429.130392
364.444478	2424.089238
364.832603	2434.952925
365.220665	2423.156625
365.608665	2430.390681
365.996601	2425.651996
366.384474	2427.693663
366.772284	2427.618046
367.160031	2426.635021
367.547715	2428.096956
367.935336	2432.230702
368.322893	2428.475042
368.710388	2424.038827
369.097820	2420.106727
369.485189	2423.081008
369.872495	2424.719383
370.259738	2423.711152
370.646918	2434.196752
371.034035	2430.743562
371.421090	2433.012081
371.808081	2425.122675
372.195010	2440.069696
372.581875	2434.574838
372.968678	2433.743048
373.355418	2425.576379
373.742096	2433.692637
374.128710	2435.028542
374.515262	2429.962183
374.901751	2435.633481
375.288177	2425.904054
375.674540	2441.859306
376.060841	2431.449323
376.447079	2436.213213
376.833254	2439.842844
377.219367	2435.356217
377.605417	2436.061979
377.991404	2432.356731
378.377329	2434.952925
378.763191	2438.280087
379.148991	2432.886052
379.534727	2445.035233
379.920402	2439.237906
380.306013	2433.264138
380.691563	2436.389654
381.077049	2437.750765
381.462474	2433.768254
381.847835	2442.665890
382.233134	2441.405602
382.618371	2440.498194
383.003545	2441.128338
383.388657	2428.096956
383.773706	2434.171546
384.158693	2439.968873
384.543618	2437.347473
384.928480	2446.446756
385.313280	2446.371138
385.698017	2446.698813
386.082692	2443.900973
386.467305	2445.488937
386.851856	2441.884512
387.236344	2434.826896
387.620770	2447.051694
388.005133	2444.001796
388.389435	2436.389654
388.773674	2431.071237
389.157851	2434.095929
389.541965	2443.472475
389.926018	2447.127312
390.310008	2443.724533
390.693936	2434.801690
391.077802	2440.195725
391.461606	2447.555810
391.845348	2441.279573
392.229027	2444.329471
392.612645	2450.252827
392.996200	2442.413833
393.379694	2452.596963
393.763125	2447.984308
394.146494	2442.817125
394.529801	2441.052721
394.913047	2448.664863
395.296230	2439.389140
395.679351	2446.119081
396.062410	2447.228135
396.445408	2455.495627
396.828343	2450.908177
397.211217	2440.926692
397.594028	2445.993052
397.976778	2451.538321
398.359466	2445.589760
398.742092	2452.622169
399.124656	2458.520319
399.507158	2452.798610
399.889598	2448.690069
400.271977	2449.521860
400.654294	2450.404062
401.036549	2451.286263
401.418742	2449.370625
401.800874	2447.429781
402.182944	2449.496654
402.564952	2450.454473
402.946898	2445.614965
403.328783	2444.027002
403.710606	2452.672581
404.092367	2454.210133
404.474067	2455.772890
404.855705	2455.974537
405.237282	2452.168465
405.618797	2450.958588
406.000250	2451.538321
406.381642	2448.866510
406.762972	2451.588733
407.144240	2446.446756
407.525447	2453.706017
407.906593	2453.428754
408.287677	2459.276492
408.668700	2447.606221
409.049661	2454.361367
409.430560	2458.999229
409.811399	2458.117027
410.192176	2461.797069
410.572891	2462.225567
410.953545	2458.898406
411.334138	2457.562500
411.714669	2458.343879
412.095139	2458.217850
412.475547	2452.496140
412.855894	2460.234312
413.236180	2456.478652
413.616405	2460.158694
413.996568	2463.385033
414.376670	2458.016204
414.756711	2457.688529
415.136691	2460.209106
415.516609	2454.285750
415.896466	2463.208592
416.276262	2457.134002
416.655997	2464.746144
417.035670	2469.106742
417.415283	2465.451906
417.794834	2466.157667
418.174324	2457.033179
418.553753	2463.485856
418.933121	2450.958588
419.312428	2463.385033
419.691674	2460.738427
420.070859	2462.956535
420.449983	2461.519806
420.829045	2467.871660
421.208047	2469.787298
421.586988	2458.444702
421.965867	2462.301185
422.344686	2463.284210
422.723444	2464.746144
423.102141	2461.192131
423.480777	2469.711681
423.859352	2469.913327
424.237866	2473.921044
424.616319	2469.862915
424.994712	2464.695733
425.373044	2465.124231
425.751314	2467.896865
426.129524	2463.763119
426.507673	2468.476598
426.885762	2464.872173
427.263789	2472.811990
427.641756	2460.435958
428.019662	2466.611371
428.397508	2462.351596
428.775292	2466.686988
429.153016	2462.780094
429.530679	2470.694706
429.908282	2471.072792
430.285824	2462.074333
430.663305	2463.057358
431.040726	2468.199335
431.418086	2475.307362
431.795385	2463.334621
432.172624	2470.946763
432.549802	2478.861375
432.926920	2467.594396
433.303977	2477.651498
433.680974	2470.745117
434.057910	2465.981227
434.434786	2475.735860
434.811601	2470.493060
435.188355	2472.938019
435.565050	2466.560960
435.941683	2477.953967
436.318257	2476.239975
436.694770	2464.594910
437.071222	2475.861888
437.447614	2473.845427
437.823946	2476.542444
438.200218	2473.341312
438.576429	2476.214769
438.952580	2475.635037
439.328670	2477.273412
439.704700	2478.407671
440.080670	2481.886067
440.456580	2471.954994
440.832429	2477.248206
441.208218	2480.676190
441.583947	2482.415388
441.959616	2476.718885
442.335224	2484.986377
442.710773	2480.046046
443.086261	2483.978146
443.461689	2487.759012
443.837057	2487.859835
444.212365	2481.054277
444.587612	2489.699856
444.962800	2485.087200
445.337927	2489.951913
445.712995	2482.743063
446.088002	2494.413335
446.462949	2491.791935
446.837837	2491.892758
447.212664	2490.481235
447.587431	2491.943169
447.962139	2503.815087
448.336786	2503.890704
448.711374	2494.741010
449.085901	2499.353665
449.460369	2502.327946
449.834776	2513.594925
450.209124	2513.796571
450.583412	2512.637106
450.957640	2509.435973
451.331808	2510.393792
451.705917	2506.461692
452.079965	2510.746673
452.453954	2511.603669
452.827883	2512.939575
453.201752	2511.301200
453.575562	2515.208094
453.949311	2514.577950
454.323001	2517.753877
454.696632	2515.460152
455.070202	2529.222502
455.443713	2523.803262
455.817164	2536.759027
456.190556	2534.666948
456.563888	2535.750796
456.937160	2536.280117
457.310373	2541.724563
457.683526	2550.521377
458.056619	2549.613969
458.429653	2548.731767
458.802628	2565.317163
459.175542	2573.534244
459.548398	2570.358317
459.921194	2588.204002
460.293930	2597.454519
460.666607	2615.753908
461.039224	2636.599079
461.411782	2642.219965
461.784280	2643.959163
462.156719	2657.519867
462.529099	2667.072854
462.901419	2670.047135
463.273680	2674.206087
463.645882	2689.707635
464.018024	2699.260621
464.390106	2719.652088
464.762130	2777.776592
465.134094	2863.098121
465.505999	2970.147023
465.877845	3058.720096
466.249631	3106.283383
466.621358	3097.385746
466.993026	3094.638317
467.364634	3099.881117
467.736184	3107.921758
468.107674	3140.235554
468.479105	3164.962413
468.850477	3208.921275
469.221790	3225.178996
469.593043	3243.024681
469.964238	3273.599279
470.335373	3318.490754
470.706449	3421.330292
471.077467	3575.110690
471.448425	3810.860250
471.819324	3992.694669
472.190164	4024.479144
472.560945	3975.378306
472.931667	3940.619550
473.302330	3979.839727
473.672934	4054.247158
474.043479	4153.406654
474.413965	4243.996188
474.784393	4311.043535
475.154761	4473.545129
475.525070	4591.684569
475.895321	4691.096123
476.265513	4851.379610
476.635645	5052.395619
477.005719	5187.322102
477.375734	5343.169373
477.745691	5572.667902
478.115588	5852.830027
478.485427	6207.223142
478.855207	6767.396158
479.224928	7287.592823
479.594591	7731.214362
479.964194	7840.254519
480.333739	8084.851304
480.703226	8331.842637
481.072653	8714.289773
481.442022	9070.321263
481.811333	9398.046675
482.180584	9483.872319
482.549777	9682.695427
482.918912	9877.082319
483.287988	10127.602460
483.657005	10281.685327
484.025964	10451.219331
484.394864	10758.427246
484.763706	10939.757550
485.132489	11074.885679
485.501213	11349.931033
485.869879	11684.562825
486.238487	11900.223387
486.607036	12235.334088
486.975527	12468.210190
487.343959	12824.796208
487.712333	13194.514431
488.080648	13473.592708
488.448905	13924.271862
488.817104	14232.664448
489.185244	14819.177492
489.553326	15597.607263
489.921350	16835.790265
490.289315	18291.927554
490.657222	18955.469429
491.025070	19511.054994
491.392861	19672.976856
491.760593	19603.837431
492.128267	19385.757115
492.495883	19183.934521
492.863440	19027.986427
493.230939	18869.215287
493.598380	18789.716290
493.965763	19004.923148
494.333088	19004.192181
494.700354	19149.049737
495.067563	19341.546196
495.434713	19638.192894
495.801805	19997.400312
496.168839	20181.276398
496.535815	20322.705969
496.902733	20681.913387
497.269593	20808.169085
497.636395	21047.548275
498.003139	21564.316956
498.369825	21578.457392
498.736453	22116.146862
499.103023	22144.100060
499.469535	22396.107340
499.835989	22703.264844
500.202385	22821.328667
500.568723	23120.899235
500.935003	23462.185350
501.301226	23599.985290
501.667390	24244.068312
502.033497	24632.262363
502.399546	24585.379633
502.765537	24432.052938
503.131470	24952.426044
503.497345	25362.876790
503.863163	24778.556648
504.228923	25366.405598
504.594625	25838.660890
504.960269	25540.174171
505.325856	26182.870875
505.691385	25957.077594
506.056856	26200.691354
506.422270	26641.036142
506.787625	26473.140513
507.152924	26732.432262
507.518164	26918.728102
507.883347	26558.940952
508.248472	26810.217265
508.613540	27193.622221
508.978550	27468.213871
509.343503	27378.204069
509.708398	27590.890350
510.073236	27984.024733
510.438016	28010.515996
510.802738	27613.878012
511.167403	28092.838038
511.532010	28198.399800
511.896561	28416.606144
512.261053	29017.184008
512.625488	28652.406115
512.989866	28508.531585
513.354186	28364.909112
513.718449	28297.559296
514.082655	28675.267748
514.446803	28353.642133
514.810894	28617.672565
515.174927	28436.493496
515.538904	28251.508356
515.902822	28602.448281
516.266684	28111.843188
516.630488	28228.999604
516.994235	27998.215581
517.357925	28186.553088
517.721558	28143.930133
518.085133	28120.312327
518.448651	28027.655919
518.812112	27677.850254
519.175516	27545.998875
519.538863	27556.005565
519.902152	27321.516294
520.265385	27383.194812
520.628560	27158.560996
520.991678	26824.206467
521.354739	26707.024846
521.717743	26653.538204
522.080690	26305.320502
522.443580	26407.303044
522.806413	26162.933112
523.169189	25889.374898
523.531908	25679.839338
523.894569	25337.292935
524.257174	25155.609750
524.619722	24998.401367
524.982213	24714.962492
525.344647	24377.910946
525.707025	24124.517348
526.069345	24047.513723
526.431608	23755.580504
526.793815	23582.542898
527.155964	23026.503629
527.518057	22820.093585
527.880093	22390.310013
528.242072	22387.335733
528.603995	21937.538781
528.965860	21610.267073
529.327669	21346.917196
529.689421	20988.440746
530.051117	20679.418015
530.412755	20457.682863
530.774337	20153.373612
531.135862	19767.977400
531.497331	19557.332787
531.858743	19216.071877
532.220098	19059.266787
532.581396	18654.008429
532.942638	18223.115804
533.303824	18047.330769
533.664953	17721.873877
534.026025	17303.760577
534.387040	17183.277000
534.747999	16908.282058
535.108902	16679.035587
535.469748	16234.027731
535.830537	15994.472100
536.191270	15791.263188
536.551947	15399.363888
536.912567	15240.340690
537.273131	14978.603983
537.633638	14573.723712
537.994089	14421.027162
538.354483	14065.348552
538.714821	13985.874762
539.075103	13804.090754
539.435328	13499.605062
539.795497	13212.158469
540.155609	12952.160960
540.515665	12845.666585
540.875665	12470.705562
541.235609	12292.173098
541.595496	12090.375710
541.955328	12015.943073
542.315102	11646.275262
542.674821	11376.523119
543.034483	11182.060610
543.394090	10954.578542
543.753640	10734.683412
544.113134	10732.641744
544.472571	10362.545435
544.831953	10385.205421
545.191278	10041.600375
545.550548	9803.582296
545.909761	9699.608498
546.268918	9569.420700
546.628019	9430.940204
546.987064	9174.547119
547.346053	8886.571206
547.704986	8855.240435
548.063863	8663.600971
548.422684	8484.665215
548.781449	8320.626069
549.140158	8235.077688
549.498811	8045.454687
549.857408	7830.424269
550.215949	7788.053371
550.574434	7635.306410
550.932864	7458.160263
551.291237	7408.580515
551.649555	7229.972435
552.007817	7121.537215
552.366022	6977.662685
552.724173	6859.119952
553.082267	6781.158508
553.440305	6689.056627
553.798288	6499.358008
554.156215	6406.172279
554.514086	6339.452608
554.871902	6198.980856
555.229661	6086.714360
555.587365	5970.339323
555.945014	5894.545575
556.302606	5785.152537
556.660143	5705.426688
557.017625	5618.189521
557.375050	5512.526937
557.732421	5458.309327
558.089735	5356.301579
558.446994	5256.360704
558.804197	5214.594744
559.161345	5134.440398
559.518437	5018.897152
559.875474	4950.539106
560.232455	4894.506681
560.589381	4831.719110
560.946251	4730.366712
561.303065	4709.597158
561.659825	4621.150113
562.016528	4541.298237
562.373177	4455.875885
562.729770	4433.014252
563.086307	4347.087785
563.442789	4315.378927
563.799216	4258.161831
564.155587	4187.736912
564.511904	4156.431346
564.868164	4101.886062
565.224370	4062.867531
565.580520	3998.239938
565.936615	3964.363385
566.292654	3919.875202
566.648638	3867.396790
567.004567	3833.999146
567.360441	3792.434833
567.716260	3744.619488
568.072023	3724.480079
568.427732	3690.830377
568.783385	3646.947133
569.138982	3620.304635
569.494525	3587.890015
569.850013	3554.744429
570.205445	3521.044315
570.560823	3488.075169
570.916145	3464.104483
571.271412	3451.476392
571.626625	3419.137390
571.981782	3388.058677
572.336884	3350.199612
572.691931	3338.504135
573.046923	3305.938281
573.401860	3274.481481
573.756743	3257.391969
574.111570	3241.789598
574.466342	3220.515929
574.821059	3200.981458
575.175722	3186.513346
575.530330	3158.358502
575.884882	3140.361583
576.239380	3113.744290
576.593823	3100.082763
576.948211	3086.421237
577.302544	3064.013308
577.656823	3040.370296
578.011047	3035.782846
578.365216	3024.490662
578.719330	3014.357942
579.073389	2988.698469
579.427394	2989.227790
579.781344	2968.962352
580.135239	2952.200515
580.489080	2941.689710
580.842866	2936.320881
581.196597	2918.323962
581.550273	2909.098650
581.903895	2914.013775
582.257463	2899.898544
582.610975	2885.304404
582.964434	2874.138248
583.317837	2865.240612
583.671186	2857.300794
584.024481	2845.756552
584.377721	2842.152127
584.730906	2828.692246
585.084037	2822.567244
585.437113	2807.040490
585.790135	2803.763740
586.143103	2796.025569
586.496016	2780.902108
586.848874	2774.600665
587.201679	2774.323402
587.554428	2764.039448
587.907124	2761.241608
588.259765	2756.603746
588.612352	2749.268867
588.964884	2727.264231
589.317362	2736.615571
589.669786	2737.018863
590.022155	2714.434494
590.374470	2717.837273
590.726731	2704.326981
591.078937	2695.681402
591.431090	2700.268852
591.783188	2691.925742
592.135232	2686.430885
592.487222	2673.752383
592.839157	2673.777588
593.191038	2659.385094
593.542866	2666.593944
593.894639	2658.628921
594.246358	2661.704025
594.598022	2653.486944
594.949633	2652.327479
595.301190	2633.826444
595.652692	2646.454535
596.004141	2636.699902
596.355535	2627.348562
596.706876	2620.190123
597.058162	2618.602160
597.409395	2617.467900
597.760573	2622.130967
598.111698	2612.048660
598.462768	2611.947837
598.813785	2604.209665
599.164748	2604.083637
599.515657	2590.850608
599.866511	2592.539394
600.217312	2594.329004
600.568060	2582.583115
600.918753	2592.085690
601.269392	2582.683938
601.619978	2577.063052
601.970510	2582.734350
602.320988	2585.002869
602.671412	2590.548138
603.021783	2573.912331
603.372100	2579.533217
603.722363	2569.476115
604.072572	2583.717375
604.422728	2572.399985
604.772830	2568.619119
605.122878	2574.214800
605.472872	2564.964283
605.822813	2557.679815
606.172701	2565.972513
606.522534	2566.073337
606.872314	2561.460681
607.222041	2562.998233
607.571714	2564.258521
607.921333	2553.167983
608.270899	2546.135573
608.620411	2544.169523
608.969870	2553.546069
609.319276	2551.101110
609.668627	2554.377860
610.017926	2543.665408
610.367171	2550.949875
610.716362	2551.580019
611.065500	2544.093906
611.414585	2546.891746
611.763616	2550.748229
612.112594	2543.741025
612.461518	2549.714792
612.810389	2541.321271
613.159207	2545.102137
613.507971	2533.230219
613.856682	2543.236910
614.205340	2532.927750
614.553945	2552.084135
614.902496	2543.766231
615.250994	2545.581046
615.599439	2542.228679
615.947830	2538.548637
616.296169	2543.388144
616.644454	2538.346990
616.992686	2537.439583
617.340864	2547.370656
617.688990	2543.413350
618.037063	2542.455531
618.385082	2539.355221
618.733048	2539.002340
619.080961	2540.313040
619.428821	2540.161806
619.776628	2531.163346
620.124382	2530.709642
620.472083	2536.204500
620.819731	2536.254912
621.167326	2530.155115
621.514868	2533.381454
621.862357	2528.365506
622.209793	2533.482277
622.557176	2528.315094
622.904506	2527.180835
623.251783	2521.509537
623.599007	2523.324352
623.946179	2533.759540
624.293297	2529.852646
624.640363	2523.853673
624.987376	2523.248735
625.334336	2517.779083
625.681243	2515.813033
626.028097	2524.458612
626.374899	2520.400483
626.721647	2514.754390
627.068343	2532.322812
627.414987	2520.904598
627.761577	2513.191633
628.108115	2519.140194
628.454600	2518.207581
628.801032	2517.451408
629.147412	2523.198323
629.493739	2517.426202
629.840014	2521.786800
630.186236	2515.006448
630.532405	2509.763648
630.878521	2513.947806
631.224585	2516.544000
631.570597	2516.367560
631.916556	2515.964267
632.262462	2510.822290
632.608316	2513.242044
632.954117	2510.368587
633.299866	2512.939575
633.645562	2506.159223
633.991206	2514.325892
634.336797	2512.863958
634.682336	2510.645850
635.027823	2515.334123
635.373257	2509.738442
635.718639	2515.359329
636.063968	2517.779083
636.409245	2508.049656
636.754470	2512.788340
637.099642	2502.504387
637.444762	2511.049142
637.789829	2509.057887
638.134845	2516.796058
638.479808	2500.941629
638.824719	2502.353152
639.169577	2511.654081
639.514383	2512.712723
639.859137	2505.428256
640.203839	2498.194200
640.548489	2503.084119
640.893086	2497.740496
641.237632	2499.479694
641.582125	2504.420025
641.926566	2507.495129
642.270955	2494.816627
642.615292	2496.732265
642.959576	2503.437000
643.303809	2505.680313
643.647990	2499.530106
643.992118	2501.294510
644.336195	2496.127327
644.680219	2501.521362
645.024192	2504.520848
645.368112	2500.009015
645.711981	2498.320229
646.055797	2499.630929
646.399562	2503.890704
646.743274	2505.806342
647.086935	2505.730725
647.430544	2497.034735
647.774101	2501.067658
648.117606	2506.058400
648.461059	2503.058913
648.804460	2501.092863
649.147810	2504.268790
649.491108	2503.915910
649.834354	2502.605210
650.177548	2501.899448
650.520690	2499.479694
650.863781	2500.286279
651.206820	2493.581544
651.549807	2501.596979
651.892742	2499.832575
652.235626	2498.269817
652.578458	2497.337204
652.921238	2494.816627
653.263967	2490.708087
653.606644	2490.985350
653.949269	2496.026504
654.291843	2484.709113
654.634365	2496.026504
654.976836	2490.884527
655.319255	2494.967862
655.661622	2493.581544
656.003938	2491.464260
656.346203	2489.699856
656.688416	2489.548621
657.030577	2499.504900
657.372687	2496.127327
657.714746	2491.590288
658.056753	2496.782677
658.398708	2497.185969
658.740612	2497.085146
659.082465	2491.287819
659.424266	2484.784731
659.766016	2494.715804
660.107715	2489.750267
660.449362	2489.195740
660.790958	2494.665392
661.132503	2492.245638
661.473996	2492.951400
661.815438	2501.622185
662.156829	2486.448312
662.498168	2492.195227
662.839456	2492.976606
663.180693	2489.246152
663.521879	2492.119610
663.863013	2496.757471
664.204097	2494.614981
664.545129	2493.077429
664.886110	2489.750267
665.227040	2489.195740
665.567918	2486.599546
665.908746	2496.631442
666.249522	2499.202431
666.590248	2501.622185
666.930922	2499.555312
667.271545	2496.833088
667.612118	2489.246152
667.952639	2489.346975
668.293109	2492.296050
668.633528	2491.363437
668.973896	2485.767756
669.314213	2496.681854
669.654480	2485.540904
669.994695	2488.565596
670.334859	2487.632983
670.674973	2487.834629
671.015035	2484.860348
671.355047	2491.186996
671.695008	2491.262613
672.034918	2489.725062
672.374777	2480.953454
672.714585	2488.237921
673.054342	2489.397387
673.394049	2491.060967
673.733705	2487.683394
674.073310	2488.011069
674.412864	2487.607777
674.752368	2493.001812
675.091820	2490.859321
675.431223	2484.961171
675.770574	2491.993581
676.109875	2483.121150
676.449125	2490.531646
676.788324	2481.709627
677.127473	2487.128867
677.466571	2486.927221
677.805619	2487.078456
678.144616	2486.070225
678.483562	2491.161790
678.822458	2486.725575
679.161303	2483.625265
679.500098	2481.684421
679.838842	2491.439054
680.177535	2482.566623
680.516179	2478.710140
680.854771	2489.195740
681.193314	2488.212715
681.531805	2496.202944
681.870247	2496.455002
682.208638	2484.608290
682.546978	2488.086687
682.885268	2490.103148
683.223508	2488.313538
683.561697	2488.288333
683.899836	2489.044506
684.237925	2489.019300
684.575963	2488.540390
684.913951	2486.372694
685.251889	2499.076402
685.589776	2483.322796
685.927614	2487.154073
686.265401	2485.288846
686.603137	2489.649444
686.940824	2501.874242
687.278460	2489.901502
687.616046	2489.019300
687.953582	2487.557365
688.291068	2496.152533
688.628504	2490.380412
688.965889	2492.296050
689.303224	2490.582058
689.640510	2486.372694
689.977745	2489.775473
690.314930	2488.868065
690.652065	2488.187510
690.989150	2489.170535
691.326185	2477.575881
691.663170	2473.845427
692.000105	2489.775473
692.336990	2477.878350
692.673825	2484.305821
693.010610	2482.743063
693.347345	2485.061994
693.684030	2481.432363
694.020665	2478.105202
694.357251	2485.288846
694.693786	2479.315079
695.030272	2487.380925
695.366707	2485.440081
695.703093	2475.660242
696.039429	2488.767242
696.375716	2488.212715
696.711952	2484.255410
697.048139	2474.021867
697.384276	2489.674650
697.720363	2478.886581
698.056400	2480.550162
698.392388	2480.146869
698.728326	2481.709627
699.064214	2476.441621
699.400053	2475.156127
699.735842	2475.256950
700.071581	2490.556852
700.407270	2479.970429
700.742910	2484.809937
701.078501	2477.475058
701.414042	2484.633496
701.749533	2472.358287
702.084974	2477.676704
702.420366	2478.079996
702.755709	2480.348515
703.091002	2473.164871
703.426246	2484.860348
703.761440	2481.760038
704.096584	2483.146356
704.431679	2479.163844
704.766725	2475.559419
705.101721	2479.718371
705.436668	2485.162817
705.771565	2477.374235
706.106413	2477.626292
706.441212	2480.726602
706.775961	2482.314565
707.110661	2480.348515
707.445311	2478.029585
707.779913	2474.979687
708.114465	2485.666933
708.448967	2480.676190
708.783421	2475.382979
709.117825	2477.273412
709.452180	2481.205512
709.786485	2482.364977
710.120742	2483.952940
710.454949	2481.432363
710.789107	2480.676190
711.123216	2472.988431
711.457275	2481.659215
711.791286	2489.220946
712.125247	2490.330000
712.459159	2484.734319
712.793023	2485.339258
713.126837	2477.475058
713.460602	2492.321256
713.794318	2480.852631
714.127985	2478.079996
714.461602	2480.247692
714.795171	2482.692652
715.128691	2490.002325
715.462162	2476.038329
715.795584	2480.323310
716.128957	2487.708600
716.462281	2481.281129
716.795556	2483.196767
717.128782	2483.700883
717.461960	2481.129894
717.795088	2474.727629
718.128167	2474.576394
718.461198	2477.500263
718.794180	2476.844913
719.127113	2472.106229
719.459997	2476.870119
719.792833	2469.913327
720.125619	2477.777527
720.458357	2475.156127
720.791046	2472.761579
721.123686	2473.643781
721.456278	2486.851604
721.788821	2478.609317
722.121315	2474.576394
722.453761	2474.878863
722.786158	2478.810963
723.118506	2473.089254
723.450805	2479.315079
723.783056	2479.642754
724.115259	2481.760038
724.447412	2476.744090
724.779518	2477.021354
725.111574	2468.703450
725.443582	2480.650985
725.775542	2470.921558
726.107453	2475.710654
726.439315	2477.424646
726.771129	2475.030098
727.102895	2476.945737
727.434612	2474.273925
727.766281	2478.836169
728.097901	2479.718371
728.429473	2483.272385
728.760996	2479.541931
729.092471	2471.677731
729.423897	2482.037302
729.755276	2484.860348
730.086606	2480.550162
730.417887	2475.231744
730.749120	2480.903042
731.080305	2476.391210
731.411442	2475.761065
731.742530	2480.046046
732.073570	2481.911273
732.404562	2477.525469
732.735506	2486.322283
733.066401	2475.559419
733.397249	2486.700369
733.728048	2472.685962
734.058798	2477.853144
734.389501	2481.835656
734.720156	2478.357260
735.050762	2474.273925
735.381320	2479.743577
735.711831	2469.131948
736.042293	2481.104688
736.372707	2479.113433
736.703073	2482.692652
737.033391	2470.392237
737.363661	2469.510035
737.693883	2487.406131
738.024056	2477.449852
738.354182	2471.753348
738.684260	2481.986890
739.014290	2485.641727
739.344272	2474.273925
739.674207	2477.575881
740.004093	2480.222487
740.333931	2475.307362
740.663722	2479.592342
740.993464	2479.163844
741.323159	2473.064048
741.652806	2483.146356
741.982405	2488.187510
742.311956	2481.054277
742.641460	2477.449852
742.970915	2473.795015
743.300323	2480.424133
743.629683	2473.618575
743.958996	2473.694192
744.288260	2472.963225
744.617477	2473.164871
744.946647	2476.895325
745.275768	2464.519292
745.604842	2478.810963
745.933869	2468.930302
746.262847	2481.634010
746.591778	2471.627319
746.920662	2483.146356
747.249498	2478.760552
747.578286	2472.610344
747.907027	2486.347488
748.235720	2475.206538
748.564365	2476.895325
748.892963	2471.198821
749.221514	2472.786785
749.550017	2478.458083
749.878473	2474.147896
750.206881	2468.930302
750.535242	2478.306848
750.863555	2481.810450
751.191821	2472.534727
751.520039	2477.374235
751.848210	2473.694192
752.176334	2474.626806
752.504411	2471.551702
752.832440	2476.063535
753.160421	2484.482262
753.488356	2477.500263
753.816243	2468.779067
754.144082	2471.425673
754.471875	2475.559419
754.799620	2483.045533
755.127318	2473.870633
755.454969	2477.853144
755.782572	2468.400981
756.110129	2476.895325
756.437638	2475.609831
756.765100	2470.568677
757.092515	2476.492033
757.419882	2473.769810
757.747203	2481.457569
758.074477	2473.593369
758.401703	2477.349029
758.728882	2472.711167
759.056014	2471.576908
759.383099	2477.399440
759.710138	2461.620629
760.037129	2478.130408
760.364073	2476.643267
760.690970	2479.239462
761.017820	2473.164871
761.344623	2483.776500
761.671379	2477.903556
761.998088	2480.096458
762.324751	2484.053763
762.651366	2478.004379
762.977935	2485.465287
763.304456	2486.448312
763.630931	2490.254383
763.957359	2488.011069
764.283740	2484.633496
764.610074	2480.222487
764.936362	2475.307362
765.262602	2477.853144
765.588796	2475.206538
765.914943	2479.214256
766.241044	2475.055304
766.567097	2476.366004
766.893104	2477.021354
767.219064	2471.677731
767.544978	2480.449338
767.870845	2473.769810
768.196665	2473.870633
768.522438	2469.283183
768.848165	2470.845940
769.173846	2475.685448
769.499479	2474.525983
769.825066	2477.727115
770.150607	2474.324337
770.476101	2472.559933
770.801548	2470.719912
771.126949	2474.677217
771.452303	2469.157154
771.777611	2473.694192
772.102872	2479.138638
772.428087	2460.108283
772.753256	2472.610344
773.078378	2470.241002
773.403453	2476.794502
773.728482	2472.786785
774.053465	2467.165898
774.378401	2476.214769
774.703291	2473.341312
775.028135	2461.923098
775.352932	2478.105202
775.677683	2466.560960
776.002388	2471.274438
776.327046	2464.771350
776.651658	2476.214769
776.976224	2458.091821
777.300743	2467.191104
777.625216	2471.123204
777.949643	2469.257977
778.274024	2477.122177
778.598359	2468.073306
778.922647	2475.105715
779.246889	2473.719398
779.571086	2472.811990
779.895236	2474.223513
780.219339	2471.501290
780.543397	2477.827938
780.867409	2471.047587
781.191374	2464.569704
781.515294	2471.753348
781.839167	2472.534727
782.162995	2479.491519
782.486776	2474.677217
782.810511	2471.249233
783.134201	2461.923098
783.457844	2467.518779
783.781441	2476.794502
784.104993	2468.022894
784.428498	2467.140692
784.751958	2470.417442
785.075372	2466.460137
785.398739	2467.493573
785.722061	2471.450879
786.045337	2470.871146
786.368568	2468.930302
786.691752	2470.114973
787.014891	2473.769810
787.337983	2465.930815
787.661030	2473.366517
787.984031	2470.568677
788.306987	2474.576394
788.629897	2469.384006
788.952760	2468.325363
789.275579	2471.274438
789.598351	2479.945223
789.921078	2468.325363
790.243759	2469.837710
790.566395	2470.921558
790.888984	2463.107769
791.211529	2459.326904
791.534027	2473.114460
791.856480	2468.325363
792.178888	2469.106742
792.501249	2463.763119
792.823566	2462.628860
793.145836	2467.317133
793.468062	2464.998202
793.790241	2475.231744
794.112375	2473.971456
794.434464	2466.863429
794.756507	2470.745117
795.078505	2476.794502
795.400457	2473.618575
795.722364	2467.644808
796.044226	2470.694706
796.366042	2464.746144
796.687812	2477.147383
797.009538	2477.021354
797.331218	2468.627833
797.652852	2470.064562
797.974442	2470.291413
798.295986	2468.426187
798.617484	2460.965279
798.938938	2471.904583
799.260346	2469.106742
799.581709	2470.039356
799.903026	2474.097485
800.224299	2477.248206
800.545526	2468.879890
800.866708	2475.105715
801.187845	2460.940073
801.508936	2469.661269
801.829983	2468.804273
802.150984	2473.492546
802.471940	2463.813531
802.792851	2468.174129
803.113717	2469.963738
803.434538	2469.257977
803.755314	2463.788325
804.076045	2473.316106
804.396731	2469.257977
804.717372	2471.097998
805.037967	2466.308902
805.358518	2463.611885
805.679024	2476.189563
805.999485	2465.829992
806.319901	2471.299644
806.640272	2470.165385
806.960598	2466.157667
807.280879	2465.048613
807.601115	2473.442135
807.921306	2476.013123
808.241453	2470.341825
808.561554	2473.164871
808.881611	2469.308388
809.201623	2466.334108
809.521590	2468.451392
809.841513	2467.216310
810.161390	2471.324850
810.481223	2465.174642
810.801011	2474.299131
811.120755	2472.358287
811.440453	2464.065588
811.760107	2473.139665
812.079716	2464.620115
812.399281	2464.620115
812.718801	2462.502831
813.038276	2467.569190
813.357707	2468.577421
813.677093	2465.804787
813.996434	2458.192644
814.315731	2466.384519
814.634983	2460.738427
814.954191	2470.745117
815.273354	2464.216823
815.592473	2467.266721
815.911547	2468.199335
816.230577	2470.644294
816.549562	2473.265694
816.868502	2466.712194
817.187399	2464.116000
817.506250	2469.762092
817.825058	2467.569190
818.143821	2466.510548
818.462539	2470.467854
818.781213	2472.333081
819.099843	2469.837710
819.418429	2469.308388
819.736970	2484.028558
820.055466	2472.509521
820.373919	2477.046560
820.692327	2484.658702
821.010691	2479.189050
821.329011	2498.521875
821.647286	2520.148425
821.965517	2545.581046
822.283704	2548.807385
822.601847	2552.815102
822.919945	2548.076417
823.237999	2545.354194
823.556010	2531.415404
823.873976	2527.760567
824.191897	2513.342867
824.509775	2501.445744
824.827609	2498.899962
825.145398	2489.397387
825.463144	2497.891731
825.780845	2485.767756
826.098502	2495.119096
826.416116	2502.983296
826.733685	2498.849550
827.051210	2509.839265
827.368692	2506.537310
827.686129	2489.649444
828.003522	2487.481748
828.320872	2481.911273
828.638177	2481.104688
828.955439	2494.010042
829.272656	2481.482775
829.589830	2479.693165
829.906960	2479.466313
830.224046	2472.610344
830.541088	2471.602113
830.858086	2475.761065
831.175041	2475.710654
831.491952	2473.820221
831.808819	2472.711167
832.125642	2470.367031
832.442421	2479.617548
832.759157	2473.517752
833.075849	2478.004379
833.392497	2482.364977
833.709101	2501.143275
834.025662	2485.490492
834.342179	2479.516725
834.658653	2477.349029
834.975083	2474.173102
835.291469	2484.608290
835.607811	2470.745117
835.924110	2479.718371
836.240366	2474.173102
836.556578	2470.417442
836.872746	2464.242029
837.188871	2464.872173
837.504952	2468.224540
837.820990	2463.889148
838.136984	2467.165898
838.452935	2467.695219
838.768842	2456.529063
839.084706	2476.970942
839.400526	2469.358800
839.716303	2475.660242
840.032037	2472.811990
840.347727	2460.511575
840.663373	2469.963738
840.978977	2470.745117
841.294537	2465.956021
841.610054	2471.274438
841.925527	2469.988944
842.240957	2466.283696
842.556344	2461.242542
842.871687	2466.031638
843.186987	2463.964765
843.502244	2470.392237
843.817458	2463.309415
844.132629	2453.302725
844.447756	2460.461163
844.762840	2464.519292
845.077881	2466.661783
845.392879	2459.049640
845.707833	2457.864969
846.022745	2473.215283
846.337613	2468.098512
846.652438	2466.762606
846.967221	2455.924125
847.281960	2456.629887
847.596656	2457.058385
847.911309	2466.384519
848.225919	2457.512088
848.540485	2462.200362
848.855009	2459.931842
849.169490	2462.175156
849.483928	2457.209619
849.798323	2462.427213
850.112675	2467.796042
850.426984	2457.386060
850.741251	2466.182873
851.055474	2461.721452
851.369654	2457.512088
851.683792	2457.411265
851.997887	2467.644808
852.311938	2461.444188
852.625947	2466.535754
852.939914	2463.208592
853.253837	2461.771863
853.567718	2463.838737
853.881555	2471.224027
854.195350	2464.897379
854.509103	2470.493060
854.822812	2464.897379
855.136479	2462.729683
855.450103	2467.392750
855.763685	2456.201388
856.077224	2462.275979
856.390720	2450.908177
856.704173	2458.948817
857.017584	2465.351083
857.330953	2468.577421
857.644278	2473.265694
857.957561	2465.149437
858.270802	2464.846967
858.584000	2466.182873
858.897155	2466.560960
859.210268	2465.275465
859.523339	2464.267235
859.836367	2472.333081
860.149352	2460.713221
860.462295	2467.266721
860.775195	2458.167438
861.088054	2465.829992
861.400869	2463.006946
861.713642	2457.839763
862.026373	2467.947277
862.339062	2460.259517
862.651708	2469.131948
862.964312	2468.905096
863.276873	2456.907150
863.589392	2465.351083
863.901869	2452.470935
864.214303	2463.284210
864.526696	2467.695219
864.839045	2460.234312
865.151353	2460.839250
865.463619	2456.881944
865.775842	2466.233285
866.088023	2462.477625
866.400162	2466.082050
866.712258	2469.686475
867.024313	2459.200875
867.336325	2459.402521
867.648296	2467.846454
867.960224	2463.637090
868.272110	2463.082563
868.583954	2465.855198
868.895755	2471.879377
869.207515	2463.183387
869.519233	2470.820735
869.830909	2459.226081
870.142542	2465.552729
870.454134	2460.738427
870.765684	2460.940073
871.077191	2462.427213
871.388657	2463.485856
871.700081	2456.100565
872.011463	2467.569190
872.322803	2456.629887
872.634101	2461.494600
872.945357	2466.510548
873.256571	2465.048613
873.567744	2462.275979
873.878874	2456.907150
874.189963	2463.435444
874.501010	2457.738940
874.812015	2466.082050
875.122979	2466.737400
875.433900	2460.360340
875.744780	2471.047587
876.055618	2463.410238
876.366415	2465.552729
876.677169	2464.267235
876.987882	2467.594396
877.298554	2459.528550
877.609183	2473.341312
877.919771	2469.308388
878.230317	2469.938533
878.540822	2472.887608
878.851285	2470.417442
879.161707	2467.392750
879.472087	2461.242542
879.782425	2475.861888
880.092722	2479.894812
880.402977	2491.917963
880.713191	2496.858294
881.023363	2498.597492
881.333494	2519.215812
881.643583	2508.276508
881.953631	2512.889163
882.263637	2508.074862
882.573602	2505.176198
882.883526	2505.352638
883.193408	2508.982269
883.503248	2498.370640
883.813048	2492.900988
884.122806	2483.247179
884.432522	2478.634523
884.742197	2481.507981
885.051831	2475.080510
885.361424	2484.532673
885.670975	2473.442135
885.980485	2467.821248
886.289954	2476.668473
886.599382	2476.366004
886.908768	2468.249746
887.218113	2467.065075
887.527417	2468.274952
887.836680	2458.873200
888.145901	2465.653552
888.455082	2462.023921
888.764221	2462.074333
889.073319	2468.451392
889.382376	2470.140179
889.691392	2466.964252
890.000366	2467.291927
890.309300	2460.133488
890.618193	2462.553242
890.927044	2464.998202
891.235855	2464.947790
891.544625	2465.678758
891.853353	2465.779581
892.162041	2463.863942
892.470687	2468.199335
892.779293	2466.031638
893.087858	2472.181846
893.396381	2470.316619
893.704864	2474.223513
894.013306	2468.879890
894.321707	2484.759525
894.630068	2478.785758
894.938387	2479.844400
895.246665	2468.854685
895.554903	2479.163844
895.863100	2471.904583
896.171256	2476.668473
896.479371	2471.324850
896.787446	2471.022381
897.095480	2479.920017
897.403473	2463.536267
897.711425	2468.476598
898.019336	2463.788325
898.327207	2463.208592
898.635038	2471.501290
898.942827	2463.889148
899.250576	2468.804273
899.558284	2469.862915
899.865952	2467.443162
900.173579	2468.552215
900.481165	2463.233798
900.788711	2461.066102
901.096216	2471.702937
901.403681	2465.956021
901.711105	2468.224540
902.018489	2470.089767
902.325832	2460.007460
902.633135	2464.796556
902.940397	2466.283696
903.247619	2463.637090
903.554800	2462.477625
903.861941	2474.374748
904.169041	2482.491006
904.476101	2479.415902
904.783121	2479.693165
905.090100	2476.139152
905.397039	2481.760038
905.703938	2477.172588
906.010796	2483.020327
906.317614	2467.720425
906.624391	2476.996148
906.931129	2474.702423
907.237826	2462.225567
907.544483	2461.671040
907.851099	2466.308902
908.157675	2462.553242
908.464211	2466.989458
908.770707	2460.133488
909.077163	2464.620115
909.383578	2459.377315
909.689954	2464.040383
909.996289	2461.595423
910.302584	2458.822788
910.608839	2458.999229
910.915054	2460.688015
911.221229	2457.360854
911.527363	2461.368571
911.833458	2464.620115
912.139513	2455.722479
912.445527	2462.754888
912.751502	2461.771863
913.057436	2464.645321
913.363331	2454.310956
913.669186	2472.383492
913.975000	2461.545012
914.280775	2467.997688
914.586510	2464.342852
914.892205	2475.130921
915.197859	2478.105202
915.503475	2481.482775
915.809050	2475.912300
916.114585	2480.096458
916.420081	2477.903556
916.725536	2486.397900
917.030952	2484.179792
917.336328	2482.364977
917.641665	2470.064562
917.946961	2468.501804
918.252218	2472.736373
918.557435	2467.796042
918.862612	2474.425160
919.167750	2467.518779
919.472848	2467.367544
919.777906	2463.158181
920.082925	2468.980713
920.387904	2470.745117
920.692843	2475.433390
920.997743	2471.097998
921.302603	2462.628860
921.607423	2465.703963
921.912204	2456.629887
922.216946	2459.226081
922.521647	2459.200875
922.826310	2459.957048
923.130932	2462.805300
923.435516	2465.073819
923.740059	2462.553242
924.044564	2461.872687
924.349028	2460.385546
924.653454	2453.579988
924.957840	2463.309415
925.262186	2459.730196
925.566493	2462.175156
925.870761	2460.561987
926.174989	2469.484829
926.479178	2464.090794
926.783328	2469.358800
927.087438	2458.469908
927.391509	2463.183387
927.695541	2463.208592
927.999533	2457.915381
928.303486	2459.478138
928.607400	2463.410238
928.911275	2465.552729
929.215110	2457.764146
929.518906	2456.806327
929.822663	2460.738427
930.126381	2457.184413
930.430060	2461.368571
930.733699	2463.183387
931.037299	2469.913327
931.340861	2462.956535
931.644383	2456.327417
931.947866	2451.361881
932.251309	2459.251287
932.554714	2455.823302
932.858080	2458.797583
933.161407	2451.261058
933.464694	2455.470421
933.767943	2458.293467
934.071153	2465.829992
934.374323	2457.562500
934.677455	2462.805300
934.980548	2460.864456
935.283602	2458.873200
935.586617	2460.511575
935.889593	2452.470935
936.192530	2452.319700
936.495428	2458.948817
936.798287	2461.923098
937.101108	2456.529063
937.403890	2461.267748
937.706632	2466.107256
938.009336	2457.033179
938.312002	2469.610858
938.614628	2461.242542
938.917216	2463.082563
939.219765	2451.966819
939.522275	2465.905610
939.824747	2463.385033
940.127179	2462.250773
940.429573	2463.057358
940.731929	2466.031638
941.034246	2453.101079
941.336524	2458.192644
941.638763	2467.670013
941.940964	2465.930815
942.243126	2464.090794
942.545250	2465.703963
942.847335	2460.234312
943.149381	2466.082050
943.451389	2459.906637
943.753359	2450.378856
944.055290	2464.317646
944.357182	2459.326904
944.659036	2460.738427
944.960851	2463.536267
945.262628	2459.704990
945.564367	2462.452419
945.866067	2461.444188
946.167729	2458.243056
946.469352	2455.243569
946.770937	2461.746658
947.072484	2459.755402
947.373992	2457.436471
947.675462	2454.865483
947.976893	2454.512602
948.278286	2461.973510
948.579641	2460.007460
948.880958	2455.546038
949.182236	2466.031638
949.483476	2461.292954
949.784678	2462.175156
950.085841	2459.478138
950.386967	2457.587706
950.688054	2463.712708
950.989103	2459.452933
951.290114	2465.199848
951.591087	2456.932356
951.892021	2458.495113
952.192917	2450.656119
952.493776	2471.551702
952.794596	2453.680812
953.095378	2464.670527
953.396122	2455.243569
953.696828	2459.931842
953.997496	2461.872687
954.298126	2468.325363
954.598718	2459.780608
954.899272	2464.065588
955.199788	2458.974023
955.500266	2454.966306
955.800706	2465.351083
956.101108	2450.177210
956.401472	2459.200875
956.701798	2455.293981
957.002087	2461.519806
957.302337	2461.721452
957.602550	2472.307875
957.902724	2452.874227
958.202861	2456.277006
958.502960	2457.108796
958.803022	2463.737913
959.103045	2456.755915
959.403031	2459.704990
959.702979	2450.605708
960.002889	2462.225567
960.302762	2452.269288
960.602596	2461.671040
960.902393	2453.201902
961.202153	2451.462704
961.501875	2460.360340
961.801559	2455.873713
962.101205	2461.721452
962.400814	2462.074333
962.700385	2457.688529
962.999918	2456.604681
963.299414	2451.235852
963.598873	2456.806327
963.898293	2455.445215
964.197677	2453.605194
964.497022	2447.656633
964.796331	2455.344392
965.095601	2459.957048
965.394835	2455.873713
965.694030	2458.293467
965.993189	2451.790379
966.292309	2453.403548
966.591393	2454.361367
966.890439	2455.722479
967.189447	2462.326390
967.488419	2452.218877
967.787353	2458.318673
968.086249	2451.613938
968.385108	2458.419496
968.683930	2453.000256
968.982714	2458.469908
969.281462	2454.033692
969.580172	2466.006433
969.878844	2458.721965
970.177480	2463.485856
970.476078	2451.865996
970.774639	2459.629373
971.073162	2458.192644
971.371649	2463.057358
971.670098	2454.336162
971.968510	2469.963738
972.266885	2450.076387
972.565223	2460.637604
972.863524	2447.379369
973.161788	2461.494600
973.460014	2455.949331
973.758204	2459.377315
974.056356	2453.504371
974.354471	2460.713221
974.652550	2461.368571
974.950591	2458.117027
975.248595	2461.973510
975.546563	2455.092335
975.844493	2460.435958
976.142386	2453.277519
976.440243	2456.150977
976.738062	2460.965279
977.035845	2452.143260
977.333590	2454.336162
977.631299	2453.075873
977.928971	2458.469908
978.226606	2447.177723
978.524204	2453.756429
978.821765	2455.369598
979.119290	2451.059412
979.416777	2456.554269
979.714228	2456.680298
980.011642	2453.731223
980.309020	2457.663323
980.606360	2458.948817
980.903664	2457.234825
981.200931	2455.218363
981.498162	2463.637090
981.795356	2450.000769
982.092513	2455.167952
982.389633	2460.284723
982.686717	2460.864456
982.983764	2464.317646
983.280775	2458.545525
983.577749	2459.604167
983.874686	2459.175669
984.171587	2453.958075
984.468451	2457.738940
984.765279	2459.780608
985.062070	2457.436471
985.358824	2464.292440
985.655543	2455.092335
985.952224	2455.167952
986.248869	2460.738427
986.545478	2449.244596
986.842050	2454.588219
987.138586	2451.513115
987.435086	2458.041410
987.731549	2460.209106
988.027975	2454.588219
988.324366	2455.167952
988.620719	2445.715788
988.917037	2456.579475
989.213318	2452.697787
989.509563	2459.805813
989.805772	2450.630913
990.101944	2457.713735
990.398080	2457.411265
990.694180	2461.040896
990.990244	2454.336162
991.286271	2451.916408
991.582262	2454.386573
991.878217	2449.597477
992.174136	2455.344392
992.470019	2460.788838
992.765865	2452.949844
993.061676	2446.169492
993.357450	2451.235852
993.653188	2444.455500
993.948890	2449.219390
994.244556	2458.394290
994.540186	2467.191104
994.835780	2453.781635
995.131337	2459.604167
995.426859	2462.275979
995.722345	2449.345419
996.017795	2454.159721
996.313208	2461.141719
996.608586	2453.655606
996.903928	2457.134002
997.199234	2454.764660
997.494504	2454.840277
997.789738	2462.250773
998.084936	2462.956535
998.380099	2456.907150
998.675225	2459.982254
998.970316	2454.941100
999.265371	2457.033179
999.560390	2457.310442
999.855373	2463.637090
1000.150320	2455.369598
1000.445232	2460.461163
1000.740108	2449.143773
1001.034948	2457.260031
1001.329752	2454.411779
1001.624521	2461.444188
1001.919254	2453.706017
1002.213951	2457.360854
1002.508613	2447.984308
1002.803239	2448.564040
1003.097829	2458.293467
1003.392384	2454.285750
1003.686903	2453.605194
1003.981386	2451.588733
1004.275834	2456.277006
1004.570246	2457.335648
1004.864623	2456.352623
1005.158964	2447.127312
1005.453270	2458.772377
1005.747540	2461.116513
1006.041775	2458.923612
1006.335974	2454.714248
1006.630138	2452.370112
1006.924266	2462.326390
1007.218359	2451.538321
1007.512416	2447.757456
1007.806438	2455.747685
1008.100425	2459.780608
1008.394376	2444.732763
1008.688292	2451.084617
1008.982172	2457.360854
1009.276017	2451.664350
1009.569827	2452.193671
1009.863602	2463.107769
1010.157341	2458.520319
1010.451045	2457.663323
1010.744714	2456.932356
1011.038347	2454.033692
1011.331945	2453.403548
1011.625508	2452.395317
1011.919036	2452.244083
1012.212528	2455.924125
1012.505986	2452.924638
1012.799408	2451.689556
1013.092795	2449.824329
1013.386147	2458.847994
1013.679464	2454.084104
1013.972745	2454.008487
1014.265992	2449.521860
1014.559204	2464.846967
1014.852380	2453.680812
1015.145521	2459.957048
1015.438628	2450.000769
1015.731699	2456.629887
1016.024736	2458.318673
1016.317737	2451.261058
1016.610703	2449.093362
1016.903635	2459.755402
1017.196531	2458.444702
1017.489393	2456.302212
1017.782219	2453.302725
1018.075011	2462.654065
1018.367768	2453.554783
1018.660490	2454.386573
1018.953177	2454.386573
1019.245829	2454.386573
