Dividing Wavelength (nm)	Counts (n)	Slit_number_12_of_a_total_of_40	
326.493990	2044.465148
326.888308	2044.465148
327.282561	2044.465148
327.676750	2020.368433
328.070874	2022.838598
328.464933	2028.409073
328.858929	2034.710515
329.252859	2042.499098
329.646726	2054.144163
330.040528	2082.324213
330.434265	2093.918867
330.827938	2120.309308
331.221547	2139.541310
331.615091	2161.344300
332.008571	2165.125165
332.401986	2192.675071
332.795338	2216.847404
333.188625	2235.852554
333.581847	2249.917373
333.975006	2276.610283
334.368100	2289.213167
334.761129	2307.235292
335.154095	2323.014104
335.546996	2347.766169
335.939833	2356.991481
336.332606	2371.963708
336.725315	2387.868548
337.117960	2386.809906
337.510540	2402.840775
337.903056	2413.401992
338.295508	2411.914852
338.687896	2426.786256
339.080220	2425.500762
339.472480	2434.650456
339.864676	2433.163315
340.256807	2438.935437
340.648875	2443.900973
341.040879	2447.278546
341.432818	2448.286777
341.824694	2448.589246
342.216506	2450.076387
342.608253	2454.058898
342.999937	2454.613425
343.391557	2437.851588
343.783113	2449.874740
344.174605	2438.935437
344.566033	2439.918462
344.957397	2444.707558
345.348697	2433.541402
345.739934	2435.608275
346.131106	2430.214240
346.522215	2438.179263
346.913260	2431.550146
347.304241	2424.542942
347.695159	2429.432862
348.086012	2430.894796
348.476802	2430.012594
348.867528	2426.483787
349.258191	2406.772875
349.648789	2412.494585
350.039324	2422.753333
350.429796	2418.291912
350.820203	2423.307860
351.210548	2420.988929
351.600828	2417.308887
351.991045	2411.360325
352.381198	2414.107754
352.771288	2417.384504
353.161314	2419.703435
353.551276	2418.669998
353.941175	2408.260015
354.331010	2415.746129
354.720782	2415.695717
355.110490	2418.745615
355.500135	2413.578433
355.889717	2421.190575
356.279235	2414.132960
356.668689	2413.553227
357.058080	2411.209090
357.447408	2417.107240
357.836672	2413.679256
358.225873	2415.292425
358.615010	2414.914338
359.004084	2421.089752
359.393095	2416.754360
359.782043	2428.676688
360.170927	2420.333579
360.559748	2419.451377
360.948505	2422.148394
361.337199	2430.768767
361.725830	2423.055802
362.114398	2420.686460
362.502903	2427.315577
362.891344	2428.853129
363.279722	2421.316604
363.668037	2426.660227
364.056289	2422.728127
364.444478	2430.995619
364.832603	2425.425144
365.220665	2424.971440
365.608665	2432.003850
365.996601	2422.173600
366.384474	2432.936463
366.772284	2433.969900
367.160031	2433.995106
367.547715	2428.878335
367.935336	2430.793973
368.322893	2421.568662
368.710388	2428.777512
369.097820	2431.323294
369.485189	2425.122675
369.872495	2428.071750
370.259738	2430.415887
370.646918	2426.307346
371.034035	2435.860333
371.421090	2429.483273
371.808081	2432.633994
372.195010	2428.827923
372.581875	2429.609302
372.968678	2441.582042
373.355418	2435.255394
373.742096	2435.255394
374.128710	2427.920515
374.515262	2428.197779
374.901751	2432.205496
375.288177	2438.658173
375.674540	2433.087698
376.060841	2438.582556
376.447079	2441.279573
376.833254	2432.381937
377.219367	2433.213727
377.605417	2434.600044
377.991404	2441.254367
378.377329	2431.398912
378.763191	2429.533685
379.148991	2443.321240
379.534727	2436.314037
379.920402	2437.624737
380.306013	2442.413833
380.691563	2441.153544
381.077049	2431.071237
381.462474	2437.775971
381.847835	2433.743048
382.233134	2444.505912
382.618371	2432.558377
383.003545	2438.154058
383.388657	2439.237906
383.773706	2433.163315
384.158693	2448.236365
384.543618	2435.961156
384.928480	2438.254881
385.313280	2440.624223
385.698017	2440.901487
386.082692	2448.664863
386.467305	2439.061465
386.851856	2442.892742
387.236344	2445.388113
387.620770	2442.943154
388.005133	2432.281113
388.389435	2436.011567
388.773674	2441.985335
389.157851	2442.388627
389.541965	2439.968873
389.926018	2441.027515
390.310008	2443.144800
390.693936	2445.740994
391.077802	2442.917948
391.461606	2443.371652
391.845348	2442.212187
392.229027	2451.714762
392.612645	2437.851588
392.996200	2446.774431
393.379694	2446.169492
393.763125	2442.691096
394.146494	2445.463731
394.529801	2448.261571
394.913047	2451.513115
395.296230	2456.781121
395.679351	2447.732250
396.062410	2436.742535
396.445408	2441.859306
396.828343	2456.705504
397.211217	2444.606735
397.594028	2448.916921
397.976778	2445.186467
398.359466	2438.355704
398.742092	2443.648915
399.124656	2439.036260
399.507158	2444.581529
399.889598	2448.160748
400.271977	2446.875254
400.654294	2454.663837
401.036549	2443.724533
401.418742	2452.193671
401.800874	2447.631427
402.182944	2453.630400
402.564952	2449.345419
402.946898	2455.772890
403.328783	2446.219904
403.710606	2446.900460
404.092367	2451.639144
404.474067	2454.134515
404.855705	2448.740481
405.237282	2458.974023
405.618797	2457.058385
406.000250	2454.436985
406.381642	2466.308902
406.762972	2451.613938
407.144240	2452.445729
407.525447	2449.345419
407.906593	2453.605194
408.287677	2458.898406
408.668700	2452.143260
409.049661	2459.125258
409.430560	2454.739454
409.811399	2457.285237
410.192176	2452.798610
410.572891	2460.612398
410.953545	2450.731737
411.334138	2450.580502
411.714669	2457.310442
412.095139	2462.376802
412.475547	2460.032665
412.855894	2451.765173
413.236180	2444.984821
413.616405	2451.235852
413.996568	2460.083077
414.376670	2457.562500
414.756711	2455.520833
415.136691	2452.773404
415.516609	2465.603140
415.896466	2460.158694
416.276262	2458.041410
416.655997	2452.571758
417.035670	2455.722479
417.415283	2457.335648
417.794834	2463.536267
418.174324	2455.898919
418.553753	2465.956021
418.933121	2464.947790
419.312428	2464.720938
419.691674	2463.813531
420.070859	2458.797583
420.449983	2461.696246
420.829045	2466.107256
421.208047	2462.149950
421.586988	2463.006946
421.965867	2456.781121
422.344686	2468.753862
422.723444	2457.134002
423.102141	2465.729169
423.480777	2468.048100
423.859352	2465.099025
424.237866	2461.998715
424.616319	2463.284210
424.994712	2471.904583
425.373044	2462.452419
425.751314	2465.477112
426.129524	2464.796556
426.507673	2457.134002
426.885762	2463.460650
427.263789	2473.492546
427.641756	2462.502831
428.019662	2471.299644
428.397508	2466.082050
428.775292	2465.930815
429.153016	2463.889148
429.530679	2469.182360
429.908282	2464.468881
430.285824	2473.139665
430.663305	2472.534727
431.040726	2468.980713
431.418086	2467.417956
431.795385	2464.720938
432.172624	2477.928762
432.549802	2462.603654
432.926920	2473.921044
433.303977	2471.224027
433.680974	2474.097485
434.057910	2474.525983
434.434786	2468.703450
434.811601	2465.552729
435.188355	2471.224027
435.565050	2475.735860
435.941683	2472.055817
436.318257	2469.031125
436.694770	2470.669500
437.071222	2466.485342
437.447614	2473.089254
437.823946	2477.601087
438.200218	2470.619088
438.576429	2477.802733
438.952580	2469.736887
439.328670	2485.112406
439.704700	2481.684421
440.080670	2477.979173
440.456580	2475.433390
440.832429	2476.996148
441.208218	2475.483802
441.583947	2467.392750
441.959616	2468.955508
442.335224	2475.609831
442.710773	2472.282669
443.086261	2474.525983
443.461689	2476.996148
443.837057	2475.786271
444.212365	2478.634523
444.587612	2462.830506
444.962800	2471.854171
445.337927	2480.323310
445.712995	2477.853144
446.088002	2480.474544
446.462949	2476.113946
446.837837	2483.247179
447.212664	2481.558392
447.587431	2479.869606
447.962139	2482.717858
448.336786	2480.625779
448.711374	2482.314565
449.085901	2486.246665
449.460369	2481.634010
449.834776	2480.272898
450.209124	2487.431337
450.583412	2486.523929
450.957640	2496.581031
451.331808	2491.363437
451.705917	2489.851090
452.079965	2494.035248
452.453954	2498.068171
452.827883	2486.397900
453.201752	2495.522388
453.575562	2494.388129
453.949311	2496.732265
454.323001	2499.958604
454.696632	2497.664879
455.070202	2497.841319
455.443713	2499.378871
455.817164	2502.655621
456.190556	2507.646363
456.563888	2496.202944
456.937160	2500.235867
457.310373	2495.320742
457.683526	2505.050169
458.056619	2503.966321
458.429653	2509.057887
458.802628	2509.889677
459.175542	2503.663852
459.548398	2510.645850
459.921194	2516.896881
460.293930	2522.719413
460.666607	2527.735362
461.039224	2529.272913
461.411782	2522.568179
461.784280	2530.860877
462.156719	2525.920546
462.529099	2533.784746
462.901419	2522.845442
463.273680	2532.574869
463.645882	2519.089783
464.018024	2527.231246
464.390106	2526.903571
464.762130	2546.690100
465.134094	2552.336192
465.505999	2564.510579
465.877845	2579.230748
466.249631	2595.942173
466.621358	2580.037333
466.993026	2581.574885
467.364634	2593.270362
467.736184	2588.153590
468.107674	2584.498754
468.479105	2591.455546
468.850477	2581.776531
469.221790	2592.892275
469.593043	2591.657192
469.964238	2601.084150
470.335373	2594.707090
470.706449	2614.216356
471.077467	2638.388688
471.448425	2669.895900
471.819324	2701.831610
472.190164	2696.160312
472.560945	2694.017821
472.931667	2695.832637
473.302330	2702.159285
473.672934	2710.527600
474.043479	2723.861452
474.413965	2733.968965
474.784393	2748.487488
475.154761	2774.625871
475.525070	2806.460758
475.895321	2827.532781
476.265513	2842.202538
476.635645	2878.095554
477.005719	2900.957187
477.375734	2933.018925
477.745691	2987.791062
478.115588	3040.269473
478.485427	3108.476285
478.855207	3218.146587
479.224928	3325.397135
479.594591	3424.833894
479.964194	3446.536062
480.333739	3494.174965
480.703226	3555.046898
481.072653	3664.213085
481.442022	3757.121550
481.811333	3846.526413
482.180584	3885.872619
482.549777	3951.205973
482.918912	4018.858258
483.287988	4117.765696
483.657005	4169.639169
484.025964	4239.559973
484.394864	4339.248790
484.763706	4418.168054
485.132489	4487.458713
485.501213	4607.891879
485.869879	4703.900654
486.238487	4819.922810
486.607036	4942.069967
486.975527	5057.310744
487.343959	5206.402869
487.712333	5345.664744
488.080648	5492.059852
488.448905	5679.868038
488.817104	5824.750800
489.185244	6070.053346
489.553326	6402.467031
489.921350	6905.372538
490.289315	7452.841846
490.657222	7778.651619
491.025070	8053.722179
491.392861	8175.642485
491.760593	8247.529338
492.128267	8251.511850
492.495883	8287.278837
492.863440	8317.248496
493.230939	8353.116306
493.598380	8454.115823
493.965763	8633.883369
494.333088	8757.593285
494.700354	8923.144777
495.067563	9102.332590
495.434713	9317.589860
495.801805	9583.787988
496.168839	9768.092573
496.535815	9984.005192
496.902733	10228.576771
497.269593	10401.387525
497.636395	10639.657662
498.003139	11002.973619
498.369825	11149.923254
498.736453	11492.520069
499.103023	11649.829275
499.469535	11884.419369
499.835989	12173.327896
500.202385	12390.072306
500.568723	12658.412925
500.935003	13006.630627
501.301226	13243.741298
501.667390	13684.136498
502.033497	14036.790415
502.399546	14192.234394
502.765537	14253.358385
503.131470	14644.073013
503.497345	15056.540221
503.863163	14892.979985
504.228923	15388.752260
504.594625	15830.609394
504.960269	15831.617625
505.325856	16379.036521
505.691385	16443.084381
506.056856	16782.782533
506.422270	17240.065598
506.787625	17348.021908
507.152924	17732.183037
507.518164	18077.275223
507.883347	18021.116769
508.248472	18417.553108
508.613540	18906.116533
508.978550	19288.916550
509.343503	19482.698504
509.708398	19859.373519
510.073236	20369.286231
510.438016	20653.355250
510.802738	20646.423663
511.167403	21227.114175
511.532010	21589.648754
511.896561	21999.696208
512.261053	22710.146019
512.625488	22753.802412
512.989866	22944.181587
513.354186	23112.127627
513.718449	23323.730060
514.082655	23947.749288
514.446803	24006.680377
514.810894	24547.999477
515.174927	24686.883265
515.538904	24832.446583
515.902822	25421.681850
516.266684	25335.452913
516.630488	25767.278152
516.994235	25862.379519
517.357925	26372.645112
517.721558	26622.862783
518.085133	26990.488927
518.448651	27223.289412
518.812112	27266.214837
519.175516	27449.259133
519.538863	27809.827662
519.902152	27946.972252
520.265385	28357.725467
520.628560	28470.974988
520.991678	28419.630837
521.354739	28701.103662
521.717743	28988.323402
522.080690	28977.434510
522.443580	29429.147100
522.806413	29533.675425
523.169189	29531.180054
523.531908	29715.862725
523.894569	29680.398208
524.257174	29765.467679
524.619722	30000.309831
524.982213	29983.321142
525.344647	29957.686875
525.707025	30009.635965
526.069345	30224.237885
526.431608	30104.107188
526.793815	30333.076396
527.155964	29998.923513
527.518057	30080.817058
527.880093	29859.157523
528.242072	30114.945669
528.603995	29883.607119
528.965860	29789.287131
529.327669	29822.533540
529.689421	29638.985129
530.051117	29504.260292
530.412755	29495.488685
530.774337	29375.660458
531.135862	29209.377998
531.497331	29179.534367
531.858743	28960.193763
532.220098	29055.219513
532.581396	28743.827440
532.942638	28353.868985
533.303824	28438.610781
533.664953	28195.778400
534.026025	27904.601354
534.387040	27995.266506
534.747999	27782.555019
535.108902	27699.602833
535.469748	27201.057923
535.830537	27076.793481
536.191270	27017.685952
536.551947	26600.706912
536.912567	26567.082415
537.273131	26433.567456
537.633638	25888.870783
537.994089	25851.994742
538.354483	25435.519817
538.714821	25515.321283
539.075103	25457.801717
539.435328	25109.407575
539.795497	24798.922910
540.155609	24581.573562
540.515665	24572.146604
540.875665	24034.784810
541.235609	23949.085194
541.595496	23719.662283
541.955328	23788.650473
542.315102	23218.470767
542.674821	22859.969112
543.034483	22633.747333
543.394090	22359.155683
543.753640	22076.271335
544.113134	22274.943208
544.472571	21541.052031
544.831953	21843.370027
545.191278	21245.337946
545.550548	20834.156233
545.909761	20793.196858
546.268918	20621.797627
546.628019	20446.768765
546.987064	20011.641571
547.346053	19482.900150
547.704986	19535.580208
548.063863	19088.656713
548.422684	18938.783210
548.781449	18586.230115
549.140158	18493.598913
549.498811	18168.898194
549.857408	17697.348663
550.215949	17737.854335
550.574434	17428.755987
550.932864	17124.471940
551.291237	17113.406608
551.649555	16740.663692
552.007817	16561.425467
552.366022	16199.924325
552.724173	16038.481373
553.082267	15947.135665
553.440305	15760.386121
553.798288	15328.787735
554.156215	15175.486246
554.514086	14996.147198
554.871902	14722.210898
555.229661	14491.401669
555.587365	14227.245208
555.945014	14036.034242
556.302606	13824.230163
556.660143	13649.428154
557.017625	13466.182212
557.375050	13203.991800
557.732421	13094.623967
558.089735	12882.895506
558.446994	12636.307465
558.804197	12555.951473
559.161345	12358.338242
559.518437	12000.239879
559.875474	11870.959488
560.232455	11730.487737
560.589381	11584.672362
560.946251	11357.190294
561.303065	11292.386262
561.659825	11095.226735
562.016528	10853.906700
562.373177	10625.592842
562.729770	10572.383463
563.086307	10313.545419
563.442789	10246.573690
563.799216	10077.241333
564.155587	9905.287575
564.511904	9748.734542
564.868164	9631.678950
565.224370	9519.639306
565.580520	9338.712294
565.936615	9214.094971
566.292654	9044.182881
566.648638	8956.895302
567.004567	8808.937437
567.360441	8684.773817
567.716260	8496.814396
568.072023	8437.253163
568.427732	8313.039133
568.783385	8137.304510
569.138982	8047.067856
569.494525	7943.850231
569.850013	7798.488560
570.205445	7679.643358
570.560823	7547.539921
570.916145	7432.072292
571.271412	7320.335117
571.626625	7194.886004
571.981782	7089.248625
572.336884	6965.437887
572.691931	6888.056175
573.046923	6754.490804
573.401860	6637.762887
573.756743	6533.965529
574.111570	6473.068390
574.466342	6361.432038
574.821059	6288.789012
575.175722	6163.289487
575.530330	6057.929371
575.884882	5953.451458
576.239380	5860.542992
576.593823	5782.430313
576.948211	5692.218865
577.302544	5585.472433
577.656823	5518.299058
578.011047	5461.712106
578.365216	5360.939440
578.719330	5265.510398
579.073389	5192.665725
579.427394	5129.248010
579.781344	5065.578237
580.135239	4984.743335
580.489080	4928.912556
580.842866	4838.323021
581.196597	4806.941838
581.550273	4750.682562
581.903895	4689.457748
582.257463	4662.941279
582.610975	4579.207713
582.964434	4528.317265
583.317837	4471.478256
583.671186	4419.377931
584.024481	4370.554356
584.377721	4309.027073
584.730906	4271.218419
585.084037	4228.696287
585.437113	4170.168490
585.790135	4130.242552
586.143103	4065.438519
586.496016	4027.352602
586.848874	3987.804750
587.201679	3952.113381
587.554428	3906.894231
587.907124	3881.058317
588.259765	3833.293385
588.612352	3809.801608
588.964884	3752.483688
589.317362	3739.351483
589.669786	3710.944581
590.022155	3652.441990
590.374470	3648.459479
590.726731	3604.399794
591.078937	3557.391035
591.431090	3543.855537
591.783188	3504.635360
592.135232	3470.557160
592.487222	3462.012404
592.839157	3430.656427
593.191038	3387.630179
593.542866	3374.271121
593.894639	3336.916171
594.246358	3318.037050
594.598022	3303.190852
594.949633	3270.902262
595.301190	3259.383225
595.652692	3236.143506
596.004141	3213.685165
596.355535	3185.101823
596.706876	3170.759740
597.058162	3144.797798
597.409395	3146.234527
597.760573	3128.464460
598.111698	3112.307562
598.462768	3081.985021
598.813785	3076.238106
599.164748	3054.183058
599.515657	3042.739638
599.866511	3023.356402
600.217312	3017.508663
600.568060	2988.774087
600.918753	2997.470077
601.269392	2983.984990
601.619978	2966.542598
601.970510	2953.183540
602.320988	2939.295162
602.671412	2932.313163
603.021783	2933.674275
603.372100	2910.358938
603.722363	2905.317785
604.072572	2894.706156
604.422728	2885.707696
604.772830	2879.633106
605.122878	2870.231354
605.472872	2861.409335
605.822813	2856.342975
606.172701	2838.144410
606.522534	2841.043073
606.872314	2842.303362
607.222041	2829.171156
607.571714	2815.434012
607.921333	2803.057979
608.270899	2801.343987
608.620411	2790.908798
608.969870	2791.992646
609.319276	2780.397992
609.668627	2773.718463
610.017926	2782.036367
610.367171	2773.945315
610.716362	2765.425765
611.065500	2758.468973
611.414585	2758.998294
611.763616	2753.427819
612.112594	2740.774523
612.461518	2739.337794
612.810389	2733.086763
613.159207	2733.162381
613.507971	2724.844477
613.856682	2724.718448
614.205340	2716.526573
614.553945	2717.106306
614.902496	2716.627396
615.250994	2703.117104
615.599439	2700.823379
615.947830	2706.847558
616.296169	2690.388190
616.644454	2684.742098
616.992686	2683.028106
617.340864	2684.212777
617.688990	2679.953002
618.037063	2669.643842
618.385082	2667.350117
618.733048	2671.836744
619.080961	2671.685510
619.428821	2669.290962
619.776628	2655.024496
620.124382	2655.528612
620.472083	2657.771925
620.819731	2649.630462
621.167326	2642.799698
621.514868	2646.303300
621.862357	2643.329019
622.209793	2628.129940
622.557176	2623.391256
622.904506	2624.727162
623.251783	2623.416462
623.599007	2611.670573
623.946179	2617.543517
624.293297	2608.645881
624.640363	2599.647421
624.987376	2597.177256
625.334336	2588.279619
625.681243	2593.799683
626.028097	2591.279106
626.374899	2595.186000
626.721647	2588.153590
627.068343	2581.852148
627.414987	2583.011613
627.761577	2577.012640
628.108115	2579.936510
628.454600	2574.769327
628.801032	2570.408729
629.147412	2570.307906
629.493739	2570.484346
629.840014	2570.484346
630.186236	2566.274983
630.532405	2565.392781
630.878521	2556.192675
631.224585	2556.848025
631.570597	2554.680329
631.916556	2558.738458
632.262462	2551.453990
632.608316	2560.301215
632.954117	2555.411296
633.299866	2557.931873
633.645562	2539.531662
633.991206	2558.385577
634.336797	2549.866027
634.682336	2544.824873
635.027823	2538.901517
635.373257	2547.899977
635.718639	2547.345450
636.063968	2535.574356
636.409245	2548.404092
636.754470	2542.455531
637.099642	2535.045035
637.444762	2530.634025
637.789829	2528.390712
638.134845	2538.271373
638.479808	2531.894313
638.824719	2528.541946
639.169577	2524.181348
639.514383	2532.297606
639.859137	2532.171577
640.203839	2526.752337
640.548489	2517.098527
640.893086	2526.701925
641.237632	2522.089269
641.582125	2520.828981
641.926566	2518.510050
642.270955	2520.123219
642.615292	2510.368587
642.959576	2525.466842
643.303809	2510.343381
643.647990	2518.661285
643.992118	2522.694208
644.336195	2521.685977
644.680219	2516.922087
645.024192	2523.072294
645.368112	2517.854700
645.711981	2515.939062
646.055797	2521.635565
646.399562	2518.308404
646.743274	2522.064063
647.086935	2520.224042
647.430544	2529.449354
647.774101	2519.871162
648.117606	2520.702952
648.461059	2524.584640
648.804460	2516.821263
649.147810	2525.718900
649.491108	2508.906652
649.834354	2517.753877
650.177548	2516.670029
650.520690	2506.965808
650.863781	2533.734335
651.206820	2518.636079
651.549807	2513.317662
651.892742	2513.872188
652.235626	2514.351098
652.578458	2508.553771
652.921238	2509.587208
653.263967	2513.342867
653.606644	2508.805829
653.949269	2513.821777
654.291843	2504.319202
654.634365	2516.342354
654.976836	2511.452435
655.319255	2516.720440
655.661622	2503.663852
656.003938	2502.353152
656.346203	2501.949860
656.688416	2510.166940
657.030577	2513.015192
657.372687	2508.402537
657.714746	2504.470437
658.056753	2504.823317
658.398708	2510.998731
658.740612	2503.134531
659.082465	2506.612927
659.424266	2499.656135
659.766016	2493.354692
660.107715	2503.865498
660.449362	2493.657162
660.790958	2502.983296
661.132503	2510.091323
661.473996	2503.084119
661.815438	2505.957577
662.156829	2510.620644
662.498168	2507.318688
662.839456	2499.353665
663.180693	2505.428256
663.521879	2499.177225
663.863013	2502.983296
664.204097	2502.529592
664.545129	2502.252329
664.886110	2511.149965
665.227040	2497.387615
665.567918	2506.638133
665.908746	2504.369613
666.249522	2509.814060
666.590248	2505.428256
666.930922	2513.468896
667.271545	2509.234327
667.612118	2502.554798
667.952639	2503.991527
668.293109	2502.983296
668.633528	2497.816113
668.973896	2498.446258
669.314213	2504.646877
669.654480	2511.679287
669.994695	2499.756958
670.334859	2502.428769
670.674973	2498.748727
671.015035	2498.168994
671.355047	2499.152019
671.695008	2505.428256
672.034918	2491.489465
672.374777	2503.033708
672.714585	2493.052223
673.054342	2505.655108
673.394049	2505.529079
673.733705	2498.017760
674.073310	2504.293996
674.412864	2497.160763
674.752368	2501.193687
675.091820	2501.521362
675.431223	2500.009015
675.770574	2507.167454
676.109875	2498.496669
676.449125	2497.790908
676.788324	2491.489465
677.127473	2502.227123
677.466571	2497.740496
677.805619	2505.150992
678.144616	2500.286279
678.483562	2489.599033
678.822458	2496.883500
679.161303	2495.345948
679.500098	2501.949860
679.838842	2495.169508
680.177535	2495.850063
680.516179	2489.876296
680.854771	2500.790394
681.193314	2493.984837
681.531805	2490.430823
681.870247	2503.487412
682.208638	2494.917450
682.546978	2507.117042
682.885268	2503.663852
683.223508	2499.731752
683.561697	2505.655108
683.899836	2495.875269
684.237925	2499.000785
684.575963	2506.108812
684.913951	2498.899962
685.251889	2498.597492
685.589776	2495.698829
685.927614	2498.622698
686.265401	2497.387615
686.603137	2499.101608
686.940824	2506.007988
687.278460	2496.429796
687.616046	2498.446258
687.953582	2511.981756
688.291068	2501.849037
688.628504	2506.965808
688.965889	2490.985350
689.303224	2495.497183
689.640510	2499.983810
689.977745	2497.891731
690.314930	2494.337717
690.652065	2494.892244
690.989150	2502.529592
691.326185	2496.253356
691.663170	2494.136071
692.000105	2499.303254
692.336990	2500.563542
692.673825	2501.269304
693.010610	2498.471463
693.347345	2488.792448
693.684030	2484.431850
694.020665	2495.598006
694.357251	2479.113433
694.693786	2492.598519
695.030272	2489.926708
695.366707	2481.684421
695.703093	2489.548621
696.039429	2493.757985
696.375716	2480.222487
696.711952	2492.699342
697.048139	2483.801706
697.384276	2489.120123
697.720363	2493.505927
698.056400	2484.129381
698.392388	2487.557365
698.728326	2494.816627
699.064214	2490.178765
699.400053	2482.213742
699.735842	2484.457056
700.071581	2488.742037
700.407270	2484.809937
700.742910	2487.330513
701.078501	2491.943169
701.414042	2487.254896
701.749533	2486.801192
702.084974	2487.859835
702.420366	2485.465287
702.755709	2481.003865
703.091002	2484.356233
703.426246	2480.499750
703.761440	2489.422592
704.096584	2479.869606
704.431679	2475.987917
704.766725	2488.540390
705.101721	2483.373208
705.436668	2476.189563
705.771565	2492.346462
706.106413	2483.121150
706.441212	2492.648931
706.775961	2480.751808
707.110661	2487.582571
707.445311	2483.952940
707.779913	2483.247179
708.114465	2484.583085
708.448967	2482.944710
708.783421	2488.590802
709.117825	2482.944710
709.452180	2491.943169
709.786485	2488.288333
710.120742	2477.727115
710.454949	2479.163844
710.789107	2486.019813
711.123216	2484.986377
711.457275	2491.035762
711.791286	2490.052737
712.125247	2489.548621
712.459159	2489.397387
712.793023	2492.144815
713.126837	2489.145329
713.460602	2488.363950
713.794318	2493.884013
714.127985	2485.490492
714.461602	2491.817140
714.795171	2487.935452
715.128691	2490.355206
715.462162	2489.498210
715.795584	2481.407158
716.128957	2487.355719
716.462281	2481.331540
716.795556	2487.885040
717.128782	2483.877323
717.461960	2485.314052
717.795088	2485.868579
718.128167	2478.180819
718.461198	2487.254896
718.794180	2482.339771
719.127113	2479.037815
719.459997	2475.685448
719.792833	2478.508494
720.125619	2477.601087
720.458357	2482.314565
720.791046	2485.918990
721.123686	2482.793475
721.456278	2479.617548
721.788821	2484.406644
722.121315	2479.239462
722.453761	2486.473517
722.786158	2480.802219
723.118506	2485.011583
723.450805	2483.549648
723.783056	2470.921558
724.115259	2482.037302
724.447412	2487.910246
724.779518	2475.710654
725.111574	2480.852631
725.443582	2483.171562
725.775542	2485.465287
726.107453	2480.046046
726.439315	2485.792962
726.771129	2480.071252
727.102895	2480.398927
727.434612	2475.937506
727.766281	2485.918990
728.097901	2486.246665
728.429473	2480.802219
728.760996	2484.356233
729.092471	2480.701396
729.423897	2490.103148
729.755276	2485.137612
730.086606	2482.995121
730.417887	2484.053763
730.749120	2475.710654
731.080305	2492.245638
731.411442	2478.735346
731.742530	2476.038329
732.073570	2489.624238
732.404562	2484.809937
732.735506	2490.330000
733.066401	2486.120637
733.397249	2481.255923
733.728048	2475.609831
734.058798	2478.079996
734.389501	2487.910246
734.720156	2477.449852
735.050762	2475.761065
735.381320	2470.568677
735.711831	2475.786271
736.042293	2479.088227
736.372707	2477.928762
736.703073	2475.987917
737.033391	2478.861375
737.363661	2488.036275
737.693883	2477.979173
738.024056	2480.096458
738.354182	2476.441621
738.684260	2481.886067
739.014290	2479.365490
739.344272	2489.624238
739.674207	2487.532160
740.004093	2488.641213
740.333931	2475.584625
740.663722	2478.206025
740.993464	2477.777527
741.323159	2475.635037
741.652806	2480.499750
741.982405	2479.819194
742.311956	2480.398927
742.641460	2477.928762
742.970915	2482.264154
743.300323	2470.467854
743.629683	2475.307362
743.958996	2467.090281
744.288260	2476.744090
744.617477	2475.887094
744.946647	2482.843887
745.275768	2475.887094
745.604842	2475.357773
745.933869	2478.508494
746.262847	2482.087713
746.591778	2476.441621
746.920662	2472.534727
747.249498	2470.770323
747.578286	2479.113433
747.907027	2475.509008
748.235720	2481.281129
748.564365	2476.970942
748.892963	2476.189563
749.221514	2487.128867
749.550017	2476.189563
749.878473	2476.164358
750.206881	2480.222487
750.535242	2479.844400
750.863555	2478.886581
751.191821	2477.928762
751.520039	2477.953967
751.848210	2472.811990
752.176334	2470.745117
752.504411	2475.156127
752.832440	2476.239975
753.160421	2478.432877
753.488356	2478.886581
753.816243	2477.601087
754.144082	2477.550675
754.471875	2474.626806
754.799620	2478.231231
755.127318	2474.904069
755.454969	2472.963225
755.782572	2477.399440
756.110129	2474.525983
756.437638	2476.567650
756.765100	2481.381952
757.092515	2471.602113
757.419882	2476.013123
757.747203	2475.030098
758.074477	2478.785758
758.401703	2475.987917
758.728882	2470.140179
759.056014	2473.366517
759.383099	2477.853144
759.710138	2472.408698
760.037129	2472.333081
760.364073	2472.559933
760.690970	2468.048100
761.017820	2466.989458
761.344623	2476.794502
761.671379	2478.962198
761.998088	2482.390183
762.324751	2469.988944
762.651366	2476.517238
762.977935	2482.843887
763.304456	2484.658702
763.630931	2488.187510
763.957359	2487.406131
764.283740	2481.054277
764.610074	2485.944196
764.936362	2480.499750
765.262602	2476.996148
765.588796	2484.053763
765.914943	2481.003865
766.241044	2475.836683
766.567097	2471.627319
766.893104	2477.475058
767.219064	2470.644294
767.544978	2473.895838
767.870845	2468.879890
768.196665	2480.650985
768.522438	2470.064562
768.848165	2469.837710
769.173846	2471.602113
769.499479	2467.997688
769.825066	2465.804787
770.150607	2473.341312
770.476101	2478.987404
770.801548	2478.458083
771.126949	2475.433390
771.452303	2464.544498
771.777611	2469.636063
772.102872	2477.777527
772.428087	2478.105202
772.753256	2465.451906
773.078378	2481.810450
773.403453	2469.812504
773.728482	2473.316106
774.053465	2469.762092
774.378401	2477.122177
774.703291	2464.569704
775.028135	2475.433390
775.352932	2477.046560
775.677683	2474.702423
776.002388	2474.147896
776.327046	2463.334621
776.651658	2471.274438
776.976224	2462.049127
777.300743	2468.527010
777.625216	2465.073819
777.949643	2465.930815
778.274024	2465.401494
778.598359	2461.469394
778.922647	2470.165385
779.246889	2467.619602
779.571086	2476.870119
779.895236	2475.761065
780.219339	2469.257977
780.543397	2469.232771
780.867409	2470.719912
781.191374	2463.208592
781.515294	2468.753862
781.839167	2477.046560
782.162995	2476.088740
782.486776	2463.485856
782.810511	2464.519292
783.134201	2467.972483
783.457844	2462.301185
783.781441	2473.089254
784.104993	2468.905096
784.428498	2472.988431
784.751958	2471.728142
785.075372	2472.081023
785.398739	2471.022381
785.722061	2468.022894
786.045337	2461.444188
786.368568	2471.324850
786.691752	2468.779067
787.014891	2471.526496
787.337983	2474.324337
787.661030	2475.030098
787.984031	2476.013123
788.306987	2473.895838
788.629897	2471.198821
788.952760	2472.559933
789.275579	2472.711167
789.598351	2470.694706
789.921078	2474.576394
790.243759	2479.239462
790.566395	2463.536267
790.888984	2474.147896
791.211529	2464.947790
791.534027	2471.828965
791.856480	2467.543985
792.178888	2469.409212
792.501249	2466.485342
792.823566	2464.494087
793.145836	2466.939046
793.468062	2467.140692
793.790241	2472.484315
794.112375	2470.619088
794.434464	2475.181333
794.756507	2477.676704
795.078505	2469.711681
795.400457	2468.274952
795.722364	2468.552215
796.044226	2472.005406
796.366042	2472.257463
796.687812	2467.241515
797.009538	2471.274438
797.331218	2459.301698
797.652852	2474.198308
797.974442	2472.660756
798.295986	2469.636063
798.617484	2474.677217
798.938938	2465.930815
799.260346	2465.451906
799.581709	2473.341312
799.903026	2472.811990
800.224299	2462.805300
800.545526	2472.030612
800.866708	2465.099025
801.187845	2471.274438
801.508936	2459.957048
801.829983	2465.729169
802.150984	2464.468881
802.471940	2477.172588
802.792851	2466.989458
803.113717	2473.467340
803.434538	2465.073819
803.755314	2466.586165
804.076045	2464.594910
804.396731	2464.670527
804.717372	2468.148923
805.037967	2474.273925
805.358518	2464.065588
805.679024	2475.887094
805.999485	2471.047587
806.319901	2472.081023
806.640272	2466.460137
806.960598	2473.769810
807.280879	2467.871660
807.601115	2473.795015
807.921306	2478.533700
808.241453	2468.451392
808.561554	2457.033179
808.881611	2464.191617
809.201623	2469.963738
809.521590	2465.300671
809.841513	2468.400981
810.161390	2467.065075
810.481223	2463.712708
810.801011	2469.409212
811.120755	2478.785758
811.440453	2472.333081
811.760107	2474.097485
812.079716	2466.737400
812.399281	2472.232258
812.718801	2467.871660
813.038276	2457.814558
813.357707	2471.123204
813.677093	2461.141719
813.996434	2466.787812
814.315731	2472.408698
814.634983	2465.351083
814.954191	2469.484829
815.273354	2469.333594
815.592473	2473.568163
815.911547	2471.904583
816.230577	2465.376288
816.549562	2475.357773
816.868502	2462.729683
817.187399	2463.788325
817.506250	2463.737913
817.825058	2467.342338
818.143821	2469.081537
818.462539	2466.838223
818.781213	2475.710654
819.099843	2473.038842
819.418429	2472.585138
819.736970	2470.946763
820.055466	2473.492546
820.373919	2463.158181
820.692327	2477.500263
821.010691	2479.592342
821.329011	2485.162817
821.647286	2501.445744
821.965517	2520.249248
822.283704	2529.751823
822.601847	2524.912315
822.919945	2520.224042
823.237999	2509.713237
823.556010	2518.484844
823.873976	2497.690085
824.191897	2495.043479
824.509775	2485.515698
824.827609	2491.262613
825.145398	2481.558392
825.463144	2489.548621
825.780845	2484.784731
826.098502	2489.447798
826.416116	2494.110865
826.733685	2491.514671
827.051210	2488.918477
827.368692	2496.328973
827.686129	2488.011069
828.003522	2485.742550
828.320872	2487.935452
828.638177	2479.743577
828.955439	2467.922071
829.272656	2481.734833
829.589830	2470.493060
829.906960	2479.718371
830.224046	2480.827425
830.541088	2467.266721
830.858086	2464.972996
831.175041	2475.256950
831.491952	2470.367031
831.808819	2468.224540
832.125642	2467.569190
832.442421	2482.516212
832.759157	2467.165898
833.075849	2477.550675
833.392497	2485.566110
833.709101	2469.787298
834.025662	2492.774960
834.342179	2483.020327
834.658653	2485.666933
834.975083	2466.939046
835.291469	2479.718371
835.607811	2476.416415
835.924110	2473.164871
836.240366	2476.416415
836.556578	2474.223513
836.872746	2473.190077
837.188871	2465.426700
837.504952	2466.132462
837.820990	2461.116513
838.136984	2475.130921
838.452935	2456.932356
838.768842	2458.948817
839.084706	2472.711167
839.400526	2467.846454
839.716303	2466.888635
840.032037	2470.064562
840.347727	2472.610344
840.663373	2466.082050
840.978977	2463.662296
841.294537	2471.350056
841.610054	2464.065588
841.925527	2475.735860
842.240957	2465.451906
842.556344	2463.485856
842.871687	2471.501290
843.186987	2474.273925
843.502244	2471.097998
843.817458	2465.401494
844.132629	2469.459623
844.447756	2458.293467
844.762840	2460.360340
845.077881	2462.074333
845.392879	2464.746144
845.707833	2467.493573
846.022745	2473.744604
846.337613	2463.233798
846.652438	2457.890175
846.967221	2461.822275
847.281960	2466.409725
847.596656	2469.862915
847.911309	2465.073819
848.225919	2464.166412
848.540485	2458.671554
848.855009	2461.166925
849.169490	2458.419496
849.483928	2461.771863
849.798323	2467.140692
850.112675	2465.779581
850.426984	2470.014150
850.741251	2463.964765
851.055474	2462.729683
851.369654	2466.787812
851.683792	2466.586165
851.997887	2466.460137
852.311938	2456.957562
852.625947	2457.083590
852.939914	2464.141206
853.253837	2460.234312
853.567718	2464.846967
853.881555	2466.560960
854.195350	2468.703450
854.509103	2468.476598
854.822812	2466.762606
855.136479	2458.747171
855.450103	2463.511062
855.763685	2467.065075
856.077224	2469.711681
856.390720	2448.614452
856.704173	2456.881944
857.017584	2467.291927
857.330953	2463.485856
857.644278	2472.131435
857.957561	2467.518779
858.270802	2468.552215
858.584000	2469.056331
858.897155	2461.948304
859.210268	2460.587192
859.523339	2466.510548
859.836367	2452.672581
860.149352	2458.621142
860.462295	2460.385546
860.775195	2466.082050
861.088054	2461.343365
861.400869	2470.215796
861.713642	2457.864969
862.026373	2465.956021
862.339062	2470.997175
862.651708	2458.974023
862.964312	2473.517752
863.276873	2464.090794
863.589392	2469.862915
863.901869	2450.202415
864.214303	2460.083077
864.526696	2460.108283
864.839045	2465.855198
865.151353	2472.862402
865.463619	2466.031638
865.775842	2470.341825
866.088023	2461.343365
866.400162	2467.417956
866.712258	2465.275465
867.024313	2465.678758
867.336325	2465.603140
867.648296	2464.116000
867.960224	2459.226081
868.272110	2472.837196
868.583954	2460.587192
868.895755	2470.795529
869.207515	2465.048613
869.519233	2474.248719
869.830909	2464.922585
870.142542	2466.334108
870.454134	2471.526496
870.765684	2467.619602
871.077191	2472.610344
871.388657	2462.729683
871.700081	2456.327417
872.011463	2463.385033
872.322803	2461.923098
872.634101	2467.745631
872.945357	2458.243056
873.256571	2466.460137
873.567744	2470.694706
873.878874	2460.940073
874.189963	2465.023408
874.501010	2461.494600
874.812015	2465.577935
875.122979	2468.426187
875.433900	2463.914354
875.744780	2457.184413
876.055618	2462.729683
876.366415	2470.871146
876.677169	2464.746144
876.987882	2478.458083
877.298554	2459.377315
877.609183	2457.638117
877.919771	2471.097998
878.230317	2459.452933
878.540822	2464.872173
878.851285	2468.300158
879.161707	2462.402008
879.472087	2472.509521
879.782425	2472.736373
880.092722	2469.459623
880.402977	2478.962198
880.713191	2485.112406
881.023363	2502.605210
881.333494	2494.136071
881.643583	2499.000785
881.953631	2493.783190
882.263637	2498.748727
882.573602	2490.254383
882.883526	2495.572800
883.193408	2492.850577
883.503248	2484.986377
883.813048	2481.608804
884.122806	2471.274438
884.432522	2481.961685
884.742197	2482.213742
885.051831	2469.938533
885.361424	2477.651498
885.670975	2472.005406
885.980485	2472.660756
886.289954	2471.299644
886.599382	2463.460650
886.908768	2458.469908
887.218113	2476.063535
887.527417	2464.191617
887.836680	2465.653552
888.145901	2465.880404
888.455082	2466.308902
888.764221	2459.679785
889.073319	2463.889148
889.382376	2463.586679
889.691392	2465.804787
890.000366	2465.426700
890.309300	2463.536267
890.618193	2463.863942
890.927044	2461.998715
891.235855	2466.434931
891.544625	2465.477112
891.853353	2456.831533
892.162041	2466.258490
892.470687	2468.375775
892.779293	2466.939046
893.087858	2470.568677
893.396381	2469.938533
893.704864	2464.947790
894.013306	2474.273925
894.321707	2472.207052
894.630068	2473.769810
894.938387	2479.239462
895.246665	2468.905096
895.554903	2469.736887
895.863100	2471.551702
896.171256	2475.256950
896.479371	2467.165898
896.787446	2475.786271
897.095480	2469.308388
897.403473	2470.644294
897.711425	2471.778554
898.019336	2464.242029
898.327207	2467.443162
898.635038	2469.736887
898.942827	2466.510548
899.250576	2470.694706
899.558284	2463.233798
899.865952	2470.493060
900.173579	2468.602627
900.481165	2468.426187
900.788711	2469.736887
901.096216	2463.914354
901.403681	2461.595423
901.711105	2467.972483
902.018489	2462.427213
902.325832	2459.326904
902.633135	2469.787298
902.940397	2452.975050
903.247619	2455.495627
903.554800	2464.065588
903.861941	2474.147896
904.169041	2482.364977
904.476101	2472.005406
904.783121	2481.583598
905.090100	2481.432363
905.397039	2477.752321
905.703938	2473.240488
906.010796	2471.450879
906.317614	2478.785758
906.624391	2474.349542
906.931129	2476.340798
907.237826	2466.334108
907.544483	2470.215796
907.851099	2459.578962
908.157675	2469.434417
908.464211	2459.831019
908.770707	2468.426187
909.077163	2468.905096
909.383578	2461.040896
909.689954	2469.081537
909.996289	2464.116000
910.302584	2468.627833
910.608839	2464.620115
910.915054	2461.444188
911.221229	2460.108283
911.527363	2455.873713
911.833458	2467.115487
912.139513	2458.721965
912.445527	2461.166925
912.751502	2472.433904
913.057436	2459.100052
913.363331	2465.477112
913.669186	2460.940073
913.975000	2464.872173
914.280775	2465.628346
914.586510	2466.359313
914.892205	2471.198821
915.197859	2463.309415
915.503475	2479.819194
915.809050	2480.272898
916.114585	2474.248719
916.420081	2479.995635
916.725536	2477.475058
917.030952	2481.583598
917.336328	2475.080510
917.641665	2471.576908
917.946961	2466.384519
918.252218	2466.258490
918.557435	2470.694706
918.862612	2463.183387
919.167750	2468.451392
919.472848	2464.846967
919.777906	2469.182360
920.082925	2467.670013
920.387904	2468.451392
920.692843	2463.334621
920.997743	2460.385546
921.302603	2463.536267
921.607423	2460.461163
921.912204	2476.970942
922.216946	2470.921558
922.521647	2467.997688
922.826310	2454.386573
923.130932	2464.746144
923.435516	2467.518779
923.740059	2459.503344
924.044564	2455.369598
924.349028	2464.821762
924.653454	2458.243056
924.957840	2462.654065
925.262186	2455.621656
925.566493	2461.217337
925.870761	2463.737913
926.174989	2460.486369
926.479178	2461.545012
926.783328	2457.083590
927.087438	2466.006433
927.391509	2464.015177
927.695541	2461.217337
927.999533	2468.325363
928.303486	2459.629373
928.607400	2459.982254
928.911275	2461.620629
929.215110	2460.561987
929.518906	2460.486369
929.822663	2461.166925
930.126381	2461.217337
930.430060	2463.889148
930.733699	2456.907150
931.037299	2456.428240
931.340861	2447.480192
931.644383	2472.358287
931.947866	2455.268775
932.251309	2456.806327
932.554714	2459.150463
932.858080	2461.217337
933.161407	2454.764660
933.464694	2454.436985
933.767943	2445.438525
934.071153	2454.235338
934.374323	2463.662296
934.677455	2464.368058
934.980548	2463.914354
935.283602	2458.293467
935.586617	2465.477112
935.889593	2459.150463
936.192530	2464.216823
936.495428	2458.721965
936.798287	2466.939046
937.101108	2461.368571
937.403890	2465.804787
937.706632	2464.922585
938.009336	2456.125771
938.312002	2469.938533
938.614628	2458.117027
938.917216	2461.746658
939.219765	2458.268262
939.522275	2458.621142
939.824747	2467.266721
940.127179	2466.258490
940.429573	2459.427727
940.731929	2468.829479
941.034246	2462.049127
941.336524	2459.402521
941.638763	2468.098512
941.940964	2459.251287
942.243126	2458.117027
942.545250	2462.074333
942.847335	2471.148410
943.149381	2456.302212
943.451389	2463.485856
943.753359	2454.966306
944.055290	2467.266721
944.357182	2465.628346
944.659036	2464.922585
944.960851	2459.831019
945.262628	2448.438012
945.564367	2467.216310
945.866067	2461.973510
946.167729	2465.073819
946.469352	2457.890175
946.770937	2462.880917
947.072484	2464.771350
947.373992	2463.359827
947.675462	2463.334621
947.976893	2458.948817
948.278286	2458.898406
948.579641	2456.024948
948.880958	2453.756429
949.182236	2463.737913
949.483476	2461.141719
949.784678	2465.880404
950.085841	2461.393777
950.386967	2457.260031
950.688054	2451.891202
950.989103	2458.948817
951.290114	2457.486883
951.591087	2458.192644
951.892021	2466.787812
952.192917	2447.001283
952.493776	2452.143260
952.794596	2461.595423
953.095378	2456.655092
953.396122	2471.728142
953.696828	2460.889662
953.997496	2461.822275
954.298126	2456.554269
954.598718	2451.840790
954.899272	2462.275979
955.199788	2457.007973
955.500266	2457.663323
955.800706	2459.831019
956.101108	2466.913840
956.401472	2461.318160
956.701798	2448.009513
957.002087	2464.116000
957.302337	2454.714248
957.602550	2469.434417
957.902724	2463.536267
958.202861	2466.888635
958.502960	2454.915894
958.803022	2459.377315
959.103045	2449.899946
959.403031	2467.443162
959.702979	2463.233798
960.002889	2461.116513
960.302762	2466.384519
960.602596	2460.158694
960.902393	2463.964765
961.202153	2452.546552
961.501875	2463.712708
961.801559	2466.737400
962.101205	2458.495113
962.400814	2459.856225
962.700385	2466.611371
962.999918	2452.496140
963.299414	2457.839763
963.598873	2455.672067
963.898293	2458.923612
964.197677	2456.655092
964.497022	2459.805813
964.796331	2454.058898
965.095601	2462.805300
965.394835	2454.411779
965.694030	2459.679785
965.993189	2459.402521
966.292309	2458.293467
966.591393	2460.108283
966.890439	2451.664350
967.189447	2455.243569
967.488419	2461.368571
967.787353	2467.569190
968.086249	2463.989971
968.385108	2453.327931
968.683930	2461.545012
968.982714	2455.974537
969.281462	2452.193671
969.580172	2452.722992
969.878844	2462.956535
970.177480	2457.512088
970.476078	2455.772890
970.774639	2462.427213
971.073162	2458.217850
971.371649	2461.620629
971.670098	2459.226081
971.968510	2452.118054
972.266885	2454.109310
972.565223	2456.781121
972.863524	2459.125258
973.161788	2456.277006
973.460014	2456.982767
973.758204	2453.504371
974.056356	2456.201388
974.354471	2456.377829
974.652550	2452.697787
974.950591	2461.771863
975.248595	2462.175156
975.546563	2463.511062
975.844493	2467.065075
976.142386	2466.939046
976.440243	2451.790379
976.738062	2456.831533
977.035845	2458.243056
977.333590	2452.748198
977.631299	2455.293981
977.928971	2452.470935
978.226606	2458.444702
978.524204	2452.470935
978.821765	2455.394804
979.119290	2456.327417
979.416777	2460.385546
979.714228	2465.275465
980.011642	2455.646862
980.309020	2461.267748
980.606360	2455.520833
980.903664	2450.454473
981.200931	2459.730196
981.498162	2456.831533
981.795356	2451.513115
982.092513	2459.553756
982.389633	2463.410238
982.686717	2463.637090
982.983764	2460.057871
983.280775	2457.864969
983.577749	2463.334621
983.874686	2459.226081
984.171587	2453.302725
984.468451	2464.746144
984.765279	2459.074846
985.062070	2456.655092
985.358824	2452.773404
985.655543	2458.671554
985.952224	2456.503858
986.248869	2453.781635
986.545478	2464.947790
986.842050	2454.462190
987.138586	2451.992025
987.435086	2451.210646
987.731549	2455.722479
988.027975	2459.528550
988.324366	2459.679785
988.620719	2446.547579
988.917037	2463.385033
989.213318	2458.747171
989.509563	2455.142746
989.805772	2450.051181
990.101944	2462.654065
990.398080	2455.722479
990.694180	2462.528037
990.990244	2458.974023
991.286271	2458.923612
991.582262	2465.401494
991.878217	2461.166925
992.174136	2448.438012
992.470019	2456.100565
992.765865	2457.108796
993.061676	2443.069183
993.357450	2459.251287
993.653188	2449.572271
993.948890	2459.856225
994.244556	2458.822788
994.540186	2461.570217
994.835780	2451.311469
995.131337	2450.353650
995.426859	2463.385033
995.722345	2457.436471
996.017795	2462.225567
996.313208	2455.924125
996.608586	2465.653552
996.903928	2462.074333
997.199234	2465.804787
997.494504	2447.530604
997.789738	2464.393263
998.084936	2452.773404
998.380099	2452.849021
998.675225	2456.503858
998.970316	2455.974537
999.265371	2457.587706
999.560390	2454.058898
999.855373	2453.000256
1000.150320	2454.966306
1000.445232	2456.453446
1000.740108	2458.948817
1001.034948	2450.756942
1001.329752	2449.824329
1001.624521	2456.503858
1001.919254	2451.613938
1002.213951	2457.285237
1002.508613	2454.008487
1002.803239	2450.101592
1003.097829	2457.864969
1003.392384	2461.746658
1003.686903	2459.226081
1003.981386	2456.579475
1004.275834	2453.428754
1004.570246	2456.377829
1004.864623	2456.024948
1005.158964	2458.545525
1005.453270	2452.899433
1005.747540	2454.033692
1006.041775	2455.369598
1006.335974	2450.958588
1006.630138	2446.774431
1006.924266	2464.494087
1007.218359	2457.310442
1007.512416	2455.722479
1007.806438	2446.345933
1008.100425	2458.041410
1008.394376	2453.277519
1008.688292	2458.621142
1008.982172	2456.680298
1009.276017	2456.201388
1009.569827	2452.899433
1009.863602	2460.108283
1010.157341	2454.789865
1010.451045	2459.553756
1010.744714	2453.579988
1011.038347	2459.805813
1011.331945	2449.093362
1011.625508	2455.420010
1011.919036	2448.438012
1012.212528	2460.864456
1012.505986	2455.798096
1012.799408	2460.612398
1013.092795	2449.093362
1013.386147	2454.739454
1013.679464	2460.688015
1013.972745	2439.540375
1014.265992	2463.410238
1014.559204	2450.832560
1014.852380	2460.057871
1015.145521	2457.436471
1015.438628	2457.209619
1015.731699	2451.361881
1016.024736	2454.310956
1016.317737	2453.378342
1016.610703	2457.461677
1016.903635	2458.721965
1017.196531	2460.108283
1017.489393	2451.387087
1017.782219	2447.202929
1018.075011	2453.453960
1018.367768	2454.613425
1018.660490	2452.143260
1018.953177	2452.143260
1019.245829	2452.143260
