Dividing Wavelength (nm)	Counts (n)	Slit_number_32_of_a_total_of_40	
326.493990	2142.322346
326.888308	2142.322346
327.282561	2142.322346
327.676750	2126.274673
328.070874	2118.712942
328.464933	2126.946827
328.858929	2141.986269
329.252859	2143.414596
329.646726	2170.384769
330.040528	2167.528115
330.434265	2208.025385
330.827938	2212.478404
331.221547	2240.876904
331.615091	2265.998654
332.008571	2262.301808
332.401986	2298.178019
332.795338	2313.469519
333.188625	2332.037769
333.581847	2358.923923
333.975006	2353.630712
334.368100	2389.002808
334.761129	2411.688000
335.154095	2427.315577
335.546996	2444.371481
335.939833	2443.531288
336.332606	2463.527865
336.725315	2470.081365
337.117960	2497.639673
337.510540	2494.278904
337.903056	2503.437000
338.295508	2517.636250
338.687896	2503.437000
339.080220	2524.861904
339.472480	2518.644481
339.864676	2537.632827
340.256807	2544.942500
340.648875	2540.489481
341.040879	2525.954154
341.432818	2532.255596
341.824694	2555.024808
342.216506	2536.456558
342.608253	2533.011769
342.999937	2539.565269
343.391557	2523.769654
343.783113	2539.481250
344.174605	2535.952442
344.566033	2535.112250
344.957397	2534.104019
345.348697	2548.975423
345.739934	2529.482962
346.131106	2533.683923
346.522215	2535.448327
346.913260	2535.700385
347.304241	2512.259019
347.695159	2525.534058
348.086012	2529.987077
348.476802	2523.013481
348.867528	2518.308404
349.258191	2544.270346
349.648789	2504.865327
350.039324	2520.828981
350.429796	2520.492904
350.820203	2511.754904
351.210548	2518.308404
351.600828	2522.929462
351.991045	2523.013481
352.381198	2509.402365
352.771288	2496.295365
353.161314	2522.509365
353.551276	2509.822462
353.941175	2505.033365
354.331010	2513.603327
354.720782	2520.156827
355.110490	2513.099212
355.500135	2503.100923
355.889717	2511.586865
356.279235	2519.400654
356.668689	2515.367731
357.058080	2494.362923
357.447408	2515.367731
357.836672	2524.609846
358.225873	2517.216154
358.615010	2505.453462
359.004084	2511.250788
359.393095	2503.605038
359.782043	2520.744962
360.170927	2517.132135
360.559748	2513.183231
360.948505	2511.502846
361.337199	2514.947635
361.725830	2507.974038
362.114398	2546.034750
362.502903	2513.687346
362.891344	2519.232615
363.279722	2520.828981
363.668037	2521.921231
364.056289	2501.000442
364.444478	2531.835500
364.832603	2512.763135
365.220665	2520.913000
365.608665	2508.394135
365.996601	2513.183231
366.384474	2527.634538
366.772284	2518.560462
367.160031	2506.965808
367.547715	2522.509365
367.935336	2522.425346
368.322893	2518.224385
368.710388	2532.843731
369.097820	2525.786115
369.485189	2536.708615
369.872495	2539.061154
370.259738	2520.240846
370.646918	2530.071096
371.034035	2530.071096
371.421090	2527.970615
371.808081	2520.576923
372.195010	2516.039885
372.581875	2525.197981
372.968678	2527.886596
373.355418	2537.128712
373.742096	2512.595096
374.128710	2538.977135
374.515262	2528.222673
374.901751	2522.089269
375.288177	2525.197981
375.674540	2524.273769
376.060841	2536.120481
376.447079	2528.978846
376.833254	2528.306692
377.219367	2517.300173
377.605417	2540.237423
377.991404	2539.565269
378.377329	2516.375962
378.763191	2541.581731
379.148991	2529.566981
379.534727	2533.431865
379.920402	2541.077615
380.306013	2530.071096
380.691563	2521.165058
381.077049	2547.042981
381.462474	2523.685635
381.847835	2535.616365
382.233134	2548.639346
382.618371	2532.507654
383.003545	2546.622885
383.388657	2523.349558
383.773706	2534.524115
384.158693	2521.837212
384.543618	2524.357788
384.928480	2540.993596
385.313280	2526.290231
385.698017	2540.573500
386.082692	2532.843731
386.467305	2546.118769
386.851856	2536.792635
387.236344	2517.216154
387.620770	2537.464788
388.005133	2546.370827
388.389435	2531.667462
388.773674	2550.655808
389.157851	2527.970615
389.541965	2516.796058
389.926018	2536.876654
390.310008	2529.314923
390.693936	2529.903058
391.077802	2554.772750
391.461606	2535.112250
391.845348	2536.120481
392.229027	2540.237423
392.612645	2539.145173
392.996200	2537.212731
393.379694	2546.034750
393.763125	2529.062865
394.146494	2541.665750
394.529801	2533.263827
394.913047	2552.672269
395.296230	2537.128712
395.679351	2520.576923
396.062410	2540.825558
396.445408	2529.146885
396.828343	2537.548808
397.211217	2552.756288
397.594028	2549.563558
397.976778	2535.784404
398.359466	2527.130423
398.742092	2556.033038
399.124656	2544.270346
399.507158	2541.329673
399.889598	2523.685635
400.271977	2541.413692
400.654294	2541.833788
401.036549	2557.377346
401.418742	2531.583442
401.800874	2537.632827
402.182944	2534.188038
402.564952	2541.497712
402.946898	2539.901346
403.328783	2520.660942
403.710606	2564.098885
404.092367	2532.255596
404.474067	2548.051212
404.855705	2546.706904
405.237282	2536.540577
405.618797	2544.942500
406.000250	2535.616365
406.381642	2533.599904
406.762972	2565.191135
407.144240	2540.153404
407.525447	2538.809096
407.906593	2528.726788
408.287677	2555.780981
408.668700	2553.008346
409.049661	2566.283385
409.430560	2546.034750
409.811399	2535.112250
410.192176	2534.860192
410.572891	2563.090654
410.953545	2529.146885
411.334138	2558.301558
411.714669	2535.952442
412.095139	2545.530635
412.475547	2544.522404
412.855894	2541.413692
413.236180	2557.461365
413.616405	2541.329673
413.996568	2556.453135
414.376670	2544.102308
414.756711	2538.809096
415.136691	2539.481250
415.516609	2549.647577
415.896466	2553.848538
416.276262	2544.438385
416.655997	2550.151692
417.035670	2540.489481
417.415283	2548.891404
417.794834	2566.787500
418.174324	2562.502519
418.553753	2547.127000
418.933121	2554.100596
419.312428	2553.092365
419.691674	2546.538865
420.070859	2553.764519
420.449983	2546.706904
420.829045	2556.201077
421.208047	2551.580019
421.586988	2548.135231
421.965867	2532.171577
422.344686	2535.616365
422.723444	2556.285096
423.102141	2540.909577
423.480777	2558.385577
423.859352	2552.672269
424.237866	2535.952442
424.616319	2545.194558
424.994712	2567.627692
425.373044	2554.772750
425.751314	2546.202788
426.129524	2540.909577
426.507673	2537.380769
426.885762	2559.645865
427.263789	2553.596481
427.641756	2553.344423
428.019662	2544.858481
428.397508	2556.369115
428.775292	2549.479538
429.153016	2550.067673
429.530679	2547.799154
429.908282	2542.337904
430.285824	2554.016577
430.663305	2557.377346
431.040726	2548.387288
431.418086	2539.229192
431.795385	2551.075904
432.172624	2537.296750
432.549802	2565.191135
432.926920	2547.379058
433.303977	2546.790923
433.680974	2555.192846
434.057910	2556.705192
434.434786	2553.008346
434.811601	2554.940788
435.188355	2545.278577
435.565050	2568.383865
435.941683	2545.614654
436.318257	2536.708615
436.694770	2547.715135
437.071222	2563.594769
437.447614	2549.479538
437.823946	2546.790923
438.200218	2548.555327
438.576429	2548.891404
438.952580	2551.496000
439.328670	2559.897923
439.704700	2557.545385
440.080670	2555.444904
440.456580	2548.807385
440.832429	2546.202788
441.208218	2556.537154
441.583947	2563.678788
441.959616	2554.268635
442.335224	2566.535442
442.710773	2555.528923
443.086261	2567.879750
443.461689	2544.942500
443.837057	2554.268635
444.212365	2537.968904
444.587612	2553.008346
444.962800	2544.270346
445.337927	2565.779269
445.712995	2557.041269
446.088002	2557.293327
446.462949	2560.990173
446.837837	2547.715135
447.212664	2559.729885
447.587431	2554.100596
447.962139	2552.252173
448.336786	2551.075904
448.711374	2578.886269
449.085901	2547.379058
449.460369	2564.182904
449.834776	2548.723365
450.209124	2562.250462
450.583412	2558.973712
450.957640	2551.075904
451.331808	2562.586538
451.705917	2553.932558
452.079965	2558.973712
452.453954	2555.528923
452.827883	2563.258692
453.201752	2564.182904
453.575562	2551.411981
453.949311	2560.738115
454.323001	2562.838596
454.696632	2569.224058
455.070202	2564.687019
455.443713	2558.469596
455.817164	2562.754577
456.190556	2566.619462
456.563888	2545.194558
456.937160	2563.678788
457.310373	2552.336192
457.683526	2558.553615
458.056619	2554.940788
458.429653	2554.604712
458.802628	2573.004923
459.175542	2555.696962
459.548398	2571.660615
459.921194	2554.184615
460.293930	2566.787500
460.666607	2557.545385
461.039224	2552.756288
461.411782	2576.197654
461.784280	2553.428442
462.156719	2556.201077
462.529099	2566.619462
462.901419	2573.677077
463.273680	2555.780981
463.645882	2563.762808
464.018024	2556.453135
464.390106	2574.265212
464.762130	2547.295038
465.134094	2561.830365
465.505999	2549.311500
465.877845	2565.527212
466.249631	2564.434962
466.621358	2564.182904
466.993026	2560.738115
467.364634	2573.425019
467.736184	2549.059442
468.107674	2554.856769
468.479105	2554.352654
468.850477	2558.385577
469.221790	2558.469596
469.593043	2559.225769
469.964238	2574.769327
470.335373	2566.871519
470.706449	2555.024808
471.077467	2550.067673
471.448425	2575.105404
471.819324	2536.036462
472.190164	2558.637635
472.560945	2560.738115
472.931667	2558.049500
473.302330	2551.496000
473.672934	2567.039558
474.043479	2565.359173
474.413965	2550.571788
474.784393	2571.240519
475.154761	2563.342712
475.525070	2567.711712
475.895321	2554.016577
476.265513	2542.085846
476.635645	2551.243942
477.005719	2567.711712
477.375734	2562.334481
477.745691	2569.812192
478.115588	2553.092365
478.485427	2558.217538
478.855207	2567.291615
479.224928	2566.619462
479.594591	2573.004923
479.964194	2569.812192
480.333739	2571.156500
480.703226	2568.887981
481.072653	2550.823846
481.442022	2569.056019
481.811333	2542.673981
482.180584	2565.359173
482.549777	2570.736404
482.918912	2564.603000
483.287988	2553.008346
483.657005	2568.803962
484.025964	2553.932558
484.394864	2562.334481
484.763706	2555.192846
485.132489	2563.342712
485.501213	2578.298135
485.869879	2571.408558
486.238487	2550.487769
486.607036	2567.879750
486.975527	2553.344423
487.343959	2566.703481
487.712333	2560.065962
488.080648	2554.016577
488.448905	2562.082423
488.817104	2553.596481
489.185244	2574.685308
489.553326	2574.769327
489.921350	2560.906154
490.289315	2565.359173
490.657222	2587.792308
491.025070	2554.772750
491.392861	2561.158212
491.760593	2560.654096
492.128267	2566.535442
492.495883	2565.359173
492.863440	2559.393808
493.230939	2564.771038
493.598380	2559.897923
493.965763	2564.855058
494.333088	2581.994981
494.700354	2567.459654
495.067563	2551.916096
495.434713	2562.502519
495.801805	2562.334481
496.168839	2544.606423
496.535815	2560.990173
496.902733	2558.301558
497.269593	2552.168154
497.636395	2559.309788
498.003139	2546.538865
498.369825	2563.006635
498.736453	2565.527212
499.103023	2565.191135
499.469535	2563.090654
499.835989	2562.166442
500.202385	2567.291615
500.568723	2564.266923
500.935003	2573.929135
501.301226	2572.752865
501.667390	2555.108827
502.033497	2571.408558
502.399546	2568.887981
502.765537	2563.930846
503.131470	2569.308077
503.497345	2559.057731
503.863163	2567.711712
504.228923	2574.265212
504.594625	2563.762808
504.960269	2550.991885
505.325856	2563.090654
505.691385	2559.225769
506.056856	2558.049500
506.422270	2563.510750
506.787625	2561.746346
507.152924	2559.897923
507.518164	2565.359173
507.883347	2568.972000
508.248472	2584.515558
508.613540	2564.434962
508.978550	2553.848538
509.343503	2575.273442
509.708398	2563.510750
510.073236	2562.586538
510.438016	2565.779269
510.802738	2563.006635
511.167403	2559.813904
511.532010	2571.912673
511.896561	2567.711712
512.261053	2567.207596
512.625488	2569.308077
512.989866	2553.596481
513.354186	2574.265212
513.718449	2578.046077
514.082655	2571.492577
514.446803	2560.654096
514.810894	2547.967192
515.174927	2577.373923
515.538904	2569.140038
515.902822	2563.594769
516.266684	2572.584827
516.630488	2564.182904
516.994235	2570.148269
517.357925	2549.983654
517.721558	2562.334481
518.085133	2558.889692
518.448651	2561.494288
518.812112	2563.090654
519.175516	2567.375635
519.538863	2577.121865
519.902152	2553.848538
520.265385	2556.369115
520.628560	2565.863288
520.991678	2557.545385
521.354739	2562.250462
521.717743	2567.627692
522.080690	2569.224058
522.443580	2570.316308
522.806413	2573.845115
523.169189	2561.074192
523.531908	2555.444904
523.894569	2572.836885
524.257174	2561.998404
524.619722	2557.461365
524.982213	2557.545385
525.344647	2576.617750
525.707025	2570.316308
526.069345	2582.079000
526.431608	2563.678788
526.793815	2571.744635
527.155964	2564.014865
527.518057	2573.677077
527.880093	2558.721654
528.242072	2557.125288
528.603995	2571.492577
528.965860	2563.594769
529.327669	2573.845115
529.689421	2573.761096
530.051117	2556.117058
530.412755	2560.234000
530.774337	2571.996692
531.135862	2560.654096
531.497331	2556.957250
531.858743	2548.807385
532.220098	2556.789212
532.581396	2565.611231
532.942638	2580.734692
533.303824	2565.275154
533.664953	2566.871519
534.026025	2561.914385
534.387040	2576.365692
534.747999	2564.350942
535.108902	2565.695250
535.469748	2578.970288
535.830537	2564.014865
536.191270	2561.914385
536.551947	2572.500808
536.912567	2574.181192
537.273131	2556.285096
537.633638	2557.965481
537.994089	2574.097173
538.354483	2573.509038
538.714821	2575.105404
539.075103	2568.467885
539.435328	2572.248750
539.795497	2574.517269
540.155609	2573.845115
540.515665	2566.199365
540.875665	2563.090654
541.235609	2565.023096
541.595496	2565.191135
541.955328	2557.545385
542.315102	2567.291615
542.674821	2561.410269
543.034483	2558.637635
543.394090	2551.748058
543.753640	2562.754577
544.113134	2581.826942
544.472571	2567.039558
544.831953	2576.113635
545.191278	2564.855058
545.550548	2567.039558
545.909761	2570.568365
546.268918	2584.347519
546.628019	2563.930846
546.987064	2563.678788
547.346053	2583.171250
547.704986	2558.805673
548.063863	2576.029615
548.422684	2568.972000
548.781449	2570.148269
549.140158	2576.785788
549.498811	2570.988462
549.857408	2555.192846
550.215949	2569.224058
550.574434	2573.929135
550.932864	2573.088942
551.291237	2555.276865
551.649555	2568.299846
552.007817	2553.176385
552.366022	2566.115346
552.724173	2569.896212
553.082267	2568.972000
553.440305	2566.115346
553.798288	2570.148269
554.156215	2562.418500
554.514086	2559.645865
554.871902	2567.963769
555.229661	2577.205885
555.587365	2573.088942
555.945014	2550.571788
556.302606	2588.548481
556.660143	2571.240519
557.017625	2558.133519
557.375050	2548.639346
557.732421	2568.131808
558.089735	2568.467885
558.446994	2580.650673
558.804197	2573.929135
559.161345	2578.046077
559.518437	2563.006635
559.875474	2562.334481
560.232455	2552.084135
560.589381	2556.621173
560.946251	2582.247038
561.303065	2574.349231
561.659825	2557.965481
562.016528	2581.238808
562.373177	2552.252173
562.729770	2558.217538
563.086307	2571.156500
563.442789	2570.484346
563.799216	2588.044365
564.155587	2576.617750
564.511904	2565.779269
564.868164	2584.935654
565.224370	2563.678788
565.580520	2581.490865
565.936615	2553.596481
566.292654	2570.904442
566.648638	2568.887981
567.004567	2562.250462
567.360441	2577.037846
567.716260	2562.922615
568.072023	2564.014865
568.427732	2566.115346
568.783385	2571.744635
569.138982	2566.031327
569.494525	2558.721654
569.850013	2577.878038
570.205445	2570.904442
570.560823	2556.453135
570.916145	2579.222346
571.271412	2568.719942
571.626625	2577.121865
571.981782	2564.014865
572.336884	2564.939077
572.691931	2561.158212
573.046923	2567.963769
573.401860	2576.113635
573.756743	2577.457942
574.111570	2571.828654
574.466342	2567.459654
574.821059	2581.658904
575.175722	2566.535442
575.530330	2560.822135
575.884882	2571.240519
576.239380	2566.619462
576.593823	2565.359173
576.948211	2570.820423
577.302544	2575.693538
577.656823	2553.764519
578.011047	2569.140038
578.365216	2577.457942
578.719330	2556.369115
579.073389	2558.721654
579.427394	2568.803962
579.781344	2563.510750
580.135239	2566.535442
580.489080	2571.828654
580.842866	2578.970288
581.196597	2563.174673
581.550273	2562.754577
581.903895	2588.968577
582.257463	2587.204173
582.610975	2576.533731
582.964434	2572.584827
583.317837	2565.695250
583.671186	2574.853346
584.024481	2567.039558
584.377721	2559.393808
584.730906	2568.383865
585.084037	2566.283385
585.437113	2553.176385
585.790135	2587.960346
586.143103	2570.064250
586.496016	2571.072481
586.848874	2576.365692
587.201679	2573.088942
587.554428	2576.617750
587.907124	2563.174673
588.259765	2564.939077
588.612352	2564.266923
588.964884	2573.845115
589.317362	2557.041269
589.669786	2558.469596
590.022155	2571.660615
590.374470	2571.996692
590.726731	2561.830365
591.078937	2582.583115
591.431090	2555.865000
591.783188	2563.594769
592.135232	2562.670558
592.487222	2573.088942
592.839157	2574.769327
593.191038	2564.939077
593.542866	2560.318019
593.894639	2575.105404
594.246358	2558.973712
594.598022	2565.275154
594.949633	2560.906154
595.301190	2549.983654
595.652692	2565.527212
596.004141	2561.494288
596.355535	2569.392096
596.706876	2559.981942
597.058162	2556.537154
597.409395	2571.912673
597.760573	2589.808769
598.111698	2577.373923
598.462768	2560.234000
598.813785	2571.828654
599.164748	2567.963769
599.515657	2568.551904
599.866511	2575.441481
600.217312	2564.687019
600.568060	2572.920904
600.918753	2587.204173
601.269392	2559.225769
601.619978	2561.242231
601.970510	2573.088942
602.320988	2567.711712
602.671412	2567.879750
603.021783	2572.752865
603.372100	2578.802250
603.722363	2568.383865
604.072572	2563.174673
604.422728	2558.385577
604.772830	2567.543673
605.122878	2565.779269
605.472872	2568.551904
605.822813	2577.373923
606.172701	2579.138327
606.522534	2572.332769
606.872314	2559.897923
607.222041	2579.474404
607.571714	2565.695250
607.921333	2576.113635
608.270899	2561.914385
608.620411	2573.845115
608.969870	2585.355750
609.319276	2566.367404
609.668627	2574.013154
610.017926	2576.281673
610.367171	2573.929135
610.716362	2574.013154
611.065500	2566.283385
611.414585	2580.734692
611.763616	2570.988462
612.112594	2567.375635
612.461518	2560.065962
612.810389	2580.986750
613.159207	2560.654096
613.507971	2585.523788
613.856682	2565.359173
614.205340	2569.056019
614.553945	2559.057731
614.902496	2580.230577
615.250994	2584.515558
615.599439	2561.326250
615.947830	2550.739827
616.296169	2570.568365
616.644454	2564.098885
616.992686	2572.920904
617.340864	2553.512462
617.688990	2568.131808
618.037063	2570.988462
618.385082	2570.988462
618.733048	2572.920904
619.080961	2573.088942
619.428821	2566.955538
619.776628	2562.334481
620.124382	2567.459654
620.472083	2568.215827
620.819731	2557.041269
621.167326	2568.383865
621.514868	2561.578308
621.862357	2567.627692
622.209793	2577.289904
622.557176	2566.367404
622.904506	2573.845115
623.251783	2561.326250
623.599007	2562.166442
623.946179	2562.250462
624.293297	2566.031327
624.640363	2555.865000
624.987376	2570.064250
625.334336	2561.242231
625.681243	2567.375635
626.028097	2567.459654
626.374899	2568.047788
626.721647	2553.764519
627.068343	2578.886269
627.414987	2569.980231
627.761577	2563.846827
628.108115	2559.477827
628.454600	2585.355750
628.801032	2564.687019
629.147412	2574.937365
629.493739	2549.815615
629.840014	2561.074192
630.186236	2577.962058
630.532405	2563.762808
630.878521	2565.947308
631.224585	2570.316308
631.570597	2575.021385
631.916556	2566.955538
632.262462	2575.441481
632.608316	2568.887981
632.954117	2575.945596
633.299866	2576.617750
633.645562	2579.306365
633.991206	2570.904442
634.336797	2570.148269
634.682336	2567.627692
635.027823	2581.658904
635.373257	2569.308077
635.718639	2557.293327
636.063968	2554.772750
636.409245	2555.865000
636.754470	2564.771038
637.099642	2576.281673
637.444762	2581.658904
637.789829	2565.107115
638.134845	2577.541962
638.479808	2561.578308
638.824719	2566.367404
639.169577	2573.677077
639.514383	2574.517269
639.859137	2569.392096
640.203839	2559.141750
640.548489	2578.466173
640.893086	2571.492577
641.237632	2554.520692
641.582125	2560.402038
641.926566	2567.039558
642.270955	2571.576596
642.615292	2570.988462
642.959576	2570.988462
643.303809	2565.863288
643.647990	2561.074192
643.992118	2569.980231
644.336195	2575.441481
644.680219	2556.537154
645.024192	2560.822135
645.368112	2558.217538
645.711981	2568.887981
646.055797	2567.879750
646.399562	2579.978519
646.743274	2552.336192
647.086935	2563.930846
647.430544	2566.451423
647.774101	2559.477827
648.117606	2571.576596
648.461059	2566.199365
648.804460	2579.474404
649.147810	2577.625981
649.491108	2561.830365
649.834354	2569.392096
650.177548	2569.644154
650.520690	2563.006635
650.863781	2578.718231
651.206820	2571.996692
651.549807	2565.947308
651.892742	2553.848538
652.235626	2574.181192
652.578458	2566.367404
652.921238	2551.243942
653.263967	2558.973712
653.606644	2568.635923
653.949269	2554.604712
654.291843	2552.756288
654.634365	2562.670558
654.976836	2573.256981
655.319255	2568.719942
655.661622	2592.413365
656.003938	2571.912673
656.346203	2555.696962
656.688416	2574.181192
657.030577	2555.696962
657.372687	2558.217538
657.714746	2566.703481
658.056753	2569.812192
658.398708	2572.752865
658.740612	2557.713423
659.082465	2577.962058
659.424266	2554.688731
659.766016	2561.410269
660.107715	2565.863288
660.449362	2554.604712
660.790958	2569.896212
661.132503	2567.711712
661.473996	2562.754577
661.815438	2577.373923
662.156829	2568.719942
662.498168	2569.140038
662.839456	2571.324538
663.180693	2577.205885
663.521879	2578.214115
663.863013	2563.006635
664.204097	2569.392096
664.545129	2586.363981
664.886110	2548.135231
665.227040	2557.461365
665.567918	2554.688731
665.908746	2563.846827
666.249522	2569.056019
666.590248	2563.846827
666.930922	2569.392096
667.271545	2578.382154
667.612118	2563.762808
667.952639	2565.527212
668.293109	2565.023096
668.633528	2576.197654
668.973896	2577.121865
669.314213	2565.359173
669.654480	2563.762808
669.994695	2556.873231
670.334859	2573.341000
670.674973	2565.191135
671.015035	2569.308077
671.355047	2567.711712
671.695008	2569.224058
672.034918	2573.929135
672.374777	2571.072481
672.714585	2577.878038
673.054342	2564.182904
673.394049	2574.265212
673.733705	2572.500808
674.073310	2585.019673
674.412864	2564.603000
674.752368	2561.494288
675.091820	2579.810481
675.431223	2573.509038
675.770574	2563.846827
676.109875	2570.988462
676.449125	2567.795731
676.788324	2561.746346
677.127473	2575.861577
677.466571	2577.289904
677.805619	2558.469596
678.144616	2569.392096
678.483562	2569.308077
678.822458	2564.350942
679.161303	2574.685308
679.500098	2560.149981
679.838842	2565.443192
680.177535	2566.367404
680.516179	2559.225769
680.854771	2573.341000
681.193314	2583.927423
681.531805	2553.008346
681.870247	2560.486058
682.208638	2570.232288
682.546978	2566.787500
682.885268	2568.972000
683.223508	2569.644154
683.561697	2557.293327
683.899836	2561.074192
684.237925	2566.031327
684.575963	2578.214115
684.913951	2551.916096
685.251889	2554.268635
685.589776	2570.904442
685.927614	2564.014865
686.265401	2572.332769
686.603137	2570.232288
686.940824	2565.695250
687.278460	2555.276865
687.616046	2557.125288
687.953582	2556.957250
688.291068	2562.586538
688.628504	2563.342712
688.965889	2566.115346
689.303224	2554.436673
689.640510	2572.080712
689.977745	2569.308077
690.314930	2565.191135
690.652065	2568.551904
690.989150	2557.293327
691.326185	2574.181192
691.663170	2557.797442
692.000105	2577.457942
692.336990	2576.113635
692.673825	2561.746346
693.010610	2568.047788
693.347345	2560.738115
693.684030	2572.080712
694.020665	2566.955538
694.357251	2581.574885
694.693786	2569.728173
695.030272	2566.451423
695.366707	2568.803962
695.703093	2575.777558
696.039429	2566.955538
696.375716	2567.207596
696.711952	2555.780981
697.048139	2581.238808
697.384276	2572.836885
697.720363	2566.283385
698.056400	2583.591346
698.392388	2555.612942
698.728326	2565.695250
699.064214	2570.148269
699.400053	2566.451423
699.735842	2557.629404
700.071581	2566.871519
700.407270	2573.341000
700.742910	2561.494288
701.078501	2557.461365
701.414042	2568.215827
701.749533	2565.779269
702.084974	2572.164731
702.420366	2560.065962
702.755709	2568.972000
703.091002	2578.886269
703.426246	2581.910962
703.761440	2582.835173
704.096584	2575.357462
704.431679	2580.230577
704.766725	2573.256981
705.101721	2565.527212
705.436668	2571.828654
705.771565	2551.243942
706.106413	2568.551904
706.441212	2578.718231
706.775961	2566.871519
707.110661	2576.197654
707.445311	2568.215827
707.779913	2568.803962
708.114465	2571.324538
708.448967	2580.398615
708.783421	2573.761096
709.117825	2572.584827
709.452180	2578.298135
709.786485	2560.149981
710.120742	2555.192846
710.454949	2583.591346
710.789107	2572.836885
711.123216	2576.617750
711.457275	2561.746346
711.791286	2563.594769
712.125247	2572.500808
712.459159	2572.080712
712.793023	2567.459654
713.126837	2572.500808
713.460602	2560.570077
713.794318	2571.828654
714.127985	2568.131808
714.461602	2556.117058
714.795171	2565.023096
715.128691	2553.260404
715.462162	2583.591346
715.795584	2566.367404
716.128957	2572.416788
716.462281	2576.953827
716.795556	2577.121865
717.128782	2565.779269
717.461960	2558.469596
717.795088	2558.301558
718.128167	2552.252173
718.461198	2571.240519
718.794180	2567.963769
719.127113	2562.082423
719.459997	2565.695250
719.792833	2566.703481
720.125619	2558.721654
720.458357	2574.181192
720.791046	2564.350942
721.123686	2568.131808
721.456278	2571.156500
721.788821	2557.293327
722.121315	2565.695250
722.453761	2563.342712
722.786158	2569.896212
723.118506	2574.517269
723.450805	2559.561846
723.783056	2565.023096
724.115259	2548.303269
724.447412	2569.896212
724.779518	2558.049500
725.111574	2555.024808
725.443582	2567.879750
725.775542	2562.754577
726.107453	2554.268635
726.439315	2570.904442
726.771129	2580.734692
727.102895	2561.998404
727.434612	2565.947308
727.766281	2558.133519
728.097901	2568.299846
728.429473	2563.258692
728.760996	2562.418500
729.092471	2552.672269
729.423897	2571.912673
729.755276	2566.871519
730.086606	2559.057731
730.417887	2571.912673
730.749120	2562.502519
731.080305	2566.451423
731.411442	2560.738115
731.742530	2575.609519
732.073570	2567.543673
732.404562	2570.988462
732.735506	2558.721654
733.066401	2562.754577
733.397249	2568.047788
733.728048	2577.205885
734.058798	2560.906154
734.389501	2559.729885
734.720156	2565.359173
735.050762	2549.059442
735.381320	2572.584827
735.711831	2571.324538
736.042293	2552.252173
736.372707	2553.344423
736.703073	2562.334481
737.033391	2570.736404
737.363661	2581.910962
737.693883	2572.668846
738.024056	2565.947308
738.354182	2567.795731
738.684260	2570.064250
739.014290	2571.156500
739.344272	2571.576596
739.674207	2567.963769
740.004093	2556.957250
740.333931	2566.199365
740.663722	2561.326250
740.993464	2550.823846
741.323159	2571.492577
741.652806	2570.232288
741.982405	2556.285096
742.311956	2566.703481
742.641460	2572.248750
742.970915	2552.084135
743.300323	2569.812192
743.629683	2563.174673
743.958996	2556.453135
744.288260	2566.955538
744.617477	2562.922615
744.946647	2549.395519
745.275768	2561.830365
745.604842	2562.250462
745.933869	2563.342712
746.262847	2564.098885
746.591778	2577.289904
746.920662	2562.166442
747.249498	2557.797442
747.578286	2557.881462
747.907027	2548.891404
748.235720	2572.080712
748.564365	2572.752865
748.892963	2575.021385
749.221514	2556.453135
749.550017	2563.342712
749.878473	2565.611231
750.206881	2571.828654
750.535242	2565.527212
750.863555	2561.242231
751.191821	2569.476115
751.520039	2570.652385
751.848210	2566.703481
752.176334	2570.316308
752.504411	2575.273442
752.832440	2566.955538
753.160421	2571.324538
753.488356	2548.891404
753.816243	2556.957250
754.144082	2571.660615
754.471875	2568.719942
754.799620	2563.846827
755.127318	2567.795731
755.454969	2564.098885
755.782572	2553.428442
756.110129	2558.805673
756.437638	2575.189423
756.765100	2564.603000
757.092515	2556.201077
757.419882	2566.367404
757.747203	2564.098885
758.074477	2552.840308
758.401703	2570.988462
758.728882	2575.609519
759.056014	2556.789212
759.383099	2564.434962
759.710138	2561.158212
760.037129	2578.802250
760.364073	2571.156500
760.690970	2569.980231
761.017820	2568.047788
761.344623	2556.537154
761.671379	2560.065962
761.998088	2577.541962
762.324751	2563.426731
762.651366	2572.080712
762.977935	2577.373923
763.304456	2552.924327
763.630931	2567.627692
763.957359	2582.163019
764.283740	2545.530635
764.610074	2558.805673
764.936362	2567.459654
765.262602	2552.840308
765.588796	2583.675365
765.914943	2562.502519
766.241044	2565.023096
766.567097	2571.996692
766.893104	2553.512462
767.219064	2563.426731
767.544978	2566.451423
767.870845	2564.518981
768.196665	2550.487769
768.522438	2571.660615
768.848165	2582.079000
769.173846	2567.039558
769.499479	2571.156500
769.825066	2559.981942
770.150607	2567.627692
770.476101	2568.551904
770.801548	2550.907865
771.126949	2566.031327
771.452303	2564.266923
771.777611	2580.146558
772.102872	2564.182904
772.428087	2551.916096
772.753256	2562.754577
773.078378	2546.706904
773.403453	2559.309788
773.728482	2558.805673
774.053465	2559.309788
774.378401	2569.896212
774.703291	2568.972000
775.028135	2559.309788
775.352932	2574.685308
775.677683	2557.881462
776.002388	2562.670558
776.327046	2560.486058
776.651658	2562.922615
776.976224	2565.023096
777.300743	2564.855058
777.625216	2572.416788
777.949643	2563.426731
778.274024	2552.924327
778.598359	2573.593058
778.922647	2567.963769
779.246889	2565.107115
779.571086	2559.645865
779.895236	2576.281673
780.219339	2560.738115
780.543397	2556.369115
780.867409	2558.133519
781.191374	2556.369115
781.515294	2557.041269
781.839167	2561.158212
782.162995	2577.373923
782.486776	2571.576596
782.810511	2566.451423
783.134201	2561.746346
783.457844	2560.486058
783.781441	2567.963769
784.104993	2571.156500
784.428498	2567.123577
784.751958	2572.920904
785.075372	2558.805673
785.398739	2550.487769
785.722061	2583.759385
786.045337	2554.352654
786.368568	2570.568365
786.691752	2548.471308
787.014891	2573.256981
787.337983	2566.283385
787.661030	2563.006635
787.984031	2544.774462
788.306987	2557.209308
788.629897	2573.509038
788.952760	2560.906154
789.275579	2553.176385
789.598351	2568.215827
789.921078	2581.994981
790.243759	2565.611231
790.566395	2566.115346
790.888984	2554.016577
791.211529	2557.713423
791.534027	2563.174673
791.856480	2570.064250
792.178888	2567.543673
792.501249	2559.393808
792.823566	2560.149981
793.145836	2562.166442
793.468062	2556.453135
793.790241	2558.385577
794.112375	2566.703481
794.434464	2554.604712
794.756507	2553.764519
795.078505	2569.224058
795.400457	2556.537154
795.722364	2566.199365
796.044226	2562.922615
796.366042	2569.476115
796.687812	2565.191135
797.009538	2563.006635
797.331218	2564.939077
797.652852	2559.981942
797.974442	2572.584827
798.295986	2574.517269
798.617484	2566.535442
798.938938	2583.171250
799.260346	2564.687019
799.581709	2556.453135
799.903026	2572.668846
800.224299	2563.090654
800.545526	2558.973712
800.866708	2553.260404
801.187845	2566.787500
801.508936	2579.054308
801.829983	2566.199365
802.150984	2568.299846
802.471940	2577.625981
802.792851	2563.930846
803.113717	2561.158212
803.434538	2575.525500
803.755314	2561.242231
804.076045	2564.687019
804.396731	2578.550192
804.717372	2572.668846
805.037967	2557.377346
805.358518	2562.754577
805.679024	2549.143462
805.999485	2563.090654
806.319901	2576.785788
806.640272	2541.581731
806.960598	2555.444904
807.280879	2548.891404
807.601115	2578.214115
807.921306	2549.563558
808.241453	2546.286808
808.561554	2552.420212
808.881611	2555.865000
809.201623	2575.693538
809.521590	2569.896212
809.841513	2565.191135
810.161390	2557.125288
810.481223	2549.227481
810.801011	2557.881462
811.120755	2556.873231
811.440453	2549.311500
811.760107	2554.352654
812.079716	2566.031327
812.399281	2541.413692
812.718801	2567.459654
813.038276	2570.820423
813.357707	2550.403750
813.677093	2562.586538
813.996434	2545.698673
814.315731	2563.930846
814.634983	2570.484346
814.954191	2573.341000
815.273354	2555.276865
815.592473	2553.596481
815.911547	2566.199365
816.230577	2560.570077
816.549562	2552.168154
816.868502	2565.191135
817.187399	2562.166442
817.506250	2563.258692
817.825058	2554.772750
818.143821	2553.428442
818.462539	2552.252173
818.781213	2560.906154
819.099843	2538.809096
819.418429	2565.275154
819.736970	2558.217538
820.055466	2567.039558
820.373919	2557.797442
820.692327	2564.939077
821.010691	2563.846827
821.329011	2570.568365
821.647286	2566.283385
821.965517	2571.744635
822.283704	2559.813904
822.601847	2554.268635
822.919945	2562.670558
823.237999	2549.395519
823.556010	2562.166442
823.873976	2563.762808
824.191897	2544.354365
824.509775	2566.283385
824.827609	2556.705192
825.145398	2568.972000
825.463144	2564.350942
825.780845	2557.965481
826.098502	2567.123577
826.416116	2561.662327
826.733685	2563.258692
827.051210	2560.570077
827.368692	2560.990173
827.686129	2573.677077
828.003522	2549.815615
828.320872	2561.578308
828.638177	2563.258692
828.955439	2557.713423
829.272656	2568.467885
829.589830	2562.502519
829.906960	2568.803962
830.224046	2561.074192
830.541088	2562.418500
830.858086	2560.318019
831.175041	2563.258692
831.491952	2570.736404
831.808819	2572.332769
832.125642	2553.932558
832.442421	2556.453135
832.759157	2558.805673
833.075849	2576.869808
833.392497	2557.881462
833.709101	2569.056019
834.025662	2557.209308
834.342179	2542.926038
834.658653	2545.110538
834.975083	2561.578308
835.291469	2583.843404
835.607811	2569.476115
835.924110	2564.266923
836.240366	2561.410269
836.556578	2561.998404
836.872746	2548.975423
837.188871	2563.258692
837.504952	2564.855058
837.820990	2562.838596
838.136984	2563.426731
838.452935	2554.436673
838.768842	2564.855058
839.084706	2547.715135
839.400526	2555.192846
839.716303	2564.350942
840.032037	2553.092365
840.347727	2573.929135
840.663373	2552.504231
840.978977	2556.537154
841.294537	2572.164731
841.610054	2558.133519
841.925527	2547.631115
842.240957	2568.215827
842.556344	2557.713423
842.871687	2555.696962
843.186987	2557.293327
843.502244	2558.133519
843.817458	2560.234000
844.132629	2561.410269
844.447756	2554.016577
844.762840	2568.383865
845.077881	2560.570077
845.392879	2569.644154
845.707833	2566.451423
846.022745	2559.981942
846.337613	2574.265212
846.652438	2559.729885
846.967221	2554.016577
847.281960	2561.158212
847.596656	2562.334481
847.911309	2554.604712
848.225919	2552.084135
848.540485	2563.006635
848.855009	2568.635923
849.169490	2553.764519
849.483928	2560.654096
849.798323	2567.291615
850.112675	2565.443192
850.426984	2553.092365
850.741251	2549.143462
851.055474	2551.580019
851.369654	2553.260404
851.683792	2553.932558
851.997887	2564.266923
852.311938	2560.738115
852.625947	2568.047788
852.939914	2559.813904
853.253837	2549.731596
853.567718	2565.779269
853.881555	2561.662327
854.195350	2565.779269
854.509103	2560.486058
854.822812	2554.604712
855.136479	2564.771038
855.450103	2564.603000
855.763685	2563.846827
856.077224	2559.897923
856.390720	2550.319731
856.704173	2566.787500
857.017584	2558.973712
857.330953	2560.570077
857.644278	2569.476115
857.957561	2573.425019
858.270802	2570.652385
858.584000	2567.207596
858.897155	2569.728173
859.210268	2563.006635
859.523339	2559.393808
859.836367	2558.973712
860.149352	2558.469596
860.462295	2553.764519
860.775195	2565.107115
861.088054	2556.285096
861.400869	2558.469596
861.713642	2559.057731
862.026373	2553.848538
862.339062	2559.309788
862.651708	2556.705192
862.964312	2554.352654
863.276873	2555.865000
863.589392	2556.621173
863.901869	2555.612942
864.214303	2549.815615
864.526696	2555.360885
864.839045	2564.939077
865.151353	2555.696962
865.463619	2562.670558
865.775842	2560.906154
866.088023	2560.318019
866.400162	2558.301558
866.712258	2546.454846
867.024313	2562.250462
867.336325	2550.907865
867.648296	2578.970288
867.960224	2558.049500
868.272110	2557.881462
868.583954	2567.963769
868.895755	2567.711712
869.207515	2568.467885
869.519233	2559.057731
869.830909	2563.090654
870.142542	2556.621173
870.454134	2571.912673
870.765684	2560.822135
871.077191	2577.878038
871.388657	2557.797442
871.700081	2561.830365
872.011463	2564.603000
872.322803	2556.285096
872.634101	2556.201077
872.945357	2574.433250
873.256571	2576.869808
873.567744	2569.812192
873.878874	2552.588250
874.189963	2562.082423
874.501010	2561.662327
874.812015	2554.688731
875.122979	2555.108827
875.433900	2554.268635
875.744780	2551.748058
876.055618	2541.917808
876.366415	2562.586538
876.677169	2557.293327
876.987882	2551.580019
877.298554	2569.056019
877.609183	2574.097173
877.919771	2552.084135
878.230317	2549.815615
878.540822	2560.570077
878.851285	2549.143462
879.161707	2564.603000
879.472087	2570.232288
879.782425	2570.736404
880.092722	2577.962058
880.402977	2561.410269
880.713191	2562.082423
881.023363	2551.159923
881.333494	2552.252173
881.643583	2572.248750
881.953631	2567.207596
882.263637	2569.140038
882.573602	2556.453135
882.883526	2556.117058
883.193408	2564.855058
883.503248	2569.812192
883.813048	2564.687019
884.122806	2567.375635
884.432522	2559.057731
884.742197	2558.721654
885.051831	2554.940788
885.361424	2572.752865
885.670975	2554.772750
885.980485	2566.283385
886.289954	2554.436673
886.599382	2573.425019
886.908768	2564.855058
887.218113	2550.235712
887.527417	2564.014865
887.836680	2550.739827
888.145901	2554.940788
888.455082	2553.764519
888.764221	2562.166442
889.073319	2557.965481
889.382376	2547.967192
889.691392	2538.893115
890.000366	2565.191135
890.309300	2563.174673
890.618193	2553.176385
890.927044	2564.098885
891.235855	2576.029615
891.544625	2572.248750
891.853353	2561.074192
892.162041	2562.838596
892.470687	2545.194558
892.779293	2544.186327
893.087858	2559.729885
893.396381	2548.975423
893.704864	2551.411981
894.013306	2562.082423
894.321707	2556.033038
894.630068	2560.402038
894.938387	2559.057731
895.246665	2566.283385
895.554903	2561.578308
895.863100	2544.774462
896.171256	2570.064250
896.479371	2565.863288
896.787446	2557.209308
897.095480	2556.621173
897.403473	2556.033038
897.711425	2556.453135
898.019336	2554.436673
898.327207	2560.654096
898.635038	2563.762808
898.942827	2549.563558
899.250576	2550.151692
899.558284	2570.904442
899.865952	2550.571788
900.173579	2564.014865
900.481165	2562.082423
900.788711	2553.848538
901.096216	2553.848538
901.403681	2559.645865
901.711105	2562.922615
902.018489	2556.537154
902.325832	2566.283385
902.633135	2554.352654
902.940397	2562.166442
903.247619	2553.260404
903.554800	2546.622885
903.861941	2549.647577
904.169041	2545.362596
904.476101	2570.400327
904.783121	2556.369115
905.090100	2550.571788
905.397039	2555.949019
905.703938	2558.889692
906.010796	2560.149981
906.317614	2560.149981
906.624391	2572.668846
906.931129	2554.772750
907.237826	2565.191135
907.544483	2547.715135
907.851099	2564.014865
908.157675	2571.912673
908.464211	2561.242231
908.770707	2552.168154
909.077163	2564.182904
909.383578	2555.360885
909.689954	2568.719942
909.996289	2561.158212
910.302584	2557.377346
910.608839	2556.957250
910.915054	2558.049500
911.221229	2554.940788
911.527363	2552.168154
911.833458	2562.922615
912.139513	2556.873231
912.445527	2543.430154
912.751502	2559.897923
913.057436	2563.090654
913.363331	2571.828654
913.669186	2557.713423
913.975000	2554.352654
914.280775	2560.149981
914.586510	2568.803962
914.892205	2562.082423
915.197859	2540.825558
915.503475	2559.309788
915.809050	2564.434962
916.114585	2551.832077
916.420081	2577.625981
916.725536	2548.471308
917.030952	2553.512462
917.336328	2556.369115
917.641665	2547.211019
917.946961	2553.428442
918.252218	2550.235712
918.557435	2548.975423
918.862612	2551.916096
919.167750	2550.319731
919.472848	2555.192846
919.777906	2556.873231
920.082925	2548.471308
920.387904	2555.360885
920.692843	2576.365692
920.997743	2548.555327
921.302603	2561.914385
921.607423	2564.771038
921.912204	2549.983654
922.216946	2567.039558
922.521647	2558.721654
922.826310	2545.530635
923.130932	2558.553615
923.435516	2567.123577
923.740059	2560.738115
924.044564	2558.805673
924.349028	2561.158212
924.653454	2560.990173
924.957840	2565.359173
925.262186	2555.444904
925.566493	2564.939077
925.870761	2559.309788
926.174989	2567.459654
926.479178	2554.604712
926.783328	2556.537154
927.087438	2539.397231
927.391509	2561.242231
927.695541	2551.916096
927.999533	2558.889692
928.303486	2553.008346
928.607400	2551.411981
928.911275	2554.940788
929.215110	2567.123577
929.518906	2554.100596
929.822663	2554.604712
930.126381	2553.512462
930.430060	2557.461365
930.733699	2559.477827
931.037299	2536.624596
931.340861	2558.805673
931.644383	2549.647577
931.947866	2554.856769
932.251309	2557.293327
932.554714	2569.644154
932.858080	2555.949019
933.161407	2563.678788
933.464694	2568.719942
933.767943	2549.647577
934.071153	2566.871519
934.374323	2553.428442
934.677455	2568.803962
934.980548	2559.057731
935.283602	2565.275154
935.586617	2564.855058
935.889593	2560.906154
936.192530	2557.881462
936.495428	2552.504231
936.798287	2548.975423
937.101108	2534.692154
937.403890	2565.611231
937.706632	2551.411981
938.009336	2554.520692
938.312002	2564.182904
938.614628	2566.535442
938.917216	2545.782692
939.219765	2559.897923
939.522275	2544.522404
939.824747	2556.033038
940.127179	2555.444904
940.429573	2531.919519
940.731929	2554.352654
941.034246	2562.418500
941.336524	2557.545385
941.638763	2549.227481
941.940964	2558.133519
942.243126	2561.998404
942.545250	2542.926038
942.847335	2570.988462
943.149381	2564.014865
943.451389	2556.705192
943.753359	2553.176385
944.055290	2549.143462
944.357182	2562.334481
944.659036	2564.939077
944.960851	2565.527212
945.262628	2555.528923
945.564367	2542.421923
945.866067	2561.326250
946.167729	2554.016577
946.469352	2546.118769
946.770937	2550.739827
947.072484	2541.917808
947.373992	2565.443192
947.675462	2563.510750
947.976893	2553.596481
948.278286	2554.772750
948.579641	2558.301558
948.880958	2567.039558
949.182236	2560.822135
949.483476	2554.940788
949.784678	2566.619462
950.085841	2546.958962
950.386967	2558.385577
950.688054	2557.629404
950.989103	2546.538865
951.290114	2544.438385
951.591087	2567.207596
951.892021	2555.108827
952.192917	2549.479538
952.493776	2542.253885
952.794596	2559.729885
953.095378	2552.672269
953.396122	2547.799154
953.696828	2550.151692
953.997496	2567.291615
954.298126	2552.840308
954.598718	2565.527212
954.899272	2570.568365
955.199788	2555.696962
955.500266	2555.696962
955.800706	2560.570077
956.101108	2567.291615
956.401472	2554.100596
956.701798	2572.416788
957.002087	2546.706904
957.302337	2570.400327
957.602550	2547.211019
957.902724	2546.286808
958.202861	2554.520692
958.502960	2544.606423
958.803022	2556.873231
959.103045	2553.596481
959.403031	2557.797442
959.702979	2547.631115
960.002889	2564.266923
960.302762	2547.127000
960.602596	2551.496000
960.902393	2571.660615
961.202153	2555.108827
961.501875	2532.087558
961.801559	2577.037846
962.101205	2546.706904
962.400814	2555.780981
962.700385	2575.693538
962.999918	2573.929135
963.299414	2551.075904
963.598873	2558.973712
963.898293	2560.234000
964.197677	2552.672269
964.497022	2552.588250
964.796331	2552.756288
965.095601	2545.866712
965.394835	2547.463077
965.694030	2559.477827
965.993189	2548.723365
966.292309	2571.660615
966.591393	2572.248750
966.890439	2552.924327
967.189447	2556.201077
967.488419	2557.713423
967.787353	2564.182904
968.086249	2556.957250
968.385108	2554.352654
968.683930	2541.749769
968.982714	2550.487769
969.281462	2550.655808
969.580172	2537.716846
969.878844	2556.033038
970.177480	2560.486058
970.476078	2565.695250
970.774639	2543.346135
971.073162	2545.614654
971.371649	2564.350942
971.670098	2560.486058
971.968510	2561.662327
972.266885	2554.688731
972.565223	2552.336192
972.863524	2553.512462
973.161788	2552.336192
973.460014	2559.897923
973.758204	2566.619462
974.056356	2553.092365
974.354471	2555.528923
974.652550	2562.502519
974.950591	2543.430154
975.248595	2575.105404
975.546563	2570.904442
975.844493	2550.487769
976.142386	2570.484346
976.440243	2571.996692
976.738062	2550.907865
977.035845	2547.211019
977.333590	2554.436673
977.631299	2548.723365
977.928971	2555.024808
978.226606	2567.291615
978.524204	2562.334481
978.821765	2566.703481
979.119290	2569.224058
979.416777	2556.621173
979.714228	2557.881462
980.011642	2559.225769
980.309020	2549.311500
980.606360	2565.359173
980.903664	2546.286808
981.200931	2538.136942
981.498162	2573.425019
981.795356	2548.891404
982.092513	2542.589962
982.389633	2566.787500
982.686717	2558.301558
982.983764	2581.658904
983.280775	2580.314596
983.577749	2546.202788
983.874686	2549.395519
984.171587	2555.360885
984.468451	2568.383865
984.765279	2547.715135
985.062070	2541.581731
985.358824	2544.858481
985.655543	2560.486058
985.952224	2550.319731
986.248869	2551.411981
986.545478	2555.949019
986.842050	2549.059442
987.138586	2564.182904
987.435086	2550.319731
987.731549	2555.444904
988.027975	2549.143462
988.324366	2552.420212
988.620719	2546.202788
988.917037	2548.891404
989.213318	2566.115346
989.509563	2548.891404
989.805772	2547.379058
990.101944	2546.118769
990.398080	2547.463077
990.694180	2560.318019
990.990244	2571.324538
991.286271	2550.319731
991.582262	2559.729885
991.878217	2550.823846
992.174136	2562.418500
992.470019	2547.631115
992.765865	2542.085846
993.061676	2554.688731
993.357450	2558.301558
993.653188	2553.512462
993.948890	2567.375635
994.244556	2552.504231
994.540186	2553.428442
994.835780	2557.965481
995.131337	2570.484346
995.426859	2569.896212
995.722345	2567.879750
996.017795	2545.782692
996.313208	2573.004923
996.608586	2549.647577
996.903928	2558.301558
997.199234	2559.393808
997.494504	2561.074192
997.789738	2558.049500
998.084936	2546.034750
998.380099	2562.250462
998.675225	2556.201077
998.970316	2558.553615
999.265371	2543.094077
999.560390	2572.500808
999.855373	2563.846827
1000.150320	2562.754577
1000.445232	2554.100596
1000.740108	2555.108827
1001.034948	2548.387288
1001.329752	2547.463077
1001.624521	2564.266923
1001.919254	2546.790923
1002.213951	2564.939077
1002.508613	2553.512462
1002.803239	2564.014865
1003.097829	2557.461365
1003.392384	2557.293327
1003.686903	2554.184615
1003.981386	2559.729885
1004.275834	2544.354365
1004.570246	2534.272058
1004.864623	2563.258692
1005.158964	2557.545385
1005.453270	2560.990173
1005.747540	2552.168154
1006.041775	2556.369115
1006.335974	2545.530635
1006.630138	2546.958962
1006.924266	2552.756288
1007.218359	2551.159923
1007.512416	2553.596481
1007.806438	2544.858481
1008.100425	2564.350942
1008.394376	2559.309788
1008.688292	2568.803962
1008.982172	2565.779269
1009.276017	2548.555327
1009.569827	2546.706904
1009.863602	2539.649288
1010.157341	2556.957250
1010.451045	2550.739827
1010.744714	2554.520692
1011.038347	2548.051212
1011.331945	2557.713423
1011.625508	2548.555327
1011.919036	2549.983654
1012.212528	2559.729885
1012.505986	2564.603000
1012.799408	2561.914385
1013.092795	2559.393808
1013.386147	2569.056019
1013.679464	2560.149981
1013.972745	2547.547096
1014.265992	2539.565269
1014.559204	2544.522404
1014.852380	2563.090654
1015.145521	2556.789212
1015.438628	2555.612942
1015.731699	2552.840308
1016.024736	2547.211019
1016.317737	2555.780981
1016.610703	2553.176385
1016.903635	2556.705192
1017.196531	2561.326250
1017.489393	2550.655808
1017.782219	2553.428442
1018.075011	2557.629404
1018.367768	2550.571788
1018.660490	2554.184615
1018.953177	2554.184615
1019.245829	2554.184615
