Dividing Wavelength (nm)	Counts (n)	Slit_number_34_of_a_total_of_40	
326.493990	2046.456404
326.888308	2046.456404
327.282561	2046.456404
327.676750	2040.154962
328.070874	2027.047962
328.464933	2048.472865
328.858929	2016.713596
329.252859	2053.514019
329.646726	2053.261962
330.040528	2064.856615
330.434265	2074.938923
330.827938	2104.681731
331.221547	2119.805192
331.615091	2165.931750
332.008571	2159.378250
332.401986	2205.504808
332.795338	2217.351519
333.188625	2230.710577
333.581847	2252.387538
333.975006	2263.982192
334.368100	2274.820673
334.761129	2290.700308
335.154095	2323.971923
335.546996	2316.410192
335.939833	2346.405058
336.332606	2378.668442
336.725315	2369.090250
337.117960	2369.846423
337.510540	2396.312481
337.903056	2414.964750
338.295508	2397.320712
338.687896	2408.915365
339.080220	2430.592327
339.472480	2438.406115
339.864676	2425.299115
340.256807	2411.940058
340.648875	2438.658173
341.040879	2446.976077
341.432818	2457.562500
341.824694	2434.625250
342.216506	2451.513115
342.608253	2446.219904
342.999937	2426.055288
343.391557	2458.066615
343.783113	2440.926692
344.174605	2423.534712
344.566033	2413.956519
344.957397	2453.781635
345.348697	2431.096442
345.739934	2436.137596
346.131106	2410.175654
346.522215	2440.422577
346.913260	2422.022365
347.304241	2405.638615
347.695159	2416.729154
348.086012	2420.510019
348.476802	2415.972981
348.867528	2401.101577
349.258191	2395.304250
349.648789	2405.638615
350.039324	2407.403019
350.429796	2430.340269
350.820203	2402.109808
351.210548	2429.584096
351.600828	2408.159192
351.991045	2398.581000
352.381198	2396.816596
352.771288	2415.216808
353.161314	2407.403019
353.551276	2399.841288
353.941175	2414.208577
354.331010	2419.753846
354.720782	2390.767212
355.110490	2408.411250
355.500135	2417.737385
355.889717	2404.126269
356.279235	2384.969885
356.668689	2433.869077
357.058080	2400.849519
357.447408	2428.323808
357.836672	2439.414346
358.225873	2399.337173
358.615010	2429.584096
359.004084	2420.005904
359.393095	2412.696231
359.782043	2408.663308
360.170927	2414.712692
360.559748	2404.630385
360.948505	2409.671538
361.337199	2407.655077
361.725830	2426.559404
362.114398	2426.811462
362.502903	2437.397885
362.891344	2424.542942
363.279722	2403.622154
363.668037	2405.890673
364.056289	2405.638615
364.444478	2393.287788
364.832603	2434.625250
365.220665	2438.910231
365.608665	2442.691096
365.996601	2437.902000
366.384474	2413.200346
366.772284	2435.885538
367.160031	2444.203442
367.547715	2439.666404
367.935336	2422.022365
368.322893	2429.584096
368.710388	2436.137596
369.097820	2440.422577
369.485189	2408.159192
369.872495	2441.934923
370.259738	2424.542942
370.646918	2402.613923
371.034035	2408.159192
371.421090	2413.200346
371.808081	2421.770308
372.195010	2412.948288
372.581875	2420.005904
372.968678	2413.452404
373.355418	2422.274423
373.742096	2445.967846
374.128710	2428.827923
374.515262	2444.203442
374.901751	2427.819692
375.288177	2412.444173
375.674540	2422.526481
376.060841	2413.452404
376.447079	2432.104673
376.833254	2429.836154
377.219367	2408.663308
377.605417	2412.444173
377.991404	2437.145827
378.377329	2404.378327
378.763191	2415.468865
379.148991	2420.762077
379.534727	2428.827923
379.920402	2425.047058
380.306013	2414.712692
380.691563	2438.658173
381.077049	2414.460635
381.462474	2418.997673
381.847835	2418.997673
382.233134	2423.030596
382.618371	2435.633481
383.003545	2406.898904
383.388657	2426.307346
383.773706	2403.370096
384.158693	2432.356731
384.543618	2420.510019
384.928480	2444.959615
385.313280	2409.923596
385.698017	2447.228135
386.082692	2432.356731
386.467305	2444.707558
386.851856	2433.112904
387.236344	2444.959615
387.620770	2438.154058
388.005133	2434.625250
388.389435	2447.480192
388.773674	2463.107769
389.157851	2429.584096
389.541965	2435.885538
389.926018	2427.063519
390.310008	2444.455500
390.693936	2432.356731
391.077802	2443.447269
391.461606	2441.430808
391.845348	2418.997673
392.229027	2457.058385
392.612645	2447.228135
392.996200	2437.649942
393.379694	2418.997673
393.763125	2464.872173
394.146494	2423.282654
394.529801	2442.439038
394.913047	2457.058385
395.296230	2427.315577
395.679351	2411.688000
396.062410	2434.877308
396.445408	2443.951385
396.828343	2431.852615
397.211217	2398.833058
397.594028	2422.274423
397.976778	2421.770308
398.359466	2442.691096
398.742092	2437.649942
399.124656	2473.190077
399.507158	2461.847481
399.889598	2418.745615
400.271977	2458.318673
400.654294	2456.554269
401.036549	2441.178750
401.418742	2434.877308
401.800874	2431.600558
402.182944	2414.208577
402.564952	2444.203442
402.946898	2434.121135
403.328783	2449.244596
403.710606	2431.348500
404.092367	2442.439038
404.474067	2430.340269
404.855705	2444.959615
405.237282	2433.869077
405.618797	2449.244596
406.000250	2466.132462
406.381642	2436.893769
406.762972	2450.504885
407.144240	2440.170519
407.525447	2467.140692
407.906593	2454.033692
408.287677	2443.195212
408.668700	2421.518250
409.049661	2475.962712
409.430560	2440.170519
409.811399	2472.938019
410.192176	2440.674635
410.572891	2464.872173
410.953545	2466.384519
411.334138	2450.504885
411.714669	2432.104673
412.095139	2453.781635
412.475547	2442.691096
412.855894	2442.691096
413.236180	2424.795000
413.616405	2436.389654
413.996568	2429.079981
414.376670	2457.058385
414.756711	2433.869077
415.136691	2446.219904
415.516609	2442.691096
415.896466	2464.116000
416.276262	2471.677731
416.655997	2459.578962
417.035670	2426.559404
417.415283	2437.145827
417.794834	2443.447269
418.174324	2438.910231
418.553753	2448.488423
418.933121	2459.074846
419.312428	2452.521346
419.691674	2446.219904
420.070859	2439.918462
420.449983	2438.910231
420.829045	2456.302212
421.208047	2460.587192
421.586988	2451.261058
421.965867	2447.732250
422.344686	2463.611885
422.723444	2463.107769
423.102141	2434.373192
423.480777	2443.951385
423.859352	2449.244596
424.237866	2461.595423
424.616319	2465.880404
424.994712	2469.409212
425.373044	2450.252827
425.751314	2451.261058
426.129524	2440.422577
426.507673	2443.699327
426.885762	2444.203442
427.263789	2421.770308
427.641756	2446.471962
428.019662	2450.756942
428.397508	2471.173615
428.775292	2463.611885
429.153016	2455.546038
429.530679	2463.107769
429.908282	2432.104673
430.285824	2448.992538
430.663305	2445.463731
431.040726	2447.228135
431.418086	2454.789865
431.795385	2467.140692
432.172624	2460.335135
432.549802	2450.000769
432.926920	2440.170519
433.303977	2462.099538
433.680974	2451.261058
434.057910	2443.951385
434.434786	2446.219904
434.811601	2447.480192
435.188355	2447.984308
435.565050	2464.116000
435.941683	2468.905096
436.318257	2468.148923
436.694770	2476.214769
437.071222	2422.274423
437.447614	2493.102635
437.823946	2463.107769
438.200218	2457.814558
438.576429	2431.348500
438.952580	2445.967846
439.328670	2434.877308
439.704700	2449.244596
440.080670	2456.050154
440.456580	2445.463731
440.832429	2456.806327
441.208218	2427.567635
441.583947	2448.236365
441.959616	2442.186981
442.335224	2473.442135
442.710773	2449.748712
443.086261	2461.847481
443.461689	2452.521346
443.837057	2439.666404
444.212365	2436.641712
444.587612	2445.967846
444.962800	2445.463731
445.337927	2471.425673
445.712995	2452.773404
446.088002	2452.017231
446.462949	2475.458596
446.837837	2468.400981
447.212664	2430.340269
447.587431	2457.310442
447.962139	2448.236365
448.336786	2453.025462
448.711374	2468.653038
449.085901	2445.463731
449.460369	2453.277519
449.834776	2455.798096
450.209124	2456.050154
450.583412	2479.743577
450.957640	2471.677731
451.331808	2456.050154
451.705917	2452.269288
452.079965	2454.033692
452.453954	2458.570731
452.827883	2445.967846
453.201752	2435.633481
453.575562	2462.099538
453.949311	2453.277519
454.323001	2435.885538
454.696632	2475.206538
455.070202	2457.562500
455.443713	2476.718885
455.817164	2447.984308
456.190556	2451.513115
456.563888	2478.231231
456.937160	2462.855712
457.310373	2462.855712
457.683526	2443.195212
458.056619	2463.359827
458.429653	2427.819692
458.802628	2449.244596
459.175542	2455.798096
459.548398	2431.852615
459.921194	2449.748712
460.293930	2480.751808
460.666607	2433.869077
461.039224	2451.765173
461.411782	2446.219904
461.784280	2473.190077
462.156719	2476.466827
462.529099	2472.433904
462.901419	2462.603654
463.273680	2501.168481
463.645882	2460.083077
464.018024	2446.471962
464.390106	2443.447269
464.762130	2461.595423
465.134094	2471.425673
465.505999	2481.507981
465.877845	2447.228135
466.249631	2469.661269
466.621358	2467.392750
466.993026	2476.214769
467.364634	2477.223000
467.736184	2477.727115
468.107674	2445.967846
468.479105	2461.343365
468.850477	2455.546038
469.221790	2441.430808
469.593043	2469.409212
469.964238	2466.636577
470.335373	2446.471962
470.706449	2450.000769
471.077467	2470.165385
471.448425	2462.099538
471.819324	2467.392750
472.190164	2483.272385
472.560945	2446.219904
472.931667	2448.488423
473.302330	2463.359827
473.672934	2464.368058
474.043479	2482.516212
474.413965	2482.516212
474.784393	2442.943154
475.154761	2449.244596
475.525070	2456.554269
475.895321	2449.748712
476.265513	2470.669500
476.635645	2462.351596
477.005719	2461.595423
477.375734	2463.611885
477.745691	2476.214769
478.115588	2472.685962
478.485427	2432.356731
478.855207	2468.905096
479.224928	2452.521346
479.594591	2471.677731
479.964194	2479.491519
480.333739	2438.910231
480.703226	2484.532673
481.072653	2432.104673
481.442022	2491.086173
481.811333	2470.165385
482.180584	2445.211673
482.549777	2424.795000
482.918912	2456.302212
483.287988	2478.231231
483.657005	2457.310442
484.025964	2479.995635
484.394864	2439.162288
484.763706	2452.269288
485.132489	2452.269288
485.501213	2457.058385
485.869879	2427.567635
486.238487	2463.611885
486.607036	2455.041923
486.975527	2442.186981
487.343959	2472.181846
487.712333	2456.050154
488.080648	2471.677731
488.448905	2456.554269
488.817104	2495.119096
489.185244	2454.033692
489.553326	2450.756942
489.921350	2452.269288
490.289315	2458.066615
490.657222	2476.970942
491.025070	2468.905096
491.392861	2451.765173
491.760593	2472.938019
492.128267	2441.934923
492.495883	2481.507981
492.863440	2468.653038
493.230939	2496.883500
493.598380	2477.475058
493.965763	2448.488423
494.333088	2488.565596
494.700354	2459.074846
495.067563	2457.058385
495.434713	2462.603654
495.801805	2445.967846
496.168839	2453.781635
496.535815	2466.636577
496.902733	2478.483288
497.269593	2493.858808
497.636395	2464.368058
498.003139	2469.157154
498.369825	2447.480192
498.736453	2462.603654
499.103023	2456.554269
499.469535	2441.682865
499.835989	2471.677731
500.202385	2445.211673
500.568723	2459.074846
500.935003	2449.244596
501.301226	2452.017231
501.667390	2453.025462
502.033497	2461.091308
502.399546	2447.732250
502.765537	2470.921558
503.131470	2463.611885
503.497345	2460.839250
503.863163	2470.669500
504.228923	2452.269288
504.594625	2462.099538
504.960269	2471.425673
505.325856	2461.847481
505.691385	2447.228135
506.056856	2475.458596
506.422270	2489.321769
506.787625	2439.666404
507.152924	2462.099538
507.518164	2440.674635
507.883347	2458.570731
508.248472	2450.252827
508.613540	2461.847481
508.978550	2482.012096
509.343503	2456.302212
509.708398	2458.066615
510.073236	2465.880404
510.438016	2476.970942
510.802738	2440.674635
511.167403	2452.017231
511.532010	2476.718885
511.896561	2453.277519
512.261053	2462.351596
512.625488	2448.740481
512.989866	2451.765173
513.354186	2456.554269
513.718449	2480.499750
514.082655	2458.570731
514.446803	2455.293981
514.810894	2459.578962
515.174927	2475.458596
515.538904	2460.335135
515.902822	2446.724019
516.266684	2460.335135
516.630488	2463.611885
516.994235	2462.351596
517.357925	2438.406115
517.721558	2472.433904
518.085133	2474.198308
518.448651	2443.951385
518.812112	2455.798096
519.175516	2469.409212
519.538863	2465.880404
519.902152	2472.181846
520.265385	2466.384519
520.628560	2461.847481
520.991678	2459.074846
521.354739	2476.970942
521.717743	2498.899962
522.080690	2474.954481
522.443580	2460.839250
522.806413	2454.285750
523.169189	2474.954481
523.531908	2456.554269
523.894569	2457.310442
524.257174	2460.083077
524.619722	2475.458596
524.982213	2436.893769
525.344647	2469.913327
525.707025	2463.359827
526.069345	2459.831019
526.431608	2480.751808
526.793815	2477.727115
527.155964	2461.847481
527.518057	2460.839250
527.880093	2466.384519
528.242072	2484.784731
528.603995	2463.611885
528.965860	2448.992538
529.327669	2463.107769
529.689421	2439.666404
530.051117	2493.102635
530.412755	2460.587192
530.774337	2484.532673
531.135862	2457.058385
531.497331	2515.787827
531.858743	2482.768269
532.220098	2459.831019
532.581396	2448.740481
532.942638	2460.839250
533.303824	2474.954481
533.664953	2452.017231
534.026025	2472.433904
534.387040	2452.269288
534.747999	2454.285750
535.108902	2471.173615
535.469748	2449.244596
535.830537	2483.020327
536.191270	2453.781635
536.551947	2464.872173
536.912567	2464.872173
537.273131	2441.934923
537.633638	2471.929788
537.994089	2468.905096
538.354483	2459.578962
538.714821	2476.214769
539.075103	2467.392750
539.435328	2479.995635
539.795497	2447.228135
540.155609	2490.582058
540.515665	2485.288846
540.875665	2467.392750
541.235609	2487.305308
541.595496	2455.293981
541.955328	2471.173615
542.315102	2486.297077
542.674821	2470.921558
543.034483	2479.995635
543.394090	2467.140692
543.753640	2469.157154
544.113134	2473.946250
544.472571	2472.181846
544.831953	2468.148923
545.191278	2473.946250
545.550548	2454.537808
545.909761	2479.239462
546.268918	2444.455500
546.628019	2454.285750
546.987064	2480.751808
547.346053	2474.450365
547.704986	2466.384519
548.063863	2461.091308
548.422684	2457.814558
548.781449	2456.554269
549.140158	2462.855712
549.498811	2458.318673
549.857408	2456.806327
550.215949	2461.091308
550.574434	2478.231231
550.932864	2472.433904
551.291237	2496.379385
551.649555	2471.425673
552.007817	2469.157154
552.366022	2466.132462
552.724173	2461.091308
553.082267	2468.148923
553.440305	2482.264154
553.798288	2483.272385
554.156215	2468.905096
554.514086	2458.822788
554.871902	2454.033692
555.229661	2456.806327
555.587365	2477.223000
555.945014	2462.099538
556.302606	2434.877308
556.660143	2469.913327
557.017625	2482.012096
557.375050	2463.611885
557.732421	2452.269288
558.089735	2441.682865
558.446994	2492.094404
558.804197	2460.587192
559.161345	2488.313538
559.518437	2470.921558
559.875474	2467.896865
560.232455	2487.809423
560.589381	2461.343365
560.946251	2471.677731
561.303065	2457.058385
561.659825	2464.620115
562.016528	2490.582058
562.373177	2474.954481
562.729770	2472.181846
563.086307	2456.050154
563.442789	2452.773404
563.799216	2462.099538
564.155587	2514.275481
564.511904	2476.970942
564.868164	2468.905096
565.224370	2473.190077
565.580520	2478.735346
565.936615	2479.239462
566.292654	2475.458596
566.648638	2464.368058
567.004567	2449.244596
567.360441	2463.611885
567.716260	2473.442135
568.072023	2472.685962
568.427732	2487.305308
568.783385	2492.094404
569.138982	2483.272385
569.494525	2479.491519
569.850013	2467.392750
570.205445	2491.086173
570.560823	2448.488423
570.916145	2474.954481
571.271412	2448.488423
571.626625	2461.091308
571.981782	2462.351596
572.336884	2451.513115
572.691931	2463.863942
573.046923	2482.516212
573.401860	2457.310442
573.756743	2475.458596
574.111570	2474.954481
574.466342	2484.028558
574.821059	2477.475058
575.175722	2456.806327
575.530330	2468.148923
575.884882	2456.806327
576.239380	2482.768269
576.593823	2473.190077
576.948211	2464.116000
577.302544	2461.343365
577.656823	2462.099538
578.011047	2468.400981
578.365216	2477.475058
578.719330	2478.231231
579.073389	2442.691096
579.427394	2472.181846
579.781344	2441.430808
580.135239	2471.173615
580.489080	2457.814558
580.842866	2480.247692
581.196597	2498.647904
581.550273	2461.091308
581.903895	2480.751808
582.257463	2478.735346
582.610975	2456.050154
582.964434	2464.116000
583.317837	2463.863942
583.671186	2470.165385
584.024481	2483.524442
584.377721	2456.554269
584.730906	2455.798096
585.084037	2462.855712
585.437113	2444.959615
585.790135	2467.896865
586.143103	2452.017231
586.496016	2457.058385
586.848874	2472.685962
587.201679	2477.475058
587.554428	2431.852615
587.907124	2450.252827
588.259765	2466.888635
588.612352	2463.107769
588.964884	2463.863942
589.317362	2455.293981
589.669786	2457.562500
590.022155	2461.847481
590.374470	2470.669500
590.726731	2467.644808
591.078937	2464.872173
591.431090	2480.247692
591.783188	2476.466827
592.135232	2482.516212
592.487222	2473.442135
592.839157	2494.362923
593.191038	2473.694192
593.542866	2467.140692
593.894639	2445.715788
594.246358	2464.620115
594.598022	2445.211673
594.949633	2444.203442
595.301190	2485.288846
595.652692	2444.203442
596.004141	2483.776500
596.355535	2456.050154
596.706876	2465.628346
597.058162	2453.529577
597.409395	2462.603654
597.760573	2450.504885
598.111698	2469.913327
598.462768	2472.685962
598.813785	2464.620115
599.164748	2479.239462
599.515657	2474.450365
599.866511	2472.685962
600.217312	2455.798096
600.568060	2460.335135
600.918753	2484.532673
601.269392	2477.475058
601.619978	2485.540904
601.970510	2483.776500
602.320988	2463.359827
602.671412	2467.644808
603.021783	2472.685962
603.372100	2466.636577
603.722363	2483.524442
604.072572	2470.165385
604.422728	2458.318673
604.772830	2451.513115
605.122878	2447.984308
605.472872	2455.041923
605.822813	2435.633481
606.172701	2479.743577
606.522534	2463.107769
606.872314	2496.127327
607.222041	2492.094404
607.571714	2457.058385
607.921333	2480.499750
608.270899	2494.362923
608.620411	2463.863942
608.969870	2458.570731
609.319276	2461.595423
609.668627	2501.168481
610.017926	2474.702423
610.367171	2481.507981
610.716362	2494.867038
611.065500	2462.351596
611.414585	2477.979173
611.763616	2459.578962
612.112594	2447.732250
612.461518	2481.507981
612.810389	2458.570731
613.159207	2480.499750
613.507971	2487.557365
613.856682	2462.603654
614.205340	2460.587192
614.553945	2463.107769
614.902496	2471.425673
615.250994	2463.611885
615.599439	2460.083077
615.947830	2454.789865
616.296169	2472.938019
616.644454	2454.285750
616.992686	2472.181846
617.340864	2480.247692
617.688990	2463.107769
618.037063	2463.863942
618.385082	2505.705519
618.733048	2483.524442
619.080961	2480.751808
619.428821	2483.776500
619.776628	2465.124231
620.124382	2504.949346
620.472083	2463.107769
620.819731	2450.504885
621.167326	2466.132462
621.514868	2461.091308
621.862357	2460.839250
622.209793	2469.913327
622.557176	2468.905096
622.904506	2474.702423
623.251783	2477.727115
623.599007	2453.529577
623.946179	2476.466827
624.293297	2462.351596
624.640363	2466.888635
624.987376	2469.409212
625.334336	2460.839250
625.681243	2430.088212
626.028097	2484.028558
626.374899	2485.036788
626.721647	2470.417442
627.068343	2466.384519
627.414987	2475.458596
627.761577	2466.132462
628.108115	2483.776500
628.454600	2466.132462
628.801032	2477.223000
629.147412	2468.653038
629.493739	2455.293981
629.840014	2468.905096
630.186236	2460.839250
630.532405	2474.954481
630.878521	2458.822788
631.224585	2478.483288
631.570597	2476.466827
631.916556	2474.450365
632.262462	2486.549135
632.608316	2467.644808
632.954117	2456.554269
633.299866	2476.718885
633.645562	2457.058385
633.991206	2454.033692
634.336797	2474.198308
634.682336	2447.984308
635.027823	2466.132462
635.373257	2473.442135
635.718639	2476.466827
636.063968	2469.913327
636.409245	2477.727115
636.754470	2438.910231
637.099642	2483.020327
637.444762	2476.970942
637.789829	2455.798096
638.134845	2460.587192
638.479808	2469.157154
638.824719	2443.951385
639.169577	2474.702423
639.514383	2443.951385
639.859137	2481.255923
640.203839	2481.507981
640.548489	2464.368058
640.893086	2452.773404
641.237632	2480.751808
641.582125	2479.239462
641.926566	2457.562500
642.270955	2472.685962
642.615292	2439.918462
642.959576	2461.847481
643.303809	2461.847481
643.647990	2467.392750
643.992118	2465.376288
644.336195	2458.318673
644.680219	2483.776500
645.024192	2484.028558
645.368112	2465.880404
645.711981	2464.872173
646.055797	2454.789865
646.399562	2462.855712
646.743274	2471.173615
647.086935	2463.107769
647.430544	2480.751808
647.774101	2483.524442
648.117606	2459.831019
648.461059	2484.028558
648.804460	2472.938019
649.147810	2482.516212
649.491108	2453.277519
649.834354	2471.677731
650.177548	2459.578962
650.520690	2472.938019
650.863781	2433.617019
651.206820	2462.855712
651.549807	2467.644808
651.892742	2464.620115
652.235626	2466.888635
652.578458	2468.653038
652.921238	2497.891731
653.263967	2462.351596
653.606644	2458.570731
653.949269	2443.951385
654.291843	2467.392750
654.634365	2465.376288
654.976836	2468.400981
655.319255	2455.798096
655.661622	2469.913327
656.003938	2458.822788
656.346203	2457.058385
656.688416	2470.165385
657.030577	2467.140692
657.372687	2497.639673
657.714746	2455.293981
658.056753	2455.546038
658.398708	2463.863942
658.740612	2447.228135
659.082465	2496.127327
659.424266	2457.310442
659.766016	2452.521346
660.107715	2472.685962
660.449362	2476.718885
660.790958	2468.148923
661.132503	2485.288846
661.473996	2465.628346
661.815438	2457.058385
662.156829	2455.798096
662.498168	2469.913327
662.839456	2483.272385
663.180693	2437.397885
663.521879	2469.157154
663.863013	2474.450365
664.204097	2462.855712
664.545129	2429.079981
664.886110	2461.847481
665.227040	2484.028558
665.567918	2460.587192
665.908746	2448.488423
666.249522	2481.760038
666.590248	2424.542942
666.930922	2480.751808
667.271545	2505.201404
667.612118	2446.724019
667.952639	2447.228135
668.293109	2421.770308
668.633528	2460.083077
668.973896	2444.455500
669.314213	2456.050154
669.654480	2465.880404
669.994695	2479.491519
670.334859	2470.669500
670.674973	2472.433904
671.015035	2472.433904
671.355047	2482.012096
671.695008	2465.880404
672.034918	2452.269288
672.374777	2456.554269
672.714585	2470.165385
673.054342	2460.335135
673.394049	2462.351596
673.733705	2485.540904
674.073310	2468.400981
674.412864	2466.132462
674.752368	2487.053250
675.091820	2473.190077
675.431223	2460.839250
675.770574	2460.839250
676.109875	2457.310442
676.449125	2452.773404
676.788324	2469.661269
677.127473	2445.715788
677.466571	2470.417442
677.805619	2450.000769
678.144616	2456.554269
678.483562	2463.107769
678.822458	2452.773404
679.161303	2475.710654
679.500098	2490.834115
679.838842	2467.392750
680.177535	2484.028558
680.516179	2465.628346
680.854771	2455.293981
681.193314	2478.987404
681.531805	2493.858808
681.870247	2452.773404
682.208638	2470.669500
682.546978	2451.261058
682.885268	2466.888635
683.223508	2453.025462
683.561697	2481.507981
683.899836	2474.198308
684.237925	2463.863942
684.575963	2463.611885
684.913951	2458.570731
685.251889	2468.148923
685.589776	2501.672596
685.927614	2491.086173
686.265401	2446.219904
686.603137	2463.107769
686.940824	2461.091308
687.278460	2467.140692
687.616046	2469.409212
687.953582	2455.041923
688.291068	2458.066615
688.628504	2472.685962
688.965889	2467.644808
689.303224	2462.603654
689.640510	2461.343365
689.977745	2467.392750
690.314930	2463.107769
690.652065	2454.033692
690.989150	2471.173615
691.326185	2505.201404
691.663170	2464.872173
692.000105	2470.417442
692.336990	2464.620115
692.673825	2463.359827
693.010610	2469.913327
693.347345	2449.748712
693.684030	2474.954481
694.020665	2468.905096
694.357251	2462.351596
694.693786	2457.310442
695.030272	2476.466827
695.366707	2438.910231
695.703093	2456.050154
696.039429	2500.664365
696.375716	2468.148923
696.711952	2446.976077
697.048139	2489.069712
697.384276	2448.740481
697.720363	2458.570731
698.056400	2445.211673
698.392388	2486.549135
698.728326	2462.351596
699.064214	2448.740481
699.400053	2468.905096
699.735842	2482.516212
700.071581	2465.124231
700.407270	2456.554269
700.742910	2456.302212
701.078501	2453.025462
701.414042	2484.280615
701.749533	2452.521346
702.084974	2471.173615
702.420366	2478.231231
702.755709	2469.409212
703.091002	2499.152019
703.426246	2473.190077
703.761440	2467.644808
704.096584	2463.107769
704.431679	2462.603654
704.766725	2466.384519
705.101721	2461.091308
705.436668	2486.297077
705.771565	2467.140692
706.106413	2468.400981
706.441212	2467.644808
706.775961	2474.198308
707.110661	2475.710654
707.445311	2440.170519
707.779913	2488.565596
708.114465	2472.181846
708.448967	2464.116000
708.783421	2475.206538
709.117825	2452.773404
709.452180	2462.603654
709.786485	2479.743577
710.120742	2461.847481
710.454949	2462.855712
710.789107	2452.521346
711.123216	2454.285750
711.457275	2473.946250
711.791286	2476.718885
712.125247	2458.318673
712.459159	2459.074846
712.793023	2446.471962
713.126837	2459.326904
713.460602	2480.499750
713.794318	2477.223000
714.127985	2437.902000
714.461602	2475.458596
714.795171	2457.814558
715.128691	2464.872173
715.462162	2496.379385
715.795584	2458.822788
716.128957	2475.962712
716.462281	2450.252827
716.795556	2463.611885
717.128782	2465.628346
717.461960	2455.546038
717.795088	2465.376288
718.128167	2477.223000
718.461198	2461.595423
718.794180	2460.083077
719.127113	2455.546038
719.459997	2477.223000
719.792833	2443.699327
720.125619	2447.480192
720.458357	2474.198308
720.791046	2473.946250
721.123686	2484.280615
721.456278	2465.880404
721.788821	2461.091308
722.121315	2465.376288
722.453761	2468.400981
722.786158	2481.003865
723.118506	2454.033692
723.450805	2468.148923
723.783056	2470.417442
724.115259	2452.269288
724.447412	2460.335135
724.779518	2444.707558
725.111574	2473.442135
725.443582	2470.669500
725.775542	2478.735346
726.107453	2462.351596
726.439315	2452.521346
726.771129	2497.891731
727.102895	2471.929788
727.434612	2462.603654
727.766281	2487.809423
728.097901	2457.058385
728.429473	2467.140692
728.760996	2467.392750
729.092471	2475.458596
729.423897	2484.532673
729.755276	2483.272385
730.086606	2458.318673
730.417887	2477.979173
730.749120	2453.781635
731.080305	2455.546038
731.411442	2463.863942
731.742530	2463.359827
732.073570	2473.694192
732.404562	2466.132462
732.735506	2504.193173
733.066401	2472.433904
733.397249	2455.546038
733.728048	2464.620115
734.058798	2464.620115
734.389501	2457.562500
734.720156	2476.214769
735.050762	2472.181846
735.381320	2478.987404
735.711831	2475.206538
736.042293	2470.921558
736.372707	2453.781635
736.703073	2472.938019
737.033391	2504.697288
737.363661	2479.239462
737.693883	2488.817654
738.024056	2453.277519
738.354182	2494.614981
738.684260	2479.239462
739.014290	2455.041923
739.344272	2473.190077
739.674207	2462.855712
740.004093	2487.809423
740.333931	2443.195212
740.663722	2427.315577
740.993464	2471.929788
741.323159	2461.343365
741.652806	2453.529577
741.982405	2464.620115
742.311956	2457.562500
742.641460	2448.236365
742.970915	2449.496654
743.300323	2473.442135
743.629683	2453.529577
743.958996	2472.433904
744.288260	2474.198308
744.617477	2473.946250
744.946647	2450.756942
745.275768	2466.636577
745.604842	2471.929788
745.933869	2444.455500
746.262847	2475.458596
746.591778	2469.409212
746.920662	2459.326904
747.249498	2449.496654
747.578286	2491.590288
747.907027	2472.433904
748.235720	2453.781635
748.564365	2458.570731
748.892963	2455.041923
749.221514	2447.228135
749.550017	2498.647904
749.878473	2474.954481
750.206881	2492.346462
750.535242	2477.475058
750.863555	2460.839250
751.191821	2458.318673
751.520039	2500.160250
751.848210	2463.359827
752.176334	2457.058385
752.504411	2450.000769
752.832440	2476.718885
753.160421	2468.400981
753.488356	2457.814558
753.816243	2469.157154
754.144082	2451.261058
754.471875	2446.219904
754.799620	2456.554269
755.127318	2503.437000
755.454969	2428.071750
755.782572	2487.557365
756.110129	2458.318673
756.437638	2501.924654
756.765100	2455.293981
757.092515	2447.228135
757.419882	2460.335135
757.747203	2430.340269
758.074477	2474.702423
758.401703	2479.491519
758.728882	2466.636577
759.056014	2479.239462
759.383099	2465.880404
759.710138	2457.814558
760.037129	2451.261058
760.364073	2451.261058
760.690970	2463.359827
761.017820	2446.976077
761.344623	2467.644808
761.671379	2451.009000
761.998088	2471.173615
762.324751	2472.938019
762.651366	2469.157154
762.977935	2452.773404
763.304456	2477.475058
763.630931	2445.211673
763.957359	2467.140692
764.283740	2455.041923
764.610074	2450.252827
764.936362	2430.592327
765.262602	2449.244596
765.588796	2483.272385
765.914943	2447.984308
766.241044	2465.628346
766.567097	2450.504885
766.893104	2482.012096
767.219064	2446.724019
767.544978	2485.288846
767.870845	2434.373192
768.196665	2448.236365
768.522438	2472.938019
768.848165	2435.633481
769.173846	2468.148923
769.499479	2471.929788
769.825066	2472.181846
770.150607	2444.707558
770.476101	2463.107769
770.801548	2439.666404
771.126949	2457.814558
771.452303	2474.450365
771.777611	2466.636577
772.102872	2482.516212
772.428087	2447.228135
772.753256	2469.913327
773.078378	2472.433904
773.403453	2464.872173
773.728482	2471.677731
774.053465	2454.285750
774.378401	2462.855712
774.703291	2472.181846
775.028135	2469.913327
775.352932	2455.546038
775.677683	2471.425673
776.002388	2470.417442
776.327046	2450.252827
776.651658	2447.480192
776.976224	2464.368058
777.300743	2485.540904
777.625216	2461.343365
777.949643	2467.392750
778.274024	2461.595423
778.598359	2439.666404
778.922647	2458.822788
779.246889	2462.603654
779.571086	2456.050154
779.895236	2469.913327
780.219339	2463.107769
780.543397	2452.521346
780.867409	2465.376288
781.191374	2453.529577
781.515294	2488.817654
781.839167	2459.578962
782.162995	2463.611885
782.486776	2479.491519
782.810511	2477.979173
783.134201	2458.066615
783.457844	2453.277519
783.781441	2485.540904
784.104993	2472.685962
784.428498	2461.595423
784.751958	2460.335135
785.075372	2486.801192
785.398739	2475.458596
785.722061	2458.570731
786.045337	2481.255923
786.368568	2459.578962
786.691752	2466.384519
787.014891	2467.140692
787.337983	2445.463731
787.661030	2456.554269
787.984031	2480.751808
788.306987	2456.050154
788.629897	2467.644808
788.952760	2492.094404
789.275579	2451.009000
789.598351	2459.326904
789.921078	2467.392750
790.243759	2481.255923
790.566395	2465.124231
790.888984	2459.074846
791.211529	2449.496654
791.534027	2450.252827
791.856480	2451.009000
792.178888	2461.595423
792.501249	2427.063519
792.823566	2449.244596
793.145836	2458.066615
793.468062	2471.929788
793.790241	2449.748712
794.112375	2466.636577
794.434464	2440.926692
794.756507	2475.962712
795.078505	2457.562500
795.400457	2469.157154
795.722364	2471.677731
796.044226	2474.450365
796.366042	2455.041923
796.687812	2463.359827
797.009538	2459.074846
797.331218	2456.554269
797.652852	2474.450365
797.974442	2478.483288
798.295986	2481.255923
798.617484	2454.285750
798.938938	2460.587192
799.260346	2470.669500
799.581709	2464.116000
799.903026	2481.507981
800.224299	2445.967846
800.545526	2455.546038
800.866708	2449.496654
801.187845	2452.521346
801.508936	2450.252827
801.829983	2465.124231
802.150984	2467.644808
802.471940	2450.000769
802.792851	2476.970942
803.113717	2485.036788
803.434538	2482.768269
803.755314	2467.896865
804.076045	2460.335135
804.396731	2449.496654
804.717372	2450.504885
805.037967	2463.863942
805.358518	2476.214769
805.679024	2456.050154
805.999485	2435.633481
806.319901	2447.984308
806.640272	2464.368058
806.960598	2434.625250
807.280879	2486.801192
807.601115	2463.107769
807.921306	2457.814558
808.241453	2447.984308
808.561554	2440.674635
808.881611	2514.023423
809.201623	2456.050154
809.521590	2476.466827
809.841513	2453.277519
810.161390	2459.831019
810.481223	2471.173615
810.801011	2449.496654
811.120755	2465.628346
811.440453	2456.050154
811.760107	2462.351596
812.079716	2475.710654
812.399281	2442.943154
812.718801	2468.148923
813.038276	2465.124231
813.357707	2467.644808
813.677093	2463.359827
813.996434	2423.786769
814.315731	2461.091308
814.634983	2461.847481
814.954191	2446.471962
815.273354	2465.628346
815.592473	2461.343365
815.911547	2466.888635
816.230577	2456.554269
816.549562	2476.214769
816.868502	2444.203442
817.187399	2466.888635
817.506250	2450.252827
817.825058	2447.228135
818.143821	2430.592327
818.462539	2445.967846
818.781213	2461.847481
819.099843	2471.677731
819.418429	2465.628346
819.736970	2471.929788
820.055466	2431.348500
820.373919	2486.801192
820.692327	2487.053250
821.010691	2467.644808
821.329011	2463.107769
821.647286	2469.661269
821.965517	2443.447269
822.283704	2480.247692
822.601847	2462.603654
822.919945	2482.516212
823.237999	2458.066615
823.556010	2464.368058
823.873976	2441.934923
824.191897	2496.631442
824.509775	2447.228135
824.827609	2460.587192
825.145398	2461.091308
825.463144	2463.863942
825.780845	2467.140692
826.098502	2465.880404
826.416116	2474.702423
826.733685	2468.653038
827.051210	2456.050154
827.368692	2442.943154
827.686129	2460.587192
828.003522	2461.091308
828.320872	2474.198308
828.638177	2452.773404
828.955439	2463.611885
829.272656	2443.951385
829.589830	2455.041923
829.906960	2466.888635
830.224046	2470.669500
830.541088	2478.987404
830.858086	2443.195212
831.175041	2441.682865
831.491952	2492.346462
831.808819	2466.132462
832.125642	2448.740481
832.442421	2471.677731
832.759157	2457.058385
833.075849	2471.929788
833.392497	2483.020327
833.709101	2454.033692
834.025662	2448.236365
834.342179	2441.934923
834.658653	2467.140692
834.975083	2497.387615
835.291469	2457.058385
835.607811	2451.765173
835.924110	2451.513115
836.240366	2481.255923
836.556578	2438.154058
836.872746	2465.376288
837.188871	2476.718885
837.504952	2461.847481
837.820990	2437.902000
838.136984	2466.384519
838.452935	2472.938019
838.768842	2442.186981
839.084706	2438.406115
839.400526	2446.471962
839.716303	2465.124231
840.032037	2464.620115
840.347727	2468.400981
840.663373	2443.447269
840.978977	2434.877308
841.294537	2451.261058
841.610054	2466.636577
841.925527	2490.582058
842.240957	2446.976077
842.556344	2455.293981
842.871687	2472.181846
843.186987	2470.669500
843.502244	2460.083077
843.817458	2472.433904
844.132629	2465.628346
844.447756	2479.239462
844.762840	2464.872173
845.077881	2474.954481
845.392879	2450.000769
845.707833	2459.326904
846.022745	2470.921558
846.337613	2458.318673
846.652438	2444.203442
846.967221	2465.628346
847.281960	2443.195212
847.596656	2463.611885
847.911309	2443.951385
848.225919	2464.116000
848.540485	2458.066615
848.855009	2449.748712
849.169490	2473.442135
849.483928	2468.400981
849.798323	2452.269288
850.112675	2473.190077
850.426984	2455.798096
850.741251	2472.938019
851.055474	2452.521346
851.369654	2456.050154
851.683792	2444.455500
851.997887	2464.368058
852.311938	2474.198308
852.625947	2452.521346
852.939914	2465.628346
853.253837	2441.178750
853.567718	2469.157154
853.881555	2437.145827
854.195350	2476.718885
854.509103	2457.814558
854.822812	2442.439038
855.136479	2467.392750
855.450103	2454.033692
855.763685	2469.409212
856.077224	2449.244596
856.390720	2479.995635
856.704173	2459.074846
857.017584	2465.880404
857.330953	2482.264154
857.644278	2452.017231
857.957561	2464.620115
858.270802	2458.822788
858.584000	2474.954481
858.897155	2486.549135
859.210268	2433.364962
859.523339	2448.992538
859.836367	2426.055288
860.149352	2453.277519
860.462295	2448.488423
860.775195	2457.310442
861.088054	2460.335135
861.400869	2471.425673
861.713642	2478.483288
862.026373	2446.724019
862.339062	2460.335135
862.651708	2485.540904
862.964312	2455.546038
863.276873	2442.186981
863.589392	2474.450365
863.901869	2467.644808
864.214303	2463.863942
864.526696	2457.562500
864.839045	2476.466827
865.151353	2467.896865
865.463619	2434.625250
865.775842	2476.466827
866.088023	2466.888635
866.400162	2461.847481
866.712258	2445.967846
867.024313	2448.740481
867.336325	2464.620115
867.648296	2455.041923
867.960224	2471.173615
868.272110	2463.359827
868.583954	2465.124231
868.895755	2442.439038
869.207515	2465.124231
869.519233	2464.116000
869.830909	2462.855712
870.142542	2447.984308
870.454134	2461.091308
870.765684	2457.562500
871.077191	2463.107769
871.388657	2470.921558
871.700081	2439.162288
872.011463	2465.628346
872.322803	2450.252827
872.634101	2444.455500
872.945357	2468.148923
873.256571	2484.280615
873.567744	2424.038827
873.878874	2474.198308
874.189963	2447.228135
874.501010	2480.751808
874.812015	2473.946250
875.122979	2466.888635
875.433900	2478.231231
875.744780	2456.554269
876.055618	2437.649942
876.366415	2462.603654
876.677169	2448.740481
876.987882	2450.000769
877.298554	2441.934923
877.609183	2437.649942
877.919771	2470.165385
878.230317	2458.318673
878.540822	2479.995635
878.851285	2466.132462
879.161707	2462.099538
879.472087	2484.028558
879.782425	2445.967846
880.092722	2458.318673
880.402977	2472.433904
880.713191	2466.132462
881.023363	2453.781635
881.333494	2478.987404
881.643583	2450.252827
881.953631	2482.264154
882.263637	2458.066615
882.573602	2445.211673
882.883526	2446.471962
883.193408	2468.148923
883.503248	2460.839250
883.813048	2447.228135
884.122806	2491.842346
884.432522	2458.570731
884.742197	2469.661269
885.051831	2450.252827
885.361424	2463.107769
885.670975	2438.910231
885.980485	2474.954481
886.289954	2451.513115
886.599382	2439.918462
886.908768	2460.839250
887.218113	2472.181846
887.527417	2470.669500
887.836680	2475.710654
888.145901	2473.190077
888.455082	2458.822788
888.764221	2459.831019
889.073319	2469.913327
889.382376	2466.132462
889.691392	2446.976077
890.000366	2467.140692
890.309300	2432.860846
890.618193	2460.839250
890.927044	2464.620115
891.235855	2453.781635
891.544625	2426.055288
891.853353	2469.913327
892.162041	2438.910231
892.470687	2486.801192
892.779293	2475.206538
893.087858	2453.025462
893.396381	2464.620115
893.704864	2450.504885
894.013306	2442.439038
894.321707	2464.116000
894.630068	2454.285750
894.938387	2462.099538
895.246665	2471.425673
895.554903	2461.343365
895.863100	2456.302212
896.171256	2468.400981
896.479371	2463.863942
896.787446	2464.368058
897.095480	2466.636577
897.403473	2450.252827
897.711425	2445.967846
898.019336	2481.003865
898.327207	2447.984308
898.635038	2471.929788
898.942827	2426.559404
899.250576	2458.822788
899.558284	2448.236365
899.865952	2435.381423
900.173579	2451.009000
900.481165	2466.636577
900.788711	2461.595423
901.096216	2466.636577
901.403681	2431.600558
901.711105	2468.148923
902.018489	2474.954481
902.325832	2452.017231
902.633135	2447.228135
902.940397	2447.984308
903.247619	2457.058385
903.554800	2465.124231
903.861941	2452.269288
904.169041	2472.181846
904.476101	2445.715788
904.783121	2462.351596
905.090100	2462.855712
905.397039	2457.310442
905.703938	2452.521346
906.010796	2467.896865
906.317614	2441.430808
906.624391	2448.740481
906.931129	2444.707558
907.237826	2481.507981
907.544483	2466.132462
907.851099	2461.595423
908.157675	2460.335135
908.464211	2460.083077
908.770707	2454.285750
909.077163	2468.905096
909.383578	2433.112904
909.689954	2465.880404
909.996289	2448.992538
910.302584	2460.839250
910.608839	2470.921558
910.915054	2458.066615
911.221229	2446.219904
911.527363	2463.107769
911.833458	2462.351596
912.139513	2439.918462
912.445527	2484.028558
912.751502	2472.685962
913.057436	2461.847481
913.363331	2444.707558
913.669186	2453.025462
913.975000	2453.277519
914.280775	2481.003865
914.586510	2460.335135
914.892205	2448.488423
915.197859	2455.546038
915.503475	2473.442135
915.809050	2438.406115
916.114585	2438.154058
916.420081	2457.058385
916.725536	2449.748712
917.030952	2471.677731
917.336328	2476.718885
917.641665	2480.751808
917.946961	2447.984308
918.252218	2461.847481
918.557435	2462.855712
918.862612	2432.104673
919.167750	2463.359827
919.472848	2427.567635
919.777906	2449.244596
920.082925	2455.546038
920.387904	2437.397885
920.692843	2467.140692
920.997743	2460.587192
921.302603	2474.954481
921.607423	2473.442135
921.912204	2461.343365
922.216946	2487.305308
922.521647	2494.362923
922.826310	2449.244596
923.130932	2475.962712
923.435516	2438.154058
923.740059	2458.822788
924.044564	2443.951385
924.349028	2462.855712
924.653454	2465.124231
924.957840	2442.691096
925.262186	2462.855712
925.566493	2466.384519
925.870761	2452.521346
926.174989	2458.066615
926.479178	2429.332038
926.783328	2460.335135
927.087438	2470.417442
927.391509	2459.831019
927.695541	2463.611885
927.999533	2474.450365
928.303486	2454.285750
928.607400	2451.261058
928.911275	2456.806327
929.215110	2455.293981
929.518906	2436.389654
929.822663	2447.732250
930.126381	2432.608788
930.430060	2471.677731
930.733699	2462.855712
931.037299	2439.918462
931.340861	2447.732250
931.644383	2468.400981
931.947866	2444.455500
932.251309	2437.649942
932.554714	2502.176712
932.858080	2438.154058
933.161407	2448.740481
933.464694	2454.789865
933.767943	2454.285750
934.071153	2459.831019
934.374323	2463.359827
934.677455	2431.852615
934.980548	2472.685962
935.283602	2448.740481
935.586617	2443.951385
935.889593	2450.504885
936.192530	2448.236365
936.495428	2438.910231
936.798287	2477.727115
937.101108	2466.132462
937.403890	2446.471962
937.706632	2444.203442
938.009336	2449.244596
938.312002	2458.066615
938.614628	2459.074846
938.917216	2457.058385
939.219765	2442.943154
939.522275	2476.970942
939.824747	2469.157154
940.127179	2446.471962
940.429573	2474.702423
940.731929	2451.009000
941.034246	2484.280615
941.336524	2476.970942
941.638763	2429.584096
941.940964	2483.272385
942.243126	2452.521346
942.545250	2446.471962
942.847335	2444.959615
943.149381	2467.140692
943.451389	2449.496654
943.753359	2465.376288
944.055290	2438.406115
944.357182	2441.178750
944.659036	2450.252827
944.960851	2471.173615
945.262628	2461.343365
945.564367	2439.666404
945.866067	2463.611885
946.167729	2464.368058
946.469352	2441.934923
946.770937	2466.636577
947.072484	2442.691096
947.373992	2460.083077
947.675462	2470.165385
947.976893	2453.277519
948.278286	2442.691096
948.579641	2419.753846
948.880958	2437.145827
949.182236	2465.376288
949.483476	2473.190077
949.784678	2453.529577
950.085841	2432.860846
950.386967	2435.129365
950.688054	2462.099538
950.989103	2466.384519
951.290114	2441.430808
951.591087	2475.206538
951.892021	2430.340269
952.192917	2429.332038
952.493776	2460.083077
952.794596	2437.397885
953.095378	2479.491519
953.396122	2437.397885
953.696828	2464.116000
953.997496	2461.091308
954.298126	2456.050154
954.598718	2446.471962
954.899272	2482.012096
955.199788	2495.371154
955.500266	2456.050154
955.800706	2435.885538
956.101108	2475.710654
956.401472	2461.847481
956.701798	2496.631442
957.002087	2459.831019
957.302337	2455.041923
957.602550	2455.798096
957.902724	2462.351596
958.202861	2458.570731
958.502960	2456.806327
958.803022	2463.611885
959.103045	2478.735346
959.403031	2451.513115
959.702979	2465.376288
960.002889	2487.809423
960.302762	2452.017231
960.602596	2451.765173
960.902393	2450.000769
961.202153	2469.661269
961.501875	2438.658173
961.801559	2437.902000
962.101205	2440.926692
962.400814	2452.269288
962.700385	2475.206538
962.999918	2451.261058
963.299414	2469.409212
963.598873	2449.244596
963.898293	2445.715788
964.197677	2460.083077
964.497022	2449.496654
964.796331	2453.529577
965.095601	2436.893769
965.394835	2501.672596
965.694030	2467.140692
965.993189	2473.946250
966.292309	2460.839250
966.591393	2444.455500
966.890439	2435.885538
967.189447	2471.173615
967.488419	2467.644808
967.787353	2456.050154
968.086249	2462.603654
968.385108	2444.959615
968.683930	2458.066615
968.982714	2477.223000
969.281462	2464.620115
969.580172	2452.269288
969.878844	2457.058385
970.177480	2428.575865
970.476078	2443.447269
970.774639	2473.946250
971.073162	2466.888635
971.371649	2453.277519
971.670098	2444.959615
971.968510	2460.335135
972.266885	2462.603654
972.565223	2463.863942
972.863524	2479.743577
973.161788	2448.488423
973.460014	2448.236365
973.758204	2474.450365
974.056356	2454.537808
974.354471	2473.694192
974.652550	2453.025462
974.950591	2443.447269
975.248595	2451.009000
975.546563	2448.488423
975.844493	2435.381423
976.142386	2463.359827
976.440243	2458.066615
976.738062	2480.499750
977.035845	2446.724019
977.333590	2446.724019
977.631299	2459.578962
977.928971	2483.524442
978.226606	2471.929788
978.524204	2461.091308
978.821765	2434.625250
979.119290	2473.946250
979.416777	2448.740481
979.714228	2457.562500
980.011642	2453.025462
980.309020	2464.368058
980.606360	2463.107769
980.903664	2422.022365
981.200931	2436.641712
981.498162	2445.967846
981.795356	2463.107769
982.092513	2468.148923
982.389633	2458.066615
982.686717	2452.773404
982.983764	2447.480192
983.280775	2461.847481
983.577749	2443.447269
983.874686	2439.162288
984.171587	2445.211673
984.468451	2461.091308
984.765279	2431.348500
985.062070	2462.603654
985.358824	2448.488423
985.655543	2432.860846
985.952224	2457.814558
986.248869	2451.261058
986.545478	2446.724019
986.842050	2473.694192
987.138586	2458.066615
987.435086	2474.954481
987.731549	2465.628346
988.027975	2450.000769
988.324366	2484.532673
988.620719	2437.649942
988.917037	2468.148923
989.213318	2429.079981
989.509563	2458.570731
989.805772	2467.896865
990.101944	2459.326904
990.398080	2454.789865
990.694180	2439.414346
990.990244	2461.091308
991.286271	2449.748712
991.582262	2449.748712
991.878217	2452.017231
992.174136	2434.373192
992.470019	2459.326904
992.765865	2456.806327
993.061676	2462.855712
993.357450	2468.905096
993.653188	2453.277519
993.948890	2472.181846
994.244556	2477.727115
994.540186	2467.644808
994.835780	2464.620115
995.131337	2466.888635
995.426859	2458.066615
995.722345	2466.636577
996.017795	2461.847481
996.313208	2456.806327
996.608586	2463.611885
996.903928	2476.466827
997.199234	2459.831019
997.494504	2465.880404
997.789738	2442.943154
998.084936	2446.724019
998.380099	2462.099538
998.675225	2427.567635
998.970316	2464.620115
999.265371	2478.483288
999.560390	2447.228135
999.855373	2456.554269
1000.150320	2464.116000
1000.445232	2451.765173
1000.740108	2462.855712
1001.034948	2446.219904
1001.329752	2456.050154
1001.624521	2472.938019
1001.919254	2454.033692
1002.213951	2464.620115
1002.508613	2450.504885
1002.803239	2471.929788
1003.097829	2456.554269
1003.392384	2447.480192
1003.686903	2463.107769
1003.981386	2456.806327
1004.275834	2472.938019
1004.570246	2470.669500
1004.864623	2451.261058
1005.158964	2451.261058
1005.453270	2466.888635
1005.747540	2459.326904
1006.041775	2463.107769
1006.335974	2467.140692
1006.630138	2461.847481
1006.924266	2464.620115
1007.218359	2455.798096
1007.512416	2447.732250
1007.806438	2468.400981
1008.100425	2454.537808
1008.394376	2463.359827
1008.688292	2462.603654
1008.982172	2458.318673
1009.276017	2450.252827
1009.569827	2456.554269
1009.863602	2455.041923
1010.157341	2462.855712
1010.451045	2444.203442
1010.744714	2457.310442
1011.038347	2460.083077
1011.331945	2466.132462
1011.625508	2457.562500
1011.919036	2449.748712
1012.212528	2457.058385
1012.505986	2483.020327
1012.799408	2458.822788
1013.092795	2464.116000
1013.386147	2455.546038
1013.679464	2462.855712
1013.972745	2459.578962
1014.265992	2467.392750
1014.559204	2459.326904
1014.852380	2434.373192
1015.145521	2481.507981
1015.438628	2439.666404
1015.731699	2484.280615
1016.024736	2437.902000
1016.317737	2458.318673
1016.610703	2446.471962
1016.903635	2464.872173
1017.196531	2475.458596
1017.489393	2445.211673
1017.782219	2476.466827
1018.075011	2446.724019
1018.367768	2467.896865
1018.660490	2434.373192
1018.953177	2434.373192
1019.245829	2434.373192
