Dividing Wavelength (nm)	Counts (n)	Slit_number_17_of_a_total_of_40	
326.493990	2147.363500
326.888308	2147.363500
327.282561	2147.363500
327.676750	2107.874462
328.070874	2132.408077
328.464933	2131.567885
328.858929	2146.691346
329.252859	2158.874135
329.646726	2164.923519
330.040528	2177.106308
330.434265	2198.783269
330.827938	2223.821000
331.221547	2242.641308
331.615091	2255.916346
332.008571	2281.374173
332.401986	2282.718481
332.795338	2336.826865
333.188625	2341.111846
333.581847	2379.004519
333.975006	2392.279558
334.368100	2387.910558
334.761129	2402.109808
335.154095	2422.694519
335.546996	2443.111192
335.939833	2464.872173
336.332606	2455.546038
336.725315	2481.928077
337.117960	2480.583769
337.510540	2506.461692
337.903056	2505.705519
338.295508	2528.558750
338.687896	2520.744962
339.080220	2537.464788
339.472480	2540.657519
339.864676	2538.893115
340.256807	2523.937692
340.648875	2551.411981
341.040879	2546.370827
341.432818	2553.764519
341.824694	2548.723365
342.216506	2545.278577
342.608253	2541.917808
342.999937	2554.772750
343.391557	2540.153404
343.783113	2540.237423
344.174605	2541.497712
344.566033	2532.759712
344.957397	2527.718558
345.348697	2528.138654
345.739934	2543.346135
346.131106	2541.077615
346.522215	2532.087558
346.913260	2539.481250
347.304241	2541.077615
347.695159	2534.860192
348.086012	2515.199692
348.476802	2527.802577
348.867528	2531.247365
349.258191	2533.515885
349.648789	2518.812519
350.039324	2525.197981
350.429796	2516.375962
350.820203	2535.616365
351.210548	2517.300173
351.600828	2515.703808
351.991045	2512.931173
352.381198	2509.486385
352.771288	2519.904769
353.161314	2522.761423
353.551276	2519.820750
353.941175	2516.796058
354.331010	2508.310115
354.720782	2515.955865
355.110490	2510.746673
355.500135	2523.601615
355.889717	2524.945923
356.279235	2504.697288
356.668689	2521.333096
357.058080	2530.323154
357.447408	2510.074519
357.836672	2517.216154
358.225873	2532.423635
358.615010	2529.482962
359.004084	2518.056346
359.393095	2532.843731
359.782043	2511.670885
360.170927	2512.511077
360.559748	2533.515885
360.948505	2539.817327
361.337199	2508.478154
361.725830	2534.776173
362.114398	2516.123904
362.502903	2526.710327
362.891344	2502.596808
363.279722	2522.425346
363.668037	2531.331385
364.056289	2532.843731
364.444478	2518.308404
364.832603	2522.593385
365.220665	2520.997019
365.608665	2529.146885
365.996601	2527.130423
366.384474	2536.120481
366.772284	2527.550519
367.160031	2516.459981
367.547715	2520.576923
367.935336	2540.825558
368.322893	2544.438385
368.710388	2527.634538
369.097820	2521.921231
369.485189	2538.809096
369.872495	2533.515885
370.259738	2528.558750
370.646918	2540.741538
371.034035	2524.357788
371.421090	2536.456558
371.808081	2538.809096
372.195010	2533.263827
372.581875	2530.659231
372.968678	2534.104019
373.355418	2532.843731
373.742096	2535.112250
374.128710	2551.411981
374.515262	2546.454846
374.901751	2530.491192
375.288177	2531.919519
375.674540	2525.197981
376.060841	2527.550519
376.447079	2535.700385
376.833254	2524.357788
377.219367	2537.212731
377.605417	2534.104019
377.991404	2527.886596
378.377329	2537.716846
378.763191	2530.911288
379.148991	2563.510750
379.534727	2551.411981
379.920402	2532.339615
380.306013	2509.570404
380.691563	2541.077615
381.077049	2533.599904
381.462474	2552.000115
381.847835	2535.280288
382.233134	2545.866712
382.618371	2546.622885
383.003545	2539.901346
383.388657	2541.665750
383.773706	2542.589962
384.158693	2529.735019
384.543618	2528.222673
384.928480	2534.440096
385.313280	2537.716846
385.698017	2543.850250
386.082692	2530.911288
386.467305	2536.372538
386.851856	2539.397231
387.236344	2542.589962
387.620770	2540.741538
388.005133	2530.239135
388.389435	2539.985365
388.773674	2534.860192
389.157851	2548.051212
389.541965	2544.018288
389.926018	2547.042981
390.310008	2542.673981
390.693936	2530.323154
391.077802	2558.385577
391.461606	2541.665750
391.845348	2553.008346
392.229027	2551.664038
392.612645	2552.756288
392.996200	2542.421923
393.379694	2550.403750
393.763125	2561.158212
394.146494	2553.680500
394.529801	2544.606423
394.913047	2548.303269
395.296230	2549.395519
395.679351	2532.423635
396.062410	2550.823846
396.445408	2543.682212
396.828343	2540.825558
397.211217	2545.446615
397.594028	2539.061154
397.976778	2530.659231
398.359466	2547.042981
398.742092	2553.680500
399.124656	2546.874942
399.507158	2544.522404
399.889598	2554.352654
400.271977	2549.143462
400.654294	2556.705192
401.036549	2547.463077
401.418742	2550.991885
401.800874	2553.092365
402.182944	2557.881462
402.564952	2547.463077
402.946898	2548.891404
403.328783	2548.219250
403.710606	2551.916096
404.092367	2555.444904
404.474067	2544.438385
404.855705	2549.479538
405.237282	2549.983654
405.618797	2549.479538
406.000250	2544.354365
406.381642	2550.907865
406.762972	2559.813904
407.144240	2552.336192
407.525447	2558.805673
407.906593	2555.024808
408.287677	2548.975423
408.668700	2550.739827
409.049661	2539.481250
409.430560	2555.192846
409.811399	2566.619462
410.192176	2556.789212
410.572891	2556.537154
410.953545	2553.512462
411.334138	2548.639346
411.714669	2567.543673
412.095139	2549.899635
412.475547	2561.242231
412.855894	2566.031327
413.236180	2561.830365
413.616405	2556.789212
413.996568	2547.799154
414.376670	2550.739827
414.756711	2555.276865
415.136691	2563.678788
415.516609	2549.731596
415.896466	2560.906154
416.276262	2562.166442
416.655997	2549.143462
417.035670	2565.443192
417.415283	2570.232288
417.794834	2559.057731
418.174324	2561.158212
418.553753	2566.283385
418.933121	2554.184615
419.312428	2571.492577
419.691674	2570.400327
420.070859	2569.560135
420.449983	2558.973712
420.829045	2565.275154
421.208047	2582.247038
421.586988	2579.726462
421.965867	2575.609519
422.344686	2577.289904
422.723444	2565.779269
423.102141	2573.172962
423.480777	2591.909250
423.859352	2560.906154
424.237866	2582.667135
424.616319	2563.258692
424.994712	2582.163019
425.373044	2606.108500
425.751314	2593.337577
426.129524	2588.128385
426.507673	2571.072481
426.885762	2589.388673
427.263789	2596.362269
427.641756	2594.765904
428.019662	2616.778942
428.397508	2599.807058
428.775292	2615.434635
429.153016	2628.205558
429.530679	2623.500481
429.908282	2637.279635
430.285824	2646.353712
430.663305	2653.243288
431.040726	2665.258038
431.418086	2670.719288
431.795385	2682.397962
432.172624	2709.956269
432.549802	2731.381173
432.926920	2717.097904
433.303977	2745.160327
433.680974	2757.931250
434.057910	2767.089346
434.434786	2795.739904
434.811601	2807.502596
435.188355	2836.909327
435.565050	2860.854808
435.941683	2887.404885
436.318257	2928.574308
436.694770	2967.139135
437.071222	3008.056500
437.447614	3022.339769
437.823946	3042.336346
438.200218	3077.120308
438.576429	3109.383692
438.952580	3160.803462
439.328670	3188.949904
439.704700	3246.839154
440.080670	3278.010288
440.456580	3345.813808
440.832429	3381.101885
441.208218	3405.719519
441.583947	3469.574135
441.959616	3519.565577
442.335224	3580.983635
442.710773	3655.172615
443.086261	3712.809808
443.461689	3745.493288
443.837057	3814.221019
444.212365	3905.297865
444.587612	3964.783481
444.962800	3994.526288
445.337927	4068.547231
445.712995	4052.079462
446.088002	4245.407712
446.462949	4325.310000
446.837837	4406.472577
447.212664	4433.022654
447.587431	4659.790558
447.962139	4989.398000
448.336786	5365.720135
448.711374	5509.393019
449.085901	5272.710846
449.460369	5220.618923
449.834776	5206.251635
450.209124	5488.472231
450.583412	5562.409154
450.957640	5803.964442
451.331808	5733.136231
451.705917	5635.169808
452.079965	5667.181135
452.453954	5745.655096
452.827883	5765.903731
453.201752	5813.122538
453.575562	5880.926058
453.949311	6117.692250
454.323001	6168.859962
454.696632	6166.675462
455.070202	6406.466346
455.443713	6498.803481
455.817164	6646.677327
456.190556	6786.569346
456.563888	6766.488750
456.937160	6941.332769
457.310373	6745.231885
457.683526	6858.741865
458.056619	6858.825885
458.429653	6801.356731
458.802628	6907.220962
459.175542	6893.945923
459.548398	7116.932962
459.921194	7315.050308
460.293930	7355.547577
460.666607	7628.021942
461.039224	7851.429077
461.411782	8080.717558
461.784280	7948.219231
462.156719	7976.869788
462.529099	7941.833769
462.901419	7708.512365
463.273680	7482.332596
463.645882	7446.540404
464.018024	7377.140519
464.390106	7360.588731
464.762130	7557.025692
465.134094	7872.181827
465.505999	8381.590423
465.877845	9102.811500
466.249631	9528.452923
466.621358	9466.782808
466.993026	9206.407212
467.364634	8880.496615
467.736184	8478.884692
468.107674	8135.078000
468.479105	7926.878346
468.850477	7735.734596
469.221790	7411.168308
469.593043	7115.672673
469.964238	6870.336519
470.335373	6681.797365
470.706449	6694.064173
471.077467	6592.905019
471.448425	6993.088615
471.819324	7380.501288
472.190164	7398.565423
472.560945	6897.894827
472.931667	6378.992058
473.302330	6082.152115
473.672934	5835.975769
474.043479	5752.292615
474.413965	5549.890288
474.784393	5421.592923
475.154761	5356.982135
475.525070	5275.063385
475.895321	5102.151808
476.265513	5015.864058
476.635645	4998.808154
477.005719	4855.891442
477.375734	4798.170231
477.745691	4717.427750
478.115588	4695.834808
478.485427	4629.039519
478.855207	4704.908885
479.224928	4740.196962
479.594591	4797.414058
479.964194	4669.788846
480.333739	4582.828942
480.703226	4454.615596
481.072653	4339.257192
481.442022	4284.308615
481.811333	4225.411135
482.180584	4101.566788
482.549777	3988.308865
482.918912	3882.024538
483.287988	3802.962442
483.657005	3711.381481
484.025964	3611.314577
484.394864	3547.123885
484.763706	3475.371462
485.132489	3395.973288
485.501213	3334.975327
485.869879	3289.268865
486.238487	3246.755135
486.607036	3187.437558
486.975527	3139.378558
487.343959	3101.653923
487.712333	3075.776000
488.080648	3030.237577
488.448905	3030.489635
488.817104	2995.285577
489.185244	2969.239615
489.553326	2982.430635
489.921350	2950.251269
490.289315	2930.674788
490.657222	2946.806481
491.025070	2930.674788
491.392861	2905.048923
491.760593	2885.052346
492.128267	2844.219000
492.495883	2822.626058
492.863440	2810.527288
493.230939	2782.296827
493.598380	2783.137019
493.965763	2747.008750
494.333088	2743.227885
494.700354	2729.784808
495.067563	2725.751885
495.434713	2717.265942
495.801805	2709.368135
496.168839	2689.371558
496.535815	2712.056750
496.902733	2686.430885
497.269593	2688.111269
497.636395	2671.307423
498.003139	2652.487115
498.369825	2667.526558
498.736453	2660.721000
499.103023	2681.977865
499.469535	2642.824904
499.835989	2661.309135
500.202385	2655.931904
500.568723	2630.894173
500.935003	2652.403096
501.301226	2643.497058
501.667390	2639.884231
502.033497	2646.101654
502.399546	2633.918865
502.765537	2628.205558
503.131470	2641.144519
503.497345	2627.869481
503.863163	2625.516942
504.228923	2632.574558
504.594625	2629.969962
504.960269	2620.811865
505.325856	2618.795404
505.691385	2620.307750
506.056856	2614.174346
506.422270	2627.533404
506.787625	2607.956923
507.152924	2630.222019
507.518164	2615.014538
507.883347	2619.299519
508.248472	2615.518654
508.613540	2620.223731
508.978550	2616.694923
509.343503	2612.662000
509.708398	2604.680173
510.073236	2612.746019
510.438016	2622.072154
510.802738	2612.409942
511.167403	2584.347519
511.532010	2590.817000
511.896561	2586.952115
512.261053	2593.841692
512.625488	2583.843404
512.989866	2605.100269
513.354186	2596.698346
513.718449	2606.864673
514.082655	2609.889365
514.446803	2607.452808
514.810894	2608.713096
515.174927	2606.360558
515.538904	2593.253558
515.902822	2595.774135
516.266684	2605.352327
516.630488	2605.604385
516.994235	2596.110212
517.357925	2613.670231
517.721558	2607.704865
518.085133	2618.123250
518.448651	2597.706577
518.812112	2604.092038
519.175516	2583.087231
519.538863	2585.775846
519.902152	2583.003212
520.265385	2596.446288
520.628560	2614.258365
520.991678	2597.202462
521.354739	2600.395192
521.717743	2571.660615
522.080690	2593.421596
522.443580	2601.403423
522.806413	2608.965154
523.169189	2587.624269
523.531908	2590.396904
523.894569	2601.067346
524.257174	2606.276538
524.619722	2593.421596
524.982213	2605.604385
525.344647	2595.270019
525.707025	2601.487442
526.069345	2593.673654
526.431608	2589.976808
526.793815	2588.380442
527.155964	2609.721327
527.518057	2606.612615
527.880093	2584.515558
528.242072	2595.270019
528.603995	2609.217212
528.965860	2590.396904
529.327669	2601.823519
529.689421	2587.876327
530.051117	2597.454519
530.412755	2587.456231
530.774337	2590.312885
531.135862	2580.482635
531.497331	2610.393481
531.858743	2593.505615
532.220098	2595.017962
532.581396	2590.480923
532.942638	2583.591346
533.303824	2583.171250
533.664953	2591.321115
534.026025	2595.186000
534.387040	2600.479212
534.747999	2590.312885
535.108902	2569.224058
535.469748	2586.448000
535.830537	2603.755962
536.191270	2607.452808
536.551947	2590.901019
536.912567	2591.993269
537.273131	2586.448000
537.633638	2585.943885
537.994089	2577.710000
538.354483	2596.782365
538.714821	2584.683596
539.075103	2580.062538
539.435328	2592.749442
539.795497	2575.189423
540.155609	2569.392096
540.515665	2587.540250
540.875665	2579.558423
541.235609	2596.782365
541.595496	2592.497385
541.955328	2602.747731
542.315102	2593.337577
542.674821	2603.251846
543.034483	2589.724750
543.394090	2586.700058
543.753640	2585.439769
544.113134	2594.933942
544.472571	2592.077288
544.831953	2591.321115
545.191278	2590.480923
545.550548	2600.647250
545.909761	2597.034423
546.268918	2594.093750
546.628019	2599.470981
546.987064	2593.169538
547.346053	2599.386962
547.704986	2597.958635
548.063863	2583.171250
548.422684	2601.571462
548.781449	2596.698346
549.140158	2592.665423
549.498811	2590.060827
549.857408	2580.902731
550.215949	2599.302942
550.574434	2604.092038
550.932864	2586.363981
551.291237	2603.503904
551.649555	2604.260077
552.007817	2595.017962
552.366022	2606.444577
552.724173	2597.874615
553.082267	2585.859865
553.440305	2586.111923
553.798288	2596.866385
554.156215	2607.704865
554.514086	2590.144846
554.871902	2583.423308
555.229661	2593.085519
555.587365	2585.439769
555.945014	2590.732981
556.302606	2594.849923
556.660143	2586.868096
557.017625	2589.052596
557.375050	2585.187712
557.732421	2603.924000
558.089735	2594.429827
558.446994	2595.606096
558.804197	2592.245327
559.161345	2590.648962
559.518437	2591.153077
559.875474	2586.700058
560.232455	2601.487442
560.589381	2584.095462
560.946251	2583.675365
561.303065	2583.591346
561.659825	2574.013154
562.016528	2591.153077
562.373177	2577.710000
562.729770	2595.858154
563.086307	2594.009731
563.442789	2581.910962
563.799216	2599.807058
564.155587	2597.118442
564.511904	2587.876327
564.868164	2608.461038
565.224370	2585.019673
565.580520	2589.892788
565.936615	2582.583115
566.292654	2592.665423
566.648638	2596.110212
567.004567	2590.228865
567.360441	2599.975096
567.716260	2600.563231
568.072023	2589.388673
568.427732	2575.357462
568.783385	2601.067346
569.138982	2587.540250
569.494525	2596.026192
569.850013	2601.991558
570.205445	2603.419885
570.560823	2589.136615
570.916145	2587.792308
571.271412	2574.685308
571.626625	2591.573173
571.981782	2580.818712
572.336884	2599.975096
572.691931	2592.749442
573.046923	2583.927423
573.401860	2593.001500
573.756743	2595.186000
574.111570	2585.523788
574.466342	2580.230577
574.821059	2596.446288
575.175722	2600.479212
575.530330	2593.253558
575.884882	2593.337577
576.239380	2601.823519
576.593823	2589.808769
576.948211	2599.386962
577.302544	2601.067346
577.656823	2594.429827
578.011047	2592.581404
578.365216	2589.304654
578.719330	2597.118442
579.073389	2596.194231
579.427394	2585.859865
579.781344	2600.983327
580.135239	2591.069058
580.489080	2592.161308
580.842866	2585.691827
581.196597	2600.143135
581.550273	2575.777558
581.903895	2591.069058
582.257463	2588.968577
582.610975	2594.933942
582.964434	2597.034423
583.317837	2580.482635
583.671186	2584.011442
584.024481	2604.428115
584.377721	2596.950404
584.730906	2583.927423
585.084037	2596.782365
585.437113	2584.347519
585.790135	2595.101981
586.143103	2596.194231
586.496016	2571.324538
586.848874	2599.134904
587.201679	2587.540250
587.554428	2580.566654
587.907124	2588.716519
588.259765	2594.765904
588.612352	2613.838269
588.964884	2602.579692
589.317362	2592.077288
589.669786	2579.894500
590.022155	2606.864673
590.374470	2601.235385
590.726731	2590.564942
591.078937	2585.187712
591.431090	2593.169538
591.783188	2591.153077
592.135232	2594.009731
592.487222	2597.622558
592.839157	2586.363981
593.191038	2589.640731
593.542866	2596.782365
593.894639	2591.573173
594.246358	2590.060827
594.598022	2586.448000
594.949633	2577.121865
595.301190	2583.255269
595.652692	2591.153077
596.004141	2588.296423
596.355535	2585.439769
596.706876	2594.429827
597.058162	2597.370500
597.409395	2587.456231
597.760573	2590.732981
598.111698	2589.724750
598.462768	2590.060827
598.813785	2578.886269
599.164748	2585.103692
599.515657	2597.286481
599.866511	2598.966865
600.217312	2575.105404
600.568060	2575.609519
600.918753	2606.948692
601.269392	2588.632500
601.619978	2578.886269
601.970510	2597.286481
602.320988	2584.851635
602.671412	2585.943885
603.021783	2595.101981
603.372100	2583.255269
603.722363	2594.093750
604.072572	2596.698346
604.422728	2599.639019
604.772830	2594.681885
605.122878	2585.607808
605.472872	2588.296423
605.822813	2591.237096
606.172701	2585.859865
606.522534	2592.077288
606.872314	2592.749442
607.222041	2595.354038
607.571714	2602.495673
607.921333	2588.884558
608.270899	2594.849923
608.620411	2582.163019
608.969870	2578.298135
609.319276	2585.019673
609.668627	2590.060827
610.017926	2574.433250
610.367171	2591.993269
610.716362	2603.755962
611.065500	2585.187712
611.414585	2583.339288
611.763616	2598.798827
612.112594	2581.994981
612.461518	2586.700058
612.810389	2601.235385
613.159207	2590.060827
613.507971	2595.774135
613.856682	2613.418173
614.205340	2603.335865
614.553945	2593.673654
614.902496	2592.245327
615.250994	2600.227154
615.599439	2578.046077
615.947830	2587.792308
616.296169	2591.321115
616.644454	2578.214115
616.992686	2596.614327
617.340864	2603.587923
617.688990	2583.087231
618.037063	2593.421596
618.385082	2596.782365
618.733048	2599.050885
619.080961	2579.810481
619.428821	2594.093750
619.776628	2598.882846
620.124382	2593.169538
620.472083	2576.785788
620.819731	2584.599577
621.167326	2587.624269
621.514868	2593.085519
621.862357	2606.780654
622.209793	2590.564942
622.557176	2583.255269
622.904506	2588.380442
623.251783	2607.116731
623.599007	2594.261788
623.946179	2589.304654
624.293297	2597.370500
624.640363	2588.044365
624.987376	2589.136615
625.334336	2601.403423
625.681243	2584.599577
626.028097	2605.016250
626.374899	2608.461038
626.721647	2580.902731
627.068343	2591.825231
627.414987	2596.194231
627.761577	2580.482635
628.108115	2592.665423
628.454600	2582.751154
628.801032	2582.079000
629.147412	2595.017962
629.493739	2583.255269
629.840014	2602.999788
630.186236	2592.581404
630.532405	2585.691827
630.878521	2584.683596
631.224585	2587.876327
631.570597	2574.097173
631.916556	2592.329346
632.262462	2594.849923
632.608316	2599.386962
632.954117	2586.279962
633.299866	2601.991558
633.645562	2589.724750
633.991206	2589.136615
634.336797	2584.095462
634.682336	2585.691827
635.027823	2587.624269
635.373257	2591.741212
635.718639	2568.467885
636.063968	2582.415077
636.409245	2588.548481
636.754470	2587.456231
637.099642	2575.357462
637.444762	2570.400327
637.789829	2586.363981
638.134845	2597.958635
638.479808	2579.054308
638.824719	2602.411654
639.169577	2582.583115
639.514383	2584.011442
639.859137	2576.113635
640.203839	2587.540250
640.548489	2578.550192
640.893086	2584.851635
641.237632	2584.515558
641.582125	2583.423308
641.926566	2601.655481
642.270955	2587.120154
642.615292	2574.349231
642.959576	2577.457942
643.303809	2583.843404
643.647990	2596.194231
643.992118	2588.464462
644.336195	2584.431538
644.680219	2586.784077
645.024192	2595.354038
645.368112	2593.589635
645.711981	2593.757673
646.055797	2602.495673
646.399562	2579.642442
646.743274	2586.868096
647.086935	2570.400327
647.430544	2599.470981
647.774101	2606.192519
648.117606	2599.470981
648.461059	2587.960346
648.804460	2594.849923
649.147810	2575.693538
649.491108	2584.935654
649.834354	2582.667135
650.177548	2587.288192
650.520690	2576.365692
650.863781	2593.925712
651.206820	2583.759385
651.549807	2580.146558
651.892742	2589.220635
652.235626	2576.029615
652.578458	2586.448000
652.921238	2573.088942
653.263967	2585.187712
653.606644	2589.220635
653.949269	2590.480923
654.291843	2587.792308
654.634365	2590.312885
654.976836	2592.161308
655.319255	2578.382154
655.661622	2576.533731
656.003938	2584.851635
656.346203	2596.614327
656.688416	2589.220635
657.030577	2594.513846
657.372687	2586.195942
657.714746	2595.858154
658.056753	2579.054308
658.398708	2583.423308
658.740612	2588.632500
659.082465	2591.741212
659.424266	2589.304654
659.766016	2581.910962
660.107715	2586.532019
660.449362	2591.153077
660.790958	2587.540250
661.132503	2587.204173
661.473996	2579.810481
661.815438	2592.749442
662.156829	2594.429827
662.498168	2578.214115
662.839456	2608.124962
663.180693	2584.599577
663.521879	2587.540250
663.863013	2598.126673
664.204097	2579.306365
664.545129	2589.724750
664.886110	2589.808769
665.227040	2590.901019
665.567918	2584.767615
665.908746	2579.474404
666.249522	2582.751154
666.590248	2589.892788
666.930922	2590.312885
667.271545	2578.214115
667.612118	2580.566654
667.952639	2564.434962
668.293109	2587.372212
668.633528	2585.775846
668.973896	2588.212404
669.314213	2576.365692
669.654480	2600.395192
669.994695	2577.457942
670.334859	2583.507327
670.674973	2599.975096
671.015035	2580.314596
671.355047	2586.363981
671.695008	2574.097173
672.034918	2580.230577
672.374777	2570.568365
672.714585	2573.172962
673.054342	2594.597865
673.394049	2592.077288
673.733705	2571.240519
674.073310	2586.363981
674.412864	2595.101981
674.752368	2603.755962
675.091820	2574.265212
675.431223	2583.255269
675.770574	2579.810481
676.109875	2581.574885
676.449125	2587.372212
676.788324	2587.876327
677.127473	2598.378731
677.466571	2568.467885
677.805619	2580.482635
678.144616	2580.314596
678.483562	2574.517269
678.822458	2582.415077
679.161303	2582.415077
679.500098	2600.479212
679.838842	2576.365692
680.177535	2579.810481
680.516179	2587.876327
680.854771	2575.021385
681.193314	2594.597865
681.531805	2573.004923
681.870247	2577.710000
682.208638	2586.532019
682.546978	2591.825231
682.885268	2588.044365
683.223508	2585.187712
683.561697	2576.785788
683.899836	2590.228865
684.237925	2581.574885
684.575963	2581.070769
684.913951	2589.388673
685.251889	2581.742923
685.589776	2582.499096
685.927614	2589.304654
686.265401	2576.617750
686.603137	2586.363981
686.940824	2590.396904
687.278460	2568.299846
687.616046	2584.179481
687.953582	2579.894500
688.291068	2576.701769
688.628504	2591.825231
688.965889	2578.634212
689.303224	2591.993269
689.640510	2578.718231
689.977745	2572.164731
690.314930	2577.625981
690.652065	2580.398615
690.989150	2584.683596
691.326185	2575.861577
691.663170	2574.097173
692.000105	2577.121865
692.336990	2577.710000
692.673825	2585.271731
693.010610	2593.421596
693.347345	2571.912673
693.684030	2579.474404
694.020665	2584.599577
694.357251	2585.355750
694.693786	2589.052596
695.030272	2582.415077
695.366707	2577.794019
695.703093	2580.902731
696.039429	2580.314596
696.375716	2594.597865
696.711952	2569.812192
697.048139	2577.710000
697.384276	2571.744635
697.720363	2571.912673
698.056400	2573.509038
698.392388	2583.339288
698.728326	2572.752865
699.064214	2584.515558
699.400053	2586.111923
699.735842	2580.062538
700.071581	2586.532019
700.407270	2580.398615
700.742910	2585.355750
701.078501	2574.937365
701.414042	2569.560135
701.749533	2574.013154
702.084974	2577.878038
702.420366	2598.042654
702.755709	2565.947308
703.091002	2569.560135
703.426246	2570.232288
703.761440	2577.373923
704.096584	2585.943885
704.431679	2580.482635
704.766725	2574.685308
705.101721	2581.322827
705.436668	2568.972000
705.771565	2591.825231
706.106413	2596.026192
706.441212	2591.741212
706.775961	2579.810481
707.110661	2582.163019
707.445311	2590.480923
707.779913	2574.853346
708.114465	2578.298135
708.448967	2593.169538
708.783421	2594.261788
709.117825	2578.634212
709.452180	2577.121865
709.786485	2583.675365
710.120742	2577.205885
710.454949	2590.228865
710.789107	2573.425019
711.123216	2590.817000
711.457275	2577.289904
711.791286	2583.423308
712.125247	2569.812192
712.459159	2581.154788
712.793023	2579.642442
713.126837	2600.563231
713.460602	2572.920904
713.794318	2599.975096
714.127985	2575.105404
714.461602	2587.708288
714.795171	2586.700058
715.128691	2569.728173
715.462162	2568.803962
715.795584	2566.619462
716.128957	2581.322827
716.462281	2578.550192
716.795556	2574.265212
717.128782	2566.115346
717.461960	2577.962058
717.795088	2573.341000
718.128167	2561.746346
718.461198	2579.558423
718.794180	2596.194231
719.127113	2575.105404
719.459997	2581.406846
719.792833	2573.509038
720.125619	2582.667135
720.458357	2594.177769
720.791046	2565.275154
721.123686	2580.566654
721.456278	2569.056019
721.788821	2583.087231
722.121315	2577.878038
722.453761	2573.172962
722.786158	2591.573173
723.118506	2582.331058
723.450805	2567.459654
723.783056	2579.390385
724.115259	2571.744635
724.447412	2570.064250
724.779518	2580.146558
725.111574	2591.237096
725.443582	2577.373923
725.775542	2589.892788
726.107453	2569.308077
726.439315	2578.802250
726.771129	2595.354038
727.102895	2568.803962
727.434612	2576.869808
727.766281	2583.591346
728.097901	2569.140038
728.429473	2576.449712
728.760996	2579.474404
729.092471	2577.710000
729.423897	2569.812192
729.755276	2577.794019
730.086606	2570.232288
730.417887	2564.518981
730.749120	2584.935654
731.080305	2574.937365
731.411442	2564.098885
731.742530	2578.466173
732.073570	2573.929135
732.404562	2566.283385
732.735506	2578.298135
733.066401	2594.681885
733.397249	2571.744635
733.728048	2575.105404
734.058798	2561.158212
734.389501	2567.291615
734.720156	2567.375635
735.050762	2581.574885
735.381320	2584.431538
735.711831	2579.306365
736.042293	2571.072481
736.372707	2580.398615
736.703073	2572.248750
737.033391	2570.484346
737.363661	2584.515558
737.693883	2574.433250
738.024056	2579.138327
738.354182	2588.464462
738.684260	2570.736404
739.014290	2581.322827
739.344272	2585.943885
739.674207	2571.828654
740.004093	2588.128385
740.333931	2573.256981
740.663722	2575.273442
740.993464	2570.652385
741.323159	2573.929135
741.652806	2585.355750
741.982405	2593.673654
742.311956	2562.838596
742.641460	2583.927423
742.970915	2572.164731
743.300323	2574.265212
743.629683	2567.795731
743.958996	2580.566654
744.288260	2571.576596
744.617477	2579.810481
744.946647	2573.341000
745.275768	2585.859865
745.604842	2566.199365
745.933869	2578.046077
746.262847	2560.738115
746.591778	2575.357462
746.920662	2567.375635
747.249498	2590.901019
747.578286	2562.166442
747.907027	2573.593058
748.235720	2578.718231
748.564365	2572.332769
748.892963	2577.373923
749.221514	2575.525500
749.550017	2574.349231
749.878473	2585.019673
750.206881	2573.845115
750.535242	2590.144846
750.863555	2575.693538
751.191821	2582.247038
751.520039	2578.550192
751.848210	2580.986750
752.176334	2567.963769
752.504411	2578.550192
752.832440	2574.685308
753.160421	2558.721654
753.488356	2566.871519
753.816243	2564.182904
754.144082	2588.716519
754.471875	2566.031327
754.799620	2588.212404
755.127318	2578.046077
755.454969	2575.945596
755.782572	2586.700058
756.110129	2576.953827
756.437638	2575.357462
756.765100	2585.775846
757.092515	2564.014865
757.419882	2571.828654
757.747203	2574.013154
758.074477	2579.642442
758.401703	2558.217538
758.728882	2588.968577
759.056014	2581.490865
759.383099	2575.525500
759.710138	2568.131808
760.037129	2576.617750
760.364073	2587.792308
760.690970	2571.408558
761.017820	2584.851635
761.344623	2590.564942
761.671379	2569.812192
761.998088	2582.583115
762.324751	2567.543673
762.651366	2568.299846
762.977935	2588.296423
763.304456	2590.060827
763.630931	2577.457942
763.957359	2566.871519
764.283740	2592.497385
764.610074	2588.968577
764.936362	2575.189423
765.262602	2572.332769
765.588796	2570.484346
765.914943	2577.205885
766.241044	2582.079000
766.567097	2565.947308
766.893104	2571.660615
767.219064	2568.972000
767.544978	2559.729885
767.870845	2567.879750
768.196665	2562.082423
768.522438	2568.383865
768.848165	2577.625981
769.173846	2575.441481
769.499479	2572.332769
769.825066	2583.927423
770.150607	2584.935654
770.476101	2577.373923
770.801548	2580.818712
771.126949	2570.568365
771.452303	2563.846827
771.777611	2587.708288
772.102872	2578.970288
772.428087	2564.939077
772.753256	2558.385577
773.078378	2562.922615
773.403453	2564.266923
773.728482	2561.578308
774.053465	2567.123577
774.378401	2576.029615
774.703291	2574.853346
775.028135	2559.645865
775.352932	2552.168154
775.677683	2566.703481
776.002388	2558.889692
776.327046	2569.560135
776.651658	2567.375635
776.976224	2565.023096
777.300743	2578.970288
777.625216	2577.205885
777.949643	2571.744635
778.274024	2561.662327
778.598359	2562.838596
778.922647	2561.914385
779.246889	2567.963769
779.571086	2591.405135
779.895236	2565.527212
780.219339	2581.994981
780.543397	2568.972000
780.867409	2560.402038
781.191374	2577.710000
781.515294	2566.619462
781.839167	2580.902731
782.162995	2586.363981
782.486776	2561.914385
782.810511	2582.331058
783.134201	2567.375635
783.457844	2578.634212
783.781441	2569.812192
784.104993	2567.879750
784.428498	2573.172962
784.751958	2568.215827
785.075372	2579.054308
785.398739	2562.754577
785.722061	2574.265212
786.045337	2568.047788
786.368568	2575.441481
786.691752	2560.906154
787.014891	2588.044365
787.337983	2556.285096
787.661030	2576.785788
787.984031	2568.383865
788.306987	2557.125288
788.629897	2570.316308
788.952760	2570.652385
789.275579	2574.097173
789.598351	2582.919192
789.921078	2578.130096
790.243759	2576.029615
790.566395	2577.289904
790.888984	2574.097173
791.211529	2573.509038
791.534027	2571.744635
791.856480	2575.945596
792.178888	2570.400327
792.501249	2551.832077
792.823566	2576.869808
793.145836	2575.777558
793.468062	2563.678788
793.790241	2559.141750
794.112375	2566.283385
794.434464	2554.184615
794.756507	2578.802250
795.078505	2564.098885
795.400457	2573.341000
795.722364	2573.425019
796.044226	2567.207596
796.366042	2571.156500
796.687812	2570.988462
797.009538	2565.191135
797.331218	2559.813904
797.652852	2568.887981
797.974442	2569.476115
798.295986	2600.395192
798.617484	2573.509038
798.938938	2565.443192
799.260346	2576.113635
799.581709	2576.953827
799.903026	2565.863288
800.224299	2570.148269
800.545526	2577.289904
800.866708	2568.215827
801.187845	2571.912673
801.508936	2567.375635
801.829983	2577.205885
802.150984	2582.247038
802.471940	2556.705192
802.792851	2567.123577
803.113717	2578.634212
803.434538	2573.004923
803.755314	2573.929135
804.076045	2592.161308
804.396731	2557.629404
804.717372	2579.810481
805.037967	2560.654096
805.358518	2577.794019
805.679024	2569.728173
805.999485	2567.291615
806.319901	2563.510750
806.640272	2568.551904
806.960598	2552.420212
807.280879	2581.322827
807.601115	2562.586538
807.921306	2571.996692
808.241453	2572.248750
808.561554	2569.308077
808.881611	2561.830365
809.201623	2569.392096
809.521590	2566.367404
809.841513	2573.004923
810.161390	2578.970288
810.481223	2549.143462
810.801011	2572.920904
811.120755	2569.224058
811.440453	2571.744635
811.760107	2581.742923
812.079716	2574.937365
812.399281	2565.443192
812.718801	2564.266923
813.038276	2561.998404
813.357707	2567.795731
813.677093	2571.156500
813.996434	2563.846827
814.315731	2573.845115
814.634983	2565.695250
814.954191	2577.457942
815.273354	2564.771038
815.592473	2570.148269
815.911547	2563.342712
816.230577	2573.509038
816.549562	2579.810481
816.868502	2578.634212
817.187399	2569.476115
817.506250	2564.518981
817.825058	2580.314596
818.143821	2574.013154
818.462539	2572.080712
818.781213	2570.904442
819.099843	2567.627692
819.418429	2573.425019
819.736970	2580.902731
820.055466	2571.492577
820.373919	2573.509038
820.692327	2566.619462
821.010691	2581.070769
821.329011	2582.583115
821.647286	2581.322827
821.965517	2594.849923
822.283704	2594.681885
822.601847	2600.983327
822.919945	2609.637308
823.237999	2592.497385
823.556010	2599.302942
823.873976	2587.792308
824.191897	2590.648962
824.509775	2580.062538
824.827609	2574.853346
825.145398	2568.299846
825.463144	2569.812192
825.780845	2570.988462
826.098502	2589.808769
826.416116	2576.533731
826.733685	2584.347519
827.051210	2589.640731
827.368692	2573.593058
827.686129	2592.497385
828.003522	2583.087231
828.320872	2581.574885
828.638177	2586.027904
828.955439	2581.238808
829.272656	2561.578308
829.589830	2578.046077
829.906960	2560.065962
830.224046	2582.919192
830.541088	2579.054308
830.858086	2584.935654
831.175041	2556.705192
831.491952	2566.367404
831.808819	2562.754577
832.125642	2563.930846
832.442421	2568.635923
832.759157	2577.373923
833.075849	2581.238808
833.392497	2551.327962
833.709101	2558.301558
834.025662	2577.373923
834.342179	2568.719942
834.658653	2584.347519
834.975083	2579.390385
835.291469	2596.446288
835.607811	2562.334481
835.924110	2581.406846
836.240366	2581.742923
836.556578	2557.629404
836.872746	2570.988462
837.188871	2580.230577
837.504952	2565.611231
837.820990	2567.627692
838.136984	2568.803962
838.452935	2567.879750
838.768842	2571.156500
839.084706	2565.443192
839.400526	2552.756288
839.716303	2570.148269
840.032037	2585.607808
840.347727	2572.836885
840.663373	2562.502519
840.978977	2558.553615
841.294537	2572.752865
841.610054	2569.476115
841.925527	2572.668846
842.240957	2588.968577
842.556344	2566.283385
842.871687	2569.140038
843.186987	2565.023096
843.502244	2572.668846
843.817458	2569.476115
844.132629	2591.657192
844.447756	2565.527212
844.762840	2565.779269
845.077881	2562.250462
845.392879	2587.204173
845.707833	2574.853346
846.022745	2568.299846
846.337613	2584.095462
846.652438	2564.434962
846.967221	2556.201077
847.281960	2562.670558
847.596656	2575.441481
847.911309	2547.799154
848.225919	2574.265212
848.540485	2569.392096
848.855009	2563.090654
849.169490	2576.785788
849.483928	2568.803962
849.798323	2561.074192
850.112675	2568.215827
850.426984	2561.746346
850.741251	2558.217538
851.055474	2562.502519
851.369654	2559.981942
851.683792	2564.603000
851.997887	2572.836885
852.311938	2564.771038
852.625947	2564.434962
852.939914	2563.426731
853.253837	2583.843404
853.567718	2561.242231
853.881555	2570.652385
854.195350	2561.494288
854.509103	2570.232288
854.822812	2557.545385
855.136479	2558.721654
855.450103	2561.914385
855.763685	2571.156500
856.077224	2561.242231
856.390720	2568.551904
856.704173	2575.021385
857.017584	2569.980231
857.330953	2563.426731
857.644278	2568.635923
857.957561	2591.153077
858.270802	2544.018288
858.584000	2573.341000
858.897155	2559.309788
859.210268	2558.805673
859.523339	2574.853346
859.836367	2571.156500
860.149352	2578.298135
860.462295	2573.341000
860.775195	2564.098885
861.088054	2563.762808
861.400869	2558.637635
861.713642	2576.869808
862.026373	2574.937365
862.339062	2558.301558
862.651708	2563.426731
862.964312	2577.373923
863.276873	2584.179481
863.589392	2563.594769
863.901869	2559.729885
864.214303	2572.416788
864.526696	2564.434962
864.839045	2565.779269
865.151353	2573.425019
865.463619	2550.991885
865.775842	2569.224058
866.088023	2569.812192
866.400162	2573.004923
866.712258	2573.593058
867.024313	2581.238808
867.336325	2561.914385
867.648296	2580.062538
867.960224	2575.609519
868.272110	2571.576596
868.583954	2562.586538
868.895755	2573.761096
869.207515	2563.258692
869.519233	2565.611231
869.830909	2578.466173
870.142542	2567.459654
870.454134	2558.721654
870.765684	2566.955538
871.077191	2551.159923
871.388657	2570.316308
871.700081	2576.533731
872.011463	2565.443192
872.322803	2554.184615
872.634101	2569.392096
872.945357	2567.879750
873.256571	2552.168154
873.567744	2553.512462
873.878874	2573.341000
874.189963	2567.123577
874.501010	2569.392096
874.812015	2578.298135
875.122979	2561.830365
875.433900	2573.341000
875.744780	2559.057731
876.055618	2570.400327
876.366415	2556.873231
876.677169	2576.365692
876.987882	2556.705192
877.298554	2560.570077
877.609183	2574.937365
877.919771	2558.217538
878.230317	2573.677077
878.540822	2559.225769
878.851285	2555.360885
879.161707	2563.594769
879.472087	2558.469596
879.782425	2566.199365
880.092722	2569.812192
880.402977	2580.146558
880.713191	2585.691827
881.023363	2571.996692
881.333494	2570.904442
881.643583	2571.072481
881.953631	2595.942173
882.263637	2590.396904
882.573602	2583.507327
882.883526	2579.054308
883.193408	2594.177769
883.503248	2563.090654
883.813048	2567.375635
884.122806	2563.594769
884.432522	2575.945596
884.742197	2587.120154
885.051831	2574.013154
885.361424	2578.970288
885.670975	2571.660615
885.980485	2571.828654
886.289954	2570.400327
886.599382	2558.973712
886.908768	2569.140038
887.218113	2561.914385
887.527417	2569.980231
887.836680	2562.250462
888.145901	2567.123577
888.455082	2575.021385
888.764221	2585.019673
889.073319	2563.090654
889.382376	2575.021385
889.691392	2580.146558
890.000366	2577.625981
890.309300	2561.158212
890.618193	2573.929135
890.927044	2579.894500
891.235855	2570.232288
891.544625	2551.748058
891.853353	2589.976808
892.162041	2570.484346
892.470687	2557.545385
892.779293	2573.004923
893.087858	2571.156500
893.396381	2589.220635
893.704864	2580.566654
894.013306	2573.256981
894.321707	2559.981942
894.630068	2575.021385
894.938387	2564.098885
895.246665	2581.574885
895.554903	2566.199365
895.863100	2578.550192
896.171256	2572.164731
896.479371	2578.886269
896.787446	2568.047788
897.095480	2563.846827
897.403473	2589.976808
897.711425	2584.347519
898.019336	2565.443192
898.327207	2567.795731
898.635038	2557.713423
898.942827	2572.416788
899.250576	2566.871519
899.558284	2561.914385
899.865952	2569.980231
900.173579	2584.011442
900.481165	2567.123577
900.788711	2562.334481
901.096216	2571.660615
901.403681	2566.955538
901.711105	2577.121865
902.018489	2566.703481
902.325832	2554.100596
902.633135	2561.746346
902.940397	2556.201077
903.247619	2565.863288
903.554800	2559.141750
903.861941	2573.593058
904.169041	2561.410269
904.476101	2581.406846
904.783121	2581.490865
905.090100	2571.156500
905.397039	2576.281673
905.703938	2580.986750
906.010796	2564.687019
906.317614	2568.131808
906.624391	2579.306365
906.931129	2579.726462
907.237826	2560.402038
907.544483	2564.182904
907.851099	2565.863288
908.157675	2556.201077
908.464211	2552.672269
908.770707	2560.654096
909.077163	2576.617750
909.383578	2574.937365
909.689954	2570.400327
909.996289	2561.578308
910.302584	2583.507327
910.608839	2565.191135
910.915054	2564.855058
911.221229	2557.965481
911.527363	2568.467885
911.833458	2567.627692
912.139513	2564.855058
912.445527	2565.779269
912.751502	2575.441481
913.057436	2567.711712
913.363331	2574.349231
913.669186	2557.629404
913.975000	2558.049500
914.280775	2570.652385
914.586510	2557.125288
914.892205	2562.082423
915.197859	2560.654096
915.503475	2561.410269
915.809050	2583.171250
916.114585	2575.945596
916.420081	2564.098885
916.725536	2590.396904
917.030952	2568.635923
917.336328	2564.098885
917.641665	2567.207596
917.946961	2568.299846
918.252218	2571.408558
918.557435	2578.130096
918.862612	2560.738115
919.167750	2562.754577
919.472848	2571.408558
919.777906	2566.115346
920.082925	2583.927423
920.387904	2572.332769
920.692843	2556.621173
920.997743	2562.082423
921.302603	2571.156500
921.607423	2553.176385
921.912204	2580.482635
922.216946	2563.342712
922.521647	2578.130096
922.826310	2566.451423
923.130932	2559.897923
923.435516	2566.787500
923.740059	2549.227481
924.044564	2564.434962
924.349028	2574.013154
924.653454	2556.369115
924.957840	2566.703481
925.262186	2572.836885
925.566493	2561.746346
925.870761	2563.342712
926.174989	2579.894500
926.479178	2563.762808
926.783328	2576.701769
927.087438	2566.367404
927.391509	2566.367404
927.695541	2548.471308
927.999533	2576.869808
928.303486	2551.411981
928.607400	2565.359173
928.911275	2562.670558
929.215110	2563.174673
929.518906	2559.813904
929.822663	2568.047788
930.126381	2556.285096
930.430060	2544.858481
930.733699	2560.906154
931.037299	2564.771038
931.340861	2560.990173
931.644383	2570.736404
931.947866	2557.545385
932.251309	2563.090654
932.554714	2570.820423
932.858080	2557.713423
933.161407	2559.057731
933.464694	2568.383865
933.767943	2543.514173
934.071153	2581.826942
934.374323	2561.074192
934.677455	2551.075904
934.980548	2557.209308
935.283602	2568.551904
935.586617	2579.642442
935.889593	2566.115346
936.192530	2558.049500
936.495428	2550.487769
936.798287	2544.438385
937.101108	2570.316308
937.403890	2558.973712
937.706632	2564.182904
938.009336	2561.746346
938.312002	2579.810481
938.614628	2571.324538
938.917216	2563.342712
939.219765	2568.719942
939.522275	2566.283385
939.824747	2570.820423
940.127179	2558.637635
940.429573	2551.748058
940.731929	2578.130096
941.034246	2566.199365
941.336524	2577.037846
941.638763	2560.318019
941.940964	2565.863288
942.243126	2563.594769
942.545250	2563.426731
942.847335	2566.367404
943.149381	2559.477827
943.451389	2570.820423
943.753359	2546.118769
944.055290	2565.023096
944.357182	2547.211019
944.659036	2561.410269
944.960851	2569.644154
945.262628	2579.306365
945.564367	2562.334481
945.866067	2560.402038
946.167729	2552.840308
946.469352	2558.973712
946.770937	2555.192846
947.072484	2555.444904
947.373992	2558.973712
947.675462	2541.245654
947.976893	2583.507327
948.278286	2564.603000
948.579641	2563.930846
948.880958	2571.996692
949.182236	2562.670558
949.483476	2563.426731
949.784678	2571.240519
950.085841	2562.754577
950.386967	2562.166442
950.688054	2567.627692
950.989103	2554.436673
951.290114	2561.242231
951.591087	2558.301558
951.892021	2577.710000
952.192917	2551.748058
952.493776	2563.594769
952.794596	2566.703481
953.095378	2573.677077
953.396122	2561.242231
953.696828	2566.199365
953.997496	2566.115346
954.298126	2551.664038
954.598718	2560.906154
954.899272	2556.789212
955.199788	2577.205885
955.500266	2569.392096
955.800706	2558.133519
956.101108	2567.123577
956.401472	2560.149981
956.701798	2564.687019
957.002087	2561.326250
957.302337	2556.957250
957.602550	2569.392096
957.902724	2573.593058
958.202861	2560.486058
958.502960	2567.375635
958.803022	2572.248750
959.103045	2557.125288
959.403031	2575.273442
959.702979	2556.453135
960.002889	2565.611231
960.302762	2568.635923
960.602596	2571.996692
960.902393	2555.024808
961.202153	2553.764519
961.501875	2543.010058
961.801559	2556.201077
962.101205	2571.072481
962.400814	2561.578308
962.700385	2556.369115
962.999918	2561.410269
963.299414	2556.369115
963.598873	2576.449712
963.898293	2573.509038
964.197677	2566.115346
964.497022	2544.270346
964.796331	2553.512462
965.095601	2551.327962
965.394835	2571.828654
965.694030	2561.242231
965.993189	2564.771038
966.292309	2572.836885
966.591393	2548.051212
966.890439	2560.149981
967.189447	2554.940788
967.488419	2564.939077
967.787353	2556.117058
968.086249	2554.436673
968.385108	2571.996692
968.683930	2562.418500
968.982714	2540.657519
969.281462	2565.443192
969.580172	2563.846827
969.878844	2571.996692
970.177480	2570.904442
970.476078	2562.082423
970.774639	2557.041269
971.073162	2546.370827
971.371649	2559.057731
971.670098	2553.848538
971.968510	2566.283385
972.266885	2548.639346
972.565223	2554.520692
972.863524	2566.955538
973.161788	2575.273442
973.460014	2568.047788
973.758204	2556.285096
974.056356	2558.301558
974.354471	2553.680500
974.652550	2560.065962
974.950591	2547.295038
975.248595	2556.789212
975.546563	2560.738115
975.844493	2577.205885
976.142386	2557.965481
976.440243	2539.817327
976.738062	2556.957250
977.035845	2561.662327
977.333590	2560.065962
977.631299	2564.939077
977.928971	2562.754577
978.226606	2575.861577
978.524204	2553.092365
978.821765	2568.972000
979.119290	2548.807385
979.416777	2561.410269
979.714228	2570.904442
980.011642	2571.576596
980.309020	2568.551904
980.606360	2567.123577
980.903664	2547.042981
981.200931	2557.629404
981.498162	2557.125288
981.795356	2554.940788
982.092513	2557.209308
982.389633	2559.393808
982.686717	2561.914385
982.983764	2561.998404
983.280775	2565.191135
983.577749	2557.545385
983.874686	2576.281673
984.171587	2563.006635
984.468451	2568.215827
984.765279	2559.729885
985.062070	2559.645865
985.358824	2560.570077
985.655543	2553.680500
985.952224	2580.482635
986.248869	2565.863288
986.545478	2575.273442
986.842050	2561.662327
987.138586	2566.535442
987.435086	2562.754577
987.731549	2577.037846
988.027975	2564.518981
988.324366	2561.746346
988.620719	2561.494288
988.917037	2565.191135
989.213318	2546.370827
989.509563	2551.748058
989.805772	2572.920904
990.101944	2555.528923
990.398080	2560.234000
990.694180	2557.713423
990.990244	2556.789212
991.286271	2560.990173
991.582262	2580.398615
991.878217	2571.072481
992.174136	2552.504231
992.470019	2563.090654
992.765865	2562.502519
993.061676	2559.813904
993.357450	2563.594769
993.653188	2565.947308
993.948890	2568.719942
994.244556	2561.830365
994.540186	2570.484346
994.835780	2547.295038
995.131337	2574.097173
995.426859	2569.812192
995.722345	2575.777558
996.017795	2570.316308
996.313208	2576.365692
996.608586	2558.133519
996.903928	2547.883173
997.199234	2576.785788
997.494504	2551.580019
997.789738	2577.121865
998.084936	2563.426731
998.380099	2573.677077
998.675225	2563.174673
998.970316	2550.991885
999.265371	2572.668846
999.560390	2566.031327
999.855373	2572.836885
1000.150320	2563.678788
1000.445232	2555.192846
1000.740108	2559.141750
1001.034948	2558.721654
1001.329752	2570.568365
1001.624521	2564.939077
1001.919254	2563.426731
1002.213951	2556.621173
1002.508613	2564.518981
1002.803239	2559.057731
1003.097829	2559.561846
1003.392384	2558.805673
1003.686903	2555.780981
1003.981386	2567.459654
1004.275834	2551.496000
1004.570246	2553.428442
1004.864623	2547.547096
1005.158964	2551.159923
1005.453270	2565.611231
1005.747540	2555.360885
1006.041775	2563.258692
1006.335974	2554.352654
1006.630138	2540.993596
1006.924266	2566.031327
1007.218359	2560.149981
1007.512416	2557.797442
1007.806438	2557.629404
1008.100425	2552.084135
1008.394376	2561.074192
1008.688292	2567.291615
1008.982172	2567.543673
1009.276017	2550.823846
1009.569827	2559.309788
1009.863602	2565.275154
1010.157341	2535.112250
1010.451045	2565.107115
1010.744714	2567.375635
1011.038347	2561.074192
1011.331945	2577.794019
1011.625508	2573.341000
1011.919036	2568.551904
1012.212528	2556.453135
1012.505986	2569.644154
1012.799408	2560.065962
1013.092795	2558.133519
1013.386147	2570.904442
1013.679464	2562.838596
1013.972745	2561.074192
1014.265992	2565.779269
1014.559204	2555.024808
1014.852380	2566.871519
1015.145521	2564.687019
1015.438628	2556.033038
1015.731699	2565.947308
1016.024736	2562.838596
1016.317737	2560.990173
1016.610703	2555.276865
1016.903635	2570.568365
1017.196531	2548.051212
1017.489393	2554.268635
1017.782219	2555.108827
1018.075011	2546.706904
1018.367768	2560.149981
1018.660490	2555.024808
1018.953177	2555.024808
1019.245829	2555.024808
