Dividing Wavelength (nm)	Counts (n)	Slit_number_25_of_a_total_of_40	
326.493990	2139.633731
326.888308	2139.633731
327.282561	2139.633731
327.676750	2113.419731
328.070874	2120.729404
328.464933	2123.081942
328.858929	2132.912192
329.252859	2145.935173
329.646726	2172.233192
330.040528	2180.299038
330.434265	2185.004115
330.827938	2214.242808
331.221547	2229.282250
331.615091	2251.799404
332.008571	2273.056269
332.401986	2295.825481
332.795338	2318.762731
333.188625	2326.996615
333.581847	2345.060750
333.975006	2380.012750
334.368100	2385.726058
334.761129	2417.737385
335.154095	2447.648231
335.546996	2445.463731
335.939833	2460.419154
336.332606	2470.165385
336.725315	2483.524442
337.117960	2502.344750
337.510540	2507.974038
337.903056	2507.301885
338.295508	2503.016904
338.687896	2503.437000
339.080220	2534.440096
339.472480	2528.978846
339.864676	2523.685635
340.256807	2531.751481
340.648875	2549.479538
341.040879	2538.389000
341.432818	2529.062865
341.824694	2550.823846
342.216506	2556.705192
342.608253	2547.211019
342.999937	2544.858481
343.391557	2536.120481
343.783113	2533.095788
344.174605	2543.346135
344.566033	2525.618077
344.957397	2542.253885
345.348697	2553.092365
345.739934	2522.509365
346.131106	2525.954154
346.522215	2536.792635
346.913260	2523.097500
347.304241	2517.216154
347.695159	2522.677404
348.086012	2513.267250
348.476802	2520.324865
348.867528	2523.097500
349.258191	2524.441808
349.648789	2509.402365
350.039324	2519.400654
350.429796	2524.777885
350.820203	2535.196269
351.210548	2508.646192
351.600828	2507.217865
351.991045	2514.611558
352.381198	2514.863615
352.771288	2524.777885
353.161314	2499.824173
353.551276	2521.837212
353.941175	2507.301885
354.331010	2523.517596
354.720782	2515.871846
355.110490	2520.576923
355.500135	2499.152019
355.889717	2510.998731
356.279235	2504.277192
356.668689	2510.242558
357.058080	2511.250788
357.447408	2503.521019
357.836672	2525.534058
358.225873	2525.618077
358.615010	2515.871846
359.004084	2520.913000
359.393095	2521.837212
359.782043	2512.847154
360.170927	2518.644481
360.559748	2527.718558
360.948505	2530.155115
361.337199	2516.459981
361.725830	2521.753192
362.114398	2507.049827
362.502903	2506.461692
362.891344	2517.552231
363.279722	2519.988788
363.668037	2535.868423
364.056289	2524.777885
364.444478	2505.117385
364.832603	2518.392423
365.220665	2530.995308
365.608665	2528.390712
365.996601	2515.955865
366.384474	2527.802577
366.772284	2520.828981
367.160031	2526.878365
367.547715	2519.148596
367.935336	2511.250788
368.322893	2523.433577
368.710388	2531.583442
369.097820	2530.155115
369.485189	2517.720269
369.872495	2518.896538
370.259738	2522.845442
370.646918	2526.206212
371.034035	2530.911288
371.421090	2532.003538
371.808081	2527.970615
372.195010	2521.585154
372.581875	2533.683923
372.968678	2539.481250
373.355418	2530.155115
373.742096	2504.949346
374.128710	2528.558750
374.515262	2527.382481
374.901751	2538.220962
375.288177	2534.860192
375.674540	2523.433577
376.060841	2536.624596
376.447079	2519.904769
376.833254	2546.034750
377.219367	2514.695577
377.605417	2538.304981
377.991404	2532.507654
378.377329	2545.530635
378.763191	2520.324865
379.148991	2535.280288
379.534727	2532.087558
379.920402	2528.390712
380.306013	2522.341327
380.691563	2531.079327
381.077049	2528.474731
381.462474	2531.919519
381.847835	2535.364308
382.233134	2529.482962
382.618371	2540.909577
383.003545	2535.784404
383.388657	2544.942500
383.773706	2546.202788
384.158693	2543.682212
384.543618	2551.243942
384.928480	2546.790923
385.313280	2563.174673
385.698017	2539.817327
386.082692	2552.588250
386.467305	2546.538865
386.851856	2553.260404
387.236344	2569.812192
387.620770	2573.929135
388.005133	2563.930846
388.389435	2578.046077
388.773674	2597.706577
389.157851	2585.439769
389.541965	2602.495673
389.926018	2623.248423
390.310008	2632.910635
390.693936	2637.699731
391.077802	2659.796788
391.461606	2656.267981
391.845348	2679.205231
392.229027	2676.432596
392.612645	2695.673000
392.996200	2717.097904
393.379694	2736.590365
393.763125	2768.433654
394.146494	2768.433654
394.529801	2783.473096
394.913047	2814.476192
395.296230	2817.500885
395.679351	2825.986827
396.062410	2873.625731
396.445408	2874.717981
396.828343	2893.622308
397.211217	2926.305788
397.594028	2936.640154
397.976778	2943.949827
398.359466	2952.939885
398.742092	2985.791404
399.124656	3000.578788
399.507158	3014.189904
399.889598	3019.315077
400.271977	3041.496154
400.654294	3054.267077
401.036549	3075.355904
401.418742	3082.749596
401.800874	3106.359000
402.182944	3127.195769
402.564952	3166.096673
402.946898	3142.319231
403.328783	3157.442692
403.710606	3170.717731
404.092367	3191.218423
404.474067	3209.702654
404.855705	3193.486942
405.237282	3187.101481
405.618797	3211.467058
406.000250	3214.659788
406.381642	3240.537712
406.762972	3222.893673
407.144240	3196.175558
407.525447	3205.165615
407.906593	3191.302442
408.287677	3176.851135
408.668700	3176.515058
409.049661	3169.793519
409.430560	3158.030827
409.811399	3122.910788
410.192176	3123.330885
410.572891	3092.495827
410.953545	3079.136769
411.334138	3059.308231
411.714669	3050.738269
412.095139	2996.377827
412.475547	3006.040038
412.855894	2958.989269
413.236180	2953.359981
413.616405	2912.526635
413.996568	2901.772173
414.376670	2860.182654
414.756711	2847.579769
415.136691	2824.390462
415.516609	2810.611308
415.896466	2785.993673
416.276262	2779.524192
416.655997	2763.224462
417.035670	2734.741942
417.415283	2737.178500
417.794834	2718.694269
418.174324	2717.686038
418.553753	2687.523135
418.933121	2677.860923
419.312428	2671.727519
419.691674	2639.548154
420.070859	2630.726135
420.449983	2628.037519
420.829045	2627.785462
421.208047	2614.510423
421.586988	2610.141423
421.965867	2593.757673
422.344686	2604.848212
422.723444	2590.901019
423.102141	2587.372212
423.480777	2584.011442
423.859352	2576.869808
424.237866	2577.121865
424.616319	2581.742923
424.994712	2566.283385
425.373044	2573.172962
425.751314	2558.721654
426.129524	2578.550192
426.507673	2576.953827
426.885762	2561.494288
427.263789	2570.988462
427.641756	2564.518981
428.019662	2568.887981
428.397508	2572.416788
428.775292	2569.980231
429.153016	2565.947308
429.530679	2539.649288
429.908282	2561.830365
430.285824	2567.711712
430.663305	2547.883173
431.040726	2572.080712
431.418086	2571.660615
431.795385	2576.029615
432.172624	2550.403750
432.549802	2579.894500
432.926920	2536.288519
433.303977	2567.291615
433.680974	2547.883173
434.057910	2560.738115
434.434786	2554.520692
434.811601	2554.268635
435.188355	2575.777558
435.565050	2559.561846
435.941683	2549.479538
436.318257	2548.135231
436.694770	2548.051212
437.071222	2548.051212
437.447614	2551.243942
437.823946	2566.955538
438.200218	2574.433250
438.576429	2564.687019
438.952580	2562.250462
439.328670	2555.360885
439.704700	2565.191135
440.080670	2554.604712
440.456580	2560.234000
440.832429	2565.275154
441.208218	2556.957250
441.583947	2560.486058
441.959616	2550.403750
442.335224	2566.031327
442.710773	2558.049500
443.086261	2579.054308
443.461689	2562.502519
443.837057	2563.090654
444.212365	2556.453135
444.587612	2541.497712
444.962800	2571.912673
445.337927	2570.232288
445.712995	2560.149981
446.088002	2559.309788
446.462949	2571.828654
446.837837	2566.115346
447.212664	2574.853346
447.587431	2560.990173
447.962139	2564.603000
448.336786	2555.108827
448.711374	2568.635923
449.085901	2554.604712
449.460369	2571.660615
449.834776	2554.940788
450.209124	2559.981942
450.583412	2554.184615
450.957640	2564.518981
451.331808	2563.678788
451.705917	2558.049500
452.079965	2567.123577
452.453954	2562.334481
452.827883	2558.217538
453.201752	2541.497712
453.575562	2561.578308
453.949311	2576.533731
454.323001	2574.853346
454.696632	2566.367404
455.070202	2583.843404
455.443713	2579.978519
455.817164	2561.830365
456.190556	2556.201077
456.563888	2572.752865
456.937160	2576.113635
457.310373	2554.436673
457.683526	2557.965481
458.056619	2555.780981
458.429653	2566.283385
458.802628	2566.955538
459.175542	2556.705192
459.548398	2570.148269
459.921194	2560.234000
460.293930	2570.064250
460.666607	2557.209308
461.039224	2565.611231
461.411782	2562.838596
461.784280	2571.072481
462.156719	2572.332769
462.529099	2542.001827
462.901419	2567.207596
463.273680	2567.711712
463.645882	2570.232288
464.018024	2565.107115
464.390106	2570.232288
464.762130	2579.726462
465.134094	2563.426731
465.505999	2557.797442
465.877845	2570.148269
466.249631	2569.644154
466.621358	2557.461365
466.993026	2564.350942
467.364634	2576.113635
467.736184	2577.205885
468.107674	2567.795731
468.479105	2553.260404
468.850477	2571.828654
469.221790	2555.865000
469.593043	2561.242231
469.964238	2572.752865
470.335373	2573.845115
470.706449	2557.545385
471.077467	2571.828654
471.448425	2574.265212
471.819324	2577.037846
472.190164	2564.014865
472.560945	2576.365692
472.931667	2560.990173
473.302330	2569.812192
473.672934	2577.878038
474.043479	2568.803962
474.413965	2568.467885
474.784393	2571.156500
475.154761	2574.937365
475.525070	2567.711712
475.895321	2563.006635
476.265513	2557.293327
476.635645	2566.955538
477.005719	2571.996692
477.375734	2555.192846
477.745691	2587.540250
478.115588	2593.925712
478.485427	2555.528923
478.855207	2574.517269
479.224928	2562.334481
479.594591	2561.494288
479.964194	2569.308077
480.333739	2567.879750
480.703226	2561.830365
481.072653	2566.703481
481.442022	2572.248750
481.811333	2567.795731
482.180584	2562.838596
482.549777	2566.955538
482.918912	2566.619462
483.287988	2566.871519
483.657005	2581.490865
484.025964	2561.830365
484.394864	2574.685308
484.763706	2580.314596
485.132489	2561.158212
485.501213	2572.920904
485.869879	2578.802250
486.238487	2550.067673
486.607036	2582.079000
486.975527	2580.818712
487.343959	2577.541962
487.712333	2576.785788
488.080648	2565.275154
488.448905	2597.370500
488.817104	2573.509038
489.185244	2573.088942
489.553326	2583.927423
489.921350	2573.088942
490.289315	2568.635923
490.657222	2571.072481
491.025070	2576.869808
491.392861	2578.214115
491.760593	2573.425019
492.128267	2567.879750
492.495883	2574.937365
492.863440	2565.947308
493.230939	2575.357462
493.598380	2584.011442
493.965763	2585.103692
494.333088	2575.861577
494.700354	2559.309788
495.067563	2587.960346
495.434713	2571.576596
495.801805	2559.645865
496.168839	2573.088942
496.535815	2578.886269
496.902733	2579.642442
497.269593	2569.056019
497.636395	2576.365692
498.003139	2577.457942
498.369825	2571.408558
498.736453	2578.298135
499.103023	2572.584827
499.469535	2564.434962
499.835989	2581.574885
500.202385	2577.289904
500.568723	2594.765904
500.935003	2563.510750
501.301226	2570.736404
501.667390	2578.718231
502.033497	2579.558423
502.399546	2573.845115
502.765537	2573.677077
503.131470	2572.164731
503.497345	2573.593058
503.863163	2575.357462
504.228923	2585.691827
504.594625	2563.174673
504.960269	2572.668846
505.325856	2580.230577
505.691385	2584.431538
506.056856	2569.980231
506.422270	2577.037846
506.787625	2581.658904
507.152924	2571.660615
507.518164	2570.736404
507.883347	2576.617750
508.248472	2565.275154
508.613540	2578.634212
508.978550	2583.171250
509.343503	2564.603000
509.708398	2567.543673
510.073236	2576.785788
510.438016	2573.761096
510.802738	2568.299846
511.167403	2581.238808
511.532010	2582.667135
511.896561	2573.845115
512.261053	2590.901019
512.625488	2583.087231
512.989866	2546.118769
513.354186	2587.372212
513.718449	2574.601288
514.082655	2581.742923
514.446803	2568.131808
514.810894	2591.237096
515.174927	2584.263500
515.538904	2565.527212
515.902822	2577.541962
516.266684	2561.914385
516.630488	2564.771038
516.994235	2573.509038
517.357925	2577.541962
517.721558	2570.484346
518.085133	2583.087231
518.448651	2581.658904
518.812112	2571.072481
519.175516	2571.240519
519.538863	2581.574885
519.902152	2570.652385
520.265385	2580.986750
520.628560	2585.019673
520.991678	2581.070769
521.354739	2579.222346
521.717743	2570.568365
522.080690	2586.952115
522.443580	2559.141750
522.806413	2580.734692
523.169189	2583.759385
523.531908	2590.060827
523.894569	2573.425019
524.257174	2582.079000
524.619722	2567.375635
524.982213	2568.803962
525.344647	2574.181192
525.707025	2577.710000
526.069345	2562.418500
526.431608	2576.785788
526.793815	2580.986750
527.155964	2586.532019
527.518057	2577.457942
527.880093	2577.794019
528.242072	2560.234000
528.603995	2575.105404
528.965860	2590.312885
529.327669	2559.477827
529.689421	2568.299846
530.051117	2577.037846
530.412755	2583.339288
530.774337	2582.331058
531.135862	2580.734692
531.497331	2591.489154
531.858743	2567.879750
532.220098	2578.550192
532.581396	2594.345808
532.942638	2569.224058
533.303824	2579.894500
533.664953	2581.826942
534.026025	2591.657192
534.387040	2570.904442
534.747999	2583.003212
535.108902	2573.425019
535.469748	2589.640731
535.830537	2570.652385
536.191270	2584.683596
536.551947	2582.751154
536.912567	2573.425019
537.273131	2588.380442
537.633638	2587.540250
537.994089	2578.886269
538.354483	2569.644154
538.714821	2580.650673
539.075103	2589.136615
539.435328	2588.548481
539.795497	2580.734692
540.155609	2579.894500
540.515665	2569.980231
540.875665	2586.448000
541.235609	2584.431538
541.595496	2559.141750
541.955328	2584.179481
542.315102	2565.527212
542.674821	2572.836885
543.034483	2572.080712
543.394090	2560.990173
543.753640	2577.962058
544.113134	2578.382154
544.472571	2581.910962
544.831953	2570.904442
545.191278	2581.406846
545.550548	2586.700058
545.909761	2585.355750
546.268918	2563.678788
546.628019	2584.935654
546.987064	2565.443192
547.346053	2572.920904
547.704986	2576.449712
548.063863	2593.169538
548.422684	2576.281673
548.781449	2591.993269
549.140158	2582.415077
549.498811	2590.396904
549.857408	2571.072481
550.215949	2579.978519
550.574434	2605.688404
550.932864	2571.492577
551.291237	2567.795731
551.649555	2577.457942
552.007817	2575.273442
552.366022	2578.634212
552.724173	2570.652385
553.082267	2604.092038
553.440305	2589.892788
553.798288	2587.960346
554.156215	2581.322827
554.514086	2582.667135
554.871902	2576.113635
555.229661	2590.648962
555.587365	2582.667135
555.945014	2564.098885
556.302606	2592.665423
556.660143	2583.507327
557.017625	2574.349231
557.375050	2576.701769
557.732421	2589.892788
558.089735	2565.191135
558.446994	2571.996692
558.804197	2566.031327
559.161345	2585.859865
559.518437	2577.710000
559.875474	2564.855058
560.232455	2568.383865
560.589381	2580.818712
560.946251	2582.331058
561.303065	2582.919192
561.659825	2571.156500
562.016528	2571.408558
562.373177	2572.164731
562.729770	2581.490865
563.086307	2575.777558
563.442789	2583.087231
563.799216	2576.953827
564.155587	2562.922615
564.511904	2592.833462
564.868164	2588.632500
565.224370	2569.644154
565.580520	2572.836885
565.936615	2571.408558
566.292654	2585.943885
566.648638	2578.886269
567.004567	2584.263500
567.360441	2571.660615
567.716260	2570.652385
568.072023	2575.693538
568.427732	2587.708288
568.783385	2583.927423
569.138982	2587.036135
569.494525	2582.835173
569.850013	2577.710000
570.205445	2576.029615
570.560823	2589.892788
570.916145	2585.775846
571.271412	2581.910962
571.626625	2577.541962
571.981782	2575.609519
572.336884	2583.759385
572.691931	2578.802250
573.046923	2566.283385
573.401860	2582.583115
573.756743	2574.097173
574.111570	2582.079000
574.466342	2578.046077
574.821059	2577.457942
575.175722	2564.771038
575.530330	2582.247038
575.884882	2584.431538
576.239380	2582.499096
576.593823	2575.357462
576.948211	2580.650673
577.302544	2584.599577
577.656823	2568.299846
578.011047	2568.887981
578.365216	2578.718231
578.719330	2569.980231
579.073389	2575.357462
579.427394	2575.105404
579.781344	2572.416788
580.135239	2567.627692
580.489080	2579.642442
580.842866	2584.179481
581.196597	2577.710000
581.550273	2576.533731
581.903895	2596.530308
582.257463	2565.611231
582.610975	2567.963769
582.964434	2568.803962
583.317837	2576.869808
583.671186	2572.248750
584.024481	2565.695250
584.377721	2576.701769
584.730906	2574.433250
585.084037	2570.400327
585.437113	2572.668846
585.790135	2576.869808
586.143103	2578.214115
586.496016	2567.459654
586.848874	2573.256981
587.201679	2574.097173
587.554428	2576.113635
587.907124	2580.062538
588.259765	2580.734692
588.612352	2564.434962
588.964884	2574.685308
589.317362	2598.294712
589.669786	2588.380442
590.022155	2577.710000
590.374470	2596.194231
590.726731	2570.652385
591.078937	2570.820423
591.431090	2575.777558
591.783188	2571.576596
592.135232	2581.574885
592.487222	2578.046077
592.839157	2571.828654
593.191038	2583.087231
593.542866	2582.499096
593.894639	2572.584827
594.246358	2574.517269
594.598022	2568.719942
594.949633	2576.113635
595.301190	2573.593058
595.652692	2576.449712
596.004141	2580.146558
596.355535	2590.228865
596.706876	2568.803962
597.058162	2583.339288
597.409395	2584.683596
597.760573	2570.484346
598.111698	2575.777558
598.462768	2588.212404
598.813785	2579.726462
599.164748	2576.953827
599.515657	2581.490865
599.866511	2580.902731
600.217312	2565.863288
600.568060	2582.499096
600.918753	2588.800538
601.269392	2581.322827
601.619978	2573.256981
601.970510	2570.484346
602.320988	2574.349231
602.671412	2570.484346
603.021783	2566.199365
603.372100	2575.189423
603.722363	2566.787500
604.072572	2575.861577
604.422728	2578.466173
604.772830	2570.148269
605.122878	2572.164731
605.472872	2577.878038
605.822813	2582.247038
606.172701	2580.902731
606.522534	2568.803962
606.872314	2558.217538
607.222041	2579.894500
607.571714	2578.214115
607.921333	2588.968577
608.270899	2558.889692
608.620411	2569.476115
608.969870	2570.652385
609.319276	2585.943885
609.668627	2563.594769
610.017926	2562.670558
610.367171	2585.523788
610.716362	2581.322827
611.065500	2576.197654
611.414585	2580.230577
611.763616	2575.609519
612.112594	2560.654096
612.461518	2576.365692
612.810389	2590.312885
613.159207	2584.683596
613.507971	2582.919192
613.856682	2584.767615
614.205340	2580.902731
614.553945	2586.616038
614.902496	2587.456231
615.250994	2569.644154
615.599439	2576.365692
615.947830	2578.886269
616.296169	2575.021385
616.644454	2588.296423
616.992686	2585.607808
617.340864	2563.930846
617.688990	2563.006635
618.037063	2577.625981
618.385082	2576.281673
618.733048	2584.515558
619.080961	2579.642442
619.428821	2570.988462
619.776628	2571.576596
620.124382	2556.873231
620.472083	2580.650673
620.819731	2586.448000
621.167326	2580.902731
621.514868	2561.074192
621.862357	2559.477827
622.209793	2576.365692
622.557176	2581.238808
622.904506	2573.845115
623.251783	2567.963769
623.599007	2576.701769
623.946179	2576.197654
624.293297	2571.996692
624.640363	2573.509038
624.987376	2569.980231
625.334336	2576.281673
625.681243	2567.375635
626.028097	2580.314596
626.374899	2591.489154
626.721647	2557.881462
627.068343	2568.215827
627.414987	2570.652385
627.761577	2573.929135
628.108115	2564.014865
628.454600	2564.182904
628.801032	2569.980231
629.147412	2577.625981
629.493739	2574.265212
629.840014	2565.779269
630.186236	2576.365692
630.532405	2585.355750
630.878521	2575.525500
631.224585	2566.283385
631.570597	2575.693538
631.916556	2563.930846
632.262462	2574.517269
632.608316	2593.337577
632.954117	2567.711712
633.299866	2587.372212
633.645562	2570.568365
633.991206	2572.248750
634.336797	2587.540250
634.682336	2577.373923
635.027823	2574.349231
635.373257	2559.813904
635.718639	2583.255269
636.063968	2584.683596
636.409245	2577.457942
636.754470	2576.029615
637.099642	2586.111923
637.444762	2602.915769
637.789829	2582.163019
638.134845	2576.365692
638.479808	2570.148269
638.824719	2577.373923
639.169577	2570.064250
639.514383	2574.685308
639.859137	2568.972000
640.203839	2570.316308
640.548489	2567.039558
640.893086	2560.990173
641.237632	2572.080712
641.582125	2594.513846
641.926566	2580.566654
642.270955	2586.868096
642.615292	2564.518981
642.959576	2575.021385
643.303809	2570.652385
643.647990	2570.400327
643.992118	2575.861577
644.336195	2571.324538
644.680219	2574.769327
645.024192	2580.818712
645.368112	2579.474404
645.711981	2568.467885
646.055797	2556.705192
646.399562	2575.273442
646.743274	2571.408558
647.086935	2571.660615
647.430544	2582.583115
647.774101	2567.711712
648.117606	2581.490865
648.461059	2576.617750
648.804460	2582.499096
649.147810	2563.006635
649.491108	2583.171250
649.834354	2577.878038
650.177548	2589.052596
650.520690	2580.062538
650.863781	2569.056019
651.206820	2571.492577
651.549807	2577.205885
651.892742	2569.140038
652.235626	2569.308077
652.578458	2575.441481
652.921238	2562.670558
653.263967	2583.507327
653.606644	2579.642442
653.949269	2572.500808
654.291843	2571.744635
654.634365	2561.242231
654.976836	2578.130096
655.319255	2565.611231
655.661622	2575.105404
656.003938	2573.088942
656.346203	2566.115346
656.688416	2565.275154
657.030577	2566.115346
657.372687	2582.835173
657.714746	2583.591346
658.056753	2573.425019
658.398708	2570.736404
658.740612	2571.912673
659.082465	2586.784077
659.424266	2587.372212
659.766016	2569.308077
660.107715	2583.507327
660.449362	2568.719942
660.790958	2580.146558
661.132503	2562.082423
661.473996	2568.719942
661.815438	2569.476115
662.156829	2564.687019
662.498168	2561.998404
662.839456	2565.359173
663.180693	2567.879750
663.521879	2565.947308
663.863013	2579.726462
664.204097	2581.490865
664.545129	2571.072481
664.886110	2567.879750
665.227040	2571.996692
665.567918	2578.298135
665.908746	2562.922615
666.249522	2573.088942
666.590248	2564.687019
666.930922	2582.079000
667.271545	2577.625981
667.612118	2567.543673
667.952639	2583.591346
668.293109	2571.072481
668.633528	2571.072481
668.973896	2574.517269
669.314213	2568.719942
669.654480	2574.433250
669.994695	2578.886269
670.334859	2579.810481
670.674973	2580.566654
671.015035	2586.363981
671.355047	2571.072481
671.695008	2561.410269
672.034918	2569.224058
672.374777	2587.708288
672.714585	2546.034750
673.054342	2586.448000
673.394049	2567.375635
673.733705	2558.805673
674.073310	2582.079000
674.412864	2576.533731
674.752368	2567.459654
675.091820	2571.324538
675.431223	2581.742923
675.770574	2581.238808
676.109875	2568.803962
676.449125	2578.718231
676.788324	2563.426731
677.127473	2569.980231
677.466571	2563.090654
677.805619	2581.574885
678.144616	2584.683596
678.483562	2590.564942
678.822458	2589.304654
679.161303	2582.415077
679.500098	2572.500808
679.838842	2579.558423
680.177535	2575.945596
680.516179	2579.810481
680.854771	2572.500808
681.193314	2564.939077
681.531805	2583.255269
681.870247	2567.711712
682.208638	2580.314596
682.546978	2572.500808
682.885268	2563.258692
683.223508	2562.082423
683.561697	2578.886269
683.899836	2568.635923
684.237925	2570.316308
684.575963	2564.266923
684.913951	2567.795731
685.251889	2565.107115
685.589776	2559.309788
685.927614	2579.474404
686.265401	2583.927423
686.603137	2547.883173
686.940824	2571.408558
687.278460	2567.795731
687.616046	2568.215827
687.953582	2581.154788
688.291068	2578.550192
688.628504	2581.658904
688.965889	2574.937365
689.303224	2560.149981
689.640510	2573.256981
689.977745	2571.828654
690.314930	2566.031327
690.652065	2578.130096
690.989150	2577.205885
691.326185	2568.131808
691.663170	2582.751154
692.000105	2563.930846
692.336990	2572.836885
692.673825	2574.181192
693.010610	2569.056019
693.347345	2579.474404
693.684030	2562.250462
694.020665	2574.853346
694.357251	2557.209308
694.693786	2561.746346
695.030272	2571.660615
695.366707	2583.591346
695.703093	2550.991885
696.039429	2568.131808
696.375716	2579.054308
696.711952	2580.986750
697.048139	2570.316308
697.384276	2571.408558
697.720363	2567.627692
698.056400	2588.296423
698.392388	2574.517269
698.728326	2574.433250
699.064214	2587.204173
699.400053	2571.828654
699.735842	2559.057731
700.071581	2576.701769
700.407270	2579.810481
700.742910	2554.436673
701.078501	2564.771038
701.414042	2559.813904
701.749533	2578.298135
702.084974	2570.148269
702.420366	2568.635923
702.755709	2568.635923
703.091002	2579.054308
703.426246	2568.467885
703.761440	2567.627692
704.096584	2556.789212
704.431679	2564.771038
704.766725	2569.896212
705.101721	2570.232288
705.436668	2569.308077
705.771565	2589.220635
706.106413	2574.769327
706.441212	2568.551904
706.775961	2566.115346
707.110661	2577.457942
707.445311	2579.978519
707.779913	2568.887981
708.114465	2571.912673
708.448967	2568.972000
708.783421	2584.263500
709.117825	2577.878038
709.452180	2574.853346
709.786485	2583.171250
710.120742	2556.285096
710.454949	2568.131808
710.789107	2565.779269
711.123216	2546.622885
711.457275	2565.695250
711.791286	2573.004923
712.125247	2563.006635
712.459159	2578.214115
712.793023	2570.316308
713.126837	2572.164731
713.460602	2570.988462
713.794318	2562.838596
714.127985	2581.490865
714.461602	2578.214115
714.795171	2584.767615
715.128691	2572.752865
715.462162	2575.525500
715.795584	2577.625981
716.128957	2568.383865
716.462281	2577.625981
716.795556	2577.205885
717.128782	2561.998404
717.461960	2577.457942
717.795088	2567.459654
718.128167	2565.695250
718.461198	2564.350942
718.794180	2568.215827
719.127113	2547.631115
719.459997	2568.047788
719.792833	2558.133519
720.125619	2575.021385
720.458357	2575.777558
720.791046	2566.283385
721.123686	2556.117058
721.456278	2569.728173
721.788821	2555.360885
722.121315	2568.047788
722.453761	2582.415077
722.786158	2564.603000
723.118506	2571.912673
723.450805	2578.886269
723.783056	2559.813904
724.115259	2585.187712
724.447412	2554.016577
724.779518	2569.476115
725.111574	2556.201077
725.443582	2566.283385
725.775542	2570.484346
726.107453	2579.642442
726.439315	2559.813904
726.771129	2595.690115
727.102895	2559.897923
727.434612	2569.308077
727.766281	2562.082423
728.097901	2567.207596
728.429473	2571.576596
728.760996	2579.054308
729.092471	2570.484346
729.423897	2570.484346
729.755276	2573.929135
730.086606	2556.537154
730.417887	2566.619462
730.749120	2574.013154
731.080305	2562.838596
731.411442	2556.873231
731.742530	2575.357462
732.073570	2570.400327
732.404562	2574.097173
732.735506	2565.443192
733.066401	2569.140038
733.397249	2574.937365
733.728048	2575.105404
734.058798	2572.500808
734.389501	2569.056019
734.720156	2572.248750
735.050762	2573.677077
735.381320	2568.047788
735.711831	2573.425019
736.042293	2567.123577
736.372707	2570.904442
736.703073	2563.342712
737.033391	2561.998404
737.363661	2564.098885
737.693883	2564.098885
738.024056	2566.199365
738.354182	2566.535442
738.684260	2564.939077
739.014290	2573.845115
739.344272	2565.779269
739.674207	2574.265212
740.004093	2578.550192
740.333931	2560.149981
740.663722	2568.131808
740.993464	2573.929135
741.323159	2551.496000
741.652806	2577.878038
741.982405	2565.947308
742.311956	2557.209308
742.641460	2567.627692
742.970915	2562.922615
743.300323	2575.189423
743.629683	2575.693538
743.958996	2574.181192
744.288260	2561.830365
744.617477	2579.978519
744.946647	2566.703481
745.275768	2579.222346
745.604842	2562.166442
745.933869	2567.291615
746.262847	2575.105404
746.591778	2575.777558
746.920662	2570.400327
747.249498	2561.914385
747.578286	2571.744635
747.907027	2567.375635
748.235720	2561.326250
748.564365	2576.449712
748.892963	2587.456231
749.221514	2577.625981
749.550017	2581.742923
749.878473	2579.222346
750.206881	2566.283385
750.535242	2563.426731
750.863555	2564.939077
751.191821	2574.853346
751.520039	2570.232288
751.848210	2578.634212
752.176334	2573.929135
752.504411	2579.642442
752.832440	2584.431538
753.160421	2563.510750
753.488356	2554.772750
753.816243	2555.528923
754.144082	2561.158212
754.471875	2579.474404
754.799620	2581.910962
755.127318	2587.792308
755.454969	2572.920904
755.782572	2566.955538
756.110129	2572.416788
756.437638	2570.484346
756.765100	2584.179481
757.092515	2572.332769
757.419882	2565.527212
757.747203	2560.570077
758.074477	2572.668846
758.401703	2565.443192
758.728882	2562.334481
759.056014	2575.609519
759.383099	2565.527212
759.710138	2567.123577
760.037129	2561.830365
760.364073	2584.431538
760.690970	2562.082423
761.017820	2574.013154
761.344623	2561.914385
761.671379	2570.484346
761.998088	2550.655808
762.324751	2559.141750
762.651366	2573.509038
762.977935	2566.619462
763.304456	2570.568365
763.630931	2576.113635
763.957359	2580.650673
764.283740	2566.871519
764.610074	2561.998404
764.936362	2554.268635
765.262602	2573.004923
765.588796	2564.350942
765.914943	2567.039558
766.241044	2565.023096
766.567097	2564.182904
766.893104	2573.425019
767.219064	2568.635923
767.544978	2577.962058
767.870845	2557.209308
768.196665	2555.949019
768.522438	2570.652385
768.848165	2562.922615
769.173846	2566.115346
769.499479	2577.794019
769.825066	2546.958962
770.150607	2569.980231
770.476101	2566.955538
770.801548	2576.449712
771.126949	2578.634212
771.452303	2558.385577
771.777611	2572.668846
772.102872	2579.726462
772.428087	2557.461365
772.753256	2555.865000
773.078378	2561.578308
773.403453	2572.752865
773.728482	2568.803962
774.053465	2572.332769
774.378401	2571.408558
774.703291	2555.696962
775.028135	2562.502519
775.352932	2569.896212
775.677683	2566.031327
776.002388	2570.148269
776.327046	2563.006635
776.651658	2569.224058
776.976224	2557.545385
777.300743	2575.021385
777.625216	2565.023096
777.949643	2569.056019
778.274024	2566.703481
778.598359	2557.881462
778.922647	2545.530635
779.246889	2555.444904
779.571086	2575.777558
779.895236	2552.336192
780.219339	2571.156500
780.543397	2556.033038
780.867409	2559.225769
781.191374	2546.286808
781.515294	2559.225769
781.839167	2564.098885
782.162995	2575.609519
782.486776	2568.299846
782.810511	2557.125288
783.134201	2567.711712
783.457844	2567.963769
783.781441	2572.164731
784.104993	2555.360885
784.428498	2572.248750
784.751958	2555.696962
785.075372	2569.728173
785.398739	2564.855058
785.722061	2566.031327
786.045337	2558.889692
786.368568	2560.065962
786.691752	2567.711712
787.014891	2574.265212
787.337983	2573.593058
787.661030	2564.014865
787.984031	2562.586538
788.306987	2563.762808
788.629897	2572.500808
788.952760	2568.635923
789.275579	2576.281673
789.598351	2577.037846
789.921078	2556.117058
790.243759	2563.762808
790.566395	2567.627692
790.888984	2570.736404
791.211529	2577.794019
791.534027	2571.408558
791.856480	2571.492577
792.178888	2569.728173
792.501249	2565.443192
792.823566	2572.248750
793.145836	2569.392096
793.468062	2575.273442
793.790241	2562.754577
794.112375	2571.576596
794.434464	2564.518981
794.756507	2569.812192
795.078505	2553.092365
795.400457	2571.240519
795.722364	2569.224058
796.044226	2566.115346
796.366042	2559.645865
796.687812	2580.566654
797.009538	2559.645865
797.331218	2572.584827
797.652852	2577.373923
797.974442	2566.619462
798.295986	2568.719942
798.617484	2558.973712
798.938938	2568.719942
799.260346	2578.382154
799.581709	2560.822135
799.903026	2575.105404
800.224299	2570.988462
800.545526	2563.342712
800.866708	2566.199365
801.187845	2567.291615
801.508936	2578.382154
801.829983	2573.172962
802.150984	2544.774462
802.471940	2566.451423
802.792851	2577.625981
803.113717	2557.629404
803.434538	2575.357462
803.755314	2569.056019
804.076045	2580.650673
804.396731	2571.492577
804.717372	2571.324538
805.037967	2556.285096
805.358518	2561.242231
805.679024	2568.383865
805.999485	2579.810481
806.319901	2572.752865
806.640272	2571.156500
806.960598	2564.603000
807.280879	2558.385577
807.601115	2553.848538
807.921306	2559.225769
808.241453	2564.771038
808.561554	2565.023096
808.881611	2571.912673
809.201623	2560.570077
809.521590	2561.074192
809.841513	2559.309788
810.161390	2575.945596
810.481223	2568.131808
810.801011	2570.484346
811.120755	2572.500808
811.440453	2582.583115
811.760107	2538.809096
812.079716	2563.090654
812.399281	2570.484346
812.718801	2569.560135
813.038276	2558.217538
813.357707	2571.576596
813.677093	2569.896212
813.996434	2561.830365
814.315731	2564.350942
814.634983	2566.787500
814.954191	2565.443192
815.273354	2568.131808
815.592473	2577.794019
815.911547	2568.215827
816.230577	2570.652385
816.549562	2573.929135
816.868502	2561.410269
817.187399	2580.482635
817.506250	2553.680500
817.825058	2549.563558
818.143821	2569.392096
818.462539	2564.434962
818.781213	2543.346135
819.099843	2567.291615
819.418429	2577.205885
819.736970	2575.525500
820.055466	2569.644154
820.373919	2559.309788
820.692327	2552.168154
821.010691	2569.560135
821.329011	2574.853346
821.647286	2585.019673
821.965517	2565.023096
822.283704	2603.503904
822.601847	2600.143135
822.919945	2584.683596
823.237999	2596.530308
823.556010	2573.341000
823.873976	2598.462750
824.191897	2589.388673
824.509775	2579.474404
824.827609	2598.630788
825.145398	2578.214115
825.463144	2578.886269
825.780845	2571.156500
826.098502	2573.425019
826.416116	2582.919192
826.733685	2565.023096
827.051210	2587.624269
827.368692	2566.871519
827.686129	2583.759385
828.003522	2565.695250
828.320872	2587.372212
828.638177	2579.306365
828.955439	2570.652385
829.272656	2568.719942
829.589830	2573.172962
829.906960	2563.090654
830.224046	2580.314596
830.541088	2574.769327
830.858086	2556.705192
831.175041	2562.166442
831.491952	2555.780981
831.808819	2577.710000
832.125642	2578.298135
832.442421	2571.912673
832.759157	2559.981942
833.075849	2560.990173
833.392497	2582.247038
833.709101	2591.069058
834.025662	2569.896212
834.342179	2577.794019
834.658653	2578.802250
834.975083	2582.835173
835.291469	2579.054308
835.607811	2571.912673
835.924110	2560.990173
836.240366	2559.393808
836.556578	2560.149981
836.872746	2556.369115
837.188871	2585.607808
837.504952	2566.703481
837.820990	2573.509038
838.136984	2566.955538
838.452935	2567.627692
838.768842	2566.283385
839.084706	2558.049500
839.400526	2564.939077
839.716303	2561.998404
840.032037	2575.357462
840.347727	2573.256981
840.663373	2581.742923
840.978977	2566.955538
841.294537	2567.711712
841.610054	2562.082423
841.925527	2564.771038
842.240957	2556.117058
842.556344	2574.853346
842.871687	2561.914385
843.186987	2571.324538
843.502244	2568.299846
843.817458	2567.375635
844.132629	2566.283385
844.447756	2571.156500
844.762840	2578.886269
845.077881	2552.168154
845.392879	2559.981942
845.707833	2548.639346
846.022745	2571.492577
846.337613	2571.492577
846.652438	2561.326250
846.967221	2566.955538
847.281960	2565.695250
847.596656	2566.703481
847.911309	2545.110538
848.225919	2580.398615
848.540485	2570.988462
848.855009	2569.812192
849.169490	2560.234000
849.483928	2565.779269
849.798323	2570.316308
850.112675	2559.813904
850.426984	2570.484346
850.741251	2570.400327
851.055474	2546.622885
851.369654	2565.947308
851.683792	2554.100596
851.997887	2554.520692
852.311938	2551.748058
852.625947	2575.189423
852.939914	2556.201077
853.253837	2565.023096
853.567718	2541.161635
853.881555	2566.787500
854.195350	2569.728173
854.509103	2569.812192
854.822812	2557.881462
855.136479	2564.855058
855.450103	2564.014865
855.763685	2569.308077
856.077224	2565.947308
856.390720	2570.820423
856.704173	2558.553615
857.017584	2570.064250
857.330953	2568.467885
857.644278	2558.637635
857.957561	2563.510750
858.270802	2560.738115
858.584000	2552.336192
858.897155	2563.426731
859.210268	2561.830365
859.523339	2558.805673
859.836367	2578.382154
860.149352	2553.176385
860.462295	2563.006635
860.775195	2558.385577
861.088054	2559.057731
861.400869	2568.047788
861.713642	2557.881462
862.026373	2560.738115
862.339062	2563.846827
862.651708	2558.385577
862.964312	2560.822135
863.276873	2554.268635
863.589392	2555.024808
863.901869	2579.306365
864.214303	2555.865000
864.526696	2566.535442
864.839045	2565.443192
865.151353	2575.861577
865.463619	2552.084135
865.775842	2562.502519
866.088023	2564.014865
866.400162	2555.780981
866.712258	2565.779269
867.024313	2558.301558
867.336325	2551.327962
867.648296	2580.902731
867.960224	2569.140038
868.272110	2570.652385
868.583954	2562.082423
868.895755	2570.484346
869.207515	2545.782692
869.519233	2566.283385
869.830909	2564.518981
870.142542	2569.476115
870.454134	2563.090654
870.765684	2550.991885
871.077191	2577.962058
871.388657	2571.240519
871.700081	2560.318019
872.011463	2573.677077
872.322803	2562.250462
872.634101	2572.248750
872.945357	2571.744635
873.256571	2573.172962
873.567744	2554.940788
873.878874	2561.746346
874.189963	2556.957250
874.501010	2556.705192
874.812015	2544.186327
875.122979	2555.865000
875.433900	2563.930846
875.744780	2557.881462
876.055618	2561.746346
876.366415	2570.820423
876.677169	2576.113635
876.987882	2563.930846
877.298554	2566.787500
877.609183	2561.158212
877.919771	2560.990173
878.230317	2572.752865
878.540822	2577.625981
878.851285	2559.477827
879.161707	2551.411981
879.472087	2568.467885
879.782425	2567.375635
880.092722	2580.566654
880.402977	2568.803962
880.713191	2572.752865
881.023363	2567.879750
881.333494	2583.339288
881.643583	2585.859865
881.953631	2581.826942
882.263637	2565.107115
882.573602	2589.220635
882.883526	2566.451423
883.193408	2587.624269
883.503248	2575.609519
883.813048	2566.115346
884.122806	2572.500808
884.432522	2589.136615
884.742197	2576.953827
885.051831	2566.535442
885.361424	2577.037846
885.670975	2564.434962
885.980485	2556.537154
886.289954	2581.154788
886.599382	2568.131808
886.908768	2577.289904
887.218113	2567.627692
887.527417	2561.578308
887.836680	2565.695250
888.145901	2558.133519
888.455082	2570.652385
888.764221	2561.746346
889.073319	2544.858481
889.382376	2561.746346
889.691392	2547.715135
890.000366	2570.820423
890.309300	2558.889692
890.618193	2574.181192
890.927044	2562.586538
891.235855	2571.744635
891.544625	2564.687019
891.853353	2571.408558
892.162041	2567.123577
892.470687	2557.293327
892.779293	2569.896212
893.087858	2554.604712
893.396381	2569.812192
893.704864	2565.695250
894.013306	2554.268635
894.321707	2565.443192
894.630068	2566.787500
894.938387	2563.342712
895.246665	2560.738115
895.554903	2568.215827
895.863100	2548.639346
896.171256	2564.939077
896.479371	2561.662327
896.787446	2562.838596
897.095480	2563.930846
897.403473	2565.863288
897.711425	2553.848538
898.019336	2551.580019
898.327207	2588.716519
898.635038	2558.301558
898.942827	2561.494288
899.250576	2555.528923
899.558284	2556.537154
899.865952	2579.978519
900.173579	2549.731596
900.481165	2565.779269
900.788711	2550.655808
901.096216	2569.476115
901.403681	2566.871519
901.711105	2568.467885
902.018489	2569.308077
902.325832	2563.174673
902.633135	2575.441481
902.940397	2570.820423
903.247619	2566.115346
903.554800	2550.571788
903.861941	2572.500808
904.169041	2559.393808
904.476101	2570.232288
904.783121	2572.080712
905.090100	2579.054308
905.397039	2573.256981
905.703938	2574.853346
906.010796	2568.887981
906.317614	2561.494288
906.624391	2562.082423
906.931129	2566.703481
907.237826	2573.677077
907.544483	2561.662327
907.851099	2544.858481
908.157675	2543.346135
908.464211	2570.148269
908.770707	2551.664038
909.077163	2562.250462
909.383578	2559.645865
909.689954	2568.299846
909.996289	2564.687019
910.302584	2566.115346
910.608839	2570.484346
910.915054	2569.980231
911.221229	2555.360885
911.527363	2567.543673
911.833458	2553.344423
912.139513	2564.434962
912.445527	2573.088942
912.751502	2558.805673
913.057436	2580.062538
913.363331	2560.234000
913.669186	2575.693538
913.975000	2564.855058
914.280775	2566.871519
914.586510	2546.790923
914.892205	2558.973712
915.197859	2573.425019
915.503475	2560.486058
915.809050	2561.158212
916.114585	2567.039558
916.420081	2579.222346
916.725536	2572.080712
917.030952	2570.736404
917.336328	2561.746346
917.641665	2571.744635
917.946961	2574.013154
918.252218	2574.265212
918.557435	2553.008346
918.862612	2552.840308
919.167750	2565.275154
919.472848	2564.687019
919.777906	2582.247038
920.082925	2566.535442
920.387904	2561.158212
920.692843	2565.863288
920.997743	2567.711712
921.302603	2552.504231
921.607423	2550.319731
921.912204	2570.820423
922.216946	2547.715135
922.521647	2563.762808
922.826310	2564.603000
923.130932	2566.703481
923.435516	2552.840308
923.740059	2556.537154
924.044564	2561.242231
924.349028	2571.492577
924.653454	2553.428442
924.957840	2563.846827
925.262186	2556.117058
925.566493	2556.705192
925.870761	2564.182904
926.174989	2559.477827
926.479178	2570.820423
926.783328	2561.326250
927.087438	2559.561846
927.391509	2546.874942
927.695541	2559.057731
927.999533	2561.830365
928.303486	2563.678788
928.607400	2543.346135
928.911275	2574.601288
929.215110	2544.270346
929.518906	2555.192846
929.822663	2562.418500
930.126381	2562.418500
930.430060	2547.127000
930.733699	2545.866712
931.037299	2556.033038
931.340861	2571.072481
931.644383	2546.370827
931.947866	2550.571788
932.251309	2558.973712
932.554714	2569.140038
932.858080	2557.545385
933.161407	2558.385577
933.464694	2559.561846
933.767943	2563.510750
934.071153	2563.678788
934.374323	2579.306365
934.677455	2556.957250
934.980548	2544.942500
935.283602	2550.907865
935.586617	2569.644154
935.889593	2538.977135
936.192530	2546.538865
936.495428	2554.268635
936.798287	2554.184615
937.101108	2551.159923
937.403890	2566.535442
937.706632	2563.426731
938.009336	2548.891404
938.312002	2558.553615
938.614628	2557.629404
938.917216	2558.721654
939.219765	2565.191135
939.522275	2556.957250
939.824747	2557.629404
940.127179	2562.586538
940.429573	2555.949019
940.731929	2559.309788
941.034246	2549.395519
941.336524	2569.980231
941.638763	2556.957250
941.940964	2564.266923
942.243126	2553.764519
942.545250	2563.174673
942.847335	2577.037846
943.149381	2565.527212
943.451389	2559.477827
943.753359	2568.047788
944.055290	2566.787500
944.357182	2546.622885
944.659036	2553.596481
944.960851	2551.411981
945.262628	2565.023096
945.564367	2566.367404
945.866067	2559.477827
946.167729	2544.438385
946.469352	2543.346135
946.770937	2557.965481
947.072484	2556.705192
947.373992	2550.823846
947.675462	2560.149981
947.976893	2561.830365
948.278286	2547.967192
948.579641	2552.756288
948.880958	2558.301558
949.182236	2563.594769
949.483476	2558.721654
949.784678	2556.201077
950.085841	2571.828654
950.386967	2558.301558
950.688054	2558.301558
950.989103	2572.080712
951.290114	2570.316308
951.591087	2559.309788
951.892021	2552.588250
952.192917	2554.016577
952.493776	2556.873231
952.794596	2569.728173
953.095378	2563.594769
953.396122	2548.303269
953.696828	2549.311500
953.997496	2567.879750
954.298126	2562.922615
954.598718	2558.637635
954.899272	2557.209308
955.199788	2548.471308
955.500266	2554.352654
955.800706	2559.897923
956.101108	2562.838596
956.401472	2559.477827
956.701798	2563.762808
957.002087	2566.031327
957.302337	2557.965481
957.602550	2551.411981
957.902724	2552.588250
958.202861	2557.377346
958.502960	2569.140038
958.803022	2561.746346
959.103045	2576.617750
959.403031	2571.660615
959.702979	2557.377346
960.002889	2555.865000
960.302762	2566.367404
960.602596	2564.518981
960.902393	2561.914385
961.202153	2544.690442
961.501875	2552.756288
961.801559	2554.352654
962.101205	2556.957250
962.400814	2552.000115
962.700385	2561.326250
962.999918	2555.780981
963.299414	2555.528923
963.598873	2564.266923
963.898293	2566.451423
964.197677	2550.403750
964.497022	2572.668846
964.796331	2573.593058
965.095601	2564.350942
965.394835	2556.117058
965.694030	2550.907865
965.993189	2556.873231
966.292309	2557.377346
966.591393	2566.367404
966.890439	2548.723365
967.189447	2560.822135
967.488419	2545.782692
967.787353	2563.594769
968.086249	2556.705192
968.385108	2558.553615
968.683930	2553.344423
968.982714	2558.973712
969.281462	2552.252173
969.580172	2561.074192
969.878844	2556.537154
970.177480	2552.924327
970.476078	2559.309788
970.774639	2550.067673
971.073162	2557.713423
971.371649	2543.178096
971.670098	2555.192846
971.968510	2553.764519
972.266885	2559.225769
972.565223	2553.092365
972.863524	2551.748058
973.161788	2554.520692
973.460014	2553.596481
973.758204	2566.031327
974.056356	2570.400327
974.354471	2552.084135
974.652550	2551.075904
974.950591	2555.024808
975.248595	2576.197654
975.546563	2573.425019
975.844493	2544.354365
976.142386	2569.140038
976.440243	2557.629404
976.738062	2546.790923
977.035845	2569.560135
977.333590	2556.453135
977.631299	2563.006635
977.928971	2553.512462
978.226606	2559.813904
978.524204	2544.186327
978.821765	2546.034750
979.119290	2563.006635
979.416777	2551.832077
979.714228	2560.234000
980.011642	2552.672269
980.309020	2561.074192
980.606360	2562.838596
980.903664	2548.303269
981.200931	2555.024808
981.498162	2569.896212
981.795356	2566.535442
982.092513	2557.713423
982.389633	2572.248750
982.686717	2557.881462
982.983764	2565.611231
983.280775	2563.846827
983.577749	2553.428442
983.874686	2557.713423
984.171587	2572.752865
984.468451	2558.805673
984.765279	2557.545385
985.062070	2561.074192
985.358824	2545.194558
985.655543	2549.815615
985.952224	2554.100596
986.248869	2551.580019
986.545478	2552.756288
986.842050	2582.247038
987.138586	2562.166442
987.435086	2569.308077
987.731549	2555.528923
988.027975	2553.512462
988.324366	2544.186327
988.620719	2548.303269
988.917037	2548.639346
989.213318	2560.990173
989.509563	2559.057731
989.805772	2543.766231
990.101944	2559.309788
990.398080	2557.881462
990.694180	2565.779269
990.990244	2558.553615
991.286271	2574.349231
991.582262	2545.026519
991.878217	2562.586538
992.174136	2548.807385
992.470019	2545.362596
992.765865	2556.873231
993.061676	2560.318019
993.357450	2550.235712
993.653188	2568.972000
993.948890	2565.527212
994.244556	2554.016577
994.540186	2550.739827
994.835780	2549.395519
995.131337	2558.217538
995.426859	2573.509038
995.722345	2546.286808
996.017795	2562.418500
996.313208	2564.603000
996.608586	2547.295038
996.903928	2557.041269
997.199234	2566.619462
997.494504	2567.207596
997.789738	2563.426731
998.084936	2563.006635
998.380099	2548.639346
998.675225	2558.217538
998.970316	2564.939077
999.265371	2544.774462
999.560390	2570.904442
999.855373	2552.504231
1000.150320	2558.889692
1000.445232	2553.848538
1000.740108	2551.411981
1001.034948	2570.904442
1001.329752	2563.090654
1001.624521	2558.553615
1001.919254	2556.453135
1002.213951	2561.326250
1002.508613	2565.107115
1002.803239	2554.688731
1003.097829	2555.024808
1003.392384	2552.336192
1003.686903	2532.507654
1003.981386	2548.555327
1004.275834	2556.873231
1004.570246	2562.334481
1004.864623	2553.932558
1005.158964	2562.418500
1005.453270	2566.367404
1005.747540	2550.319731
1006.041775	2556.789212
1006.335974	2565.275154
1006.630138	2557.041269
1006.924266	2555.612942
1007.218359	2572.248750
1007.512416	2546.874942
1007.806438	2544.942500
1008.100425	2564.182904
1008.394376	2554.856769
1008.688292	2565.191135
1008.982172	2560.065962
1009.276017	2560.149981
1009.569827	2559.981942
1009.863602	2559.225769
1010.157341	2582.079000
1010.451045	2559.477827
1010.744714	2561.914385
1011.038347	2572.080712
1011.331945	2558.889692
1011.625508	2566.787500
1011.919036	2570.484346
1012.212528	2558.133519
1012.505986	2550.235712
1012.799408	2565.191135
1013.092795	2561.242231
1013.386147	2552.504231
1013.679464	2545.362596
1013.972745	2545.866712
1014.265992	2539.313212
1014.559204	2554.352654
1014.852380	2541.497712
1015.145521	2573.593058
1015.438628	2556.957250
1015.731699	2553.932558
1016.024736	2575.021385
1016.317737	2572.668846
1016.610703	2574.769327
1016.903635	2544.438385
1017.196531	2558.553615
1017.489393	2555.276865
1017.782219	2563.510750
1018.075011	2564.434962
1018.367768	2566.535442
1018.660490	2558.973712
1018.953177	2558.973712
1019.245829	2558.973712
