Dividing Wavelength (nm)	Counts (n)	Slit_number_0_of_a_total_of_40	
326.493990	2163.075096
326.888308	2163.075096
327.282561	2163.075096
327.676750	2126.358692
328.070874	2126.946827
328.464933	2136.945115
328.858929	2149.379962
329.252859	2170.552808
329.646726	2177.778462
330.040528	2193.490058
330.434265	2227.433827
330.827938	2234.323404
331.221547	2258.100846
331.615091	2261.041519
332.008571	2276.080962
332.401986	2308.428365
332.795338	2329.181115
333.188625	2360.268231
333.581847	2387.826538
333.975006	2386.986346
334.368100	2418.325519
334.761129	2415.552885
335.154095	2448.152346
335.546996	2452.773404
335.939833	2486.465115
336.332606	2473.274096
336.725315	2515.535769
337.117960	2517.132135
337.510540	2513.687346
337.903056	2524.021712
338.295508	2528.474731
338.687896	2528.390712
339.080220	2549.227481
339.472480	2553.932558
339.864676	2551.075904
340.256807	2546.622885
340.648875	2543.010058
341.040879	2561.326250
341.432818	2559.981942
341.824694	2563.762808
342.216506	2560.486058
342.608253	2556.369115
342.999937	2556.285096
343.391557	2574.517269
343.783113	2558.721654
344.174605	2557.881462
344.566033	2566.283385
344.957397	2547.211019
345.348697	2541.497712
345.739934	2552.924327
346.131106	2545.698673
346.522215	2541.329673
346.913260	2538.304981
347.304241	2543.346135
347.695159	2537.716846
348.086012	2525.197981
348.476802	2526.794346
348.867528	2525.534058
349.258191	2528.474731
349.648789	2530.995308
350.039324	2519.820750
350.429796	2521.501135
350.820203	2517.048115
351.210548	2528.390712
351.600828	2529.735019
351.991045	2523.181519
352.381198	2532.171577
352.771288	2519.316635
353.161314	2527.634538
353.551276	2529.062865
353.941175	2531.415404
354.331010	2538.641058
354.720782	2526.626308
355.110490	2524.945923
355.500135	2526.626308
355.889717	2520.913000
356.279235	2520.997019
356.668689	2535.532346
357.058080	2533.263827
357.447408	2523.517596
357.836672	2524.861904
358.225873	2526.794346
358.615010	2525.954154
359.004084	2531.751481
359.393095	2537.884885
359.782043	2537.716846
360.170927	2534.356077
360.559748	2525.366019
360.948505	2533.599904
361.337199	2533.515885
361.725830	2541.665750
362.114398	2522.341327
362.502903	2550.823846
362.891344	2538.304981
363.279722	2534.440096
363.668037	2532.423635
364.056289	2526.374250
364.444478	2547.127000
364.832603	2535.112250
365.220665	2539.229192
365.608665	2535.784404
365.996601	2521.753192
366.384474	2537.800865
366.772284	2553.764519
367.160031	2537.968904
367.547715	2535.364308
367.935336	2543.934269
368.322893	2532.003538
368.710388	2530.239135
369.097820	2529.398942
369.485189	2522.341327
369.872495	2542.926038
370.259738	2536.372538
370.646918	2549.311500
371.034035	2537.716846
371.421090	2540.573500
371.808081	2528.978846
372.195010	2546.370827
372.581875	2533.851962
372.968678	2552.588250
373.355418	2540.573500
373.742096	2538.473019
374.128710	2539.649288
374.515262	2548.051212
374.901751	2546.370827
375.288177	2533.179808
375.674540	2550.739827
376.060841	2546.202788
376.447079	2541.161635
376.833254	2540.489481
377.219367	2556.957250
377.605417	2547.211019
377.991404	2549.563558
378.377329	2550.571788
378.763191	2534.776173
379.148991	2545.194558
379.534727	2553.848538
379.920402	2549.143462
380.306013	2535.532346
380.691563	2543.010058
381.077049	2533.851962
381.462474	2550.739827
381.847835	2534.608135
382.233134	2552.756288
382.618371	2537.548808
383.003545	2560.318019
383.388657	2555.192846
383.773706	2547.715135
384.158693	2563.258692
384.543618	2559.729885
384.928480	2536.624596
385.313280	2551.327962
385.698017	2550.655808
386.082692	2547.967192
386.467305	2540.741538
386.851856	2535.532346
387.236344	2537.212731
387.620770	2545.782692
388.005133	2554.604712
388.389435	2540.489481
388.773674	2543.682212
389.157851	2543.178096
389.541965	2542.589962
389.926018	2551.580019
390.310008	2537.212731
390.693936	2546.706904
391.077802	2538.809096
391.461606	2549.983654
391.845348	2542.001827
392.229027	2555.612942
392.612645	2554.604712
392.996200	2552.000115
393.379694	2550.823846
393.763125	2543.430154
394.146494	2552.840308
394.529801	2556.117058
394.913047	2555.360885
395.296230	2565.779269
395.679351	2540.237423
396.062410	2550.655808
396.445408	2560.822135
396.828343	2544.522404
397.211217	2559.981942
397.594028	2556.033038
397.976778	2543.178096
398.359466	2567.459654
398.742092	2546.874942
399.124656	2565.359173
399.507158	2550.487769
399.889598	2550.319731
400.271977	2544.270346
400.654294	2551.832077
401.036549	2556.621173
401.418742	2544.858481
401.800874	2553.764519
402.182944	2545.530635
402.564952	2554.016577
402.946898	2561.998404
403.328783	2562.754577
403.710606	2550.319731
404.092367	2548.219250
404.474067	2549.479538
404.855705	2543.346135
405.237282	2544.522404
405.618797	2558.805673
406.000250	2559.141750
406.381642	2570.148269
406.762972	2554.940788
407.144240	2565.359173
407.525447	2548.807385
407.906593	2558.385577
408.287677	2552.588250
408.668700	2559.477827
409.049661	2555.192846
409.430560	2562.502519
409.811399	2561.998404
410.192176	2546.874942
410.572891	2576.533731
410.953545	2553.596481
411.334138	2549.311500
411.714669	2555.108827
412.095139	2556.873231
412.475547	2558.721654
412.855894	2560.402038
413.236180	2556.621173
413.616405	2573.004923
413.996568	2564.350942
414.376670	2551.327962
414.756711	2581.994981
415.136691	2564.771038
415.516609	2582.919192
415.896466	2557.881462
416.276262	2566.703481
416.655997	2567.291615
417.035670	2558.133519
417.415283	2570.148269
417.794834	2560.906154
418.174324	2568.131808
418.553753	2572.584827
418.933121	2575.441481
419.312428	2562.754577
419.691674	2575.609519
420.070859	2551.411981
420.449983	2572.080712
420.829045	2557.209308
421.208047	2551.748058
421.586988	2561.326250
421.965867	2567.963769
422.344686	2549.059442
422.723444	2551.580019
423.102141	2569.056019
423.480777	2581.994981
423.859352	2559.057731
424.237866	2576.281673
424.616319	2567.879750
424.994712	2567.123577
425.373044	2569.728173
425.751314	2553.092365
426.129524	2574.181192
426.507673	2554.604712
426.885762	2569.224058
427.263789	2563.510750
427.641756	2555.360885
428.019662	2570.652385
428.397508	2573.677077
428.775292	2573.088942
429.153016	2568.215827
429.530679	2570.652385
429.908282	2569.644154
430.285824	2565.947308
430.663305	2571.996692
431.040726	2540.909577
431.418086	2561.998404
431.795385	2541.917808
432.172624	2564.518981
432.549802	2560.402038
432.926920	2572.164731
433.303977	2565.275154
433.680974	2571.828654
434.057910	2588.800538
434.434786	2563.258692
434.811601	2560.906154
435.188355	2568.467885
435.565050	2564.182904
435.941683	2578.466173
436.318257	2579.978519
436.694770	2565.191135
437.071222	2556.285096
437.447614	2569.896212
437.823946	2568.467885
438.200218	2566.367404
438.576429	2568.215827
438.952580	2555.696962
439.328670	2560.065962
439.704700	2555.444904
440.080670	2551.327962
440.456580	2557.965481
440.832429	2584.347519
441.208218	2570.652385
441.583947	2569.224058
441.959616	2571.492577
442.335224	2551.159923
442.710773	2564.939077
443.086261	2557.713423
443.461689	2557.881462
443.837057	2567.375635
444.212365	2569.560135
444.587612	2563.006635
444.962800	2555.865000
445.337927	2576.365692
445.712995	2552.840308
446.088002	2570.904442
446.462949	2573.677077
446.837837	2576.365692
447.212664	2566.619462
447.587431	2556.117058
447.962139	2569.980231
448.336786	2562.922615
448.711374	2576.953827
449.085901	2568.299846
449.460369	2569.140038
449.834776	2583.423308
450.209124	2573.425019
450.583412	2564.434962
450.957640	2561.662327
451.331808	2575.861577
451.705917	2581.406846
452.079965	2576.953827
452.453954	2577.289904
452.827883	2547.715135
453.201752	2570.904442
453.575562	2571.744635
453.949311	2581.154788
454.323001	2570.736404
454.696632	2563.594769
455.070202	2576.029615
455.443713	2566.367404
455.817164	2566.367404
456.190556	2571.660615
456.563888	2573.677077
456.937160	2584.263500
457.310373	2571.996692
457.683526	2582.415077
458.056619	2560.486058
458.429653	2583.507327
458.802628	2564.266923
459.175542	2568.719942
459.548398	2583.339288
459.921194	2580.734692
460.293930	2560.906154
460.666607	2572.080712
461.039224	2576.449712
461.411782	2571.828654
461.784280	2574.853346
462.156719	2546.790923
462.529099	2556.537154
462.901419	2569.896212
463.273680	2565.863288
463.645882	2576.197654
464.018024	2569.392096
464.390106	2578.382154
464.762130	2567.879750
465.134094	2566.199365
465.505999	2598.546769
465.877845	2575.861577
466.249631	2577.289904
466.621358	2577.794019
466.993026	2560.906154
467.364634	2605.604385
467.736184	2569.140038
468.107674	2574.685308
468.479105	2558.973712
468.850477	2585.607808
469.221790	2570.232288
469.593043	2578.382154
469.964238	2575.441481
470.335373	2581.154788
470.706449	2568.299846
471.077467	2568.719942
471.448425	2580.650673
471.819324	2571.660615
472.190164	2575.357462
472.560945	2561.326250
472.931667	2564.350942
473.302330	2589.472692
473.672934	2582.751154
474.043479	2568.047788
474.413965	2572.668846
474.784393	2580.314596
475.154761	2566.619462
475.525070	2580.146558
475.895321	2581.994981
476.265513	2569.644154
476.635645	2565.527212
477.005719	2563.090654
477.375734	2573.256981
477.745691	2567.711712
478.115588	2570.232288
478.485427	2577.878038
478.855207	2576.701769
479.224928	2577.710000
479.594591	2574.853346
479.964194	2576.533731
480.333739	2572.920904
480.703226	2577.878038
481.072653	2577.962058
481.442022	2577.037846
481.811333	2576.617750
482.180584	2582.919192
482.549777	2581.070769
482.918912	2590.060827
483.287988	2568.215827
483.657005	2576.281673
484.025964	2571.660615
484.394864	2581.070769
484.763706	2588.296423
485.132489	2559.645865
485.501213	2585.691827
485.869879	2554.688731
486.238487	2577.457942
486.607036	2572.416788
486.975527	2593.589635
487.343959	2575.945596
487.712333	2579.726462
488.080648	2573.845115
488.448905	2577.794019
488.817104	2564.771038
489.185244	2584.179481
489.553326	2577.962058
489.921350	2575.945596
490.289315	2583.003212
490.657222	2579.054308
491.025070	2570.148269
491.392861	2576.785788
491.760593	2565.191135
492.128267	2587.036135
492.495883	2598.630788
492.863440	2587.876327
493.230939	2576.113635
493.598380	2586.700058
493.965763	2576.533731
494.333088	2588.632500
494.700354	2569.308077
495.067563	2574.097173
495.434713	2591.993269
495.801805	2565.527212
496.168839	2575.777558
496.535815	2574.181192
496.902733	2562.418500
497.269593	2572.752865
497.636395	2573.172962
498.003139	2575.945596
498.369825	2572.164731
498.736453	2562.838596
499.103023	2582.667135
499.469535	2579.726462
499.835989	2569.896212
500.202385	2583.003212
500.568723	2582.079000
500.935003	2573.172962
501.301226	2581.070769
501.667390	2577.373923
502.033497	2598.126673
502.399546	2573.929135
502.765537	2572.248750
503.131470	2596.110212
503.497345	2582.247038
503.863163	2582.331058
504.228923	2584.095462
504.594625	2575.021385
504.960269	2574.097173
505.325856	2585.775846
505.691385	2579.054308
506.056856	2583.843404
506.422270	2583.843404
506.787625	2593.421596
507.152924	2582.583115
507.518164	2581.406846
507.883347	2582.415077
508.248472	2586.111923
508.613540	2587.960346
508.978550	2577.121865
509.343503	2580.818712
509.708398	2572.332769
510.073236	2575.105404
510.438016	2591.237096
510.802738	2596.110212
511.167403	2578.550192
511.532010	2585.019673
511.896561	2570.652385
512.261053	2584.179481
512.625488	2582.583115
512.989866	2557.041269
513.354186	2586.616038
513.718449	2590.648962
514.082655	2585.775846
514.446803	2575.441481
514.810894	2575.105404
515.174927	2599.807058
515.538904	2578.802250
515.902822	2601.655481
516.266684	2577.541962
516.630488	2590.480923
516.994235	2589.724750
517.357925	2579.306365
517.721558	2585.439769
518.085133	2580.902731
518.448651	2595.186000
518.812112	2557.461365
519.175516	2584.347519
519.538863	2577.037846
519.902152	2579.306365
520.265385	2578.130096
520.628560	2586.700058
520.991678	2563.258692
521.354739	2577.794019
521.717743	2576.197654
522.080690	2588.632500
522.443580	2579.642442
522.806413	2585.691827
523.169189	2584.683596
523.531908	2583.927423
523.894569	2601.907538
524.257174	2579.810481
524.619722	2583.339288
524.982213	2574.181192
525.344647	2574.769327
525.707025	2585.775846
526.069345	2570.232288
526.431608	2583.003212
526.793815	2586.027904
527.155964	2573.425019
527.518057	2579.222346
527.880093	2567.291615
528.242072	2575.693538
528.603995	2576.785788
528.965860	2587.876327
529.327669	2578.214115
529.689421	2589.388673
530.051117	2591.657192
530.412755	2583.759385
530.774337	2571.912673
531.135862	2567.039558
531.497331	2571.072481
531.858743	2578.634212
532.220098	2581.070769
532.581396	2573.929135
532.942638	2582.919192
533.303824	2590.144846
533.664953	2576.113635
534.026025	2596.614327
534.387040	2580.230577
534.747999	2580.146558
535.108902	2597.370500
535.469748	2581.154788
535.830537	2573.929135
536.191270	2581.490865
536.551947	2584.851635
536.912567	2584.683596
537.273131	2583.591346
537.633638	2574.349231
537.994089	2584.683596
538.354483	2593.337577
538.714821	2574.349231
539.075103	2572.920904
539.435328	2572.416788
539.795497	2579.222346
540.155609	2570.232288
540.515665	2594.345808
540.875665	2585.019673
541.235609	2587.960346
541.595496	2578.046077
541.955328	2575.441481
542.315102	2574.685308
542.674821	2579.558423
543.034483	2568.719942
543.394090	2576.617750
543.753640	2576.029615
544.113134	2574.433250
544.472571	2579.558423
544.831953	2595.858154
545.191278	2575.609519
545.550548	2590.564942
545.909761	2574.349231
546.268918	2586.616038
546.628019	2582.079000
546.987064	2570.316308
547.346053	2602.327635
547.704986	2598.714808
548.063863	2581.742923
548.422684	2594.597865
548.781449	2590.732981
549.140158	2583.171250
549.498811	2578.886269
549.857408	2579.054308
550.215949	2585.775846
550.574434	2574.349231
550.932864	2582.079000
551.291237	2583.339288
551.649555	2595.690115
552.007817	2588.968577
552.366022	2591.909250
552.724173	2571.492577
553.082267	2586.111923
553.440305	2589.388673
553.798288	2574.349231
554.156215	2584.683596
554.514086	2582.163019
554.871902	2580.062538
555.229661	2578.802250
555.587365	2577.541962
555.945014	2604.428115
556.302606	2578.550192
556.660143	2579.306365
557.017625	2572.920904
557.375050	2594.261788
557.732421	2576.281673
558.089735	2586.363981
558.446994	2579.726462
558.804197	2563.930846
559.161345	2591.405135
559.518437	2584.095462
559.875474	2598.546769
560.232455	2583.255269
560.589381	2582.919192
560.946251	2596.026192
561.303065	2582.247038
561.659825	2590.144846
562.016528	2587.540250
562.373177	2580.230577
562.729770	2574.853346
563.086307	2585.775846
563.442789	2597.622558
563.799216	2587.120154
564.155587	2573.593058
564.511904	2571.072481
564.868164	2576.785788
565.224370	2580.818712
565.580520	2579.054308
565.936615	2576.197654
566.292654	2595.774135
566.648638	2589.892788
567.004567	2586.279962
567.360441	2596.362269
567.716260	2582.415077
568.072023	2574.769327
568.427732	2579.390385
568.783385	2584.263500
569.138982	2593.001500
569.494525	2572.836885
569.850013	2564.350942
570.205445	2587.960346
570.560823	2573.004923
570.916145	2583.171250
571.271412	2595.270019
571.626625	2592.161308
571.981782	2582.499096
572.336884	2584.263500
572.691931	2578.466173
573.046923	2574.349231
573.401860	2592.581404
573.756743	2594.429827
574.111570	2579.222346
574.466342	2587.876327
574.821059	2578.382154
575.175722	2585.355750
575.530330	2593.757673
575.884882	2579.474404
576.239380	2580.566654
576.593823	2579.894500
576.948211	2580.818712
577.302544	2577.037846
577.656823	2590.060827
578.011047	2588.632500
578.365216	2571.996692
578.719330	2572.836885
579.073389	2570.904442
579.427394	2592.161308
579.781344	2579.726462
580.135239	2574.937365
580.489080	2578.802250
580.842866	2579.978519
581.196597	2579.474404
581.550273	2581.070769
581.903895	2579.726462
582.257463	2578.718231
582.610975	2578.802250
582.964434	2585.691827
583.317837	2601.235385
583.671186	2577.962058
584.024481	2596.110212
584.377721	2579.978519
584.730906	2587.288192
585.084037	2588.800538
585.437113	2587.204173
585.790135	2580.146558
586.143103	2572.836885
586.496016	2577.121865
586.848874	2588.548481
587.201679	2585.271731
587.554428	2582.751154
587.907124	2579.726462
588.259765	2577.289904
588.612352	2576.113635
588.964884	2589.472692
589.317362	2589.892788
589.669786	2575.441481
590.022155	2590.228865
590.374470	2585.859865
590.726731	2574.265212
591.078937	2572.668846
591.431090	2579.726462
591.783188	2581.742923
592.135232	2584.515558
592.487222	2592.581404
592.839157	2588.548481
593.191038	2585.439769
593.542866	2582.835173
593.894639	2586.952115
594.246358	2584.935654
594.598022	2577.710000
594.949633	2577.541962
595.301190	2573.088942
595.652692	2602.663712
596.004141	2580.650673
596.355535	2581.826942
596.706876	2593.337577
597.058162	2594.513846
597.409395	2584.767615
597.760573	2582.499096
598.111698	2584.935654
598.462768	2580.902731
598.813785	2576.953827
599.164748	2580.482635
599.515657	2579.810481
599.866511	2589.220635
600.217312	2571.912673
600.568060	2587.372212
600.918753	2587.204173
601.269392	2589.640731
601.619978	2583.843404
601.970510	2577.037846
602.320988	2585.523788
602.671412	2578.046077
603.021783	2579.642442
603.372100	2577.794019
603.722363	2581.826942
604.072572	2587.120154
604.422728	2594.429827
604.772830	2586.363981
605.122878	2602.663712
605.472872	2584.179481
605.822813	2589.976808
606.172701	2581.406846
606.522534	2579.222346
606.872314	2571.408558
607.222041	2588.548481
607.571714	2579.558423
607.921333	2586.448000
608.270899	2577.710000
608.620411	2574.517269
608.969870	2581.154788
609.319276	2579.726462
609.668627	2583.675365
610.017926	2591.405135
610.367171	2594.093750
610.716362	2574.937365
611.065500	2581.070769
611.414585	2591.573173
611.763616	2598.294712
612.112594	2569.644154
612.461518	2581.910962
612.810389	2580.146558
613.159207	2586.448000
613.507971	2576.449712
613.856682	2577.625981
614.205340	2579.978519
614.553945	2582.331058
614.902496	2594.261788
615.250994	2588.968577
615.599439	2591.573173
615.947830	2585.355750
616.296169	2594.345808
616.644454	2589.892788
616.992686	2582.247038
617.340864	2585.187712
617.688990	2593.001500
618.037063	2588.044365
618.385082	2582.079000
618.733048	2590.228865
619.080961	2589.136615
619.428821	2598.378731
619.776628	2563.258692
620.124382	2584.011442
620.472083	2585.943885
620.819731	2584.431538
621.167326	2576.281673
621.514868	2585.775846
621.862357	2576.785788
622.209793	2580.062538
622.557176	2597.034423
622.904506	2559.309788
623.251783	2587.960346
623.599007	2571.828654
623.946179	2595.017962
624.293297	2575.189423
624.640363	2595.942173
624.987376	2589.220635
625.334336	2571.072481
625.681243	2566.871519
626.028097	2574.097173
626.374899	2574.601288
626.721647	2567.039558
627.068343	2577.878038
627.414987	2578.130096
627.761577	2581.154788
628.108115	2572.836885
628.454600	2586.111923
628.801032	2587.624269
629.147412	2576.701769
629.493739	2577.457942
629.840014	2573.593058
630.186236	2589.640731
630.532405	2577.710000
630.878521	2582.079000
631.224585	2594.009731
631.570597	2590.060827
631.916556	2590.312885
632.262462	2578.466173
632.608316	2587.708288
632.954117	2581.658904
633.299866	2566.955538
633.645562	2598.210692
633.991206	2584.263500
634.336797	2589.472692
634.682336	2576.785788
635.027823	2580.230577
635.373257	2579.894500
635.718639	2571.324538
636.063968	2587.876327
636.409245	2580.986750
636.754470	2596.362269
637.099642	2588.044365
637.444762	2586.363981
637.789829	2587.288192
638.134845	2584.515558
638.479808	2583.003212
638.824719	2583.591346
639.169577	2590.732981
639.514383	2585.775846
639.859137	2584.179481
640.203839	2590.985038
640.548489	2583.003212
640.893086	2585.691827
641.237632	2589.556712
641.582125	2588.380442
641.926566	2581.574885
642.270955	2571.072481
642.615292	2588.128385
642.959576	2593.673654
643.303809	2582.499096
643.647990	2587.708288
643.992118	2578.802250
644.336195	2591.657192
644.680219	2589.808769
645.024192	2578.046077
645.368112	2580.734692
645.711981	2580.566654
646.055797	2586.111923
646.399562	2576.701769
646.743274	2574.349231
647.086935	2593.085519
647.430544	2586.195942
647.774101	2585.523788
648.117606	2572.080712
648.461059	2590.312885
648.804460	2602.327635
649.147810	2573.845115
649.491108	2567.039558
649.834354	2577.878038
650.177548	2583.507327
650.520690	2591.657192
650.863781	2596.362269
651.206820	2585.355750
651.549807	2579.978519
651.892742	2586.027904
652.235626	2588.380442
652.578458	2590.396904
652.921238	2589.976808
653.263967	2576.869808
653.606644	2574.517269
653.949269	2583.927423
654.291843	2567.123577
654.634365	2580.314596
654.976836	2596.782365
655.319255	2569.560135
655.661622	2585.607808
656.003938	2573.761096
656.346203	2590.480923
656.688416	2581.994981
657.030577	2578.466173
657.372687	2583.339288
657.714746	2582.835173
658.056753	2586.532019
658.398708	2589.136615
658.740612	2578.718231
659.082465	2583.339288
659.424266	2590.228865
659.766016	2595.017962
660.107715	2582.919192
660.449362	2572.416788
660.790958	2583.171250
661.132503	2584.683596
661.473996	2582.247038
661.815438	2573.677077
662.156829	2585.859865
662.498168	2585.859865
662.839456	2575.945596
663.180693	2576.953827
663.521879	2588.296423
663.863013	2577.457942
664.204097	2578.802250
664.545129	2583.423308
664.886110	2590.564942
665.227040	2587.120154
665.567918	2605.604385
665.908746	2582.835173
666.249522	2583.507327
666.590248	2580.734692
666.930922	2604.848212
667.271545	2578.550192
667.612118	2585.523788
667.952639	2589.136615
668.293109	2572.752865
668.633528	2574.433250
668.973896	2578.802250
669.314213	2588.380442
669.654480	2585.607808
669.994695	2567.543673
670.334859	2595.101981
670.674973	2571.660615
671.015035	2594.093750
671.355047	2566.283385
671.695008	2564.434962
672.034918	2589.976808
672.374777	2597.706577
672.714585	2573.425019
673.054342	2580.566654
673.394049	2580.062538
673.733705	2589.052596
674.073310	2583.759385
674.412864	2585.943885
674.752368	2588.212404
675.091820	2590.396904
675.431223	2586.027904
675.770574	2580.818712
676.109875	2585.271731
676.449125	2595.101981
676.788324	2576.365692
677.127473	2589.388673
677.466571	2574.853346
677.805619	2580.230577
678.144616	2559.729885
678.483562	2586.279962
678.822458	2585.523788
679.161303	2591.657192
679.500098	2595.606096
679.838842	2577.710000
680.177535	2586.700058
680.516179	2570.820423
680.854771	2581.574885
681.193314	2576.869808
681.531805	2568.972000
681.870247	2593.337577
682.208638	2578.718231
682.546978	2573.256981
682.885268	2575.777558
683.223508	2564.266923
683.561697	2588.044365
683.899836	2568.972000
684.237925	2568.215827
684.575963	2587.708288
684.913951	2587.876327
685.251889	2578.550192
685.589776	2581.994981
685.927614	2570.988462
686.265401	2596.278250
686.603137	2592.665423
686.940824	2569.056019
687.278460	2598.630788
687.616046	2578.634212
687.953582	2572.248750
688.291068	2579.054308
688.628504	2579.306365
688.965889	2579.390385
689.303224	2585.271731
689.640510	2586.448000
689.977745	2574.433250
690.314930	2582.667135
690.652065	2582.919192
690.989150	2585.943885
691.326185	2601.487442
691.663170	2579.978519
692.000105	2585.943885
692.336990	2571.072481
692.673825	2585.859865
693.010610	2587.120154
693.347345	2569.392096
693.684030	2577.962058
694.020665	2578.130096
694.357251	2590.228865
694.693786	2565.443192
695.030272	2584.683596
695.366707	2583.087231
695.703093	2581.154788
696.039429	2569.812192
696.375716	2577.962058
696.711952	2575.357462
697.048139	2583.843404
697.384276	2575.945596
697.720363	2583.843404
698.056400	2569.308077
698.392388	2589.388673
698.728326	2602.579692
699.064214	2590.901019
699.400053	2578.718231
699.735842	2588.296423
700.071581	2578.718231
700.407270	2567.963769
700.742910	2576.365692
701.078501	2565.779269
701.414042	2570.064250
701.749533	2585.607808
702.084974	2578.130096
702.420366	2571.996692
702.755709	2581.658904
703.091002	2577.289904
703.426246	2579.810481
703.761440	2587.708288
704.096584	2588.380442
704.431679	2586.027904
704.766725	2580.062538
705.101721	2577.625981
705.436668	2569.728173
705.771565	2577.373923
706.106413	2590.228865
706.441212	2592.917481
706.775961	2579.810481
707.110661	2572.668846
707.445311	2581.994981
707.779913	2578.550192
708.114465	2573.172962
708.448967	2586.784077
708.783421	2569.560135
709.117825	2587.456231
709.452180	2569.392096
709.786485	2591.069058
710.120742	2582.331058
710.454949	2592.497385
710.789107	2585.019673
711.123216	2589.472692
711.457275	2578.214115
711.791286	2575.693538
712.125247	2579.642442
712.459159	2572.668846
712.793023	2562.082423
713.126837	2564.771038
713.460602	2564.939077
713.794318	2584.263500
714.127985	2576.281673
714.461602	2585.355750
714.795171	2577.037846
715.128691	2585.691827
715.462162	2552.336192
715.795584	2592.917481
716.128957	2563.846827
716.462281	2573.509038
716.795556	2591.573173
717.128782	2572.668846
717.461960	2559.309788
717.795088	2579.306365
718.128167	2578.550192
718.461198	2583.675365
718.794180	2576.197654
719.127113	2582.667135
719.459997	2580.482635
719.792833	2574.013154
720.125619	2575.189423
720.458357	2572.080712
720.791046	2569.308077
721.123686	2576.029615
721.456278	2573.256981
721.788821	2570.736404
722.121315	2573.341000
722.453761	2570.820423
722.786158	2586.195942
723.118506	2588.380442
723.450805	2574.517269
723.783056	2578.886269
724.115259	2575.861577
724.447412	2579.138327
724.779518	2581.154788
725.111574	2571.324538
725.443582	2583.423308
725.775542	2575.861577
726.107453	2589.892788
726.439315	2583.843404
726.771129	2616.862962
727.102895	2591.153077
727.434612	2585.691827
727.766281	2583.087231
728.097901	2555.528923
728.429473	2591.489154
728.760996	2568.803962
729.092471	2567.207596
729.423897	2574.517269
729.755276	2571.072481
730.086606	2576.869808
730.417887	2593.421596
730.749120	2553.848538
731.080305	2580.314596
731.411442	2577.289904
731.742530	2583.507327
732.073570	2581.658904
732.404562	2578.886269
732.735506	2584.347519
733.066401	2580.986750
733.397249	2591.573173
733.728048	2571.072481
734.058798	2575.525500
734.389501	2581.322827
734.720156	2573.509038
735.050762	2583.087231
735.381320	2574.013154
735.711831	2568.383865
736.042293	2561.746346
736.372707	2584.683596
736.703073	2575.021385
737.033391	2585.187712
737.363661	2577.625981
737.693883	2589.220635
738.024056	2580.818712
738.354182	2576.449712
738.684260	2570.652385
739.014290	2565.863288
739.344272	2577.710000
739.674207	2590.228865
740.004093	2583.591346
740.333931	2578.214115
740.663722	2578.802250
740.993464	2579.726462
741.323159	2580.146558
741.652806	2586.616038
741.982405	2577.289904
742.311956	2574.349231
742.641460	2572.920904
742.970915	2590.060827
743.300323	2571.324538
743.629683	2572.080712
743.958996	2562.334481
744.288260	2576.617750
744.617477	2576.533731
744.946647	2582.163019
745.275768	2589.808769
745.604842	2586.111923
745.933869	2579.474404
746.262847	2572.836885
746.591778	2584.683596
746.920662	2593.589635
747.249498	2566.367404
747.578286	2584.095462
747.907027	2573.677077
748.235720	2581.238808
748.564365	2580.146558
748.892963	2587.036135
749.221514	2578.802250
749.550017	2576.449712
749.878473	2584.515558
750.206881	2598.882846
750.535242	2555.024808
750.863555	2565.443192
751.191821	2586.279962
751.520039	2580.818712
751.848210	2575.105404
752.176334	2590.648962
752.504411	2579.306365
752.832440	2577.878038
753.160421	2573.004923
753.488356	2583.087231
753.816243	2576.617750
754.144082	2579.726462
754.471875	2585.019673
754.799620	2567.375635
755.127318	2577.625981
755.454969	2588.884558
755.782572	2586.027904
756.110129	2577.625981
756.437638	2574.937365
756.765100	2585.943885
757.092515	2572.332769
757.419882	2574.937365
757.747203	2572.584827
758.074477	2575.273442
758.401703	2577.541962
758.728882	2577.625981
759.056014	2579.642442
759.383099	2586.111923
759.710138	2566.619462
760.037129	2568.215827
760.364073	2573.845115
760.690970	2580.986750
761.017820	2570.736404
761.344623	2579.726462
761.671379	2586.532019
761.998088	2582.415077
762.324751	2582.499096
762.651366	2563.426731
762.977935	2585.775846
763.304456	2570.484346
763.630931	2576.701769
763.957359	2587.372212
764.283740	2573.761096
764.610074	2592.665423
764.936362	2575.441481
765.262602	2578.970288
765.588796	2579.306365
765.914943	2585.271731
766.241044	2569.812192
766.567097	2586.784077
766.893104	2583.171250
767.219064	2570.652385
767.544978	2581.238808
767.870845	2574.769327
768.196665	2562.922615
768.522438	2593.337577
768.848165	2578.046077
769.173846	2574.937365
769.499479	2590.732981
769.825066	2594.429827
770.150607	2581.070769
770.476101	2584.179481
770.801548	2570.148269
771.126949	2580.146558
771.452303	2574.097173
771.777611	2573.509038
772.102872	2575.021385
772.428087	2590.985038
772.753256	2587.372212
773.078378	2587.876327
773.403453	2579.642442
773.728482	2585.355750
774.053465	2585.859865
774.378401	2580.734692
774.703291	2581.070769
775.028135	2583.087231
775.352932	2596.866385
775.677683	2571.660615
776.002388	2575.945596
776.327046	2576.449712
776.651658	2567.375635
776.976224	2584.683596
777.300743	2580.314596
777.625216	2578.550192
777.949643	2583.675365
778.274024	2563.678788
778.598359	2582.247038
778.922647	2576.365692
779.246889	2591.909250
779.571086	2584.179481
779.895236	2588.716519
780.219339	2574.097173
780.543397	2587.372212
780.867409	2580.230577
781.191374	2573.172962
781.515294	2581.994981
781.839167	2582.667135
782.162995	2581.826942
782.486776	2578.046077
782.810511	2565.443192
783.134201	2563.510750
783.457844	2566.703481
783.781441	2585.187712
784.104993	2580.062538
784.428498	2579.558423
784.751958	2582.835173
785.075372	2575.021385
785.398739	2569.140038
785.722061	2575.021385
786.045337	2585.187712
786.368568	2591.321115
786.691752	2572.080712
787.014891	2578.466173
787.337983	2585.775846
787.661030	2558.889692
787.984031	2573.929135
788.306987	2587.372212
788.629897	2577.541962
788.952760	2562.838596
789.275579	2579.978519
789.598351	2587.708288
789.921078	2585.859865
790.243759	2556.033038
790.566395	2579.306365
790.888984	2571.072481
791.211529	2575.609519
791.534027	2579.642442
791.856480	2568.467885
792.178888	2561.914385
792.501249	2578.046077
792.823566	2590.228865
793.145836	2565.695250
793.468062	2586.111923
793.790241	2571.912673
794.112375	2576.869808
794.434464	2580.734692
794.756507	2573.425019
795.078505	2577.878038
795.400457	2584.851635
795.722364	2584.935654
796.044226	2580.230577
796.366042	2579.726462
796.687812	2572.416788
797.009538	2580.566654
797.331218	2576.953827
797.652852	2592.329346
797.974442	2576.029615
798.295986	2563.846827
798.617484	2575.021385
798.938938	2577.794019
799.260346	2570.232288
799.581709	2582.163019
799.903026	2571.072481
800.224299	2584.179481
800.545526	2566.451423
800.866708	2575.357462
801.187845	2567.543673
801.508936	2583.423308
801.829983	2565.611231
802.150984	2575.357462
802.471940	2592.917481
802.792851	2570.568365
803.113717	2575.357462
803.434538	2575.105404
803.755314	2585.691827
804.076045	2597.706577
804.396731	2573.256981
804.717372	2581.658904
805.037967	2578.046077
805.358518	2575.021385
805.679024	2574.349231
805.999485	2588.212404
806.319901	2578.382154
806.640272	2566.703481
806.960598	2576.197654
807.280879	2586.111923
807.601115	2572.752865
807.921306	2571.408558
808.241453	2582.751154
808.561554	2568.803962
808.881611	2581.574885
809.201623	2579.474404
809.521590	2587.204173
809.841513	2581.490865
810.161390	2576.533731
810.481223	2588.800538
810.801011	2581.742923
811.120755	2581.406846
811.440453	2589.808769
811.760107	2579.726462
812.079716	2568.467885
812.399281	2589.220635
812.718801	2564.350942
813.038276	2574.265212
813.357707	2555.360885
813.677093	2576.617750
813.996434	2587.036135
814.315731	2576.533731
814.634983	2579.894500
814.954191	2560.654096
815.273354	2565.779269
815.592473	2574.433250
815.911547	2570.064250
816.230577	2587.204173
816.549562	2576.785788
816.868502	2574.433250
817.187399	2574.601288
817.506250	2589.724750
817.825058	2569.224058
818.143821	2581.742923
818.462539	2566.451423
818.781213	2579.558423
819.099843	2578.382154
819.418429	2593.757673
819.736970	2582.835173
820.055466	2597.790596
820.373919	2591.405135
820.692327	2573.677077
821.010691	2581.238808
821.329011	2592.329346
821.647286	2577.962058
821.965517	2566.115346
822.283704	2568.299846
822.601847	2568.887981
822.919945	2581.742923
823.237999	2586.532019
823.556010	2567.123577
823.873976	2563.426731
824.191897	2582.079000
824.509775	2573.845115
824.827609	2578.214115
825.145398	2578.802250
825.463144	2577.794019
825.780845	2584.851635
826.098502	2576.701769
826.416116	2566.367404
826.733685	2579.978519
827.051210	2575.105404
827.368692	2569.644154
827.686129	2587.540250
828.003522	2563.678788
828.320872	2582.667135
828.638177	2571.408558
828.955439	2576.533731
829.272656	2571.324538
829.589830	2580.062538
829.906960	2577.373923
830.224046	2565.695250
830.541088	2557.461365
830.858086	2567.963769
831.175041	2585.523788
831.491952	2577.541962
831.808819	2578.046077
832.125642	2583.507327
832.442421	2583.507327
832.759157	2585.019673
833.075849	2590.901019
833.392497	2589.136615
833.709101	2566.451423
834.025662	2563.006635
834.342179	2563.846827
834.658653	2555.696962
834.975083	2555.696962
835.291469	2590.564942
835.607811	2572.500808
835.924110	2579.474404
836.240366	2585.691827
836.556578	2574.937365
836.872746	2571.324538
837.188871	2568.215827
837.504952	2582.331058
837.820990	2570.148269
838.136984	2590.985038
838.452935	2569.056019
838.768842	2577.541962
839.084706	2561.914385
839.400526	2591.405135
839.716303	2567.375635
840.032037	2574.685308
840.347727	2582.667135
840.663373	2577.962058
840.978977	2571.324538
841.294537	2572.584827
841.610054	2576.197654
841.925527	2574.937365
842.240957	2586.784077
842.556344	2578.550192
842.871687	2570.904442
843.186987	2580.902731
843.502244	2582.499096
843.817458	2587.372212
844.132629	2580.398615
844.447756	2581.574885
844.762840	2569.140038
845.077881	2576.617750
845.392879	2580.398615
845.707833	2571.660615
846.022745	2582.079000
846.337613	2571.660615
846.652438	2576.953827
846.967221	2588.632500
847.281960	2575.693538
847.596656	2565.947308
847.911309	2581.406846
848.225919	2563.258692
848.540485	2581.490865
848.855009	2581.490865
849.169490	2570.568365
849.483928	2561.914385
849.798323	2560.065962
850.112675	2559.057731
850.426984	2579.306365
850.741251	2570.484346
851.055474	2573.172962
851.369654	2589.220635
851.683792	2579.474404
851.997887	2567.879750
852.311938	2574.853346
852.625947	2570.988462
852.939914	2564.182904
853.253837	2592.329346
853.567718	2569.224058
853.881555	2569.812192
854.195350	2555.192846
854.509103	2573.256981
854.822812	2571.492577
855.136479	2565.779269
855.450103	2574.601288
855.763685	2559.141750
856.077224	2575.441481
856.390720	2561.494288
856.704173	2570.568365
857.017584	2569.392096
857.330953	2575.273442
857.644278	2582.583115
857.957561	2590.312885
858.270802	2591.489154
858.584000	2582.331058
858.897155	2580.986750
859.210268	2579.306365
859.523339	2576.113635
859.836367	2575.189423
860.149352	2572.164731
860.462295	2572.080712
860.775195	2565.695250
861.088054	2585.943885
861.400869	2578.382154
861.713642	2580.902731
862.026373	2570.316308
862.339062	2570.148269
862.651708	2576.113635
862.964312	2582.331058
863.276873	2568.131808
863.589392	2578.550192
863.901869	2572.500808
864.214303	2569.644154
864.526696	2572.416788
864.839045	2583.339288
865.151353	2571.912673
865.463619	2576.449712
865.775842	2576.617750
866.088023	2588.212404
866.400162	2586.952115
866.712258	2566.367404
867.024313	2558.469596
867.336325	2578.214115
867.648296	2566.199365
867.960224	2587.792308
868.272110	2578.298135
868.583954	2582.331058
868.895755	2575.861577
869.207515	2584.095462
869.519233	2556.957250
869.830909	2572.752865
870.142542	2574.685308
870.454134	2573.088942
870.765684	2587.708288
871.077191	2586.279962
871.388657	2566.703481
871.700081	2579.642442
872.011463	2574.937365
872.322803	2574.853346
872.634101	2583.927423
872.945357	2569.308077
873.256571	2582.499096
873.567744	2577.037846
873.878874	2565.779269
874.189963	2574.685308
874.501010	2584.767615
874.812015	2579.810481
875.122979	2564.687019
875.433900	2581.406846
875.744780	2581.238808
876.055618	2566.535442
876.366415	2579.894500
876.677169	2577.625981
876.987882	2560.570077
877.298554	2565.107115
877.609183	2568.467885
877.919771	2566.955538
878.230317	2581.238808
878.540822	2584.095462
878.851285	2564.518981
879.161707	2573.593058
879.472087	2561.326250
879.782425	2596.614327
880.092722	2583.843404
880.402977	2562.754577
880.713191	2561.410269
881.023363	2567.711712
881.333494	2563.594769
881.643583	2585.859865
881.953631	2587.372212
882.263637	2569.980231
882.573602	2566.871519
882.883526	2571.324538
883.193408	2585.271731
883.503248	2565.527212
883.813048	2563.342712
884.122806	2572.836885
884.432522	2588.044365
884.742197	2580.062538
885.051831	2567.963769
885.361424	2558.721654
885.670975	2571.912673
885.980485	2562.838596
886.289954	2573.593058
886.599382	2570.316308
886.908768	2569.644154
887.218113	2559.309788
887.527417	2580.146558
887.836680	2592.833462
888.145901	2575.189423
888.455082	2576.281673
888.764221	2564.098885
889.073319	2570.652385
889.382376	2569.308077
889.691392	2583.675365
890.000366	2569.644154
890.309300	2576.533731
890.618193	2582.499096
890.927044	2587.288192
891.235855	2586.616038
891.544625	2576.113635
891.853353	2565.779269
892.162041	2581.658904
892.470687	2587.372212
892.779293	2579.642442
893.087858	2586.195942
893.396381	2576.281673
893.704864	2573.761096
894.013306	2575.525500
894.321707	2583.675365
894.630068	2569.980231
894.938387	2573.761096
895.246665	2573.341000
895.554903	2583.255269
895.863100	2574.685308
896.171256	2566.199365
896.479371	2573.929135
896.787446	2573.172962
897.095480	2574.853346
897.403473	2576.533731
897.711425	2588.128385
898.019336	2581.070769
898.327207	2579.054308
898.635038	2564.939077
898.942827	2575.441481
899.250576	2571.996692
899.558284	2572.752865
899.865952	2572.668846
900.173579	2572.164731
900.481165	2582.415077
900.788711	2565.863288
901.096216	2574.349231
901.403681	2578.298135
901.711105	2584.851635
902.018489	2574.937365
902.325832	2567.123577
902.633135	2564.182904
902.940397	2577.625981
903.247619	2575.777558
903.554800	2573.004923
903.861941	2566.703481
904.169041	2575.609519
904.476101	2597.706577
904.783121	2588.632500
905.090100	2587.960346
905.397039	2569.476115
905.703938	2583.003212
906.010796	2576.365692
906.317614	2572.080712
906.624391	2576.281673
906.931129	2571.324538
907.237826	2576.449712
907.544483	2581.322827
907.851099	2559.225769
908.157675	2577.121865
908.464211	2558.889692
908.770707	2570.400327
909.077163	2576.785788
909.383578	2577.373923
909.689954	2568.635923
909.996289	2561.494288
910.302584	2565.191135
910.608839	2581.238808
910.915054	2574.853346
911.221229	2572.332769
911.527363	2574.097173
911.833458	2562.334481
912.139513	2574.685308
912.445527	2577.121865
912.751502	2575.189423
913.057436	2569.392096
913.363331	2582.751154
913.669186	2560.234000
913.975000	2570.148269
914.280775	2588.800538
914.586510	2569.308077
914.892205	2572.164731
915.197859	2575.609519
915.503475	2559.141750
915.809050	2582.079000
916.114585	2577.037846
916.420081	2563.510750
916.725536	2570.148269
917.030952	2574.265212
917.336328	2569.812192
917.641665	2553.428442
917.946961	2564.518981
918.252218	2565.863288
918.557435	2572.248750
918.862612	2571.492577
919.167750	2582.079000
919.472848	2570.400327
919.777906	2565.527212
920.082925	2561.158212
920.387904	2565.611231
920.692843	2572.584827
920.997743	2571.324538
921.302603	2581.910962
921.607423	2568.467885
921.912204	2572.416788
922.216946	2575.609519
922.521647	2576.701769
922.826310	2573.256981
923.130932	2564.939077
923.435516	2580.062538
923.740059	2574.601288
924.044564	2556.789212
924.349028	2566.367404
924.653454	2574.517269
924.957840	2583.171250
925.262186	2574.013154
925.566493	2579.810481
925.870761	2578.466173
926.174989	2569.980231
926.479178	2578.634212
926.783328	2571.240519
927.087438	2565.695250
927.391509	2570.820423
927.695541	2566.703481
927.999533	2572.332769
928.303486	2573.593058
928.607400	2567.039558
928.911275	2572.920904
929.215110	2573.172962
929.518906	2579.390385
929.822663	2579.810481
930.126381	2569.980231
930.430060	2570.316308
930.733699	2582.163019
931.037299	2576.617750
931.340861	2578.466173
931.644383	2585.943885
931.947866	2571.072481
932.251309	2569.896212
932.554714	2568.635923
932.858080	2578.214115
933.161407	2574.181192
933.464694	2576.365692
933.767943	2570.064250
934.071153	2577.121865
934.374323	2585.607808
934.677455	2562.838596
934.980548	2578.466173
935.283602	2571.996692
935.586617	2569.056019
935.889593	2574.433250
936.192530	2567.543673
936.495428	2565.107115
936.798287	2587.288192
937.101108	2595.690115
937.403890	2565.947308
937.706632	2581.322827
938.009336	2579.810481
938.312002	2576.113635
938.614628	2586.784077
938.917216	2568.635923
939.219765	2580.734692
939.522275	2563.678788
939.824747	2575.273442
940.127179	2576.197654
940.429573	2561.830365
940.731929	2584.179481
941.034246	2570.820423
941.336524	2583.423308
941.638763	2574.853346
941.940964	2558.889692
942.243126	2583.927423
942.545250	2578.214115
942.847335	2556.789212
943.149381	2567.711712
943.451389	2582.667135
943.753359	2576.449712
944.055290	2559.561846
944.357182	2569.896212
944.659036	2565.359173
944.960851	2578.970288
945.262628	2581.658904
945.564367	2571.744635
945.866067	2576.785788
946.167729	2576.617750
946.469352	2579.138327
946.770937	2580.398615
947.072484	2564.939077
947.373992	2568.803962
947.675462	2586.448000
947.976893	2569.224058
948.278286	2599.470981
948.579641	2564.603000
948.880958	2567.123577
949.182236	2567.627692
949.483476	2568.887981
949.784678	2580.986750
950.085841	2568.719942
950.386967	2563.258692
950.688054	2564.518981
950.989103	2584.767615
951.290114	2576.365692
951.591087	2566.199365
951.892021	2567.627692
952.192917	2558.385577
952.493776	2561.914385
952.794596	2577.541962
953.095378	2569.140038
953.396122	2579.810481
953.696828	2562.166442
953.997496	2585.187712
954.298126	2578.046077
954.598718	2582.331058
954.899272	2566.703481
955.199788	2569.308077
955.500266	2564.518981
955.800706	2572.584827
956.101108	2585.691827
956.401472	2564.687019
956.701798	2564.855058
957.002087	2571.744635
957.302337	2583.087231
957.602550	2565.023096
957.902724	2568.299846
958.202861	2564.771038
958.502960	2562.586538
958.803022	2571.660615
959.103045	2562.838596
959.403031	2571.996692
959.702979	2570.988462
960.002889	2567.039558
960.302762	2559.309788
960.602596	2558.805673
960.902393	2563.846827
961.202153	2572.164731
961.501875	2563.090654
961.801559	2574.685308
962.101205	2584.767615
962.400814	2574.685308
962.700385	2573.425019
962.999918	2566.787500
963.299414	2577.541962
963.598873	2571.156500
963.898293	2566.367404
964.197677	2587.288192
964.497022	2579.474404
964.796331	2570.820423
965.095601	2573.593058
965.394835	2562.754577
965.694030	2574.601288
965.993189	2569.476115
966.292309	2568.131808
966.591393	2571.492577
966.890439	2556.957250
967.189447	2567.711712
967.488419	2562.754577
967.787353	2574.433250
968.086249	2578.634212
968.385108	2578.130096
968.683930	2570.820423
968.982714	2569.644154
969.281462	2566.367404
969.580172	2576.197654
969.878844	2572.668846
970.177480	2572.752865
970.476078	2569.560135
970.774639	2575.861577
971.073162	2567.207596
971.371649	2576.113635
971.670098	2582.331058
971.968510	2567.711712
972.266885	2562.334481
972.565223	2576.449712
972.863524	2579.894500
973.161788	2569.728173
973.460014	2579.138327
973.758204	2585.523788
974.056356	2572.668846
974.354471	2571.996692
974.652550	2563.762808
974.950591	2563.846827
975.248595	2565.695250
975.546563	2556.285096
975.844493	2582.415077
976.142386	2555.192846
976.440243	2560.906154
976.738062	2576.197654
977.035845	2567.879750
977.333590	2567.459654
977.631299	2582.415077
977.928971	2563.426731
978.226606	2574.265212
978.524204	2575.525500
978.821765	2559.729885
979.119290	2562.250462
979.416777	2572.752865
979.714228	2570.652385
980.011642	2581.070769
980.309020	2567.039558
980.606360	2580.314596
980.903664	2568.887981
981.200931	2567.543673
981.498162	2568.551904
981.795356	2567.879750
982.092513	2570.736404
982.389633	2572.752865
982.686717	2567.711712
982.983764	2571.240519
983.280775	2567.627692
983.577749	2560.822135
983.874686	2571.828654
984.171587	2571.996692
984.468451	2571.408558
984.765279	2576.281673
985.062070	2562.250462
985.358824	2562.754577
985.655543	2575.777558
985.952224	2561.494288
986.248869	2583.255269
986.545478	2574.349231
986.842050	2575.189423
987.138586	2582.163019
987.435086	2572.584827
987.731549	2573.341000
988.027975	2569.812192
988.324366	2571.324538
988.620719	2560.570077
988.917037	2574.349231
989.213318	2573.677077
989.509563	2564.434962
989.805772	2562.334481
990.101944	2569.644154
990.398080	2584.011442
990.694180	2568.635923
990.990244	2562.082423
991.286271	2563.006635
991.582262	2560.065962
991.878217	2570.064250
992.174136	2561.410269
992.470019	2565.863288
992.765865	2563.762808
993.061676	2567.207596
993.357450	2558.805673
993.653188	2572.248750
993.948890	2574.097173
994.244556	2570.148269
994.540186	2587.204173
994.835780	2573.929135
995.131337	2569.308077
995.426859	2568.467885
995.722345	2571.660615
996.017795	2593.001500
996.313208	2579.978519
996.608586	2580.734692
996.903928	2566.703481
997.199234	2572.920904
997.494504	2562.586538
997.789738	2577.878038
998.084936	2584.431538
998.380099	2587.372212
998.675225	2572.248750
998.970316	2582.499096
999.265371	2565.359173
999.560390	2569.560135
999.855373	2579.726462
1000.150320	2567.375635
1000.445232	2573.341000
1000.740108	2566.031327
1001.034948	2576.869808
1001.329752	2573.677077
1001.624521	2565.611231
1001.919254	2574.097173
1002.213951	2592.917481
1002.508613	2572.836885
1002.803239	2580.314596
1003.097829	2559.561846
1003.392384	2564.014865
1003.686903	2564.771038
1003.981386	2578.550192
1004.275834	2570.064250
1004.570246	2560.990173
1004.864623	2554.940788
1005.158964	2569.392096
1005.453270	2569.392096
1005.747540	2575.357462
1006.041775	2569.476115
1006.335974	2586.195942
1006.630138	2576.365692
1006.924266	2568.887981
1007.218359	2560.822135
1007.512416	2574.097173
1007.806438	2574.181192
1008.100425	2573.929135
1008.394376	2559.645865
1008.688292	2567.039558
1008.982172	2565.443192
1009.276017	2584.263500
1009.569827	2570.904442
1009.863602	2582.163019
1010.157341	2569.560135
1010.451045	2569.980231
1010.744714	2562.418500
1011.038347	2552.756288
1011.331945	2569.056019
1011.625508	2579.894500
1011.919036	2552.840308
1012.212528	2567.543673
1012.505986	2576.449712
1012.799408	2571.156500
1013.092795	2558.385577
1013.386147	2567.543673
1013.679464	2566.451423
1013.972745	2561.830365
1014.265992	2574.601288
1014.559204	2563.930846
1014.852380	2574.013154
1015.145521	2557.461365
1015.438628	2563.174673
1015.731699	2571.576596
1016.024736	2566.115346
1016.317737	2563.342712
1016.610703	2573.761096
1016.903635	2575.273442
1017.196531	2571.912673
1017.489393	2561.746346
1017.782219	2564.182904
1018.075011	2575.357462
1018.367768	2573.593058
1018.660490	2562.082423
1018.953177	2562.082423
1019.245829	2562.082423
