Dividing Wavelength (nm)	Counts (n)	Slit_number_31_of_a_total_of_40	
326.493990	2056.034596
326.888308	2056.034596
327.282561	2056.034596
327.676750	2027.300019
328.070874	2016.461538
328.464933	1999.573673
328.858929	2030.828827
329.252859	2035.113808
329.646726	2052.253731
330.040528	2035.869981
330.434265	2085.021231
330.827938	2105.437904
331.221547	2147.279481
331.615091	2142.490385
332.008571	2161.898827
332.401986	2193.153981
332.795338	2227.433827
333.188625	2230.710577
333.581847	2250.371077
333.975006	2286.163269
334.368100	2304.311423
334.761129	2301.034673
335.154095	2335.062462
335.546996	2334.054231
335.939833	2333.550115
336.332606	2355.731192
336.725315	2389.002808
337.117960	2383.961654
337.510540	2382.953423
337.903056	2407.150962
338.295508	2391.775442
338.687896	2424.795000
339.080220	2418.745615
339.472480	2399.337173
339.864676	2451.513115
340.256807	2421.266192
340.648875	2457.058385
341.040879	2447.984308
341.432818	2472.938019
341.824694	2437.145827
342.216506	2478.483288
342.608253	2442.691096
342.999937	2459.578962
343.391557	2432.608788
343.783113	2455.546038
344.174605	2461.091308
344.566033	2451.765173
344.957397	2413.704462
345.348697	2419.753846
345.739934	2429.332038
346.131106	2447.984308
346.522215	2433.364962
346.913260	2434.121135
347.304241	2410.679769
347.695159	2432.860846
348.086012	2438.406115
348.476802	2392.531615
348.867528	2413.200346
349.258191	2406.394788
349.648789	2412.192115
350.039324	2398.833058
350.429796	2409.923596
350.820203	2408.411250
351.210548	2437.902000
351.600828	2412.948288
351.991045	2396.060423
352.381198	2391.775442
352.771288	2403.118038
353.161314	2424.795000
353.551276	2421.266192
353.941175	2401.605692
354.331010	2427.063519
354.720782	2381.441077
355.110490	2417.233269
355.500135	2395.304250
355.889717	2399.589231
356.279235	2404.126269
356.668689	2403.370096
357.058080	2385.978115
357.447408	2399.589231
357.836672	2383.709596
358.225873	2399.085115
358.615010	2421.014135
359.004084	2389.506923
359.393095	2409.923596
359.782043	2416.981212
360.170927	2412.192115
360.559748	2417.989442
360.948505	2435.633481
361.337199	2396.312481
361.725830	2400.597462
362.114398	2393.791904
362.502903	2423.786769
362.891344	2397.824827
363.279722	2427.315577
363.668037	2403.622154
364.056289	2409.671538
364.444478	2420.257962
364.832603	2429.332038
365.220665	2423.786769
365.608665	2435.381423
365.996601	2435.885538
366.384474	2431.348500
366.772284	2415.720923
367.160031	2394.296019
367.547715	2397.824827
367.935336	2407.403019
368.322893	2410.679769
368.710388	2384.969885
369.097820	2423.786769
369.485189	2394.043962
369.872495	2445.715788
370.259738	2416.981212
370.646918	2424.290885
371.034035	2428.071750
371.421090	2447.228135
371.808081	2445.211673
372.195010	2414.712692
372.581875	2418.493558
372.968678	2439.918462
373.355418	2432.356731
373.742096	2434.373192
374.128710	2426.307346
374.515262	2437.902000
374.901751	2407.655077
375.288177	2425.803231
375.674540	2420.005904
376.060841	2426.055288
376.447079	2431.096442
376.833254	2412.444173
377.219367	2442.186981
377.605417	2413.956519
377.991404	2436.389654
378.377329	2425.551173
378.763191	2421.518250
379.148991	2403.118038
379.534727	2415.216808
379.920402	2421.266192
380.306013	2422.022365
380.691563	2432.104673
381.077049	2441.934923
381.462474	2447.732250
381.847835	2434.877308
382.233134	2431.600558
382.618371	2435.885538
383.003545	2424.290885
383.388657	2419.249731
383.773706	2448.992538
384.158693	2438.154058
384.543618	2419.501788
384.928480	2426.055288
385.313280	2424.290885
385.698017	2428.323808
386.082692	2430.844385
386.467305	2444.707558
386.851856	2408.159192
387.236344	2435.381423
387.620770	2442.439038
388.005133	2423.534712
388.389435	2428.575865
388.773674	2421.014135
389.157851	2436.137596
389.541965	2408.159192
389.926018	2443.447269
390.310008	2416.477096
390.693936	2435.633481
391.077802	2426.559404
391.461606	2418.241500
391.845348	2446.219904
392.229027	2427.819692
392.612645	2438.154058
392.996200	2413.956519
393.379694	2454.285750
393.763125	2421.014135
394.146494	2436.137596
394.529801	2447.732250
394.913047	2436.641712
395.296230	2455.546038
395.679351	2437.397885
396.062410	2437.649942
396.445408	2438.154058
396.828343	2439.666404
397.211217	2437.145827
397.594028	2454.033692
397.976778	2436.137596
398.359466	2434.121135
398.742092	2459.578962
399.124656	2422.022365
399.507158	2426.055288
399.889598	2445.211673
400.271977	2424.795000
400.654294	2440.674635
401.036549	2437.649942
401.418742	2435.885538
401.800874	2439.162288
402.182944	2434.877308
402.564952	2450.000769
402.946898	2431.852615
403.328783	2447.480192
403.710606	2462.855712
404.092367	2429.079981
404.474067	2414.208577
404.855705	2432.104673
405.237282	2448.236365
405.618797	2443.447269
406.000250	2449.244596
406.381642	2428.827923
406.762972	2469.661269
407.144240	2434.373192
407.525447	2439.918462
407.906593	2456.050154
408.287677	2428.575865
408.668700	2431.600558
409.049661	2436.893769
409.430560	2450.504885
409.811399	2453.025462
410.192176	2457.058385
410.572891	2443.195212
410.953545	2440.926692
411.334138	2435.633481
411.714669	2431.348500
412.095139	2422.526481
412.475547	2432.608788
412.855894	2471.173615
413.236180	2441.934923
413.616405	2453.529577
413.996568	2433.364962
414.376670	2440.422577
414.756711	2448.236365
415.136691	2446.976077
415.516609	2444.707558
415.896466	2438.406115
416.276262	2414.712692
416.655997	2433.617019
417.035670	2456.302212
417.415283	2437.902000
417.794834	2435.129365
418.174324	2470.921558
418.553753	2448.992538
418.933121	2439.162288
419.312428	2432.356731
419.691674	2436.641712
420.070859	2468.905096
420.449983	2467.896865
420.829045	2435.885538
421.208047	2428.323808
421.586988	2421.014135
421.965867	2477.475058
422.344686	2441.934923
422.723444	2477.223000
423.102141	2469.409212
423.480777	2459.578962
423.859352	2427.567635
424.237866	2468.905096
424.616319	2453.529577
424.994712	2471.677731
425.373044	2436.137596
425.751314	2466.636577
426.129524	2467.140692
426.507673	2463.611885
426.885762	2449.496654
427.263789	2438.910231
427.641756	2436.137596
428.019662	2447.228135
428.397508	2437.397885
428.775292	2432.608788
429.153016	2452.773404
429.530679	2454.285750
429.908282	2435.885538
430.285824	2444.707558
430.663305	2433.364962
431.040726	2471.929788
431.418086	2428.827923
431.795385	2438.910231
432.172624	2437.145827
432.549802	2445.967846
432.926920	2446.471962
433.303977	2443.195212
433.680974	2450.000769
434.057910	2422.274423
434.434786	2444.455500
434.811601	2465.880404
435.188355	2435.885538
435.565050	2458.066615
435.941683	2443.195212
436.318257	2432.104673
436.694770	2473.190077
437.071222	2421.770308
437.447614	2480.247692
437.823946	2433.617019
438.200218	2421.518250
438.576429	2434.877308
438.952580	2454.789865
439.328670	2455.293981
439.704700	2448.740481
440.080670	2446.471962
440.456580	2455.546038
440.832429	2436.893769
441.208218	2471.677731
441.583947	2471.677731
441.959616	2463.107769
442.335224	2444.455500
442.710773	2447.228135
443.086261	2467.896865
443.461689	2447.480192
443.837057	2433.364962
444.212365	2452.521346
444.587612	2439.162288
444.962800	2446.976077
445.337927	2441.682865
445.712995	2457.814558
446.088002	2460.335135
446.462949	2469.913327
446.837837	2449.496654
447.212664	2427.819692
447.587431	2440.926692
447.962139	2481.507981
448.336786	2462.351596
448.711374	2433.112904
449.085901	2447.732250
449.460369	2463.107769
449.834776	2452.017231
450.209124	2443.447269
450.583412	2474.198308
450.957640	2458.822788
451.331808	2469.409212
451.705917	2455.546038
452.079965	2446.219904
452.453954	2437.649942
452.827883	2459.831019
453.201752	2457.058385
453.575562	2482.012096
453.949311	2448.488423
454.323001	2452.773404
454.696632	2468.653038
455.070202	2442.186981
455.443713	2466.888635
455.817164	2449.244596
456.190556	2432.608788
456.563888	2486.549135
456.937160	2471.425673
457.310373	2436.893769
457.683526	2451.765173
458.056619	2447.732250
458.429653	2472.938019
458.802628	2462.099538
459.175542	2467.896865
459.548398	2442.186981
459.921194	2451.009000
460.293930	2485.792962
460.666607	2459.074846
461.039224	2466.888635
461.411782	2442.691096
461.784280	2465.124231
462.156719	2472.433904
462.529099	2456.302212
462.901419	2466.384519
463.273680	2460.335135
463.645882	2455.546038
464.018024	2435.129365
464.390106	2443.447269
464.762130	2459.578962
465.134094	2421.770308
465.505999	2461.343365
465.877845	2457.562500
466.249631	2460.083077
466.621358	2473.442135
466.993026	2429.584096
467.364634	2442.943154
467.736184	2435.381423
468.107674	2464.116000
468.479105	2460.839250
468.850477	2450.252827
469.221790	2453.277519
469.593043	2449.244596
469.964238	2434.877308
470.335373	2471.677731
470.706449	2455.546038
471.077467	2451.765173
471.448425	2446.471962
471.819324	2480.499750
472.190164	2419.249731
472.560945	2457.310442
472.931667	2473.694192
473.302330	2462.855712
473.672934	2445.211673
474.043479	2475.710654
474.413965	2482.768269
474.784393	2461.595423
475.154761	2473.442135
475.525070	2449.496654
475.895321	2471.929788
476.265513	2483.524442
476.635645	2467.896865
477.005719	2469.913327
477.375734	2473.946250
477.745691	2473.190077
478.115588	2435.633481
478.485427	2474.450365
478.855207	2451.765173
479.224928	2469.913327
479.594591	2441.430808
479.964194	2436.641712
480.333739	2464.872173
480.703226	2481.507981
481.072653	2466.888635
481.442022	2448.740481
481.811333	2449.496654
482.180584	2442.943154
482.549777	2457.310442
482.918912	2447.228135
483.287988	2464.872173
483.657005	2458.066615
484.025964	2455.798096
484.394864	2472.685962
484.763706	2447.732250
485.132489	2479.239462
485.501213	2468.148923
485.869879	2454.285750
486.238487	2446.976077
486.607036	2462.099538
486.975527	2453.277519
487.343959	2475.206538
487.712333	2456.302212
488.080648	2458.066615
488.448905	2467.644808
488.817104	2497.135558
489.185244	2451.009000
489.553326	2462.603654
489.921350	2455.798096
490.289315	2469.913327
490.657222	2477.223000
491.025070	2456.302212
491.392861	2456.806327
491.760593	2476.970942
492.128267	2462.603654
492.495883	2458.318673
492.863440	2464.368058
493.230939	2491.086173
493.598380	2467.140692
493.965763	2466.636577
494.333088	2466.636577
494.700354	2453.025462
495.067563	2456.050154
495.434713	2475.206538
495.801805	2485.540904
496.168839	2432.104673
496.535815	2482.768269
496.902733	2475.710654
497.269593	2475.206538
497.636395	2433.364962
498.003139	2467.140692
498.369825	2458.822788
498.736453	2479.239462
499.103023	2479.239462
499.469535	2480.247692
499.835989	2456.806327
500.202385	2468.400981
500.568723	2468.148923
500.935003	2452.017231
501.301226	2466.888635
501.667390	2492.094404
502.033497	2474.450365
502.399546	2453.277519
502.765537	2460.587192
503.131470	2463.611885
503.497345	2448.488423
503.863163	2481.003865
504.228923	2457.310442
504.594625	2480.247692
504.960269	2471.425673
505.325856	2473.442135
505.691385	2438.406115
506.056856	2484.784731
506.422270	2467.896865
506.787625	2453.529577
507.152924	2443.447269
507.518164	2461.343365
507.883347	2482.516212
508.248472	2445.211673
508.613540	2463.107769
508.978550	2463.863942
509.343503	2452.521346
509.708398	2479.491519
510.073236	2475.458596
510.438016	2466.132462
510.802738	2454.789865
511.167403	2480.499750
511.532010	2468.905096
511.896561	2471.425673
512.261053	2466.888635
512.625488	2474.702423
512.989866	2470.165385
513.354186	2486.297077
513.718449	2471.173615
514.082655	2466.384519
514.446803	2493.354692
514.810894	2481.760038
515.174927	2463.107769
515.538904	2488.313538
515.902822	2445.211673
516.266684	2491.590288
516.630488	2451.765173
516.994235	2463.107769
517.357925	2455.798096
517.721558	2455.293981
518.085133	2475.710654
518.448651	2469.661269
518.812112	2460.587192
519.175516	2462.099538
519.538863	2490.077942
519.902152	2454.033692
520.265385	2457.562500
520.628560	2453.781635
520.991678	2468.400981
521.354739	2476.466827
521.717743	2469.661269
522.080690	2448.740481
522.443580	2476.718885
522.806413	2459.074846
523.169189	2470.921558
523.531908	2475.710654
523.894569	2462.351596
524.257174	2483.524442
524.619722	2484.028558
524.982213	2463.863942
525.344647	2463.611885
525.707025	2450.000769
526.069345	2474.198308
526.431608	2456.302212
526.793815	2466.888635
527.155964	2484.784731
527.518057	2453.277519
527.880093	2431.852615
528.242072	2475.710654
528.603995	2475.710654
528.965860	2453.781635
529.327669	2466.384519
529.689421	2474.954481
530.051117	2467.140692
530.412755	2478.483288
530.774337	2477.727115
531.135862	2434.877308
531.497331	2488.817654
531.858743	2451.261058
532.220098	2474.702423
532.581396	2458.822788
532.942638	2463.107769
533.303824	2438.154058
533.664953	2461.343365
534.026025	2469.409212
534.387040	2487.053250
534.747999	2466.888635
535.108902	2464.116000
535.469748	2458.570731
535.830537	2444.707558
536.191270	2455.041923
536.551947	2460.839250
536.912567	2479.995635
537.273131	2470.921558
537.633638	2468.400981
537.994089	2468.400981
538.354483	2459.578962
538.714821	2462.351596
539.075103	2464.116000
539.435328	2460.335135
539.795497	2468.400981
540.155609	2436.389654
540.515665	2447.732250
540.875665	2452.773404
541.235609	2470.417442
541.595496	2461.091308
541.955328	2477.475058
542.315102	2451.009000
542.674821	2447.984308
543.034483	2438.658173
543.394090	2465.880404
543.753640	2489.825885
544.113134	2482.768269
544.472571	2462.855712
544.831953	2503.437000
545.191278	2462.351596
545.550548	2472.181846
545.909761	2456.554269
546.268918	2442.186981
546.628019	2444.959615
546.987064	2450.252827
547.346053	2478.483288
547.704986	2491.842346
548.063863	2452.017231
548.422684	2452.017231
548.781449	2447.480192
549.140158	2461.343365
549.498811	2467.896865
549.857408	2475.710654
550.215949	2458.822788
550.574434	2482.264154
550.932864	2460.083077
551.291237	2450.252827
551.649555	2482.768269
552.007817	2462.855712
552.366022	2460.587192
552.724173	2476.718885
553.082267	2466.384519
553.440305	2457.310442
553.798288	2459.578962
554.156215	2477.727115
554.514086	2473.694192
554.871902	2450.252827
555.229661	2464.116000
555.587365	2471.173615
555.945014	2453.277519
556.302606	2472.938019
556.660143	2465.124231
557.017625	2450.756942
557.375050	2461.343365
557.732421	2470.165385
558.089735	2468.148923
558.446994	2439.666404
558.804197	2456.554269
559.161345	2452.521346
559.518437	2457.058385
559.875474	2466.384519
560.232455	2479.995635
560.589381	2483.272385
560.946251	2479.743577
561.303065	2465.376288
561.659825	2457.562500
562.016528	2494.110865
562.373177	2457.310442
562.729770	2468.400981
563.086307	2462.603654
563.442789	2476.214769
563.799216	2442.439038
564.155587	2481.507981
564.511904	2465.124231
564.868164	2446.976077
565.224370	2475.710654
565.580520	2453.529577
565.936615	2453.277519
566.292654	2461.595423
566.648638	2457.562500
567.004567	2459.074846
567.360441	2471.425673
567.716260	2450.756942
568.072023	2464.368058
568.427732	2436.893769
568.783385	2497.135558
569.138982	2448.992538
569.494525	2490.330000
569.850013	2457.310442
570.205445	2474.702423
570.560823	2449.748712
570.916145	2469.913327
571.271412	2454.285750
571.626625	2472.433904
571.981782	2462.855712
572.336884	2475.206538
572.691931	2466.636577
573.046923	2450.756942
573.401860	2478.231231
573.756743	2462.351596
574.111570	2465.124231
574.466342	2448.488423
574.821059	2471.929788
575.175722	2467.896865
575.530330	2438.658173
575.884882	2441.682865
576.239380	2455.798096
576.593823	2465.124231
576.948211	2471.929788
577.302544	2470.165385
577.656823	2459.074846
578.011047	2460.083077
578.365216	2479.491519
578.719330	2473.694192
579.073389	2475.458596
579.427394	2445.463731
579.781344	2465.628346
580.135239	2477.979173
580.489080	2473.946250
580.842866	2486.801192
581.196597	2475.206538
581.550273	2446.219904
581.903895	2478.987404
582.257463	2480.751808
582.610975	2469.157154
582.964434	2494.110865
583.317837	2493.606750
583.671186	2484.280615
584.024481	2460.587192
584.377721	2444.203442
584.730906	2470.165385
585.084037	2443.699327
585.437113	2483.776500
585.790135	2499.656135
586.143103	2464.368058
586.496016	2455.041923
586.848874	2471.425673
587.201679	2473.946250
587.554428	2448.992538
587.907124	2470.669500
588.259765	2469.409212
588.612352	2455.041923
588.964884	2469.913327
589.317362	2472.181846
589.669786	2455.293981
590.022155	2459.578962
590.374470	2455.293981
590.726731	2464.620115
591.078937	2478.987404
591.431090	2446.471962
591.783188	2444.203442
592.135232	2465.628346
592.487222	2480.247692
592.839157	2475.962712
593.191038	2462.855712
593.542866	2485.036788
593.894639	2500.916423
594.246358	2486.297077
594.598022	2466.636577
594.949633	2468.653038
595.301190	2448.992538
595.652692	2465.880404
596.004141	2473.190077
596.355535	2472.685962
596.706876	2459.326904
597.058162	2488.565596
597.409395	2481.003865
597.760573	2478.987404
598.111698	2434.121135
598.462768	2451.765173
598.813785	2473.946250
599.164748	2463.863942
599.515657	2475.458596
599.866511	2457.310442
600.217312	2446.471962
600.568060	2467.140692
600.918753	2473.442135
601.269392	2454.285750
601.619978	2491.086173
601.970510	2434.625250
602.320988	2484.532673
602.671412	2467.644808
603.021783	2455.546038
603.372100	2462.855712
603.722363	2483.776500
604.072572	2452.017231
604.422728	2455.041923
604.772830	2459.326904
605.122878	2470.417442
605.472872	2465.628346
605.822813	2458.066615
606.172701	2453.529577
606.522534	2463.611885
606.872314	2478.735346
607.222041	2460.587192
607.571714	2480.247692
607.921333	2462.351596
608.270899	2453.277519
608.620411	2473.190077
608.969870	2468.400981
609.319276	2460.335135
609.668627	2465.124231
610.017926	2489.825885
610.367171	2479.491519
610.716362	2482.012096
611.065500	2454.033692
611.414585	2468.148923
611.763616	2455.041923
612.112594	2464.368058
612.461518	2465.880404
612.810389	2482.516212
613.159207	2464.116000
613.507971	2488.061481
613.856682	2473.946250
614.205340	2474.702423
614.553945	2464.116000
614.902496	2435.885538
615.250994	2481.255923
615.599439	2489.573827
615.947830	2499.656135
616.296169	2479.239462
616.644454	2454.537808
616.992686	2455.546038
617.340864	2487.809423
617.688990	2420.005904
618.037063	2470.669500
618.385082	2461.343365
618.733048	2479.239462
619.080961	2449.748712
619.428821	2469.913327
619.776628	2469.409212
620.124382	2459.831019
620.472083	2451.765173
620.819731	2461.847481
621.167326	2490.330000
621.514868	2500.916423
621.862357	2457.562500
622.209793	2469.913327
622.557176	2438.154058
622.904506	2445.967846
623.251783	2478.987404
623.599007	2476.970942
623.946179	2452.521346
624.293297	2458.822788
624.640363	2463.359827
624.987376	2473.694192
625.334336	2463.863942
625.681243	2462.603654
626.028097	2446.219904
626.374899	2482.516212
626.721647	2468.400981
627.068343	2457.562500
627.414987	2463.359827
627.761577	2471.677731
628.108115	2445.967846
628.454600	2494.362923
628.801032	2479.995635
629.147412	2464.872173
629.493739	2468.400981
629.840014	2482.516212
630.186236	2505.705519
630.532405	2464.116000
630.878521	2487.809423
631.224585	2445.967846
631.570597	2477.727115
631.916556	2470.165385
632.262462	2492.850577
632.608316	2460.083077
632.954117	2479.743577
633.299866	2439.162288
633.645562	2469.409212
633.991206	2467.644808
634.336797	2473.946250
634.682336	2475.458596
635.027823	2472.181846
635.373257	2481.003865
635.718639	2481.760038
636.063968	2467.392750
636.409245	2440.674635
636.754470	2459.831019
637.099642	2454.789865
637.444762	2470.165385
637.789829	2456.554269
638.134845	2459.831019
638.479808	2464.368058
638.824719	2463.359827
639.169577	2464.116000
639.514383	2468.653038
639.859137	2482.768269
640.203839	2462.099538
640.548489	2478.231231
640.893086	2434.625250
641.237632	2470.417442
641.582125	2467.644808
641.926566	2459.074846
642.270955	2445.463731
642.615292	2454.537808
642.959576	2469.661269
643.303809	2475.458596
643.647990	2479.995635
643.992118	2469.661269
644.336195	2448.740481
644.680219	2453.025462
645.024192	2456.302212
645.368112	2461.847481
645.711981	2471.173615
646.055797	2441.178750
646.399562	2464.368058
646.743274	2470.417442
647.086935	2468.905096
647.430544	2463.863942
647.774101	2471.677731
648.117606	2454.033692
648.461059	2451.765173
648.804460	2489.069712
649.147810	2465.628346
649.491108	2475.962712
649.834354	2448.740481
650.177548	2470.165385
650.520690	2471.173615
650.863781	2462.855712
651.206820	2463.359827
651.549807	2452.017231
651.892742	2470.165385
652.235626	2460.839250
652.578458	2487.053250
652.921238	2462.603654
653.263967	2480.247692
653.606644	2464.116000
653.949269	2464.620115
654.291843	2487.557365
654.634365	2474.702423
654.976836	2466.132462
655.319255	2458.318673
655.661622	2474.954481
656.003938	2467.140692
656.346203	2475.962712
656.688416	2466.132462
657.030577	2469.661269
657.372687	2481.255923
657.714746	2488.817654
658.056753	2460.839250
658.398708	2483.272385
658.740612	2452.773404
659.082465	2491.338231
659.424266	2455.293981
659.766016	2438.910231
660.107715	2454.789865
660.449362	2467.140692
660.790958	2439.162288
661.132503	2475.962712
661.473996	2452.017231
661.815438	2494.614981
662.156829	2464.116000
662.498168	2472.685962
662.839456	2453.529577
663.180693	2466.384519
663.521879	2457.058385
663.863013	2449.496654
664.204097	2462.855712
664.545129	2453.529577
664.886110	2461.847481
665.227040	2445.967846
665.567918	2459.831019
665.908746	2463.107769
666.249522	2471.425673
666.590248	2471.425673
666.930922	2473.946250
667.271545	2461.847481
667.612118	2482.516212
667.952639	2469.913327
668.293109	2474.954481
668.633528	2439.918462
668.973896	2478.231231
669.314213	2446.976077
669.654480	2465.376288
669.994695	2457.058385
670.334859	2474.450365
670.674973	2478.987404
671.015035	2483.776500
671.355047	2480.751808
671.695008	2451.513115
672.034918	2469.661269
672.374777	2439.666404
672.714585	2456.302212
673.054342	2471.425673
673.394049	2470.417442
673.733705	2444.707558
674.073310	2470.669500
674.412864	2437.145827
674.752368	2501.924654
675.091820	2438.406115
675.431223	2460.083077
675.770574	2468.653038
676.109875	2459.326904
676.449125	2442.691096
676.788324	2455.798096
677.127473	2479.995635
677.466571	2476.214769
677.805619	2454.789865
678.144616	2488.817654
678.483562	2457.562500
678.822458	2461.343365
679.161303	2462.855712
679.500098	2463.107769
679.838842	2473.946250
680.177535	2475.458596
680.516179	2489.069712
680.854771	2470.669500
681.193314	2482.768269
681.531805	2454.285750
681.870247	2468.653038
682.208638	2452.269288
682.546978	2468.148923
682.885268	2482.516212
683.223508	2453.529577
683.561697	2459.326904
683.899836	2486.045019
684.237925	2457.310442
684.575963	2490.330000
684.913951	2475.962712
685.251889	2463.611885
685.589776	2467.896865
685.927614	2448.992538
686.265401	2448.488423
686.603137	2434.625250
686.940824	2466.132462
687.278460	2469.157154
687.616046	2450.000769
687.953582	2479.995635
688.291068	2439.666404
688.628504	2473.442135
688.965889	2464.620115
689.303224	2471.677731
689.640510	2474.450365
689.977745	2477.475058
690.314930	2475.962712
690.652065	2464.872173
690.989150	2474.954481
691.326185	2484.280615
691.663170	2436.137596
692.000105	2446.724019
692.336990	2470.165385
692.673825	2455.798096
693.010610	2451.261058
693.347345	2437.145827
693.684030	2451.009000
694.020665	2493.354692
694.357251	2443.951385
694.693786	2472.685962
695.030272	2482.516212
695.366707	2468.400981
695.703093	2457.814558
696.039429	2445.715788
696.375716	2479.995635
696.711952	2459.326904
697.048139	2440.926692
697.384276	2476.970942
697.720363	2458.318673
698.056400	2476.214769
698.392388	2452.017231
698.728326	2458.822788
699.064214	2467.140692
699.400053	2468.148923
699.735842	2478.231231
700.071581	2441.430808
700.407270	2482.768269
700.742910	2452.269288
701.078501	2480.499750
701.414042	2459.326904
701.749533	2454.285750
702.084974	2473.190077
702.420366	2498.143788
702.755709	2440.674635
703.091002	2463.359827
703.426246	2467.644808
703.761440	2446.471962
704.096584	2502.428769
704.431679	2423.534712
704.766725	2477.727115
705.101721	2476.214769
705.436668	2455.041923
705.771565	2456.806327
706.106413	2479.239462
706.441212	2454.537808
706.775961	2437.902000
707.110661	2493.606750
707.445311	2461.091308
707.779913	2462.099538
708.114465	2488.565596
708.448967	2474.450365
708.783421	2456.302212
709.117825	2462.603654
709.452180	2431.096442
709.786485	2460.083077
710.120742	2469.157154
710.454949	2469.409212
710.789107	2460.335135
711.123216	2445.715788
711.457275	2443.699327
711.791286	2450.756942
712.125247	2461.595423
712.459159	2468.653038
712.793023	2486.549135
713.126837	2463.863942
713.460602	2475.710654
713.794318	2465.628346
714.127985	2466.888635
714.461602	2453.277519
714.795171	2471.677731
715.128691	2451.009000
715.462162	2476.718885
715.795584	2449.244596
716.128957	2448.740481
716.462281	2460.335135
716.795556	2450.504885
717.128782	2458.318673
717.461960	2462.099538
717.795088	2442.943154
718.128167	2479.491519
718.461198	2453.277519
718.794180	2485.288846
719.127113	2453.529577
719.459997	2472.433904
719.792833	2471.425673
720.125619	2452.521346
720.458357	2482.516212
720.791046	2457.562500
721.123686	2462.351596
721.456278	2448.992538
721.788821	2459.831019
722.121315	2495.875269
722.453761	2445.211673
722.786158	2462.351596
723.118506	2450.252827
723.450805	2478.987404
723.783056	2459.326904
724.115259	2433.617019
724.447412	2459.578962
724.779518	2467.392750
725.111574	2452.521346
725.443582	2463.107769
725.775542	2464.368058
726.107453	2465.124231
726.439315	2428.071750
726.771129	2468.653038
727.102895	2463.359827
727.434612	2466.132462
727.766281	2441.934923
728.097901	2453.277519
728.429473	2468.400981
728.760996	2456.302212
729.092471	2454.285750
729.423897	2465.880404
729.755276	2457.310442
730.086606	2467.644808
730.417887	2477.475058
730.749120	2467.140692
731.080305	2435.885538
731.411442	2464.116000
731.742530	2482.012096
732.073570	2464.116000
732.404562	2473.442135
732.735506	2457.058385
733.066401	2437.397885
733.397249	2434.877308
733.728048	2466.888635
734.058798	2459.831019
734.389501	2467.896865
734.720156	2461.847481
735.050762	2459.074846
735.381320	2445.967846
735.711831	2468.905096
736.042293	2470.921558
736.372707	2482.264154
736.703073	2449.496654
737.033391	2469.661269
737.363661	2471.929788
737.693883	2467.140692
738.024056	2481.507981
738.354182	2456.554269
738.684260	2464.368058
739.014290	2456.302212
739.344272	2477.223000
739.674207	2457.310442
740.004093	2447.228135
740.333931	2466.636577
740.663722	2433.112904
740.993464	2430.088212
741.323159	2486.045019
741.652806	2464.872173
741.982405	2462.099538
742.311956	2470.921558
742.641460	2462.351596
742.970915	2452.017231
743.300323	2459.326904
743.629683	2455.546038
743.958996	2471.929788
744.288260	2458.822788
744.617477	2468.400981
744.946647	2459.074846
745.275768	2482.516212
745.604842	2474.450365
745.933869	2461.343365
746.262847	2446.471962
746.591778	2458.570731
746.920662	2437.397885
747.249498	2457.058385
747.578286	2471.677731
747.907027	2471.677731
748.235720	2471.173615
748.564365	2458.822788
748.892963	2477.223000
749.221514	2465.376288
749.550017	2456.050154
749.878473	2432.860846
750.206881	2460.083077
750.535242	2460.587192
750.863555	2450.252827
751.191821	2466.888635
751.520039	2445.967846
751.848210	2453.277519
752.176334	2478.483288
752.504411	2433.364962
752.832440	2477.727115
753.160421	2446.219904
753.488356	2450.252827
753.816243	2464.872173
754.144082	2448.740481
754.471875	2456.554269
754.799620	2448.488423
755.127318	2458.066615
755.454969	2486.297077
755.782572	2474.450365
756.110129	2474.702423
756.437638	2479.995635
756.765100	2485.540904
757.092515	2458.066615
757.419882	2460.839250
757.747203	2468.653038
758.074477	2457.310442
758.401703	2468.400981
758.728882	2455.041923
759.056014	2463.611885
759.383099	2448.488423
759.710138	2463.107769
760.037129	2476.970942
760.364073	2457.562500
760.690970	2452.773404
761.017820	2471.425673
761.344623	2444.959615
761.671379	2482.012096
761.998088	2481.003865
762.324751	2475.458596
762.651366	2462.099538
762.977935	2453.781635
763.304456	2469.661269
763.630931	2466.384519
763.957359	2460.587192
764.283740	2480.751808
764.610074	2456.050154
764.936362	2453.277519
765.262602	2451.261058
765.588796	2463.611885
765.914943	2458.570731
766.241044	2470.921558
766.567097	2467.392750
766.893104	2481.255923
767.219064	2467.392750
767.544978	2436.893769
767.870845	2473.946250
768.196665	2443.951385
768.522438	2476.718885
768.848165	2470.669500
769.173846	2475.206538
769.499479	2455.798096
769.825066	2454.285750
770.150607	2471.173615
770.476101	2448.236365
770.801548	2479.995635
771.126949	2480.499750
771.452303	2463.107769
771.777611	2447.732250
772.102872	2485.540904
772.428087	2477.979173
772.753256	2483.776500
773.078378	2456.302212
773.403453	2447.480192
773.728482	2485.036788
774.053465	2435.381423
774.378401	2447.480192
774.703291	2458.822788
775.028135	2471.929788
775.352932	2474.450365
775.677683	2440.926692
776.002388	2467.896865
776.327046	2488.817654
776.651658	2481.507981
776.976224	2452.269288
777.300743	2452.521346
777.625216	2453.529577
777.949643	2468.148923
778.274024	2445.715788
778.598359	2463.359827
778.922647	2454.537808
779.246889	2479.239462
779.571086	2460.839250
779.895236	2490.077942
780.219339	2475.710654
780.543397	2459.326904
780.867409	2479.491519
781.191374	2443.699327
781.515294	2450.504885
781.839167	2465.124231
782.162995	2463.359827
782.486776	2476.466827
782.810511	2457.310442
783.134201	2465.124231
783.457844	2448.236365
783.781441	2472.433904
784.104993	2470.669500
784.428498	2461.595423
784.751958	2479.491519
785.075372	2454.789865
785.398739	2486.549135
785.722061	2473.946250
786.045337	2471.677731
786.368568	2460.839250
786.691752	2469.661269
787.014891	2463.863942
787.337983	2465.124231
787.661030	2481.760038
787.984031	2471.677731
788.306987	2448.236365
788.629897	2468.905096
788.952760	2434.625250
789.275579	2478.231231
789.598351	2462.855712
789.921078	2478.483288
790.243759	2467.896865
790.566395	2450.504885
790.888984	2467.644808
791.211529	2452.521346
791.534027	2456.806327
791.856480	2481.760038
792.178888	2443.699327
792.501249	2459.326904
792.823566	2456.050154
793.145836	2437.649942
793.468062	2457.562500
793.790241	2460.335135
794.112375	2471.425673
794.434464	2461.343365
794.756507	2462.099538
795.078505	2464.368058
795.400457	2468.905096
795.722364	2435.129365
796.044226	2458.318673
796.366042	2465.376288
796.687812	2449.496654
797.009538	2459.074846
797.331218	2450.756942
797.652852	2467.896865
797.974442	2461.343365
798.295986	2452.773404
798.617484	2471.425673
798.938938	2455.546038
799.260346	2455.293981
799.581709	2467.140692
799.903026	2473.190077
800.224299	2462.603654
800.545526	2457.814558
800.866708	2453.781635
801.187845	2451.513115
801.508936	2465.880404
801.829983	2468.905096
802.150984	2465.124231
802.471940	2462.603654
802.792851	2469.913327
803.113717	2482.768269
803.434538	2453.025462
803.755314	2458.822788
804.076045	2459.831019
804.396731	2469.661269
804.717372	2474.954481
805.037967	2472.433904
805.358518	2490.330000
805.679024	2447.480192
805.999485	2447.228135
806.319901	2448.488423
806.640272	2464.368058
806.960598	2466.132462
807.280879	2445.211673
807.601115	2463.359827
807.921306	2456.806327
808.241453	2458.066615
808.561554	2468.653038
808.881611	2458.570731
809.201623	2461.595423
809.521590	2477.475058
809.841513	2457.562500
810.161390	2468.653038
810.481223	2462.603654
810.801011	2438.910231
811.120755	2455.293981
811.440453	2452.521346
811.760107	2456.554269
812.079716	2445.967846
812.399281	2478.735346
812.718801	2443.699327
813.038276	2462.099538
813.357707	2467.140692
813.677093	2444.707558
813.996434	2445.211673
814.315731	2475.962712
814.634983	2467.140692
814.954191	2474.450365
815.273354	2469.409212
815.592473	2433.112904
815.911547	2453.277519
816.230577	2457.058385
816.549562	2450.252827
816.868502	2454.537808
817.187399	2460.083077
817.506250	2464.368058
817.825058	2467.140692
818.143821	2456.302212
818.462539	2459.074846
818.781213	2478.231231
819.099843	2447.732250
819.418429	2473.190077
819.736970	2449.748712
820.055466	2472.181846
820.373919	2431.348500
820.692327	2467.140692
821.010691	2463.359827
821.329011	2445.715788
821.647286	2467.392750
821.965517	2473.694192
822.283704	2445.967846
822.601847	2471.425673
822.919945	2436.893769
823.237999	2465.880404
823.556010	2462.099538
823.873976	2439.666404
824.191897	2439.414346
824.509775	2447.480192
824.827609	2479.743577
825.145398	2461.847481
825.463144	2468.905096
825.780845	2455.041923
826.098502	2470.165385
826.416116	2479.239462
826.733685	2452.773404
827.051210	2468.400981
827.368692	2473.694192
827.686129	2465.376288
828.003522	2427.063519
828.320872	2457.310442
828.638177	2462.855712
828.955439	2455.798096
829.272656	2456.806327
829.589830	2464.116000
829.906960	2462.603654
830.224046	2443.699327
830.541088	2466.384519
830.858086	2441.178750
831.175041	2454.789865
831.491952	2454.033692
831.808819	2470.417442
832.125642	2446.724019
832.442421	2450.252827
832.759157	2442.439038
833.075849	2438.154058
833.392497	2471.425673
833.709101	2493.102635
834.025662	2461.343365
834.342179	2457.058385
834.658653	2458.570731
834.975083	2428.323808
835.291469	2460.335135
835.607811	2468.653038
835.924110	2450.000769
836.240366	2459.074846
836.556578	2476.970942
836.872746	2463.863942
837.188871	2489.825885
837.504952	2460.335135
837.820990	2448.236365
838.136984	2470.165385
838.452935	2482.516212
838.768842	2434.373192
839.084706	2471.677731
839.400526	2475.962712
839.716303	2456.806327
840.032037	2442.943154
840.347727	2448.992538
840.663373	2468.905096
840.978977	2463.107769
841.294537	2458.822788
841.610054	2440.170519
841.925527	2464.368058
842.240957	2456.302212
842.556344	2448.992538
842.871687	2449.496654
843.186987	2474.450365
843.502244	2469.913327
843.817458	2439.666404
844.132629	2436.389654
844.447756	2460.587192
844.762840	2432.860846
845.077881	2451.009000
845.392879	2460.083077
845.707833	2451.261058
846.022745	2443.951385
846.337613	2447.480192
846.652438	2446.219904
846.967221	2459.578962
847.281960	2447.732250
847.596656	2464.620115
847.911309	2452.521346
848.225919	2464.872173
848.540485	2447.984308
848.855009	2458.318673
849.169490	2447.984308
849.483928	2455.798096
849.798323	2468.905096
850.112675	2470.165385
850.426984	2466.888635
850.741251	2457.310442
851.055474	2467.896865
851.369654	2455.293981
851.683792	2461.847481
851.997887	2458.066615
852.311938	2475.710654
852.625947	2472.433904
852.939914	2459.578962
853.253837	2464.116000
853.567718	2464.116000
853.881555	2453.529577
854.195350	2461.847481
854.509103	2473.946250
854.822812	2461.091308
855.136479	2425.299115
855.450103	2479.743577
855.763685	2460.335135
856.077224	2460.335135
856.390720	2446.219904
856.704173	2444.959615
857.017584	2438.406115
857.330953	2442.943154
857.644278	2450.504885
857.957561	2471.929788
858.270802	2419.249731
858.584000	2463.107769
858.897155	2443.195212
859.210268	2459.326904
859.523339	2463.107769
859.836367	2463.611885
860.149352	2459.578962
860.462295	2471.929788
860.775195	2443.951385
861.088054	2460.335135
861.400869	2470.921558
861.713642	2492.850577
862.026373	2454.789865
862.339062	2462.351596
862.651708	2465.376288
862.964312	2461.343365
863.276873	2459.831019
863.589392	2462.351596
863.901869	2466.384519
864.214303	2426.055288
864.526696	2451.009000
864.839045	2472.938019
865.151353	2450.504885
865.463619	2469.661269
865.775842	2458.066615
866.088023	2455.293981
866.400162	2444.959615
866.712258	2446.219904
867.024313	2482.012096
867.336325	2473.442135
867.648296	2457.058385
867.960224	2443.195212
868.272110	2459.074846
868.583954	2436.389654
868.895755	2465.124231
869.207515	2446.976077
869.519233	2450.252827
869.830909	2452.017231
870.142542	2455.546038
870.454134	2470.165385
870.765684	2459.074846
871.077191	2465.124231
871.388657	2448.236365
871.700081	2472.685962
872.011463	2462.351596
872.322803	2456.050154
872.634101	2461.343365
872.945357	2469.913327
873.256571	2453.025462
873.567744	2460.839250
873.878874	2461.091308
874.189963	2472.938019
874.501010	2463.359827
874.812015	2446.471962
875.122979	2463.863942
875.433900	2457.058385
875.744780	2457.814558
876.055618	2438.910231
876.366415	2467.896865
876.677169	2445.463731
876.987882	2444.959615
877.298554	2463.359827
877.609183	2465.124231
877.919771	2448.992538
878.230317	2464.368058
878.540822	2432.860846
878.851285	2472.433904
879.161707	2472.938019
879.472087	2440.170519
879.782425	2473.694192
880.092722	2454.537808
880.402977	2470.165385
880.713191	2454.789865
881.023363	2470.921558
881.333494	2456.050154
881.643583	2451.513115
881.953631	2444.959615
882.263637	2439.162288
882.573602	2483.020327
882.883526	2429.079981
883.193408	2454.789865
883.503248	2462.855712
883.813048	2451.513115
884.122806	2461.091308
884.432522	2458.570731
884.742197	2468.148923
885.051831	2453.025462
885.361424	2462.603654
885.670975	2477.475058
885.980485	2435.885538
886.289954	2460.839250
886.599382	2482.516212
886.908768	2470.417442
887.218113	2469.409212
887.527417	2462.351596
887.836680	2471.929788
888.145901	2460.587192
888.455082	2455.293981
888.764221	2453.277519
889.073319	2467.896865
889.382376	2441.682865
889.691392	2460.839250
890.000366	2462.603654
890.309300	2482.264154
890.618193	2469.409212
890.927044	2456.302212
891.235855	2491.590288
891.544625	2454.033692
891.853353	2455.546038
892.162041	2477.223000
892.470687	2466.384519
892.779293	2473.190077
893.087858	2441.682865
893.396381	2439.918462
893.704864	2455.293981
894.013306	2466.636577
894.321707	2455.546038
894.630068	2464.620115
894.938387	2456.302212
895.246665	2461.091308
895.554903	2471.173615
895.863100	2469.409212
896.171256	2471.173615
896.479371	2441.430808
896.787446	2456.806327
897.095480	2485.036788
897.403473	2458.066615
897.711425	2464.872173
898.019336	2469.409212
898.327207	2434.625250
898.635038	2483.524442
898.942827	2455.293981
899.250576	2463.863942
899.558284	2448.488423
899.865952	2459.831019
900.173579	2462.351596
900.481165	2478.987404
900.788711	2469.409212
901.096216	2455.041923
901.403681	2467.392750
901.711105	2452.269288
902.018489	2464.116000
902.325832	2460.587192
902.633135	2452.017231
902.940397	2456.050154
903.247619	2444.455500
903.554800	2465.124231
903.861941	2479.995635
904.169041	2457.058385
904.476101	2450.504885
904.783121	2429.836154
905.090100	2443.195212
905.397039	2451.009000
905.703938	2441.934923
906.010796	2481.760038
906.317614	2427.567635
906.624391	2468.653038
906.931129	2458.570731
907.237826	2458.318673
907.544483	2481.255923
907.851099	2447.732250
908.157675	2452.521346
908.464211	2453.025462
908.770707	2464.116000
909.077163	2465.376288
909.383578	2448.236365
909.689954	2441.430808
909.996289	2449.496654
910.302584	2461.595423
910.608839	2462.351596
910.915054	2477.727115
911.221229	2450.000769
911.527363	2445.211673
911.833458	2456.302212
912.139513	2443.951385
912.445527	2469.661269
912.751502	2445.715788
913.057436	2455.293981
913.363331	2439.918462
913.669186	2473.190077
913.975000	2450.504885
914.280775	2477.727115
914.586510	2466.888635
914.892205	2460.335135
915.197859	2433.364962
915.503475	2444.203442
915.809050	2473.946250
916.114585	2458.822788
916.420081	2470.669500
916.725536	2431.600558
917.030952	2476.970942
917.336328	2458.822788
917.641665	2454.537808
917.946961	2433.364962
918.252218	2447.480192
918.557435	2450.756942
918.862612	2462.099538
919.167750	2465.880404
919.472848	2477.727115
919.777906	2430.592327
920.082925	2474.702423
920.387904	2439.162288
920.692843	2454.789865
920.997743	2453.025462
921.302603	2480.499750
921.607423	2457.814558
921.912204	2445.463731
922.216946	2453.529577
922.521647	2445.463731
922.826310	2465.880404
923.130932	2444.707558
923.435516	2475.710654
923.740059	2440.422577
924.044564	2447.228135
924.349028	2459.326904
924.653454	2449.244596
924.957840	2455.293981
925.262186	2448.740481
925.566493	2457.058385
925.870761	2454.285750
926.174989	2444.203442
926.479178	2434.121135
926.783328	2481.507981
927.087438	2452.773404
927.391509	2433.364962
927.695541	2450.000769
927.999533	2451.009000
928.303486	2470.669500
928.607400	2460.083077
928.911275	2443.699327
929.215110	2429.079981
929.518906	2445.211673
929.822663	2437.649942
930.126381	2451.513115
930.430060	2484.532673
930.733699	2456.554269
931.037299	2451.261058
931.340861	2460.335135
931.644383	2467.140692
931.947866	2457.562500
932.251309	2438.658173
932.554714	2453.025462
932.858080	2471.173615
933.161407	2452.269288
933.464694	2457.562500
933.767943	2437.397885
934.071153	2479.491519
934.374323	2450.756942
934.677455	2455.798096
934.980548	2458.570731
935.283602	2459.578962
935.586617	2465.376288
935.889593	2470.921558
936.192530	2441.178750
936.495428	2444.959615
936.798287	2449.244596
937.101108	2490.330000
937.403890	2459.326904
937.706632	2460.335135
938.009336	2466.132462
938.312002	2460.083077
938.614628	2451.765173
938.917216	2487.305308
939.219765	2478.231231
939.522275	2450.000769
939.824747	2462.603654
940.127179	2448.488423
940.429573	2452.521346
940.731929	2454.033692
941.034246	2440.170519
941.336524	2414.460635
941.638763	2420.005904
941.940964	2457.814558
942.243126	2450.000769
942.545250	2458.318673
942.847335	2453.781635
943.149381	2465.880404
943.451389	2440.422577
943.753359	2455.798096
944.055290	2438.154058
944.357182	2476.214769
944.659036	2455.041923
944.960851	2473.442135
945.262628	2462.603654
945.564367	2445.463731
945.866067	2479.743577
946.167729	2469.913327
946.469352	2443.951385
946.770937	2441.430808
947.072484	2461.091308
947.373992	2459.074846
947.675462	2452.773404
947.976893	2460.335135
948.278286	2456.302212
948.579641	2466.132462
948.880958	2459.326904
949.182236	2465.628346
949.483476	2455.041923
949.784678	2482.516212
950.085841	2473.442135
950.386967	2451.009000
950.688054	2450.000769
950.989103	2465.628346
951.290114	2447.228135
951.591087	2473.694192
951.892021	2446.976077
952.192917	2473.694192
952.493776	2434.121135
952.794596	2457.814558
953.095378	2443.447269
953.396122	2470.165385
953.696828	2475.458596
953.997496	2426.811462
954.298126	2466.888635
954.598718	2448.236365
954.899272	2454.285750
955.199788	2437.145827
955.500266	2480.247692
955.800706	2452.269288
956.101108	2430.340269
956.401472	2474.198308
956.701798	2442.186981
957.002087	2475.206538
957.302337	2457.310442
957.602550	2447.732250
957.902724	2460.839250
958.202861	2481.255923
958.502960	2451.513115
958.803022	2458.318673
959.103045	2436.137596
959.403031	2460.335135
959.702979	2446.471962
960.002889	2458.318673
960.302762	2451.513115
960.602596	2450.504885
960.902393	2434.121135
961.202153	2450.000769
961.501875	2459.831019
961.801559	2463.107769
962.101205	2450.756942
962.400814	2484.280615
962.700385	2464.872173
962.999918	2468.148923
963.299414	2445.463731
963.598873	2448.488423
963.898293	2452.269288
964.197677	2466.132462
964.497022	2449.748712
964.796331	2456.302212
965.095601	2465.880404
965.394835	2445.463731
965.694030	2480.499750
965.993189	2473.946250
966.292309	2470.921558
966.591393	2422.274423
966.890439	2453.781635
967.189447	2472.181846
967.488419	2452.521346
967.787353	2444.959615
968.086249	2443.699327
968.385108	2482.516212
968.683930	2455.293981
968.982714	2500.664365
969.281462	2461.343365
969.580172	2467.392750
969.878844	2470.165385
970.177480	2472.433904
970.476078	2444.203442
970.774639	2476.214769
971.073162	2431.600558
971.371649	2470.669500
971.670098	2446.724019
971.968510	2447.732250
972.266885	2439.414346
972.565223	2447.984308
972.863524	2453.781635
973.161788	2453.781635
973.460014	2473.694192
973.758204	2441.178750
974.056356	2484.784731
974.354471	2433.617019
974.652550	2459.831019
974.950591	2477.475058
975.248595	2463.359827
975.546563	2430.844385
975.844493	2471.173615
976.142386	2450.000769
976.440243	2491.086173
976.738062	2440.422577
977.035845	2468.653038
977.333590	2461.091308
977.631299	2451.009000
977.928971	2415.972981
978.226606	2455.798096
978.524204	2433.364962
978.821765	2475.710654
979.119290	2464.872173
979.416777	2447.480192
979.714228	2451.765173
980.011642	2452.521346
980.309020	2466.636577
980.606360	2464.872173
980.903664	2453.781635
981.200931	2467.140692
981.498162	2459.831019
981.795356	2457.058385
982.092513	2439.666404
982.389633	2471.929788
982.686717	2461.847481
982.983764	2436.137596
983.280775	2472.685962
983.577749	2445.967846
983.874686	2462.351596
984.171587	2446.471962
984.468451	2456.302212
984.765279	2473.442135
985.062070	2435.381423
985.358824	2458.318673
985.655543	2436.893769
985.952224	2454.537808
986.248869	2452.269288
986.545478	2465.376288
986.842050	2470.669500
987.138586	2443.447269
987.435086	2477.475058
987.731549	2456.050154
988.027975	2451.513115
988.324366	2454.285750
988.620719	2460.839250
988.917037	2457.058385
989.213318	2452.269288
989.509563	2437.397885
989.805772	2475.962712
990.101944	2490.582058
990.398080	2464.620115
990.694180	2434.877308
990.990244	2456.302212
991.286271	2447.480192
991.582262	2449.496654
991.878217	2462.099538
992.174136	2491.086173
992.470019	2456.554269
992.765865	2471.677731
993.061676	2459.326904
993.357450	2455.041923
993.653188	2460.335135
993.948890	2441.430808
994.244556	2456.050154
994.540186	2472.181846
994.835780	2434.877308
995.131337	2460.839250
995.426859	2470.669500
995.722345	2444.455500
996.017795	2459.326904
996.313208	2466.888635
996.608586	2440.926692
996.903928	2474.198308
997.199234	2456.806327
997.494504	2447.984308
997.789738	2435.381423
998.084936	2465.628346
998.380099	2454.285750
998.675225	2447.732250
998.970316	2447.984308
999.265371	2434.877308
999.560390	2470.165385
999.855373	2454.033692
1000.150320	2466.888635
1000.445232	2458.318673
1000.740108	2449.496654
1001.034948	2434.121135
1001.329752	2447.984308
1001.624521	2446.219904
1001.919254	2443.951385
1002.213951	2476.214769
1002.508613	2435.885538
1002.803239	2484.028558
1003.097829	2460.587192
1003.392384	2446.724019
1003.686903	2442.439038
1003.981386	2476.718885
1004.275834	2442.439038
1004.570246	2472.938019
1004.864623	2448.740481
1005.158964	2450.252827
1005.453270	2435.381423
1005.747540	2476.466827
1006.041775	2433.617019
1006.335974	2450.504885
1006.630138	2448.740481
1006.924266	2464.368058
1007.218359	2444.455500
1007.512416	2449.496654
1007.806438	2448.236365
1008.100425	2459.831019
1008.394376	2444.203442
1008.688292	2452.521346
1008.982172	2471.425673
1009.276017	2436.137596
1009.569827	2460.083077
1009.863602	2438.154058
1010.157341	2451.765173
1010.451045	2482.264154
1010.744714	2463.863942
1011.038347	2452.269288
1011.331945	2478.987404
1011.625508	2450.252827
1011.919036	2455.293981
1012.212528	2461.091308
1012.505986	2431.852615
1012.799408	2465.628346
1013.092795	2444.959615
1013.386147	2456.554269
1013.679464	2455.546038
1013.972745	2452.269288
1014.265992	2444.959615
1014.559204	2462.351596
1014.852380	2480.499750
1015.145521	2442.186981
1015.438628	2458.570731
1015.731699	2441.430808
1016.024736	2466.636577
1016.317737	2450.504885
1016.610703	2468.148923
1016.903635	2453.529577
1017.196531	2456.554269
1017.489393	2479.743577
1017.782219	2453.781635
1018.075011	2454.537808
1018.367768	2452.017231
1018.660490	2459.831019
1018.953177	2459.831019
1019.245829	2459.831019
