Dividing Wavelength (nm)	Counts (n)	Slit_number_1_of_a_total_of_40	
326.493990	2062.083981
326.888308	2062.083981
327.282561	2062.083981
327.676750	2026.291788
328.070874	2008.899808
328.464933	2032.593231
328.858929	2034.105577
329.252859	2066.873077
329.646726	2069.393654
330.040528	2069.897769
330.434265	2101.152923
330.827938	2114.511981
331.221547	2114.764038
331.615091	2155.093269
332.008571	2178.786692
332.401986	2206.513038
332.795338	2218.107692
333.188625	2249.362846
333.581847	2264.234250
333.975006	2274.820673
334.368100	2296.245577
334.761129	2308.596404
335.154095	2304.059365
335.546996	2371.862885
335.939833	2345.648885
336.332606	2361.780577
336.725315	2385.221942
337.117960	2375.643750
337.510540	2396.816596
337.903056	2417.737385
338.295508	2414.208577
338.687896	2439.414346
339.080220	2420.257962
339.472480	2452.269288
339.864676	2456.050154
340.256807	2431.348500
340.648875	2429.584096
341.040879	2458.066615
341.432818	2454.033692
341.824694	2431.348500
342.216506	2463.359827
342.608253	2438.658173
342.999937	2479.239462
343.391557	2476.718885
343.783113	2460.083077
344.174605	2472.685962
344.566033	2429.079981
344.957397	2453.781635
345.348697	2448.740481
345.739934	2445.715788
346.131106	2473.442135
346.522215	2430.592327
346.913260	2423.030596
347.304241	2413.452404
347.695159	2447.480192
348.086012	2415.468865
348.476802	2451.009000
348.867528	2430.844385
349.258191	2386.482231
349.648789	2407.150962
350.039324	2419.753846
350.429796	2405.890673
350.820203	2395.808365
351.210548	2447.732250
351.600828	2421.770308
351.991045	2399.337173
352.381198	2405.386558
352.771288	2455.041923
353.161314	2426.559404
353.551276	2434.625250
353.941175	2433.112904
354.331010	2406.646846
354.720782	2414.208577
355.110490	2407.655077
355.500135	2404.630385
355.889717	2406.142731
356.279235	2408.411250
356.668689	2426.811462
357.058080	2399.841288
357.447408	2407.655077
357.836672	2427.567635
358.225873	2414.208577
358.615010	2439.414346
359.004084	2413.452404
359.393095	2419.501788
359.782043	2405.386558
360.170927	2410.427712
360.559748	2439.414346
360.948505	2429.332038
361.337199	2439.414346
361.725830	2414.208577
362.114398	2414.712692
362.502903	2417.485327
362.891344	2443.699327
363.279722	2433.617019
363.668037	2429.584096
364.056289	2410.175654
364.444478	2400.597462
364.832603	2430.592327
365.220665	2448.488423
365.608665	2432.104673
365.996601	2429.079981
366.384474	2424.038827
366.772284	2460.335135
367.160031	2389.002808
367.547715	2447.480192
367.935336	2459.831019
368.322893	2430.088212
368.710388	2408.663308
369.097820	2453.277519
369.485189	2402.361865
369.872495	2421.518250
370.259738	2445.967846
370.646918	2407.150962
371.034035	2410.931827
371.421090	2407.907135
371.808081	2429.079981
372.195010	2432.356731
372.581875	2397.824827
372.968678	2427.063519
373.355418	2408.663308
373.742096	2425.803231
374.128710	2423.534712
374.515262	2405.134500
374.901751	2449.244596
375.288177	2442.439038
375.674540	2417.989442
376.060841	2428.071750
376.447079	2449.496654
376.833254	2425.047058
377.219367	2448.488423
377.605417	2418.241500
377.991404	2451.513115
378.377329	2423.030596
378.763191	2441.178750
379.148991	2411.940058
379.534727	2421.770308
379.920402	2437.649942
380.306013	2440.674635
380.691563	2453.781635
381.077049	2433.364962
381.462474	2443.951385
381.847835	2462.603654
382.233134	2453.781635
382.618371	2456.554269
383.003545	2442.439038
383.388657	2410.931827
383.773706	2427.567635
384.158693	2440.170519
384.543618	2454.033692
384.928480	2452.017231
385.313280	2448.488423
385.698017	2447.732250
386.082692	2452.017231
386.467305	2418.493558
386.851856	2448.740481
387.236344	2435.633481
387.620770	2428.575865
388.005133	2444.707558
388.389435	2453.529577
388.773674	2467.644808
389.157851	2467.896865
389.541965	2443.195212
389.926018	2441.682865
390.310008	2443.195212
390.693936	2418.997673
391.077802	2427.315577
391.461606	2427.315577
391.845348	2444.455500
392.229027	2417.989442
392.612645	2440.674635
392.996200	2459.326904
393.379694	2415.972981
393.763125	2441.178750
394.146494	2444.203442
394.529801	2445.463731
394.913047	2421.014135
395.296230	2429.836154
395.679351	2445.211673
396.062410	2444.455500
396.445408	2426.811462
396.828343	2450.756942
397.211217	2474.450365
397.594028	2426.307346
397.976778	2459.326904
398.359466	2451.765173
398.742092	2447.984308
399.124656	2454.033692
399.507158	2433.617019
399.889598	2450.756942
400.271977	2463.863942
400.654294	2442.691096
401.036549	2447.732250
401.418742	2497.639673
401.800874	2449.496654
402.182944	2441.430808
402.564952	2444.455500
402.946898	2476.466827
403.328783	2462.603654
403.710606	2437.145827
404.092367	2447.732250
404.474067	2453.277519
404.855705	2449.496654
405.237282	2448.488423
405.618797	2455.293981
406.000250	2463.611885
406.381642	2457.058385
406.762972	2460.587192
407.144240	2452.521346
407.525447	2446.724019
407.906593	2441.430808
408.287677	2457.814558
408.668700	2439.162288
409.049661	2497.387615
409.430560	2423.786769
409.811399	2443.951385
410.192176	2446.724019
410.572891	2472.433904
410.953545	2449.748712
411.334138	2474.954481
411.714669	2447.984308
412.095139	2455.798096
412.475547	2449.496654
412.855894	2456.302212
413.236180	2443.699327
413.616405	2447.228135
413.996568	2469.661269
414.376670	2475.710654
414.756711	2445.967846
415.136691	2465.880404
415.516609	2456.050154
415.896466	2458.822788
416.276262	2452.521346
416.655997	2445.715788
417.035670	2438.910231
417.415283	2442.439038
417.794834	2472.938019
418.174324	2441.682865
418.553753	2458.822788
418.933121	2447.732250
419.312428	2457.814558
419.691674	2456.050154
420.070859	2447.732250
420.449983	2455.546038
420.829045	2447.228135
421.208047	2464.872173
421.586988	2453.025462
421.965867	2473.946250
422.344686	2455.798096
422.723444	2474.450365
423.102141	2450.252827
423.480777	2439.666404
423.859352	2431.348500
424.237866	2447.228135
424.616319	2457.814558
424.994712	2439.666404
425.373044	2436.137596
425.751314	2459.578962
426.129524	2439.414346
426.507673	2483.524442
426.885762	2434.625250
427.263789	2455.546038
427.641756	2436.389654
428.019662	2454.285750
428.397508	2446.976077
428.775292	2435.633481
429.153016	2469.409212
429.530679	2478.231231
429.908282	2455.041923
430.285824	2445.967846
430.663305	2454.033692
431.040726	2440.674635
431.418086	2440.926692
431.795385	2472.181846
432.172624	2478.483288
432.549802	2468.148923
432.926920	2436.893769
433.303977	2479.491519
433.680974	2483.272385
434.057910	2474.954481
434.434786	2470.921558
434.811601	2432.356731
435.188355	2457.814558
435.565050	2470.165385
435.941683	2467.392750
436.318257	2449.496654
436.694770	2454.537808
437.071222	2460.839250
437.447614	2458.570731
437.823946	2463.107769
438.200218	2467.392750
438.576429	2465.376288
438.952580	2479.743577
439.328670	2435.129365
439.704700	2465.628346
440.080670	2432.860846
440.456580	2432.356731
440.832429	2468.653038
441.208218	2444.959615
441.583947	2479.743577
441.959616	2446.976077
442.335224	2463.359827
442.710773	2452.521346
443.086261	2449.496654
443.461689	2476.214769
443.837057	2472.938019
444.212365	2478.987404
444.587612	2460.839250
444.962800	2455.041923
445.337927	2480.247692
445.712995	2491.338231
446.088002	2458.066615
446.462949	2451.009000
446.837837	2462.855712
447.212664	2468.653038
447.587431	2487.809423
447.962139	2474.450365
448.336786	2433.869077
448.711374	2480.499750
449.085901	2458.570731
449.460369	2487.809423
449.834776	2471.173615
450.209124	2481.760038
450.583412	2467.392750
450.957640	2462.603654
451.331808	2474.702423
451.705917	2465.880404
452.079965	2479.995635
452.453954	2467.896865
452.827883	2472.938019
453.201752	2457.310442
453.575562	2472.938019
453.949311	2464.368058
454.323001	2478.735346
454.696632	2457.058385
455.070202	2468.905096
455.443713	2465.124231
455.817164	2465.628346
456.190556	2488.817654
456.563888	2477.727115
456.937160	2479.995635
457.310373	2472.433904
457.683526	2471.677731
458.056619	2464.872173
458.429653	2468.653038
458.802628	2491.590288
459.175542	2463.107769
459.548398	2469.661269
459.921194	2448.992538
460.293930	2487.557365
460.666607	2481.507981
461.039224	2496.379385
461.411782	2462.603654
461.784280	2449.496654
462.156719	2480.247692
462.529099	2470.921558
462.901419	2482.516212
463.273680	2477.223000
463.645882	2476.214769
464.018024	2467.140692
464.390106	2467.896865
464.762130	2467.644808
465.134094	2453.277519
465.505999	2465.880404
465.877845	2462.603654
466.249631	2468.653038
466.621358	2472.433904
466.993026	2463.359827
467.364634	2458.318673
467.736184	2457.562500
468.107674	2415.468865
468.479105	2459.831019
468.850477	2487.053250
469.221790	2466.132462
469.593043	2473.946250
469.964238	2486.549135
470.335373	2459.074846
470.706449	2483.020327
471.077467	2473.946250
471.448425	2468.148923
471.819324	2458.318673
472.190164	2471.425673
472.560945	2466.384519
472.931667	2469.157154
473.302330	2474.954481
473.672934	2463.611885
474.043479	2477.727115
474.413965	2471.425673
474.784393	2472.181846
475.154761	2486.045019
475.525070	2483.524442
475.895321	2465.880404
476.265513	2455.546038
476.635645	2455.546038
477.005719	2472.938019
477.375734	2492.094404
477.745691	2470.165385
478.115588	2491.338231
478.485427	2457.058385
478.855207	2477.223000
479.224928	2453.529577
479.594591	2443.447269
479.964194	2461.595423
480.333739	2467.644808
480.703226	2450.756942
481.072653	2443.699327
481.442022	2464.116000
481.811333	2457.310442
482.180584	2504.445231
482.549777	2471.677731
482.918912	2484.784731
483.287988	2481.507981
483.657005	2471.677731
484.025964	2480.499750
484.394864	2483.524442
484.763706	2463.863942
485.132489	2476.214769
485.501213	2471.425673
485.869879	2494.362923
486.238487	2448.740481
486.607036	2469.913327
486.975527	2467.140692
487.343959	2474.702423
487.712333	2484.784731
488.080648	2467.644808
488.448905	2489.321769
488.817104	2457.310442
489.185244	2500.664365
489.553326	2467.140692
489.921350	2453.025462
490.289315	2470.417442
490.657222	2472.181846
491.025070	2456.806327
491.392861	2478.483288
491.760593	2469.661269
492.128267	2466.888635
492.495883	2484.280615
492.863440	2459.831019
493.230939	2468.905096
493.598380	2497.387615
493.965763	2458.822788
494.333088	2468.905096
494.700354	2475.206538
495.067563	2474.702423
495.434713	2458.318673
495.801805	2452.773404
496.168839	2470.669500
496.535815	2478.231231
496.902733	2476.970942
497.269593	2496.127327
497.636395	2455.041923
498.003139	2464.368058
498.369825	2453.529577
498.736453	2490.330000
499.103023	2466.888635
499.469535	2484.280615
499.835989	2471.173615
500.202385	2464.620115
500.568723	2462.351596
500.935003	2468.905096
501.301226	2452.017231
501.667390	2467.644808
502.033497	2476.718885
502.399546	2468.148923
502.765537	2455.546038
503.131470	2463.863942
503.497345	2480.247692
503.863163	2467.392750
504.228923	2454.033692
504.594625	2479.491519
504.960269	2459.578962
505.325856	2452.269288
505.691385	2481.760038
506.056856	2452.017231
506.422270	2445.715788
506.787625	2486.297077
507.152924	2460.587192
507.518164	2466.636577
507.883347	2487.305308
508.248472	2476.466827
508.613540	2491.590288
508.978550	2477.475058
509.343503	2491.842346
509.708398	2493.102635
510.073236	2478.483288
510.438016	2490.834115
510.802738	2473.190077
511.167403	2469.913327
511.532010	2445.967846
511.896561	2492.094404
512.261053	2485.540904
512.625488	2475.458596
512.989866	2469.913327
513.354186	2462.351596
513.718449	2464.872173
514.082655	2489.825885
514.446803	2476.718885
514.810894	2479.239462
515.174927	2470.669500
515.538904	2463.359827
515.902822	2464.116000
516.266684	2483.524442
516.630488	2476.970942
516.994235	2470.921558
517.357925	2501.672596
517.721558	2454.033692
518.085133	2454.537808
518.448651	2474.702423
518.812112	2449.244596
519.175516	2496.883500
519.538863	2472.685962
519.902152	2472.433904
520.265385	2480.751808
520.628560	2474.954481
520.991678	2465.628346
521.354739	2492.850577
521.717743	2459.074846
522.080690	2455.293981
522.443580	2476.970942
522.806413	2472.433904
523.169189	2477.727115
523.531908	2476.466827
523.894569	2485.288846
524.257174	2438.154058
524.619722	2474.702423
524.982213	2478.987404
525.344647	2487.305308
525.707025	2468.400981
526.069345	2455.293981
526.431608	2491.590288
526.793815	2487.557365
527.155964	2481.255923
527.518057	2487.305308
527.880093	2479.239462
528.242072	2487.305308
528.603995	2476.970942
528.965860	2472.938019
529.327669	2467.140692
529.689421	2463.359827
530.051117	2468.905096
530.412755	2506.713750
530.774337	2449.244596
531.135862	2485.540904
531.497331	2452.017231
531.858743	2496.127327
532.220098	2475.458596
532.581396	2479.995635
532.942638	2475.962712
533.303824	2496.127327
533.664953	2502.176712
534.026025	2498.395846
534.387040	2503.689058
534.747999	2474.198308
535.108902	2487.557365
535.469748	2458.318673
535.830537	2498.143788
536.191270	2489.825885
536.551947	2480.499750
536.912567	2467.392750
537.273131	2492.850577
537.633638	2447.480192
537.994089	2481.255923
538.354483	2486.549135
538.714821	2476.214769
539.075103	2496.379385
539.435328	2456.302212
539.795497	2482.768269
540.155609	2489.321769
540.515665	2466.384519
540.875665	2506.461692
541.235609	2480.247692
541.595496	2464.620115
541.955328	2468.400981
542.315102	2507.974038
542.674821	2476.466827
543.034483	2508.226096
543.394090	2474.702423
543.753640	2499.152019
544.113134	2487.053250
544.472571	2486.801192
544.831953	2490.834115
545.191278	2494.867038
545.550548	2481.003865
545.909761	2481.003865
546.268918	2481.507981
546.628019	2493.858808
546.987064	2451.009000
547.346053	2476.214769
547.704986	2474.198308
548.063863	2474.702423
548.422684	2482.264154
548.781449	2456.554269
549.140158	2458.570731
549.498811	2474.954481
549.857408	2474.450365
550.215949	2482.768269
550.574434	2470.417442
550.932864	2480.247692
551.291237	2472.685962
551.649555	2497.891731
552.007817	2465.124231
552.366022	2473.694192
552.724173	2487.053250
553.082267	2486.045019
553.440305	2450.252827
553.798288	2467.896865
554.156215	2487.053250
554.514086	2444.707558
554.871902	2486.549135
555.229661	2502.176712
555.587365	2453.529577
555.945014	2479.743577
556.302606	2492.850577
556.660143	2464.620115
557.017625	2503.437000
557.375050	2507.721981
557.732421	2484.532673
558.089735	2484.784731
558.446994	2490.834115
558.804197	2483.524442
559.161345	2485.288846
559.518437	2436.137596
559.875474	2498.395846
560.232455	2479.743577
560.589381	2474.954481
560.946251	2488.061481
561.303065	2488.565596
561.659825	2460.587192
562.016528	2461.091308
562.373177	2483.776500
562.729770	2477.223000
563.086307	2482.264154
563.442789	2498.647904
563.799216	2455.798096
564.155587	2504.697288
564.511904	2505.957577
564.868164	2473.694192
565.224370	2458.822788
565.580520	2466.888635
565.936615	2481.760038
566.292654	2474.450365
566.648638	2470.165385
567.004567	2468.148923
567.360441	2474.954481
567.716260	2488.061481
568.072023	2490.834115
568.427732	2477.223000
568.783385	2472.433904
569.138982	2463.863942
569.494525	2477.979173
569.850013	2487.053250
570.205445	2466.888635
570.560823	2461.091308
570.916145	2482.768269
571.271412	2464.872173
571.626625	2498.647904
571.981782	2465.880404
572.336884	2488.565596
572.691931	2462.855712
573.046923	2494.362923
573.401860	2447.228135
573.756743	2498.395846
574.111570	2469.661269
574.466342	2455.293981
574.821059	2496.883500
575.175722	2488.817654
575.530330	2451.765173
575.884882	2492.346462
576.239380	2468.905096
576.593823	2469.661269
576.948211	2472.433904
577.302544	2490.582058
577.656823	2490.330000
578.011047	2489.825885
578.365216	2461.847481
578.719330	2474.450365
579.073389	2472.685962
579.427394	2491.590288
579.781344	2460.335135
580.135239	2488.313538
580.489080	2494.362923
580.842866	2482.516212
581.196597	2487.305308
581.550273	2483.524442
581.903895	2469.157154
582.257463	2512.006962
582.610975	2478.231231
582.964434	2441.430808
583.317837	2483.776500
583.671186	2498.899962
584.024481	2453.277519
584.377721	2492.598519
584.730906	2473.946250
585.084037	2475.710654
585.437113	2476.718885
585.790135	2504.193173
586.143103	2484.784731
586.496016	2494.110865
586.848874	2473.694192
587.201679	2488.817654
587.554428	2503.437000
587.907124	2494.867038
588.259765	2474.954481
588.612352	2480.247692
588.964884	2472.685962
589.317362	2509.234327
589.669786	2487.557365
590.022155	2463.611885
590.374470	2485.036788
590.726731	2493.858808
591.078937	2476.718885
591.431090	2492.346462
591.783188	2488.061481
592.135232	2487.053250
592.487222	2467.896865
592.839157	2463.359827
593.191038	2506.713750
593.542866	2483.776500
593.894639	2475.710654
594.246358	2477.979173
594.598022	2462.855712
594.949633	2515.031654
595.301190	2495.119096
595.652692	2485.288846
596.004141	2507.217865
596.355535	2475.710654
596.706876	2475.710654
597.058162	2463.107769
597.409395	2491.590288
597.760573	2483.272385
598.111698	2470.669500
598.462768	2466.888635
598.813785	2480.751808
599.164748	2478.483288
599.515657	2482.516212
599.866511	2480.499750
600.217312	2442.186981
600.568060	2469.157154
600.918753	2484.280615
601.269392	2493.102635
601.619978	2467.392750
601.970510	2466.636577
602.320988	2478.987404
602.671412	2487.809423
603.021783	2470.165385
603.372100	2497.639673
603.722363	2487.053250
604.072572	2464.368058
604.422728	2487.305308
604.772830	2484.532673
605.122878	2469.913327
605.472872	2466.132462
605.822813	2462.099538
606.172701	2466.636577
606.522534	2468.653038
606.872314	2499.656135
607.222041	2484.280615
607.571714	2485.036788
607.921333	2461.091308
608.270899	2473.946250
608.620411	2458.318673
608.969870	2461.091308
609.319276	2498.143788
609.668627	2468.653038
610.017926	2481.255923
610.367171	2502.176712
610.716362	2477.727115
611.065500	2479.239462
611.414585	2474.450365
611.763616	2463.863942
612.112594	2488.061481
612.461518	2454.033692
612.810389	2502.428769
613.159207	2478.735346
613.507971	2457.310442
613.856682	2476.970942
614.205340	2506.461692
614.553945	2477.475058
614.902496	2478.735346
615.250994	2467.896865
615.599439	2503.184942
615.947830	2490.582058
616.296169	2464.620115
616.644454	2476.214769
616.992686	2487.305308
617.340864	2447.732250
617.688990	2477.223000
618.037063	2484.280615
618.385082	2473.694192
618.733048	2451.009000
619.080961	2471.677731
619.428821	2470.921558
619.776628	2457.310442
620.124382	2463.359827
620.472083	2476.970942
620.819731	2468.400981
621.167326	2473.946250
621.514868	2471.425673
621.862357	2482.264154
622.209793	2482.264154
622.557176	2483.020327
622.904506	2469.913327
623.251783	2470.165385
623.599007	2448.236365
623.946179	2462.351596
624.293297	2470.921558
624.640363	2432.104673
624.987376	2478.987404
625.334336	2485.792962
625.681243	2482.768269
626.028097	2431.096442
626.374899	2465.628346
626.721647	2475.206538
627.068343	2488.061481
627.414987	2464.368058
627.761577	2475.962712
628.108115	2462.603654
628.454600	2474.198308
628.801032	2478.231231
629.147412	2483.272385
629.493739	2470.921558
629.840014	2465.376288
630.186236	2488.817654
630.532405	2470.921558
630.878521	2496.883500
631.224585	2478.231231
631.570597	2475.710654
631.916556	2489.069712
632.262462	2486.297077
632.608316	2469.157154
632.954117	2479.491519
633.299866	2486.549135
633.645562	2475.710654
633.991206	2493.354692
634.336797	2486.297077
634.682336	2483.776500
635.027823	2471.425673
635.373257	2477.979173
635.718639	2464.368058
636.063968	2489.069712
636.409245	2479.491519
636.754470	2487.305308
637.099642	2497.135558
637.444762	2472.433904
637.789829	2494.362923
638.134845	2482.768269
638.479808	2471.425673
638.824719	2475.206538
639.169577	2483.020327
639.514383	2457.310442
639.859137	2486.801192
640.203839	2487.809423
640.548489	2456.050154
640.893086	2466.888635
641.237632	2476.718885
641.582125	2494.614981
641.926566	2461.343365
642.270955	2470.165385
642.615292	2481.003865
642.959576	2467.392750
643.303809	2476.466827
643.647990	2476.214769
643.992118	2477.223000
644.336195	2453.277519
644.680219	2480.247692
645.024192	2479.743577
645.368112	2454.537808
645.711981	2451.261058
646.055797	2492.850577
646.399562	2495.875269
646.743274	2465.376288
647.086935	2479.743577
647.430544	2457.562500
647.774101	2473.442135
648.117606	2454.285750
648.461059	2474.450365
648.804460	2477.727115
649.147810	2476.466827
649.491108	2495.371154
649.834354	2478.735346
650.177548	2465.124231
650.520690	2463.611885
650.863781	2500.160250
651.206820	2500.160250
651.549807	2461.847481
651.892742	2488.817654
652.235626	2494.362923
652.578458	2467.644808
652.921238	2474.450365
653.263967	2492.598519
653.606644	2473.694192
653.949269	2456.050154
654.291843	2488.313538
654.634365	2454.033692
654.976836	2484.280615
655.319255	2458.066615
655.661622	2497.639673
656.003938	2487.053250
656.346203	2464.872173
656.688416	2499.404077
657.030577	2463.359827
657.372687	2479.743577
657.714746	2482.516212
658.056753	2491.338231
658.398708	2483.020327
658.740612	2484.532673
659.082465	2464.872173
659.424266	2456.806327
659.766016	2474.954481
660.107715	2477.475058
660.449362	2465.880404
660.790958	2461.343365
661.132503	2488.313538
661.473996	2473.442135
661.815438	2510.242558
662.156829	2484.784731
662.498168	2499.908192
662.839456	2475.206538
663.180693	2503.184942
663.521879	2477.475058
663.863013	2474.450365
664.204097	2477.979173
664.545129	2471.677731
664.886110	2511.250788
665.227040	2491.590288
665.567918	2506.209635
665.908746	2458.318673
666.249522	2499.404077
666.590248	2481.003865
666.930922	2462.099538
667.271545	2487.809423
667.612118	2475.206538
667.952639	2464.116000
668.293109	2438.910231
668.633528	2465.376288
668.973896	2501.420538
669.314213	2496.379385
669.654480	2493.858808
669.994695	2482.012096
670.334859	2484.532673
670.674973	2484.028558
671.015035	2457.814558
671.355047	2491.086173
671.695008	2471.677731
672.034918	2487.557365
672.374777	2457.058385
672.714585	2491.842346
673.054342	2463.863942
673.394049	2488.313538
673.733705	2479.491519
674.073310	2493.354692
674.412864	2485.540904
674.752368	2463.611885
675.091820	2475.458596
675.431223	2454.537808
675.770574	2474.702423
676.109875	2464.368058
676.449125	2467.140692
676.788324	2483.776500
677.127473	2462.351596
677.466571	2476.466827
677.805619	2481.507981
678.144616	2477.979173
678.483562	2493.858808
678.822458	2457.562500
679.161303	2461.847481
679.500098	2476.718885
679.838842	2474.954481
680.177535	2471.677731
680.516179	2460.587192
680.854771	2471.677731
681.193314	2484.028558
681.531805	2456.302212
681.870247	2495.119096
682.208638	2447.228135
682.546978	2465.376288
682.885268	2480.499750
683.223508	2479.239462
683.561697	2477.727115
683.899836	2478.231231
684.237925	2467.140692
684.575963	2458.066615
684.913951	2445.211673
685.251889	2469.913327
685.589776	2452.017231
685.927614	2464.368058
686.265401	2484.532673
686.603137	2482.264154
686.940824	2494.867038
687.278460	2457.814558
687.616046	2466.384519
687.953582	2496.883500
688.291068	2472.433904
688.628504	2485.540904
688.965889	2487.557365
689.303224	2470.921558
689.640510	2481.760038
689.977745	2468.653038
690.314930	2463.107769
690.652065	2475.458596
690.989150	2474.450365
691.326185	2469.913327
691.663170	2464.116000
692.000105	2478.735346
692.336990	2489.069712
692.673825	2476.970942
693.010610	2506.461692
693.347345	2480.751808
693.684030	2474.702423
694.020665	2455.041923
694.357251	2485.540904
694.693786	2487.809423
695.030272	2475.458596
695.366707	2467.140692
695.703093	2481.760038
696.039429	2478.735346
696.375716	2484.028558
696.711952	2453.025462
697.048139	2481.507981
697.384276	2480.499750
697.720363	2486.549135
698.056400	2456.806327
698.392388	2488.061481
698.728326	2472.938019
699.064214	2503.184942
699.400053	2482.012096
699.735842	2479.239462
700.071581	2474.954481
700.407270	2474.702423
700.742910	2473.946250
701.078501	2482.012096
701.414042	2482.264154
701.749533	2476.466827
702.084974	2473.694192
702.420366	2459.831019
702.755709	2457.814558
703.091002	2468.653038
703.426246	2473.946250
703.761440	2460.335135
704.096584	2477.223000
704.431679	2482.012096
704.766725	2452.017231
705.101721	2470.921558
705.436668	2504.949346
705.771565	2473.694192
706.106413	2464.620115
706.441212	2452.521346
706.775961	2469.157154
707.110661	2478.483288
707.445311	2473.694192
707.779913	2477.475058
708.114465	2477.475058
708.448967	2480.247692
708.783421	2466.636577
709.117825	2481.255923
709.452180	2479.995635
709.786485	2491.590288
710.120742	2494.362923
710.454949	2469.661269
710.789107	2474.198308
711.123216	2489.825885
711.457275	2476.214769
711.791286	2477.727115
712.125247	2484.532673
712.459159	2495.119096
712.793023	2462.351596
713.126837	2464.116000
713.460602	2472.433904
713.794318	2457.562500
714.127985	2473.694192
714.461602	2463.863942
714.795171	2458.570731
715.128691	2461.343365
715.462162	2499.908192
715.795584	2470.669500
716.128957	2489.069712
716.462281	2475.962712
716.795556	2459.326904
717.128782	2463.359827
717.461960	2488.817654
717.795088	2477.475058
718.128167	2468.400981
718.461198	2471.173615
718.794180	2468.653038
719.127113	2492.850577
719.459997	2486.549135
719.792833	2457.814558
720.125619	2470.417442
720.458357	2486.549135
720.791046	2452.521346
721.123686	2486.549135
721.456278	2498.899962
721.788821	2474.702423
722.121315	2476.718885
722.453761	2455.798096
722.786158	2471.929788
723.118506	2504.445231
723.450805	2466.132462
723.783056	2457.814558
724.115259	2458.318673
724.447412	2477.727115
724.779518	2483.524442
725.111574	2500.916423
725.443582	2481.760038
725.775542	2474.702423
726.107453	2500.664365
726.439315	2484.532673
726.771129	2479.995635
727.102895	2460.335135
727.434612	2474.450365
727.766281	2467.140692
728.097901	2474.954481
728.429473	2464.620115
728.760996	2467.392750
729.092471	2474.198308
729.423897	2445.211673
729.755276	2446.724019
730.086606	2470.921558
730.417887	2463.107769
730.749120	2482.012096
731.080305	2484.784731
731.411442	2486.045019
731.742530	2475.710654
732.073570	2475.710654
732.404562	2490.582058
732.735506	2470.165385
733.066401	2470.417442
733.397249	2442.186981
733.728048	2465.880404
734.058798	2444.707558
734.389501	2459.074846
734.720156	2473.694192
735.050762	2473.946250
735.381320	2460.587192
735.711831	2472.433904
736.042293	2469.913327
736.372707	2470.417442
736.703073	2469.913327
737.033391	2482.264154
737.363661	2467.896865
737.693883	2451.261058
738.024056	2456.050154
738.354182	2483.020327
738.684260	2465.376288
739.014290	2481.507981
739.344272	2481.255923
739.674207	2493.858808
740.004093	2454.033692
740.333931	2498.647904
740.663722	2475.710654
740.993464	2491.086173
741.323159	2468.653038
741.652806	2481.507981
741.982405	2452.773404
742.311956	2493.354692
742.641460	2456.554269
742.970915	2479.491519
743.300323	2478.231231
743.629683	2451.261058
743.958996	2481.760038
744.288260	2458.318673
744.617477	2506.461692
744.946647	2484.784731
745.275768	2464.620115
745.604842	2484.280615
745.933869	2492.850577
746.262847	2474.450365
746.591778	2471.425673
746.920662	2460.335135
747.249498	2465.376288
747.578286	2496.631442
747.907027	2458.066615
748.235720	2501.168481
748.564365	2471.425673
748.892963	2510.242558
749.221514	2452.017231
749.550017	2484.784731
749.878473	2472.938019
750.206881	2460.083077
750.535242	2464.116000
750.863555	2475.962712
751.191821	2479.995635
751.520039	2462.351596
751.848210	2457.310442
752.176334	2466.132462
752.504411	2466.384519
752.832440	2465.628346
753.160421	2493.354692
753.488356	2452.269288
753.816243	2460.335135
754.144082	2476.466827
754.471875	2479.743577
754.799620	2470.165385
755.127318	2477.979173
755.454969	2486.297077
755.782572	2490.834115
756.110129	2457.814558
756.437638	2457.310442
756.765100	2471.929788
757.092515	2484.784731
757.419882	2458.570731
757.747203	2477.727115
758.074477	2473.190077
758.401703	2485.036788
758.728882	2468.905096
759.056014	2463.107769
759.383099	2446.724019
759.710138	2454.033692
760.037129	2477.475058
760.364073	2465.628346
760.690970	2438.910231
761.017820	2492.598519
761.344623	2471.425673
761.671379	2456.302212
761.998088	2457.814558
762.324751	2456.554269
762.651366	2474.198308
762.977935	2465.628346
763.304456	2462.603654
763.630931	2463.863942
763.957359	2478.483288
764.283740	2454.285750
764.610074	2467.896865
764.936362	2468.905096
765.262602	2467.644808
765.588796	2455.798096
765.914943	2476.970942
766.241044	2454.033692
766.567097	2457.058385
766.893104	2495.623212
767.219064	2498.143788
767.544978	2464.368058
767.870845	2478.735346
768.196665	2455.546038
768.522438	2499.152019
768.848165	2476.970942
769.173846	2467.140692
769.499479	2482.516212
769.825066	2471.425673
770.150607	2462.855712
770.476101	2474.198308
770.801548	2461.343365
771.126949	2465.880404
771.452303	2472.433904
771.777611	2495.371154
772.102872	2502.932885
772.428087	2473.442135
772.753256	2482.768269
773.078378	2473.694192
773.403453	2483.776500
773.728482	2461.847481
774.053465	2465.124231
774.378401	2463.359827
774.703291	2448.740481
775.028135	2505.705519
775.352932	2504.697288
775.677683	2460.083077
776.002388	2469.409212
776.327046	2467.140692
776.651658	2457.562500
776.976224	2462.603654
777.300743	2481.507981
777.625216	2459.326904
777.949643	2473.694192
778.274024	2487.305308
778.598359	2440.170519
778.922647	2467.392750
779.246889	2454.789865
779.571086	2474.702423
779.895236	2469.157154
780.219339	2469.157154
780.543397	2482.516212
780.867409	2450.252827
781.191374	2464.620115
781.515294	2481.003865
781.839167	2456.554269
782.162995	2462.351596
782.486776	2438.910231
782.810511	2458.822788
783.134201	2476.214769
783.457844	2484.028558
783.781441	2490.834115
784.104993	2475.458596
784.428498	2472.433904
784.751958	2458.318673
785.075372	2481.255923
785.398739	2470.417442
785.722061	2477.727115
786.045337	2468.400981
786.368568	2453.781635
786.691752	2477.979173
787.014891	2466.888635
787.337983	2496.127327
787.661030	2478.987404
787.984031	2468.905096
788.306987	2460.587192
788.629897	2473.190077
788.952760	2467.392750
789.275579	2486.045019
789.598351	2467.896865
789.921078	2477.475058
790.243759	2484.532673
790.566395	2476.466827
790.888984	2459.326904
791.211529	2503.184942
791.534027	2478.735346
791.856480	2481.507981
792.178888	2468.905096
792.501249	2475.710654
792.823566	2478.987404
793.145836	2489.069712
793.468062	2460.083077
793.790241	2485.036788
794.112375	2456.554269
794.434464	2499.908192
794.756507	2485.288846
795.078505	2473.694192
795.400457	2477.475058
795.722364	2454.789865
796.044226	2469.661269
796.366042	2459.831019
796.687812	2425.047058
797.009538	2448.488423
797.331218	2475.206538
797.652852	2453.529577
797.974442	2477.223000
798.295986	2487.809423
798.617484	2480.499750
798.938938	2444.959615
799.260346	2463.107769
799.581709	2463.611885
799.903026	2481.760038
800.224299	2473.694192
800.545526	2475.710654
800.866708	2476.214769
801.187845	2473.946250
801.508936	2464.116000
801.829983	2476.970942
802.150984	2445.463731
802.471940	2467.392750
802.792851	2470.921558
803.113717	2450.504885
803.434538	2462.603654
803.755314	2460.587192
804.076045	2472.181846
804.396731	2474.450365
804.717372	2473.442135
805.037967	2472.685962
805.358518	2469.661269
805.679024	2456.806327
805.999485	2475.710654
806.319901	2492.850577
806.640272	2442.186981
806.960598	2458.066615
807.280879	2463.107769
807.601115	2459.578962
807.921306	2464.620115
808.241453	2457.310442
808.561554	2471.173615
808.881611	2484.028558
809.201623	2488.565596
809.521590	2483.524442
809.841513	2461.091308
810.161390	2491.338231
810.481223	2470.417442
810.801011	2488.565596
811.120755	2455.041923
811.440453	2472.433904
811.760107	2474.954481
812.079716	2466.636577
812.399281	2484.028558
812.718801	2481.760038
813.038276	2458.570731
813.357707	2475.206538
813.677093	2460.587192
813.996434	2483.776500
814.315731	2483.272385
814.634983	2474.954481
814.954191	2471.677731
815.273354	2492.598519
815.592473	2490.330000
815.911547	2473.442135
816.230577	2476.718885
816.549562	2457.310442
816.868502	2499.656135
817.187399	2450.252827
817.506250	2475.206538
817.825058	2462.351596
818.143821	2484.784731
818.462539	2482.768269
818.781213	2448.488423
819.099843	2467.644808
819.418429	2447.984308
819.736970	2455.798096
820.055466	2473.694192
820.373919	2479.491519
820.692327	2485.792962
821.010691	2487.305308
821.329011	2479.743577
821.647286	2452.269288
821.965517	2473.694192
822.283704	2446.219904
822.601847	2474.450365
822.919945	2483.020327
823.237999	2459.831019
823.556010	2465.880404
823.873976	2464.620115
824.191897	2462.351596
824.509775	2468.400981
824.827609	2478.231231
825.145398	2463.359827
825.463144	2473.190077
825.780845	2495.119096
826.098502	2477.727115
826.416116	2445.463731
826.733685	2483.020327
827.051210	2469.661269
827.368692	2484.532673
827.686129	2493.606750
828.003522	2445.967846
828.320872	2455.798096
828.638177	2473.442135
828.955439	2462.099538
829.272656	2476.970942
829.589830	2476.718885
829.906960	2463.863942
830.224046	2472.181846
830.541088	2477.223000
830.858086	2477.979173
831.175041	2498.899962
831.491952	2448.992538
831.808819	2446.976077
832.125642	2478.231231
832.442421	2473.442135
832.759157	2472.938019
833.075849	2447.228135
833.392497	2477.727115
833.709101	2455.546038
834.025662	2449.496654
834.342179	2500.160250
834.658653	2442.943154
834.975083	2473.694192
835.291469	2462.603654
835.607811	2471.677731
835.924110	2463.611885
836.240366	2477.223000
836.556578	2443.699327
836.872746	2453.781635
837.188871	2462.351596
837.504952	2477.727115
837.820990	2439.918462
838.136984	2484.280615
838.452935	2472.181846
838.768842	2445.715788
839.084706	2426.307346
839.400526	2474.954481
839.716303	2449.748712
840.032037	2448.236365
840.347727	2459.831019
840.663373	2468.905096
840.978977	2479.491519
841.294537	2475.962712
841.610054	2461.595423
841.925527	2441.430808
842.240957	2488.565596
842.556344	2460.587192
842.871687	2453.025462
843.186987	2483.272385
843.502244	2460.839250
843.817458	2473.442135
844.132629	2475.458596
844.447756	2471.425673
844.762840	2490.077942
845.077881	2477.475058
845.392879	2456.050154
845.707833	2472.433904
846.022745	2465.628346
846.337613	2471.425673
846.652438	2496.379385
846.967221	2478.483288
847.281960	2479.239462
847.596656	2482.768269
847.911309	2456.050154
848.225919	2462.603654
848.540485	2465.376288
848.855009	2430.088212
849.169490	2483.272385
849.483928	2456.554269
849.798323	2472.181846
850.112675	2496.631442
850.426984	2450.756942
850.741251	2499.656135
851.055474	2472.938019
851.369654	2474.702423
851.683792	2444.959615
851.997887	2486.297077
852.311938	2460.839250
852.625947	2464.620115
852.939914	2477.475058
853.253837	2457.814558
853.567718	2451.765173
853.881555	2479.995635
854.195350	2458.318673
854.509103	2465.124231
854.822812	2456.302212
855.136479	2482.768269
855.450103	2457.310442
855.763685	2449.244596
856.077224	2457.562500
856.390720	2475.458596
856.704173	2474.450365
857.017584	2479.491519
857.330953	2471.929788
857.644278	2480.499750
857.957561	2447.480192
858.270802	2486.549135
858.584000	2456.806327
858.897155	2476.970942
859.210268	2470.921558
859.523339	2486.297077
859.836367	2481.507981
860.149352	2468.148923
860.462295	2456.806327
860.775195	2471.677731
861.088054	2458.066615
861.400869	2452.773404
861.713642	2455.041923
862.026373	2477.979173
862.339062	2476.970942
862.651708	2480.247692
862.964312	2471.173615
863.276873	2465.124231
863.589392	2460.083077
863.901869	2482.012096
864.214303	2486.801192
864.526696	2509.486385
864.839045	2510.746673
865.151353	2458.066615
865.463619	2483.776500
865.775842	2493.102635
866.088023	2508.982269
866.400162	2478.483288
866.712258	2495.371154
867.024313	2487.557365
867.336325	2481.003865
867.648296	2452.773404
867.960224	2450.000769
868.272110	2480.247692
868.583954	2453.025462
868.895755	2476.466827
869.207515	2461.091308
869.519233	2463.611885
869.830909	2457.310442
870.142542	2492.598519
870.454134	2457.562500
870.765684	2492.598519
871.077191	2457.562500
871.388657	2460.083077
871.700081	2456.050154
872.011463	2466.636577
872.322803	2473.694192
872.634101	2493.354692
872.945357	2451.009000
873.256571	2477.475058
873.567744	2475.962712
873.878874	2456.302212
874.189963	2430.844385
874.501010	2469.409212
874.812015	2433.617019
875.122979	2479.995635
875.433900	2473.442135
875.744780	2478.483288
876.055618	2444.959615
876.366415	2473.694192
876.677169	2458.066615
876.987882	2436.641712
877.298554	2479.743577
877.609183	2463.107769
877.919771	2474.954481
878.230317	2482.264154
878.540822	2491.086173
878.851285	2462.099538
879.161707	2458.066615
879.472087	2501.420538
879.782425	2475.710654
880.092722	2483.020327
880.402977	2454.789865
880.713191	2477.979173
881.023363	2463.863942
881.333494	2485.288846
881.643583	2444.959615
881.953631	2466.888635
882.263637	2491.842346
882.573602	2490.834115
882.883526	2454.285750
883.193408	2456.806327
883.503248	2457.814558
883.813048	2457.814558
884.122806	2483.776500
884.432522	2453.529577
884.742197	2472.181846
885.051831	2475.710654
885.361424	2440.170519
885.670975	2454.789865
885.980485	2463.107769
886.289954	2474.954481
886.599382	2453.025462
886.908768	2498.647904
887.218113	2468.400981
887.527417	2452.773404
887.836680	2458.570731
888.145901	2456.302212
888.455082	2471.929788
888.764221	2472.685962
889.073319	2467.140692
889.382376	2453.529577
889.691392	2462.603654
890.000366	2448.740481
890.309300	2477.475058
890.618193	2467.140692
890.927044	2471.929788
891.235855	2478.483288
891.544625	2466.888635
891.853353	2464.620115
892.162041	2485.540904
892.470687	2466.888635
892.779293	2474.198308
893.087858	2478.231231
893.396381	2465.376288
893.704864	2483.524442
894.013306	2481.760038
894.321707	2488.061481
894.630068	2449.748712
894.938387	2472.181846
895.246665	2475.710654
895.554903	2471.173615
895.863100	2481.003865
896.171256	2466.888635
896.479371	2501.420538
896.787446	2473.442135
897.095480	2450.252827
897.403473	2450.000769
897.711425	2496.883500
898.019336	2480.751808
898.327207	2450.252827
898.635038	2459.831019
898.942827	2475.710654
899.250576	2489.321769
899.558284	2472.181846
899.865952	2430.592327
900.173579	2458.066615
900.481165	2434.121135
900.788711	2455.546038
901.096216	2461.595423
901.403681	2449.496654
901.711105	2481.760038
902.018489	2488.061481
902.325832	2478.483288
902.633135	2469.913327
902.940397	2475.458596
903.247619	2455.041923
903.554800	2472.685962
903.861941	2467.140692
904.169041	2469.157154
904.476101	2457.814558
904.783121	2463.359827
905.090100	2469.913327
905.397039	2470.417442
905.703938	2478.735346
906.010796	2474.954481
906.317614	2476.970942
906.624391	2479.995635
906.931129	2513.519308
907.237826	2489.069712
907.544483	2470.417442
907.851099	2452.521346
908.157675	2473.946250
908.464211	2446.976077
908.770707	2478.987404
909.077163	2474.954481
909.383578	2474.450365
909.689954	2491.842346
909.996289	2455.293981
910.302584	2455.293981
910.608839	2482.516212
910.915054	2466.132462
911.221229	2476.466827
911.527363	2446.724019
911.833458	2462.855712
912.139513	2465.628346
912.445527	2445.715788
912.751502	2476.718885
913.057436	2449.496654
913.363331	2476.466827
913.669186	2461.847481
913.975000	2481.255923
914.280775	2462.603654
914.586510	2469.661269
914.892205	2477.223000
915.197859	2478.483288
915.503475	2473.442135
915.809050	2464.620115
916.114585	2456.302212
916.420081	2462.351596
916.725536	2471.173615
917.030952	2494.867038
917.336328	2473.442135
917.641665	2468.905096
917.946961	2473.190077
918.252218	2464.116000
918.557435	2449.748712
918.862612	2467.896865
919.167750	2482.768269
919.472848	2470.921558
919.777906	2463.107769
920.082925	2482.264154
920.387904	2420.510019
920.692843	2464.620115
920.997743	2485.036788
921.302603	2468.400981
921.607423	2446.471962
921.912204	2471.929788
922.216946	2478.987404
922.521647	2486.801192
922.826310	2454.537808
923.130932	2458.570731
923.435516	2474.198308
923.740059	2445.715788
924.044564	2489.321769
924.349028	2452.269288
924.653454	2447.480192
924.957840	2476.466827
925.262186	2465.628346
925.566493	2474.954481
925.870761	2473.694192
926.174989	2459.578962
926.479178	2493.606750
926.783328	2467.644808
927.087438	2462.603654
927.391509	2452.521346
927.695541	2479.995635
927.999533	2454.537808
928.303486	2484.784731
928.607400	2484.280615
928.911275	2475.710654
929.215110	2426.307346
929.518906	2484.532673
929.822663	2463.863942
930.126381	2496.379385
930.430060	2469.913327
930.733699	2480.247692
931.037299	2459.326904
931.340861	2454.285750
931.644383	2459.326904
931.947866	2478.483288
932.251309	2460.839250
932.554714	2468.400981
932.858080	2465.628346
933.161407	2465.124231
933.464694	2488.817654
933.767943	2483.776500
934.071153	2483.524442
934.374323	2486.045019
934.677455	2477.727115
934.980548	2459.578962
935.283602	2491.086173
935.586617	2461.091308
935.889593	2467.140692
936.192530	2465.880404
936.495428	2430.088212
936.798287	2476.214769
937.101108	2464.620115
937.403890	2454.285750
937.706632	2486.549135
938.009336	2445.463731
938.312002	2496.631442
938.614628	2432.860846
938.917216	2487.305308
939.219765	2470.669500
939.522275	2474.450365
939.824747	2456.806327
940.127179	2463.863942
940.429573	2488.817654
940.731929	2464.368058
941.034246	2446.219904
941.336524	2475.710654
941.638763	2482.516212
941.940964	2453.529577
942.243126	2465.124231
942.545250	2473.694192
942.847335	2469.661269
943.149381	2475.962712
943.451389	2479.743577
943.753359	2467.896865
944.055290	2458.066615
944.357182	2464.368058
944.659036	2476.214769
944.960851	2462.603654
945.262628	2500.664365
945.564367	2459.074846
945.866067	2473.442135
946.167729	2493.606750
946.469352	2452.269288
946.770937	2459.831019
947.072484	2468.905096
947.373992	2484.280615
947.675462	2463.611885
947.976893	2456.554269
948.278286	2466.636577
948.579641	2464.872173
948.880958	2440.926692
949.182236	2474.954481
949.483476	2488.817654
949.784678	2481.003865
950.085841	2431.852615
950.386967	2479.995635
950.688054	2454.789865
950.989103	2468.400981
951.290114	2473.946250
951.591087	2471.173615
951.892021	2478.735346
952.192917	2448.488423
952.493776	2474.450365
952.794596	2428.323808
953.095378	2477.475058
953.396122	2458.570731
953.696828	2476.718885
953.997496	2448.236365
954.298126	2467.896865
954.598718	2447.732250
954.899272	2457.058385
955.199788	2471.929788
955.500266	2469.157154
955.800706	2475.962712
956.101108	2449.244596
956.401472	2480.499750
956.701798	2494.110865
957.002087	2452.773404
957.302337	2456.554269
957.602550	2471.929788
957.902724	2463.107769
958.202861	2443.699327
958.502960	2493.102635
958.803022	2488.565596
959.103045	2475.962712
959.403031	2456.050154
959.702979	2481.003865
960.002889	2462.351596
960.302762	2489.825885
960.602596	2480.751808
960.902393	2458.822788
961.202153	2485.036788
961.501875	2459.326904
961.801559	2490.330000
962.101205	2469.913327
962.400814	2485.540904
962.700385	2478.735346
962.999918	2458.822788
963.299414	2482.264154
963.598873	2475.206538
963.898293	2465.880404
964.197677	2490.834115
964.497022	2471.425673
964.796331	2492.094404
965.095601	2472.685962
965.394835	2459.831019
965.694030	2477.727115
965.993189	2469.913327
966.292309	2476.718885
966.591393	2457.562500
966.890439	2467.140692
967.189447	2457.310442
967.488419	2443.951385
967.787353	2476.466827
968.086249	2469.913327
968.385108	2465.880404
968.683930	2472.181846
968.982714	2470.165385
969.281462	2468.653038
969.580172	2477.727115
969.878844	2493.606750
970.177480	2490.330000
970.476078	2458.066615
970.774639	2479.743577
971.073162	2469.913327
971.371649	2459.074846
971.670098	2471.173615
971.968510	2480.247692
972.266885	2479.995635
972.565223	2473.442135
972.863524	2463.863942
973.161788	2470.669500
973.460014	2491.086173
973.758204	2453.277519
974.056356	2486.801192
974.354471	2478.483288
974.652550	2467.644808
974.950591	2463.359827
975.248595	2484.532673
975.546563	2469.409212
975.844493	2485.540904
976.142386	2465.124231
976.440243	2491.590288
976.738062	2455.041923
977.035845	2479.743577
977.333590	2456.806327
977.631299	2453.277519
977.928971	2462.099538
978.226606	2477.223000
978.524204	2441.178750
978.821765	2463.359827
979.119290	2484.028558
979.416777	2453.781635
979.714228	2455.293981
980.011642	2456.554269
980.309020	2490.834115
980.606360	2474.198308
980.903664	2475.206538
981.200931	2453.781635
981.498162	2457.310442
981.795356	2442.943154
982.092513	2470.417442
982.389633	2457.562500
982.686717	2471.929788
982.983764	2465.124231
983.280775	2457.310442
983.577749	2479.743577
983.874686	2472.181846
984.171587	2433.617019
984.468451	2482.768269
984.765279	2488.565596
985.062070	2459.578962
985.358824	2466.384519
985.655543	2472.938019
985.952224	2455.546038
986.248869	2440.422577
986.545478	2476.466827
986.842050	2467.392750
987.138586	2464.368058
987.435086	2470.669500
987.731549	2477.475058
988.027975	2467.896865
988.324366	2457.058385
988.620719	2466.636577
988.917037	2482.516212
989.213318	2483.020327
989.509563	2459.326904
989.805772	2468.905096
990.101944	2479.491519
990.398080	2446.471962
990.694180	2477.223000
990.990244	2485.288846
991.286271	2463.863942
991.582262	2482.012096
991.878217	2466.384519
992.174136	2472.685962
992.470019	2482.264154
992.765865	2477.475058
993.061676	2458.570731
993.357450	2466.384519
993.653188	2475.962712
993.948890	2474.450365
994.244556	2435.885538
994.540186	2479.743577
994.835780	2443.447269
995.131337	2461.847481
995.426859	2447.984308
995.722345	2455.798096
996.017795	2457.310442
996.313208	2442.943154
996.608586	2423.282654
996.903928	2462.855712
997.199234	2463.359827
997.494504	2481.003865
997.789738	2452.773404
998.084936	2468.905096
998.380099	2472.433904
998.675225	2484.028558
998.970316	2451.765173
999.265371	2450.000769
999.560390	2457.058385
999.855373	2470.921558
1000.150320	2459.578962
1000.445232	2484.532673
1000.740108	2484.532673
1001.034948	2470.417442
1001.329752	2483.020327
1001.624521	2467.896865
1001.919254	2455.546038
1002.213951	2467.392750
1002.508613	2465.628346
1002.803239	2481.760038
1003.097829	2479.995635
1003.392384	2475.710654
1003.686903	2459.831019
1003.981386	2464.872173
1004.275834	2457.562500
1004.570246	2456.554269
1004.864623	2484.784731
1005.158964	2456.050154
1005.453270	2457.562500
1005.747540	2443.195212
1006.041775	2464.368058
1006.335974	2468.148923
1006.630138	2470.669500
1006.924266	2446.724019
1007.218359	2441.934923
1007.512416	2509.738442
1007.806438	2439.414346
1008.100425	2497.387615
1008.394376	2440.170519
1008.688292	2463.107769
1008.982172	2470.921558
1009.276017	2454.537808
1009.569827	2448.488423
1009.863602	2458.066615
1010.157341	2470.921558
1010.451045	2461.091308
1010.744714	2468.148923
1011.038347	2448.236365
1011.331945	2471.425673
1011.625508	2504.445231
1011.919036	2452.017231
1012.212528	2462.351596
1012.505986	2458.822788
1012.799408	2455.546038
1013.092795	2472.433904
1013.386147	2482.264154
1013.679464	2454.033692
1013.972745	2450.756942
1014.265992	2486.045019
1014.559204	2447.480192
1014.852380	2455.546038
1015.145521	2448.992538
1015.438628	2497.639673
1015.731699	2452.773404
1016.024736	2454.537808
1016.317737	2494.614981
1016.610703	2488.061481
1016.903635	2468.653038
1017.196531	2434.373192
1017.489393	2460.083077
1017.782219	2470.921558
1018.075011	2443.447269
1018.367768	2467.392750
1018.660490	2473.190077
1018.953177	2473.190077
1019.245829	2473.190077
