Dividing Wavelength (nm)	Counts (n)	Slit_number_16_of_a_total_of_40	
326.493990	2053.514019
326.888308	2053.514019
327.282561	2053.514019
327.676750	2018.730058
328.070874	2025.283558
328.464933	2041.919365
328.858929	2029.316481
329.252859	2060.319577
329.646726	2046.708462
330.040528	2095.355596
330.434265	2094.851481
330.827938	2101.404981
331.221547	2149.295942
331.615091	2165.175577
332.008571	2177.526404
332.401986	2192.901923
332.795338	2229.702346
333.188625	2228.190000
333.581847	2245.077865
333.975006	2277.593308
334.368100	2284.902981
334.761129	2286.415327
335.154095	2307.840231
335.546996	2344.892712
335.939833	2363.797038
336.332606	2366.821731
336.725315	2392.783673
337.117960	2399.841288
337.510540	2396.564538
337.903056	2408.411250
338.295508	2428.071750
338.687896	2430.340269
339.080220	2426.559404
339.472480	2458.822788
339.864676	2424.290885
340.256807	2429.584096
340.648875	2451.009000
341.040879	2463.863942
341.432818	2453.025462
341.824694	2405.890673
342.216506	2463.863942
342.608253	2448.488423
342.999937	2452.773404
343.391557	2451.513115
343.783113	2443.951385
344.174605	2450.504885
344.566033	2429.584096
344.957397	2449.496654
345.348697	2432.860846
345.739934	2424.542942
346.131106	2437.397885
346.522215	2426.811462
346.913260	2433.869077
347.304241	2441.430808
347.695159	2428.827923
348.086012	2440.422577
348.476802	2411.183885
348.867528	2409.671538
349.258191	2411.435942
349.648789	2423.534712
350.039324	2445.211673
350.429796	2434.625250
350.820203	2416.225038
351.210548	2443.951385
351.600828	2395.556308
351.991045	2426.559404
352.381198	2412.696231
352.771288	2400.345404
353.161314	2409.923596
353.551276	2403.622154
353.941175	2412.696231
354.331010	2401.101577
354.720782	2443.447269
355.110490	2408.663308
355.500135	2413.956519
355.889717	2439.918462
356.279235	2398.581000
356.668689	2408.159192
357.058080	2455.546038
357.447408	2397.572769
357.836672	2457.814558
358.225873	2412.444173
358.615010	2433.112904
359.004084	2404.126269
359.393095	2403.370096
359.782043	2432.104673
360.170927	2422.022365
360.559748	2426.055288
360.948505	2430.340269
361.337199	2416.981212
361.725830	2429.836154
362.114398	2422.274423
362.502903	2438.154058
362.891344	2434.625250
363.279722	2425.299115
363.668037	2392.531615
364.056289	2403.874212
364.444478	2427.819692
364.832603	2414.712692
365.220665	2454.285750
365.608665	2432.860846
365.996601	2407.150962
366.384474	2416.477096
366.772284	2443.195212
367.160031	2421.518250
367.547715	2452.773404
367.935336	2463.107769
368.322893	2426.307346
368.710388	2418.493558
369.097820	2437.397885
369.485189	2453.781635
369.872495	2406.646846
370.259738	2422.526481
370.646918	2422.778538
371.034035	2441.934923
371.421090	2436.137596
371.808081	2436.893769
372.195010	2441.682865
372.581875	2448.488423
372.968678	2435.885538
373.355418	2450.000769
373.742096	2444.959615
374.128710	2437.902000
374.515262	2412.192115
374.901751	2433.869077
375.288177	2433.617019
375.674540	2421.014135
376.060841	2452.017231
376.447079	2454.789865
376.833254	2432.608788
377.219367	2429.836154
377.605417	2441.934923
377.991404	2456.302212
378.377329	2450.756942
378.763191	2436.641712
379.148991	2454.789865
379.534727	2422.274423
379.920402	2424.795000
380.306013	2438.406115
380.691563	2437.145827
381.077049	2432.608788
381.462474	2449.496654
381.847835	2441.178750
382.233134	2433.869077
382.618371	2435.381423
383.003545	2432.860846
383.388657	2416.225038
383.773706	2454.285750
384.158693	2442.186981
384.543618	2443.951385
384.928480	2449.496654
385.313280	2422.778538
385.698017	2451.513115
386.082692	2461.847481
386.467305	2444.959615
386.851856	2453.781635
387.236344	2465.376288
387.620770	2446.976077
388.005133	2442.186981
388.389435	2435.633481
388.773674	2441.178750
389.157851	2422.526481
389.541965	2481.003865
389.926018	2429.332038
390.310008	2436.389654
390.693936	2431.600558
391.077802	2439.414346
391.461606	2464.872173
391.845348	2432.860846
392.229027	2448.236365
392.612645	2433.617019
392.996200	2446.976077
393.379694	2455.293981
393.763125	2446.219904
394.146494	2438.406115
394.529801	2457.310442
394.913047	2445.463731
395.296230	2437.145827
395.679351	2457.562500
396.062410	2442.943154
396.445408	2428.827923
396.828343	2456.050154
397.211217	2452.773404
397.594028	2441.430808
397.976778	2467.644808
398.359466	2452.773404
398.742092	2428.071750
399.124656	2450.504885
399.507158	2436.893769
399.889598	2477.475058
400.271977	2443.699327
400.654294	2436.641712
401.036549	2431.348500
401.418742	2470.669500
401.800874	2452.017231
402.182944	2450.000769
402.564952	2459.074846
402.946898	2435.885538
403.328783	2462.855712
403.710606	2477.979173
404.092367	2447.732250
404.474067	2433.869077
404.855705	2451.261058
405.237282	2424.795000
405.618797	2448.236365
406.000250	2447.984308
406.381642	2429.836154
406.762972	2449.496654
407.144240	2453.781635
407.525447	2451.513115
407.906593	2416.477096
408.287677	2457.058385
408.668700	2456.302212
409.049661	2451.765173
409.430560	2474.954481
409.811399	2461.847481
410.192176	2461.847481
410.572891	2452.017231
410.953545	2445.967846
411.334138	2482.264154
411.714669	2459.831019
412.095139	2454.285750
412.475547	2450.756942
412.855894	2437.145827
413.236180	2463.107769
413.616405	2463.863942
413.996568	2463.359827
414.376670	2474.450365
414.756711	2465.124231
415.136691	2465.376288
415.516609	2465.376288
415.896466	2462.603654
416.276262	2455.293981
416.655997	2461.343365
417.035670	2468.400981
417.415283	2463.107769
417.794834	2465.376288
418.174324	2470.165385
418.553753	2483.776500
418.933121	2437.145827
419.312428	2477.979173
419.691674	2474.954481
420.070859	2485.036788
420.449983	2466.384519
420.829045	2460.839250
421.208047	2472.181846
421.586988	2471.929788
421.965867	2480.751808
422.344686	2485.792962
422.723444	2474.954481
423.102141	2485.540904
423.480777	2466.636577
423.859352	2490.834115
424.237866	2456.554269
424.616319	2481.760038
424.994712	2482.264154
425.373044	2489.069712
425.751314	2490.077942
426.129524	2464.620115
426.507673	2488.565596
426.885762	2485.288846
427.263789	2481.760038
427.641756	2475.458596
428.019662	2477.979173
428.397508	2473.190077
428.775292	2477.727115
429.153016	2498.395846
429.530679	2483.524442
429.908282	2483.776500
430.285824	2470.417442
430.663305	2504.949346
431.040726	2473.694192
431.418086	2494.110865
431.795385	2523.601615
432.172624	2514.275481
432.549802	2510.242558
432.926920	2525.113962
433.303977	2504.445231
433.680974	2535.448327
434.057910	2529.398942
434.434786	2533.683923
434.811601	2552.336192
435.188355	2577.289904
435.565050	2565.443192
435.941683	2575.525500
436.318257	2606.024481
436.694770	2594.681885
437.071222	2624.676750
437.447614	2644.841365
437.823946	2658.452481
438.200218	2694.496731
438.576429	2696.765250
438.952580	2710.880481
439.328670	2735.330077
439.704700	2791.791000
440.080670	2815.484423
440.456580	2818.761173
440.832429	2877.490615
441.208218	2932.943308
441.583947	2931.683019
441.959616	2983.858962
442.335224	3052.670712
442.710773	3097.284923
443.086261	3166.600788
443.461689	3193.570962
443.837057	3216.760269
444.212365	3311.029846
444.587612	3405.299423
444.962800	3430.505192
445.337927	3538.637942
445.712995	3537.881769
446.088002	3750.366404
446.462949	3832.033096
446.837837	3916.976538
447.212664	3971.925115
447.587431	4170.546577
447.962139	4533.257596
448.336786	4911.344135
448.711374	5095.850365
449.085901	4955.454231
449.460369	4977.635308
449.834776	5006.369885
450.209124	5316.400846
450.583412	5475.953365
450.957640	5829.338250
451.331808	5863.618096
451.705917	5835.387635
452.079965	5898.150000
452.453954	6059.718981
452.827883	6159.281769
453.201752	6254.055462
453.575562	6541.653288
453.949311	6802.028885
454.323001	6988.803635
454.696632	7074.251192
455.070202	7558.201962
455.443713	7708.680404
455.817164	8047.950058
456.190556	8334.791712
456.563888	8503.670365
456.937160	8787.487327
457.310373	8770.851519
457.683526	8957.374212
458.056619	9161.036827
458.429653	9242.955577
458.802628	9492.240635
459.175542	9687.837404
459.548398	10128.434250
459.921194	10762.863462
460.293930	10946.613519
460.666607	11743.872000
461.039224	12481.140750
461.411782	13101.454731
461.784280	13133.214000
462.156719	13400.395154
462.529099	13452.066981
462.901419	13287.221250
463.273680	12993.069923
463.645882	13099.942385
464.018024	13230.256212
464.390106	13422.324173
464.762130	14250.333692
465.134094	15204.120000
465.505999	16989.696692
465.877845	19340.890846
466.249631	20968.175308
466.621358	21283.499481
466.993026	21157.722692
467.364634	20541.189577
467.736184	19618.910481
468.107674	19292.243712
468.479105	19045.983346
468.850477	18883.910250
469.221790	18368.704327
469.593043	17753.179442
469.964238	17470.622769
470.335373	17297.963250
470.706449	17631.183519
471.077467	17985.072519
471.448425	19745.191385
471.819324	22180.320750
472.190164	22941.282923
472.560945	21522.954288
472.931667	19962.465115
473.302330	19049.260096
473.672934	18530.021250
474.043479	18535.818577
474.413965	18162.269077
474.784393	17885.761788
475.154761	18234.357577
475.525070	18135.046846
475.895321	18043.297846
476.265513	18244.187827
476.635645	18381.559269
477.005719	18452.639538
477.375734	18527.248615
477.745691	18603.622096
478.115588	19099.167519
478.485427	19606.055538
478.855207	20572.444731
479.224928	21654.024288
479.594591	22852.810673
479.964194	22857.095654
480.333739	23001.020596
480.703226	22644.611019
481.072653	22513.036904
481.442022	22530.176827
481.811333	22807.692346
482.180584	22127.136577
482.549777	21796.184827
482.918912	21246.447000
483.287988	20942.465423
483.657005	20386.426154
484.025964	19815.515481
484.394864	19726.791173
484.763706	19399.368231
485.132489	18877.104692
485.501213	18458.436865
485.869879	18271.410058
486.238487	17864.084827
486.607036	17656.641346
486.975527	17291.913865
487.343959	16954.912731
487.712333	16805.442519
488.080648	16521.877615
488.448905	16490.118346
488.817104	16090.858962
489.185244	15989.279712
489.553326	15922.988538
489.921350	16408.703712
490.289315	17102.366481
490.657222	17395.005462
491.025070	17633.452038
491.392861	17105.139115
491.760593	16520.113212
492.128267	15753.353712
492.495883	15030.452250
492.863440	14312.844000
493.230939	13535.750135
493.598380	12962.318885
493.965763	12559.278635
494.333088	12147.920481
494.700354	11749.669327
495.067563	11354.694923
495.434713	11112.467481
495.801805	10812.014712
496.168839	10543.321212
496.535815	10269.334500
496.902733	9998.876596
497.269593	9692.878558
497.636395	9466.782808
498.003139	9316.808481
498.369825	9038.788846
498.736453	8821.011000
499.103023	8537.950212
499.469535	8300.511865
499.835989	8110.460365
500.202385	7878.063173
500.568723	7624.493135
500.935003	7483.340827
501.301226	7284.467308
501.667390	7130.964173
502.033497	7052.826288
502.399546	6816.144115
502.765537	6570.387865
503.131470	6478.134750
503.497345	6293.376462
503.863163	6007.543038
504.228923	5883.278596
504.594625	5794.554288
504.960269	5583.582000
505.325856	5545.773346
505.691385	5321.946115
506.056856	5174.744423
506.422270	5101.395635
506.787625	5008.386346
507.152924	4844.044731
507.518164	4723.309096
507.883347	4600.304942
508.248472	4498.725692
508.613540	4490.659846
508.978550	4360.093962
509.343503	4277.671096
509.708398	4228.015731
510.073236	4131.729692
510.438016	4045.525962
510.802738	3954.281077
511.167403	3951.760500
511.532010	3857.995038
511.896561	3801.786173
512.261053	3781.369500
512.625488	3726.672981
512.989866	3641.225423
513.354186	3583.504212
513.718449	3567.372519
514.082655	3509.651308
514.446803	3447.897173
514.810894	3433.529885
515.174927	3424.959923
515.538904	3378.581308
515.902822	3317.331288
516.266684	3293.889923
516.630488	3273.977365
516.994235	3232.639904
517.357925	3215.499981
517.721558	3205.669731
518.085133	3194.075077
518.448651	3157.022596
518.812112	3119.970115
519.175516	3131.060654
519.538863	3106.863115
519.902152	3091.991712
520.265385	3092.243769
520.628560	3084.429981
520.991678	3047.125442
521.354739	3031.497865
521.717743	3023.684077
522.080690	2989.404231
522.443580	2966.719038
522.806413	2962.938173
523.169189	2952.603808
523.531908	2948.318827
523.894569	2927.145981
524.257174	2927.398038
524.619722	2900.427865
524.982213	2901.184038
525.344647	2907.485481
525.707025	2869.676827
526.069345	2869.676827
526.431608	2850.772500
526.793815	2857.830115
527.155964	2822.542038
527.518057	2833.884635
527.880093	2837.413442
528.242072	2797.336269
528.603995	2796.075981
528.965860	2785.741615
529.327669	2779.944288
529.689421	2795.571865
530.051117	2765.829058
530.412755	2750.705596
530.774337	2761.292019
531.135862	2735.834192
531.497331	2724.491596
531.858743	2745.916500
532.220098	2727.264231
532.581396	2721.718962
532.942638	2731.549212
533.303824	2735.078019
533.664953	2708.107846
534.026025	2676.096519
534.387040	2719.954558
534.747999	2672.567712
535.108902	2685.674712
535.469748	2666.014212
535.830537	2682.145904
536.191270	2684.918538
536.551947	2666.770385
536.912567	2671.055365
537.273131	2643.833135
537.633638	2631.986423
537.994089	2622.156173
538.354483	2671.307423
538.714821	2660.216885
539.075103	2644.337250
539.435328	2658.200423
539.795497	2631.734365
540.155609	2601.739500
540.515665	2611.065635
540.875665	2599.470981
541.235609	2617.619135
541.595496	2610.309462
541.955328	2600.227154
542.315102	2605.772423
542.674821	2613.586212
543.034483	2593.169538
543.394090	2605.268308
543.753640	2585.103692
544.113134	2590.396904
544.472571	2607.032712
544.831953	2610.309462
545.191278	2577.289904
545.550548	2571.492577
545.909761	2586.111923
546.268918	2612.073865
546.628019	2601.739500
546.987064	2581.070769
547.346053	2570.988462
547.704986	2576.785788
548.063863	2580.314596
548.422684	2553.596481
548.781449	2586.616038
549.140158	2584.851635
549.498811	2575.777558
549.857408	2544.522404
550.215949	2565.695250
550.574434	2554.604712
550.932864	2574.517269
551.291237	2579.054308
551.649555	2559.141750
552.007817	2555.612942
552.366022	2560.654096
552.724173	2545.782692
553.082267	2550.319731
553.440305	2538.473019
553.798288	2524.609846
554.156215	2531.163346
554.514086	2541.245654
554.871902	2529.146885
555.229661	2558.133519
555.587365	2561.158212
555.945014	2556.621173
556.302606	2543.514173
556.660143	2522.341327
557.017625	2540.741538
557.375050	2534.692154
557.732421	2547.547096
558.089735	2527.130423
558.446994	2555.360885
558.804197	2548.555327
559.161345	2532.423635
559.518437	2554.352654
559.875474	2544.522404
560.232455	2530.911288
560.589381	2491.590288
560.946251	2511.754904
561.303065	2507.974038
561.659825	2534.188038
562.016528	2512.006962
562.373177	2519.820750
562.729770	2510.494615
563.086307	2528.390712
563.442789	2532.927750
563.799216	2496.127327
564.155587	2530.659231
564.511904	2517.552231
564.868164	2537.968904
565.224370	2499.656135
565.580520	2521.081038
565.936615	2531.163346
566.292654	2489.321769
566.648638	2517.048115
567.004567	2525.870135
567.360441	2525.618077
567.716260	2529.146885
568.072023	2510.998731
568.427732	2523.349558
568.783385	2524.105731
569.138982	2510.746673
569.494525	2500.160250
569.850013	2515.787827
570.205445	2507.721981
570.560823	2530.659231
570.916145	2520.324865
571.271412	2524.105731
571.626625	2505.201404
571.981782	2526.374250
572.336884	2489.573827
572.691931	2517.552231
573.046923	2519.820750
573.401860	2489.321769
573.756743	2528.894827
574.111570	2504.193173
574.466342	2508.982269
574.821059	2525.366019
575.175722	2510.494615
575.530330	2516.544000
575.884882	2507.217865
576.239380	2529.398942
576.593823	2528.138654
576.948211	2505.201404
577.302544	2507.469923
577.656823	2507.721981
578.011047	2499.908192
578.365216	2530.407173
578.719330	2509.486385
579.073389	2523.853673
579.427394	2518.308404
579.781344	2491.338231
580.135239	2547.042981
580.489080	2513.267250
580.842866	2507.469923
581.196597	2503.184942
581.550273	2538.473019
581.903895	2521.585154
582.257463	2506.965808
582.610975	2483.776500
582.964434	2521.837212
583.317837	2514.527538
583.671186	2527.634538
584.024481	2506.209635
584.377721	2515.535769
584.730906	2527.634538
585.084037	2503.184942
585.437113	2529.398942
585.790135	2475.458596
586.143103	2485.036788
586.496016	2535.448327
586.848874	2527.886596
587.201679	2519.568692
587.554428	2486.297077
587.907124	2514.023423
588.259765	2505.957577
588.612352	2492.346462
588.964884	2494.362923
589.317362	2488.817654
589.669786	2511.502846
590.022155	2495.623212
590.374470	2488.565596
590.726731	2495.119096
591.078937	2505.957577
591.431090	2508.478154
591.783188	2504.949346
592.135232	2503.437000
592.487222	2526.122192
592.839157	2491.338231
593.191038	2487.053250
593.542866	2504.697288
593.894639	2496.379385
594.246358	2513.519308
594.598022	2495.875269
594.949633	2514.275481
595.301190	2490.077942
595.652692	2508.226096
596.004141	2488.817654
596.355535	2509.486385
596.706876	2503.941115
597.058162	2480.751808
597.409395	2517.552231
597.760573	2515.787827
598.111698	2505.705519
598.462768	2493.102635
598.813785	2505.705519
599.164748	2508.226096
599.515657	2511.754904
599.866511	2488.817654
600.217312	2497.387615
600.568060	2494.867038
600.918753	2528.894827
601.269392	2517.300173
601.619978	2506.461692
601.970510	2493.606750
602.320988	2531.415404
602.671412	2498.143788
603.021783	2503.184942
603.372100	2505.705519
603.722363	2513.267250
604.072572	2517.804288
604.422728	2504.193173
604.772830	2503.437000
605.122878	2493.354692
605.472872	2532.927750
605.822813	2522.845442
606.172701	2507.721981
606.522534	2507.974038
606.872314	2508.478154
607.222041	2474.702423
607.571714	2515.787827
607.921333	2498.143788
608.270899	2494.614981
608.620411	2483.020327
608.969870	2512.259019
609.319276	2507.974038
609.668627	2496.379385
610.017926	2501.420538
610.367171	2509.738442
610.716362	2514.527538
611.065500	2508.478154
611.414585	2538.220962
611.763616	2499.404077
612.112594	2493.354692
612.461518	2493.102635
612.810389	2495.623212
613.159207	2513.519308
613.507971	2498.647904
613.856682	2509.738442
614.205340	2523.853673
614.553945	2510.242558
614.902496	2496.127327
615.250994	2520.828981
615.599439	2506.209635
615.947830	2522.341327
616.296169	2507.974038
616.644454	2507.974038
616.992686	2490.582058
617.340864	2512.259019
617.688990	2485.540904
618.037063	2475.458596
618.385082	2509.486385
618.733048	2491.842346
619.080961	2501.168481
619.428821	2530.155115
619.776628	2518.056346
620.124382	2529.903058
620.472083	2469.409212
620.819731	2525.618077
621.167326	2480.247692
621.514868	2493.354692
621.862357	2507.721981
622.209793	2490.834115
622.557176	2505.957577
622.904506	2506.965808
623.251783	2492.850577
623.599007	2533.683923
623.946179	2483.524442
624.293297	2518.308404
624.640363	2524.105731
624.987376	2475.962712
625.334336	2494.614981
625.681243	2487.809423
626.028097	2512.763135
626.374899	2508.730212
626.721647	2510.494615
627.068343	2510.998731
627.414987	2493.858808
627.761577	2493.354692
628.108115	2484.532673
628.454600	2485.792962
628.801032	2487.053250
629.147412	2511.250788
629.493739	2508.730212
629.840014	2506.965808
630.186236	2499.404077
630.532405	2496.127327
630.878521	2471.173615
631.224585	2515.031654
631.570597	2527.886596
631.916556	2509.738442
632.262462	2519.568692
632.608316	2488.313538
632.954117	2489.825885
633.299866	2504.445231
633.645562	2475.710654
633.991206	2495.371154
634.336797	2492.346462
634.682336	2478.483288
635.027823	2511.250788
635.373257	2474.702423
635.718639	2499.656135
636.063968	2495.371154
636.409245	2495.119096
636.754470	2485.792962
637.099642	2488.565596
637.444762	2496.127327
637.789829	2530.407173
638.134845	2515.031654
638.479808	2508.478154
638.824719	2488.817654
639.169577	2488.313538
639.514383	2475.458596
639.859137	2484.280615
640.203839	2492.598519
640.548489	2481.507981
640.893086	2508.982269
641.237632	2509.990500
641.582125	2500.916423
641.926566	2491.338231
642.270955	2478.483288
642.615292	2495.623212
642.959576	2487.305308
643.303809	2504.445231
643.647990	2507.721981
643.992118	2499.152019
644.336195	2506.209635
644.680219	2512.763135
645.024192	2483.272385
645.368112	2523.349558
645.711981	2495.119096
646.055797	2488.565596
646.399562	2516.796058
646.743274	2498.899962
647.086935	2520.324865
647.430544	2522.593385
647.774101	2504.697288
648.117606	2492.346462
648.461059	2510.998731
648.804460	2470.417442
649.147810	2515.787827
649.491108	2488.817654
649.834354	2499.152019
650.177548	2494.614981
650.520690	2514.527538
650.863781	2483.020327
651.206820	2513.015192
651.549807	2496.631442
651.892742	2518.812519
652.235626	2492.850577
652.578458	2496.127327
652.921238	2484.784731
653.263967	2489.825885
653.606644	2479.995635
653.949269	2531.667462
654.291843	2500.664365
654.634365	2506.965808
654.976836	2488.565596
655.319255	2492.094404
655.661622	2475.458596
656.003938	2498.395846
656.346203	2486.801192
656.688416	2494.614981
657.030577	2521.081038
657.372687	2485.792962
657.714746	2508.982269
658.056753	2480.247692
658.398708	2498.395846
658.740612	2478.987404
659.082465	2496.631442
659.424266	2481.760038
659.766016	2487.809423
660.107715	2486.801192
660.449362	2494.614981
660.790958	2498.395846
661.132503	2517.048115
661.473996	2479.239462
661.815438	2487.053250
662.156829	2504.193173
662.498168	2503.689058
662.839456	2496.883500
663.180693	2519.316635
663.521879	2516.291942
663.863013	2503.184942
664.204097	2498.395846
664.545129	2506.461692
664.886110	2478.231231
665.227040	2489.573827
665.567918	2521.585154
665.908746	2507.974038
666.249522	2517.300173
666.590248	2526.878365
666.930922	2522.593385
667.271545	2495.119096
667.612118	2494.614981
667.952639	2504.697288
668.293109	2493.354692
668.633528	2502.932885
668.973896	2488.061481
669.314213	2513.267250
669.654480	2463.863942
669.994695	2482.516212
670.334859	2499.152019
670.674973	2519.568692
671.015035	2492.346462
671.355047	2517.804288
671.695008	2498.647904
672.034918	2486.045019
672.374777	2526.878365
672.714585	2508.730212
673.054342	2499.404077
673.394049	2496.379385
673.733705	2487.305308
674.073310	2499.152019
674.412864	2501.420538
674.752368	2485.288846
675.091820	2500.412308
675.431223	2483.020327
675.770574	2527.382481
676.109875	2478.483288
676.449125	2508.982269
676.788324	2490.582058
677.127473	2469.913327
677.466571	2491.338231
677.805619	2506.965808
678.144616	2503.184942
678.483562	2495.623212
678.822458	2486.801192
679.161303	2494.614981
679.500098	2516.796058
679.838842	2494.867038
680.177535	2508.982269
680.516179	2536.960673
680.854771	2525.366019
681.193314	2515.787827
681.531805	2491.590288
681.870247	2500.916423
682.208638	2500.916423
682.546978	2494.110865
682.885268	2503.184942
683.223508	2489.069712
683.561697	2496.631442
683.899836	2510.242558
684.237925	2488.313538
684.575963	2480.247692
684.913951	2501.420538
685.251889	2514.779596
685.589776	2507.974038
685.927614	2494.110865
686.265401	2482.264154
686.603137	2456.050154
686.940824	2501.924654
687.278460	2471.677731
687.616046	2501.672596
687.953582	2486.297077
688.291068	2521.333096
688.628504	2484.028558
688.965889	2519.064577
689.303224	2499.656135
689.640510	2502.680827
689.977745	2504.949346
690.314930	2503.184942
690.652065	2497.135558
690.989150	2525.113962
691.326185	2499.404077
691.663170	2498.143788
692.000105	2499.152019
692.336990	2493.102635
692.673825	2492.598519
693.010610	2489.321769
693.347345	2504.697288
693.684030	2510.746673
694.020665	2498.395846
694.357251	2482.516212
694.693786	2518.056346
695.030272	2469.913327
695.366707	2506.965808
695.703093	2473.442135
696.039429	2501.420538
696.375716	2490.330000
696.711952	2495.875269
697.048139	2480.247692
697.384276	2493.858808
697.720363	2483.272385
698.056400	2518.560462
698.392388	2486.297077
698.728326	2485.036788
699.064214	2497.891731
699.400053	2501.168481
699.735842	2486.045019
700.071581	2497.387615
700.407270	2510.242558
700.742910	2488.313538
701.078501	2454.033692
701.414042	2498.899962
701.749533	2506.461692
702.084974	2487.557365
702.420366	2487.053250
702.755709	2457.310442
703.091002	2491.086173
703.426246	2494.614981
703.761440	2474.702423
704.096584	2481.003865
704.431679	2482.264154
704.766725	2508.478154
705.101721	2487.305308
705.436668	2465.628346
705.771565	2476.718885
706.106413	2469.409212
706.441212	2474.702423
706.775961	2499.152019
707.110661	2484.280615
707.445311	2504.949346
707.779913	2497.891731
708.114465	2486.549135
708.448967	2478.231231
708.783421	2501.168481
709.117825	2481.760038
709.452180	2507.217865
709.786485	2485.036788
710.120742	2498.143788
710.454949	2486.801192
710.789107	2499.404077
711.123216	2474.954481
711.457275	2495.875269
711.791286	2481.507981
712.125247	2505.453462
712.459159	2515.283712
712.793023	2510.494615
713.126837	2497.891731
713.460602	2496.127327
713.794318	2489.825885
714.127985	2495.623212
714.461602	2515.787827
714.795171	2473.190077
715.128691	2496.127327
715.462162	2490.582058
715.795584	2487.809423
716.128957	2502.680827
716.462281	2515.283712
716.795556	2486.549135
717.128782	2487.809423
717.461960	2499.656135
717.795088	2504.193173
718.128167	2502.176712
718.461198	2469.157154
718.794180	2503.437000
719.127113	2496.127327
719.459997	2488.565596
719.792833	2474.954481
720.125619	2492.094404
720.458357	2513.519308
720.791046	2485.288846
721.123686	2468.653038
721.456278	2469.913327
721.788821	2478.735346
722.121315	2490.834115
722.453761	2499.908192
722.786158	2481.760038
723.118506	2477.223000
723.450805	2474.198308
723.783056	2468.653038
724.115259	2497.135558
724.447412	2470.417442
724.779518	2484.784731
725.111574	2455.546038
725.443582	2492.598519
725.775542	2484.532673
726.107453	2489.573827
726.439315	2472.685962
726.771129	2488.061481
727.102895	2498.647904
727.434612	2479.743577
727.766281	2477.979173
728.097901	2477.979173
728.429473	2481.003865
728.760996	2493.102635
729.092471	2496.883500
729.423897	2466.132462
729.755276	2493.606750
730.086606	2484.280615
730.417887	2462.603654
730.749120	2499.908192
731.080305	2487.305308
731.411442	2477.475058
731.742530	2490.077942
732.073570	2526.122192
732.404562	2474.450365
732.735506	2505.957577
733.066401	2502.176712
733.397249	2518.812519
733.728048	2474.450365
734.058798	2480.751808
734.389501	2499.404077
734.720156	2458.066615
735.050762	2491.842346
735.381320	2459.578962
735.711831	2473.946250
736.042293	2495.875269
736.372707	2508.730212
736.703073	2495.623212
737.033391	2472.181846
737.363661	2504.949346
737.693883	2477.727115
738.024056	2484.028558
738.354182	2477.727115
738.684260	2484.532673
739.014290	2469.913327
739.344272	2482.768269
739.674207	2474.702423
740.004093	2497.639673
740.333931	2507.217865
740.663722	2489.825885
740.993464	2475.458596
741.323159	2488.565596
741.652806	2494.110865
741.982405	2472.938019
742.311956	2477.223000
742.641460	2502.428769
742.970915	2485.036788
743.300323	2485.792962
743.629683	2478.987404
743.958996	2486.297077
744.288260	2451.009000
744.617477	2475.458596
744.946647	2473.946250
745.275768	2498.143788
745.604842	2461.595423
745.933869	2484.028558
746.262847	2461.091308
746.591778	2483.272385
746.920662	2482.012096
747.249498	2510.998731
747.578286	2477.979173
747.907027	2480.751808
748.235720	2459.578962
748.564365	2493.858808
748.892963	2493.102635
749.221514	2515.535769
749.550017	2495.119096
749.878473	2505.201404
750.206881	2471.173615
750.535242	2472.685962
750.863555	2457.814558
751.191821	2484.532673
751.520039	2489.321769
751.848210	2476.214769
752.176334	2492.598519
752.504411	2463.359827
752.832440	2509.738442
753.160421	2488.313538
753.488356	2497.135558
753.816243	2485.288846
754.144082	2485.792962
754.471875	2475.710654
754.799620	2497.135558
755.127318	2480.499750
755.454969	2470.669500
755.782572	2474.450365
756.110129	2473.946250
756.437638	2470.669500
756.765100	2499.152019
757.092515	2493.858808
757.419882	2476.214769
757.747203	2459.326904
758.074477	2482.768269
758.401703	2471.425673
758.728882	2477.727115
759.056014	2468.400981
759.383099	2461.595423
759.710138	2507.721981
760.037129	2462.855712
760.364073	2472.938019
760.690970	2476.214769
761.017820	2489.573827
761.344623	2455.041923
761.671379	2481.003865
761.998088	2497.639673
762.324751	2493.606750
762.651366	2479.743577
762.977935	2491.842346
763.304456	2497.387615
763.630931	2484.784731
763.957359	2509.990500
764.283740	2498.143788
764.610074	2519.568692
764.936362	2498.395846
765.262602	2481.255923
765.588796	2505.201404
765.914943	2485.036788
766.241044	2488.061481
766.567097	2478.483288
766.893104	2472.433904
767.219064	2466.132462
767.544978	2496.631442
767.870845	2471.425673
768.196665	2486.297077
768.522438	2491.590288
768.848165	2482.012096
769.173846	2486.801192
769.499479	2492.094404
769.825066	2443.195212
770.150607	2460.335135
770.476101	2489.573827
770.801548	2476.718885
771.126949	2463.611885
771.452303	2470.921558
771.777611	2462.603654
772.102872	2496.883500
772.428087	2466.384519
772.753256	2487.053250
773.078378	2470.921558
773.403453	2477.475058
773.728482	2489.321769
774.053465	2492.346462
774.378401	2461.847481
774.703291	2471.677731
775.028135	2480.751808
775.352932	2453.025462
775.677683	2475.710654
776.002388	2451.513115
776.327046	2464.620115
776.651658	2493.858808
776.976224	2453.025462
777.300743	2456.302212
777.625216	2452.017231
777.949643	2488.061481
778.274024	2474.450365
778.598359	2471.173615
778.922647	2471.677731
779.246889	2480.751808
779.571086	2464.116000
779.895236	2471.929788
780.219339	2488.565596
780.543397	2461.091308
780.867409	2495.623212
781.191374	2457.814558
781.515294	2488.817654
781.839167	2466.132462
782.162995	2477.223000
782.486776	2450.252827
782.810511	2473.190077
783.134201	2493.354692
783.457844	2453.529577
783.781441	2465.124231
784.104993	2469.157154
784.428498	2460.335135
784.751958	2486.297077
785.075372	2464.368058
785.398739	2505.957577
785.722061	2478.231231
786.045337	2489.069712
786.368568	2473.442135
786.691752	2475.710654
787.014891	2458.822788
787.337983	2471.425673
787.661030	2483.776500
787.984031	2482.768269
788.306987	2473.694192
788.629897	2481.255923
788.952760	2479.995635
789.275579	2475.458596
789.598351	2501.168481
789.921078	2479.239462
790.243759	2484.280615
790.566395	2469.913327
790.888984	2483.776500
791.211529	2461.595423
791.534027	2480.499750
791.856480	2472.685962
792.178888	2484.028558
792.501249	2473.442135
792.823566	2492.346462
793.145836	2460.083077
793.468062	2501.168481
793.790241	2460.587192
794.112375	2491.338231
794.434464	2490.330000
794.756507	2460.587192
795.078505	2474.450365
795.400457	2470.921558
795.722364	2500.916423
796.044226	2462.351596
796.366042	2474.954481
796.687812	2469.913327
797.009538	2492.094404
797.331218	2472.938019
797.652852	2476.718885
797.974442	2471.173615
798.295986	2501.924654
798.617484	2459.578962
798.938938	2501.420538
799.260346	2462.351596
799.581709	2478.735346
799.903026	2481.255923
800.224299	2461.343365
800.545526	2490.330000
800.866708	2460.083077
801.187845	2473.694192
801.508936	2504.697288
801.829983	2467.644808
802.150984	2472.433904
802.471940	2452.773404
802.792851	2460.083077
803.113717	2467.644808
803.434538	2479.239462
803.755314	2446.219904
804.076045	2476.214769
804.396731	2480.751808
804.717372	2456.806327
805.037967	2479.491519
805.358518	2463.359827
805.679024	2471.677731
805.999485	2480.751808
806.319901	2517.300173
806.640272	2440.926692
806.960598	2487.809423
807.280879	2488.313538
807.601115	2472.181846
807.921306	2476.214769
808.241453	2477.979173
808.561554	2481.507981
808.881611	2468.148923
809.201623	2492.094404
809.521590	2490.834115
809.841513	2493.354692
810.161390	2483.524442
810.481223	2449.244596
810.801011	2491.086173
811.120755	2464.620115
811.440453	2473.190077
811.760107	2468.653038
812.079716	2460.839250
812.399281	2484.532673
812.718801	2449.748712
813.038276	2465.880404
813.357707	2478.735346
813.677093	2482.768269
813.996434	2445.967846
814.315731	2477.979173
814.634983	2465.124231
814.954191	2483.272385
815.273354	2491.086173
815.592473	2496.631442
815.911547	2451.009000
816.230577	2472.181846
816.549562	2466.384519
816.868502	2487.809423
817.187399	2505.453462
817.506250	2465.376288
817.825058	2494.110865
818.143821	2458.318673
818.462539	2461.343365
818.781213	2454.789865
819.099843	2504.697288
819.418429	2465.880404
819.736970	2461.343365
820.055466	2462.099538
820.373919	2470.921558
820.692327	2481.507981
821.010691	2500.160250
821.329011	2492.094404
821.647286	2512.006962
821.965517	2515.031654
822.283704	2544.774462
822.601847	2568.215827
822.919945	2580.566654
823.237999	2544.522404
823.556010	2560.402038
823.873976	2521.081038
824.191897	2512.511077
824.509775	2508.478154
824.827609	2500.664365
825.145398	2520.324865
825.463144	2486.801192
825.780845	2508.982269
826.098502	2515.031654
826.416116	2536.204500
826.733685	2493.858808
827.051210	2505.705519
827.368692	2497.387615
827.686129	2516.039885
828.003522	2504.193173
828.320872	2469.661269
828.638177	2513.267250
828.955439	2476.466827
829.272656	2492.598519
829.589830	2472.433904
829.906960	2459.074846
830.224046	2486.549135
830.541088	2464.872173
830.858086	2457.058385
831.175041	2473.946250
831.491952	2473.694192
831.808819	2476.970942
832.125642	2501.672596
832.442421	2484.784731
832.759157	2496.631442
833.075849	2500.664365
833.392497	2494.867038
833.709101	2484.280615
834.025662	2506.209635
834.342179	2495.875269
834.658653	2492.850577
834.975083	2490.330000
835.291469	2504.445231
835.607811	2462.855712
835.924110	2480.247692
836.240366	2480.499750
836.556578	2446.976077
836.872746	2474.954481
837.188871	2489.321769
837.504952	2455.546038
837.820990	2474.702423
838.136984	2448.992538
838.452935	2471.929788
838.768842	2462.351596
839.084706	2482.768269
839.400526	2483.272385
839.716303	2470.165385
840.032037	2488.817654
840.347727	2488.313538
840.663373	2478.987404
840.978977	2456.050154
841.294537	2468.148923
841.610054	2455.546038
841.925527	2481.003865
842.240957	2460.083077
842.556344	2462.351596
842.871687	2471.173615
843.186987	2466.888635
843.502244	2459.831019
843.817458	2483.020327
844.132629	2454.789865
844.447756	2458.570731
844.762840	2471.929788
845.077881	2469.661269
845.392879	2484.532673
845.707833	2475.458596
846.022745	2474.702423
846.337613	2448.236365
846.652438	2479.491519
846.967221	2460.083077
847.281960	2461.595423
847.596656	2472.938019
847.911309	2476.718885
848.225919	2459.074846
848.540485	2496.127327
848.855009	2448.236365
849.169490	2494.867038
849.483928	2472.938019
849.798323	2494.614981
850.112675	2450.756942
850.426984	2467.644808
850.741251	2445.211673
851.055474	2469.661269
851.369654	2457.310442
851.683792	2460.587192
851.997887	2471.929788
852.311938	2476.970942
852.625947	2468.148923
852.939914	2456.554269
853.253837	2450.504885
853.567718	2463.107769
853.881555	2465.124231
854.195350	2460.839250
854.509103	2468.148923
854.822812	2467.140692
855.136479	2462.603654
855.450103	2451.009000
855.763685	2459.831019
856.077224	2463.107769
856.390720	2481.255923
856.704173	2468.148923
857.017584	2483.524442
857.330953	2477.475058
857.644278	2458.066615
857.957561	2458.318673
858.270802	2468.400981
858.584000	2447.732250
858.897155	2470.417442
859.210268	2470.165385
859.523339	2465.628346
859.836367	2450.252827
860.149352	2475.458596
860.462295	2459.578962
860.775195	2451.513115
861.088054	2464.872173
861.400869	2483.272385
861.713642	2433.364962
862.026373	2442.186981
862.339062	2482.264154
862.651708	2472.938019
862.964312	2466.132462
863.276873	2459.578962
863.589392	2482.516212
863.901869	2481.507981
864.214303	2466.384519
864.526696	2478.735346
864.839045	2478.231231
865.151353	2475.206538
865.463619	2465.880404
865.775842	2468.653038
866.088023	2446.724019
866.400162	2484.028558
866.712258	2476.214769
867.024313	2464.368058
867.336325	2424.290885
867.648296	2484.532673
867.960224	2450.000769
868.272110	2458.570731
868.583954	2489.825885
868.895755	2474.702423
869.207515	2459.578962
869.519233	2476.466827
869.830909	2487.053250
870.142542	2480.751808
870.454134	2458.570731
870.765684	2484.028558
871.077191	2457.814558
871.388657	2479.995635
871.700081	2461.343365
872.011463	2468.400981
872.322803	2475.458596
872.634101	2464.116000
872.945357	2465.880404
873.256571	2487.305308
873.567744	2467.140692
873.878874	2448.992538
874.189963	2440.170519
874.501010	2460.839250
874.812015	2451.261058
875.122979	2469.661269
875.433900	2436.641712
875.744780	2480.247692
876.055618	2484.784731
876.366415	2479.995635
876.677169	2436.641712
876.987882	2466.636577
877.298554	2470.417442
877.609183	2468.653038
877.919771	2483.020327
878.230317	2466.384519
878.540822	2476.214769
878.851285	2465.124231
879.161707	2459.074846
879.472087	2440.674635
879.782425	2471.677731
880.092722	2463.359827
880.402977	2490.834115
880.713191	2495.119096
881.023363	2510.242558
881.333494	2519.820750
881.643583	2483.524442
881.953631	2520.324865
882.263637	2471.173615
882.573602	2502.176712
882.883526	2516.039885
883.193408	2515.031654
883.503248	2498.647904
883.813048	2498.899962
884.122806	2503.941115
884.432522	2481.003865
884.742197	2482.516212
885.051831	2469.157154
885.361424	2473.190077
885.670975	2448.236365
885.980485	2492.094404
886.289954	2467.896865
886.599382	2418.241500
886.908768	2447.732250
887.218113	2465.376288
887.527417	2462.351596
887.836680	2472.685962
888.145901	2483.020327
888.455082	2477.223000
888.764221	2471.173615
889.073319	2443.699327
889.382376	2465.124231
889.691392	2440.674635
890.000366	2461.091308
890.309300	2461.091308
890.618193	2487.809423
890.927044	2435.885538
891.235855	2474.702423
891.544625	2479.491519
891.853353	2471.677731
892.162041	2439.666404
892.470687	2462.099538
892.779293	2475.962712
893.087858	2479.491519
893.396381	2486.045019
893.704864	2458.066615
894.013306	2473.190077
894.321707	2472.938019
894.630068	2481.507981
894.938387	2488.313538
895.246665	2493.606750
895.554903	2485.288846
895.863100	2473.694192
896.171256	2480.247692
896.479371	2483.020327
896.787446	2475.458596
897.095480	2448.488423
897.403473	2484.532673
897.711425	2476.718885
898.019336	2457.058385
898.327207	2498.143788
898.635038	2486.801192
898.942827	2435.633481
899.250576	2473.442135
899.558284	2467.896865
899.865952	2440.422577
900.173579	2469.409212
900.481165	2462.855712
900.788711	2472.938019
901.096216	2468.148923
901.403681	2433.112904
901.711105	2499.908192
902.018489	2470.669500
902.325832	2461.343365
902.633135	2453.025462
902.940397	2461.343365
903.247619	2454.285750
903.554800	2453.781635
903.861941	2480.751808
904.169041	2471.677731
904.476101	2477.979173
904.783121	2468.653038
905.090100	2462.099538
905.397039	2459.074846
905.703938	2483.524442
906.010796	2471.677731
906.317614	2465.376288
906.624391	2458.822788
906.931129	2473.190077
907.237826	2457.058385
907.544483	2467.896865
907.851099	2463.359827
908.157675	2469.661269
908.464211	2470.417442
908.770707	2485.288846
909.077163	2463.107769
909.383578	2478.735346
909.689954	2469.409212
909.996289	2461.091308
910.302584	2452.269288
910.608839	2483.020327
910.915054	2465.376288
911.221229	2462.099538
911.527363	2472.685962
911.833458	2477.727115
912.139513	2490.077942
912.445527	2459.326904
912.751502	2459.074846
913.057436	2463.359827
913.363331	2444.959615
913.669186	2460.587192
913.975000	2467.392750
914.280775	2467.644808
914.586510	2475.458596
914.892205	2466.132462
915.197859	2479.239462
915.503475	2467.896865
915.809050	2457.562500
916.114585	2473.946250
916.420081	2466.384519
916.725536	2486.297077
917.030952	2475.962712
917.336328	2489.321769
917.641665	2501.672596
917.946961	2475.458596
918.252218	2461.847481
918.557435	2462.855712
918.862612	2506.713750
919.167750	2479.995635
919.472848	2475.710654
919.777906	2483.776500
920.082925	2504.697288
920.387904	2460.083077
920.692843	2468.653038
920.997743	2488.313538
921.302603	2492.598519
921.607423	2468.400981
921.912204	2471.677731
922.216946	2476.718885
922.521647	2466.132462
922.826310	2459.831019
923.130932	2478.231231
923.435516	2479.239462
923.740059	2465.124231
924.044564	2456.302212
924.349028	2462.351596
924.653454	2456.554269
924.957840	2471.929788
925.262186	2459.074846
925.566493	2482.768269
925.870761	2443.951385
926.174989	2468.400981
926.479178	2445.211673
926.783328	2468.653038
927.087438	2457.058385
927.391509	2457.562500
927.695541	2461.343365
927.999533	2456.302212
928.303486	2478.483288
928.607400	2452.521346
928.911275	2417.989442
929.215110	2477.475058
929.518906	2462.351596
929.822663	2445.967846
930.126381	2466.636577
930.430060	2438.154058
930.733699	2449.748712
931.037299	2492.598519
931.340861	2472.685962
931.644383	2457.058385
931.947866	2440.170519
932.251309	2448.488423
932.554714	2439.162288
932.858080	2478.483288
933.161407	2457.814558
933.464694	2462.099538
933.767943	2440.170519
934.071153	2459.326904
934.374323	2460.335135
934.677455	2448.236365
934.980548	2491.086173
935.283602	2454.285750
935.586617	2476.214769
935.889593	2442.439038
936.192530	2442.691096
936.495428	2445.715788
936.798287	2483.020327
937.101108	2478.735346
937.403890	2469.409212
937.706632	2451.765173
938.009336	2482.516212
938.312002	2455.293981
938.614628	2444.959615
938.917216	2449.496654
939.219765	2454.285750
939.522275	2456.050154
939.824747	2450.252827
940.127179	2455.293981
940.429573	2481.255923
940.731929	2471.173615
941.034246	2459.831019
941.336524	2456.050154
941.638763	2467.140692
941.940964	2457.562500
942.243126	2466.888635
942.545250	2456.806327
942.847335	2466.132462
943.149381	2457.814558
943.451389	2468.905096
943.753359	2486.549135
944.055290	2477.727115
944.357182	2468.148923
944.659036	2483.020327
944.960851	2432.356731
945.262628	2448.236365
945.564367	2446.219904
945.866067	2432.860846
946.167729	2468.148923
946.469352	2452.269288
946.770937	2465.628346
947.072484	2466.636577
947.373992	2459.831019
947.675462	2445.463731
947.976893	2480.751808
948.278286	2446.471962
948.579641	2444.707558
948.880958	2469.409212
949.182236	2464.872173
949.483476	2454.033692
949.784678	2476.214769
950.085841	2451.009000
950.386967	2461.343365
950.688054	2467.896865
950.989103	2452.269288
951.290114	2463.107769
951.591087	2469.661269
951.892021	2427.063519
952.192917	2459.074846
952.493776	2477.223000
952.794596	2474.450365
953.095378	2461.595423
953.396122	2448.992538
953.696828	2487.305308
953.997496	2461.595423
954.298126	2452.521346
954.598718	2464.620115
954.899272	2482.516212
955.199788	2447.228135
955.500266	2461.847481
955.800706	2433.112904
956.101108	2450.252827
956.401472	2470.921558
956.701798	2458.822788
957.002087	2462.351596
957.302337	2458.822788
957.602550	2464.872173
957.902724	2462.351596
958.202861	2430.088212
958.502960	2459.074846
958.803022	2484.784731
959.103045	2477.727115
959.403031	2466.636577
959.702979	2474.702423
960.002889	2475.710654
960.302762	2461.343365
960.602596	2442.943154
960.902393	2454.033692
961.202153	2458.066615
961.501875	2449.748712
961.801559	2463.359827
962.101205	2433.112904
962.400814	2474.198308
962.700385	2453.529577
962.999918	2457.562500
963.299414	2438.910231
963.598873	2481.255923
963.898293	2451.009000
964.197677	2462.099538
964.497022	2445.967846
964.796331	2467.644808
965.095601	2462.855712
965.394835	2460.839250
965.694030	2458.318673
965.993189	2446.471962
966.292309	2462.099538
966.591393	2476.718885
966.890439	2470.417442
967.189447	2464.116000
967.488419	2466.132462
967.787353	2462.855712
968.086249	2459.326904
968.385108	2448.236365
968.683930	2449.748712
968.982714	2455.293981
969.281462	2457.310442
969.580172	2508.226096
969.878844	2438.910231
970.177480	2466.132462
970.476078	2455.546038
970.774639	2471.677731
971.073162	2455.546038
971.371649	2456.554269
971.670098	2454.285750
971.968510	2427.063519
972.266885	2456.302212
972.565223	2473.946250
972.863524	2425.551173
973.161788	2448.236365
973.460014	2472.433904
973.758204	2462.099538
974.056356	2470.165385
974.354471	2476.214769
974.652550	2435.633481
974.950591	2437.145827
975.248595	2469.157154
975.546563	2459.578962
975.844493	2431.348500
976.142386	2441.430808
976.440243	2472.938019
976.738062	2441.682865
977.035845	2455.798096
977.333590	2434.373192
977.631299	2462.603654
977.928971	2472.181846
978.226606	2456.302212
978.524204	2445.715788
978.821765	2445.715788
979.119290	2429.836154
979.416777	2451.009000
979.714228	2459.074846
980.011642	2454.033692
980.309020	2449.748712
980.606360	2445.211673
980.903664	2472.433904
981.200931	2442.186981
981.498162	2471.929788
981.795356	2458.570731
982.092513	2461.343365
982.389633	2464.872173
982.686717	2471.173615
982.983764	2486.549135
983.280775	2440.170519
983.577749	2471.929788
983.874686	2457.310442
984.171587	2488.565596
984.468451	2452.269288
984.765279	2448.740481
985.062070	2466.384519
985.358824	2467.896865
985.655543	2463.359827
985.952224	2473.946250
986.248869	2458.318673
986.545478	2450.000769
986.842050	2445.715788
987.138586	2459.326904
987.435086	2425.551173
987.731549	2429.332038
988.027975	2482.264154
988.324366	2449.748712
988.620719	2464.116000
988.917037	2448.488423
989.213318	2451.009000
989.509563	2457.058385
989.805772	2475.206538
990.101944	2437.649942
990.398080	2452.017231
990.694180	2433.869077
990.990244	2455.041923
991.286271	2463.611885
991.582262	2471.173615
991.878217	2466.636577
992.174136	2448.992538
992.470019	2473.694192
992.765865	2457.058385
993.061676	2467.896865
993.357450	2473.190077
993.653188	2458.066615
993.948890	2461.847481
994.244556	2461.847481
994.540186	2476.466827
994.835780	2439.414346
995.131337	2467.644808
995.426859	2449.496654
995.722345	2478.483288
996.017795	2453.025462
996.313208	2487.809423
996.608586	2457.310442
996.903928	2457.058385
997.199234	2429.332038
997.494504	2459.326904
997.789738	2448.488423
998.084936	2431.852615
998.380099	2475.710654
998.675225	2486.801192
998.970316	2472.685962
999.265371	2470.669500
999.560390	2444.707558
999.855373	2456.050154
1000.150320	2450.000769
1000.445232	2467.644808
1000.740108	2454.789865
1001.034948	2483.524442
1001.329752	2444.203442
1001.624521	2453.781635
1001.919254	2467.896865
1002.213951	2472.938019
1002.508613	2475.206538
1002.803239	2455.041923
1003.097829	2448.992538
1003.392384	2469.661269
1003.686903	2441.430808
1003.981386	2481.255923
1004.275834	2452.521346
1004.570246	2459.074846
1004.864623	2451.765173
1005.158964	2457.562500
1005.453270	2469.661269
1005.747540	2458.570731
1006.041775	2449.244596
1006.335974	2473.190077
1006.630138	2439.918462
1006.924266	2479.995635
1007.218359	2446.219904
1007.512416	2464.368058
1007.806438	2466.384519
1008.100425	2459.074846
1008.394376	2444.959615
1008.688292	2475.710654
1008.982172	2446.724019
1009.276017	2453.277519
1009.569827	2476.466827
1009.863602	2438.910231
1010.157341	2475.206538
1010.451045	2447.480192
1010.744714	2471.173615
1011.038347	2455.546038
1011.331945	2447.732250
1011.625508	2430.340269
1011.919036	2489.825885
1012.212528	2472.433904
1012.505986	2468.905096
1012.799408	2443.447269
1013.092795	2454.033692
1013.386147	2435.885538
1013.679464	2451.261058
1013.972745	2446.724019
1014.265992	2474.702423
1014.559204	2467.392750
1014.852380	2481.507981
1015.145521	2459.326904
1015.438628	2428.575865
1015.731699	2454.789865
1016.024736	2474.954481
1016.317737	2463.863942
1016.610703	2463.863942
1016.903635	2464.872173
1017.196531	2457.058385
1017.489393	2443.447269
1017.782219	2458.822788
1018.075011	2467.140692
1018.367768	2437.902000
1018.660490	2472.181846
1018.953177	2472.181846
1019.245829	2472.181846
