Dividing Wavelength (nm)	Counts (n)	Slit_number_36_of_a_total_of_40	
326.493990	2139.129615
326.888308	2139.129615
327.282561	2139.129615
327.676750	2121.233519
328.070874	2111.739346
328.464933	2126.022615
328.858929	2129.971519
329.252859	2134.676596
329.646726	2162.402942
330.040528	2182.987654
330.434265	2190.549385
330.827938	2214.998981
331.221547	2240.036712
331.615091	2263.310038
332.008571	2268.687269
332.401986	2286.751404
332.795338	2323.131731
333.188625	2335.818635
333.581847	2353.798750
333.975006	2374.551500
334.368100	2377.240115
334.761129	2405.050481
335.154095	2420.173942
335.546996	2444.371481
335.939833	2443.615308
336.332606	2462.855712
336.725315	2466.216481
337.117960	2488.649615
337.510540	2498.899962
337.903056	2508.058058
338.295508	2500.328288
338.687896	2514.275481
339.080220	2533.767942
339.472480	2525.450038
339.864676	2536.288519
340.256807	2530.659231
340.648875	2528.894827
341.040879	2541.077615
341.432818	2543.598192
341.824694	2533.935981
342.216506	2531.499423
342.608253	2544.438385
342.999937	2531.079327
343.391557	2538.557038
343.783113	2528.390712
344.174605	2545.698673
344.566033	2533.935981
344.957397	2528.642769
345.348697	2532.003538
345.739934	2535.700385
346.131106	2523.517596
346.522215	2532.171577
346.913260	2515.787827
347.304241	2533.431865
347.695159	2510.998731
348.086012	2528.054635
348.476802	2519.568692
348.867528	2521.669173
349.258191	2513.939404
349.648789	2505.705519
350.039324	2509.318346
350.429796	2521.417115
350.820203	2520.240846
351.210548	2522.593385
351.600828	2518.896538
351.991045	2501.252500
352.381198	2503.352981
352.771288	2510.830692
353.161314	2513.939404
353.551276	2503.352981
353.941175	2509.066288
354.331010	2498.311827
354.720782	2516.459981
355.110490	2511.670885
355.500135	2505.537481
355.889717	2523.433577
356.279235	2508.814231
356.668689	2517.552231
357.058080	2516.628019
357.447408	2520.660942
357.836672	2508.814231
358.225873	2519.988788
358.615010	2501.168481
359.004084	2503.521019
359.393095	2514.779596
359.782043	2514.191462
360.170927	2514.191462
360.559748	2516.880077
360.948505	2511.586865
361.337199	2512.343038
361.725830	2527.214442
362.114398	2533.011769
362.502903	2502.176712
362.891344	2509.150308
363.279722	2530.491192
363.668037	2520.828981
364.056289	2516.375962
364.444478	2527.718558
364.832603	2509.990500
365.220665	2522.509365
365.608665	2519.988788
365.996601	2514.275481
366.384474	2505.285423
366.772284	2514.359500
367.160031	2537.212731
367.547715	2509.066288
367.935336	2534.020000
368.322893	2524.525827
368.710388	2523.853673
369.097820	2515.787827
369.485189	2531.583442
369.872495	2502.260731
370.259738	2524.525827
370.646918	2530.239135
371.034035	2525.534058
371.421090	2508.898250
371.808081	2526.458269
372.195010	2532.675692
372.581875	2534.356077
372.968678	2518.644481
373.355418	2513.603327
373.742096	2520.492904
374.128710	2524.609846
374.515262	2540.489481
374.901751	2513.603327
375.288177	2531.415404
375.674540	2536.792635
376.060841	2534.944212
376.447079	2516.712038
376.833254	2533.095788
377.219367	2532.507654
377.605417	2522.341327
377.991404	2525.113962
378.377329	2528.558750
378.763191	2518.056346
379.148991	2529.482962
379.534727	2533.095788
379.920402	2549.983654
380.306013	2529.903058
380.691563	2536.792635
381.077049	2535.448327
381.462474	2541.833788
381.847835	2526.374250
382.233134	2520.997019
382.618371	2533.599904
383.003545	2529.482962
383.388657	2542.421923
383.773706	2513.267250
384.158693	2519.400654
384.543618	2533.347846
384.928480	2525.366019
385.313280	2526.290231
385.698017	2540.657519
386.082692	2516.964096
386.467305	2541.161635
386.851856	2520.997019
387.236344	2535.280288
387.620770	2532.843731
388.005133	2524.441808
388.389435	2521.081038
388.773674	2543.850250
389.157851	2521.249077
389.541965	2544.354365
389.926018	2540.573500
390.310008	2525.282000
390.693936	2527.130423
391.077802	2518.896538
391.461606	2529.735019
391.845348	2524.693865
392.229027	2540.909577
392.612645	2516.207923
392.996200	2553.176385
393.379694	2527.298462
393.763125	2536.036462
394.146494	2530.407173
394.529801	2548.807385
394.913047	2544.354365
395.296230	2539.901346
395.679351	2534.020000
396.062410	2541.497712
396.445408	2535.952442
396.828343	2532.087558
397.211217	2545.026519
397.594028	2534.860192
397.976778	2526.542288
398.359466	2547.042981
398.742092	2540.069385
399.124656	2530.575212
399.507158	2548.807385
399.889598	2536.120481
400.271977	2533.935981
400.654294	2541.749769
401.036549	2552.084135
401.418742	2541.161635
401.800874	2528.474731
402.182944	2549.479538
402.564952	2546.034750
402.946898	2547.295038
403.328783	2542.001827
403.710606	2535.616365
404.092367	2533.011769
404.474067	2542.926038
404.855705	2544.858481
405.237282	2532.927750
405.618797	2541.749769
406.000250	2545.530635
406.381642	2525.113962
406.762972	2550.823846
407.144240	2531.163346
407.525447	2542.253885
407.906593	2549.899635
408.287677	2548.723365
408.668700	2545.278577
409.049661	2550.151692
409.430560	2535.028231
409.811399	2548.135231
410.192176	2549.311500
410.572891	2545.026519
410.953545	2543.934269
411.334138	2534.188038
411.714669	2549.227481
412.095139	2545.614654
412.475547	2552.504231
412.855894	2555.612942
413.236180	2546.286808
413.616405	2546.370827
413.996568	2539.733308
414.376670	2542.421923
414.756711	2555.780981
415.136691	2550.151692
415.516609	2543.682212
415.896466	2544.942500
416.276262	2546.034750
416.655997	2554.772750
417.035670	2563.090654
417.415283	2539.313212
417.794834	2539.817327
418.174324	2537.044692
418.553753	2557.209308
418.933121	2555.780981
419.312428	2560.570077
419.691674	2543.934269
420.070859	2547.295038
420.449983	2549.311500
420.829045	2561.578308
421.208047	2556.201077
421.586988	2530.491192
421.965867	2560.822135
422.344686	2562.166442
422.723444	2556.537154
423.102141	2537.716846
423.480777	2535.532346
423.859352	2541.665750
424.237866	2548.387288
424.616319	2534.440096
424.994712	2550.319731
425.373044	2549.311500
425.751314	2542.421923
426.129524	2550.823846
426.507673	2540.909577
426.885762	2540.489481
427.263789	2557.209308
427.641756	2526.122192
428.019662	2565.275154
428.397508	2540.153404
428.775292	2555.024808
429.153016	2544.270346
429.530679	2560.065962
429.908282	2544.438385
430.285824	2556.285096
430.663305	2554.100596
431.040726	2561.074192
431.418086	2555.444904
431.795385	2561.662327
432.172624	2569.056019
432.549802	2543.850250
432.926920	2553.260404
433.303977	2550.235712
433.680974	2544.522404
434.057910	2547.379058
434.434786	2546.790923
434.811601	2552.000115
435.188355	2542.169865
435.565050	2557.209308
435.941683	2544.606423
436.318257	2541.161635
436.694770	2542.001827
437.071222	2549.479538
437.447614	2543.766231
437.823946	2547.211019
438.200218	2549.983654
438.576429	2560.654096
438.952580	2545.530635
439.328670	2550.319731
439.704700	2535.028231
440.080670	2546.958962
440.456580	2547.715135
440.832429	2545.782692
441.208218	2548.975423
441.583947	2561.578308
441.959616	2557.545385
442.335224	2557.881462
442.710773	2553.428442
443.086261	2559.645865
443.461689	2561.914385
443.837057	2551.832077
444.212365	2549.479538
444.587612	2566.955538
444.962800	2541.497712
445.337927	2579.726462
445.712995	2547.715135
446.088002	2554.184615
446.462949	2548.807385
446.837837	2559.141750
447.212664	2557.041269
447.587431	2548.807385
447.962139	2557.629404
448.336786	2571.576596
448.711374	2545.866712
449.085901	2553.848538
449.460369	2553.512462
449.834776	2539.313212
450.209124	2552.672269
450.583412	2546.958962
450.957640	2559.477827
451.331808	2542.673981
451.705917	2554.184615
452.079965	2573.256981
452.453954	2555.780981
452.827883	2554.184615
453.201752	2565.023096
453.575562	2541.749769
453.949311	2556.453135
454.323001	2565.359173
454.696632	2559.393808
455.070202	2557.209308
455.443713	2568.299846
455.817164	2563.426731
456.190556	2563.930846
456.563888	2562.166442
456.937160	2545.698673
457.310373	2554.604712
457.683526	2560.486058
458.056619	2575.861577
458.429653	2550.487769
458.802628	2562.250462
459.175542	2569.644154
459.548398	2547.042981
459.921194	2560.402038
460.293930	2558.217538
460.666607	2546.454846
461.039224	2557.377346
461.411782	2564.771038
461.784280	2549.059442
462.156719	2562.670558
462.529099	2554.520692
462.901419	2556.369115
463.273680	2564.014865
463.645882	2550.067673
464.018024	2569.644154
464.390106	2554.352654
464.762130	2559.309788
465.134094	2551.075904
465.505999	2550.571788
465.877845	2569.308077
466.249631	2550.907865
466.621358	2566.703481
466.993026	2557.125288
467.364634	2580.734692
467.736184	2565.023096
468.107674	2562.418500
468.479105	2571.156500
468.850477	2552.756288
469.221790	2560.570077
469.593043	2560.570077
469.964238	2549.227481
470.335373	2564.014865
470.706449	2553.176385
471.077467	2559.981942
471.448425	2575.021385
471.819324	2562.502519
472.190164	2570.316308
472.560945	2568.887981
472.931667	2565.611231
473.302330	2549.227481
473.672934	2559.813904
474.043479	2560.149981
474.413965	2562.754577
474.784393	2561.410269
475.154761	2557.629404
475.525070	2561.158212
475.895321	2558.721654
476.265513	2559.309788
476.635645	2558.721654
477.005719	2557.545385
477.375734	2556.033038
477.745691	2544.438385
478.115588	2568.972000
478.485427	2565.023096
478.855207	2557.545385
479.224928	2552.000115
479.594591	2553.428442
479.964194	2557.125288
480.333739	2573.929135
480.703226	2562.838596
481.072653	2563.174673
481.442022	2555.444904
481.811333	2563.258692
482.180584	2576.449712
482.549777	2572.080712
482.918912	2563.678788
483.287988	2573.172962
483.657005	2542.337904
484.025964	2562.418500
484.394864	2558.049500
484.763706	2559.813904
485.132489	2566.787500
485.501213	2555.108827
485.869879	2571.156500
486.238487	2570.988462
486.607036	2562.838596
486.975527	2556.369115
487.343959	2551.832077
487.712333	2574.349231
488.080648	2559.981942
488.448905	2557.293327
488.817104	2549.479538
489.185244	2570.820423
489.553326	2555.865000
489.921350	2576.617750
490.289315	2554.184615
490.657222	2561.914385
491.025070	2569.056019
491.392861	2573.256981
491.760593	2563.762808
492.128267	2553.092365
492.495883	2568.467885
492.863440	2563.762808
493.230939	2564.771038
493.598380	2558.301558
493.965763	2570.232288
494.333088	2562.922615
494.700354	2558.553615
495.067563	2569.308077
495.434713	2563.594769
495.801805	2551.748058
496.168839	2555.949019
496.535815	2562.670558
496.902733	2567.795731
497.269593	2567.207596
497.636395	2569.560135
498.003139	2560.149981
498.369825	2561.410269
498.736453	2559.897923
499.103023	2565.947308
499.469535	2555.276865
499.835989	2554.184615
500.202385	2576.869808
500.568723	2566.367404
500.935003	2545.278577
501.301226	2545.194558
501.667390	2564.182904
502.033497	2556.621173
502.399546	2561.410269
502.765537	2552.084135
503.131470	2558.637635
503.497345	2552.504231
503.863163	2557.125288
504.228923	2564.518981
504.594625	2561.662327
504.960269	2577.962058
505.325856	2568.635923
505.691385	2541.245654
506.056856	2579.978519
506.422270	2566.199365
506.787625	2565.863288
507.152924	2563.174673
507.518164	2558.469596
507.883347	2566.115346
508.248472	2562.082423
508.613540	2559.729885
508.978550	2558.049500
509.343503	2560.486058
509.708398	2555.024808
510.073236	2554.436673
510.438016	2560.149981
510.802738	2560.738115
511.167403	2552.000115
511.532010	2541.917808
511.896561	2552.840308
512.261053	2563.930846
512.625488	2561.494288
512.989866	2567.123577
513.354186	2558.805673
513.718449	2572.920904
514.082655	2574.685308
514.446803	2564.687019
514.810894	2577.289904
515.174927	2577.878038
515.538904	2561.074192
515.902822	2576.281673
516.266684	2575.273442
516.630488	2565.191135
516.994235	2562.754577
517.357925	2568.383865
517.721558	2559.729885
518.085133	2556.117058
518.448651	2576.701769
518.812112	2564.266923
519.175516	2549.059442
519.538863	2558.133519
519.902152	2559.729885
520.265385	2571.828654
520.628560	2571.744635
520.991678	2553.512462
521.354739	2564.855058
521.717743	2566.115346
522.080690	2569.812192
522.443580	2583.087231
522.806413	2572.332769
523.169189	2562.082423
523.531908	2563.174673
523.894569	2551.496000
524.257174	2563.846827
524.619722	2564.014865
524.982213	2544.354365
525.344647	2569.308077
525.707025	2567.039558
526.069345	2576.281673
526.431608	2560.990173
526.793815	2575.189423
527.155964	2547.463077
527.518057	2575.105404
527.880093	2566.451423
528.242072	2561.494288
528.603995	2576.701769
528.965860	2570.484346
529.327669	2577.457942
529.689421	2578.634212
530.051117	2578.046077
530.412755	2581.322827
530.774337	2572.332769
531.135862	2558.049500
531.497331	2573.425019
531.858743	2558.889692
532.220098	2554.604712
532.581396	2577.878038
532.942638	2566.367404
533.303824	2566.199365
533.664953	2578.046077
534.026025	2561.914385
534.387040	2562.166442
534.747999	2578.970288
535.108902	2567.039558
535.469748	2573.004923
535.830537	2562.082423
536.191270	2556.789212
536.551947	2568.047788
536.912567	2567.123577
537.273131	2580.230577
537.633638	2554.772750
537.994089	2573.341000
538.354483	2562.922615
538.714821	2575.777558
539.075103	2560.570077
539.435328	2559.225769
539.795497	2563.594769
540.155609	2581.826942
540.515665	2562.502519
540.875665	2558.133519
541.235609	2561.746346
541.595496	2554.520692
541.955328	2564.014865
542.315102	2555.360885
542.674821	2563.678788
543.034483	2560.990173
543.394090	2576.113635
543.753640	2565.359173
544.113134	2563.258692
544.472571	2554.604712
544.831953	2558.049500
545.191278	2572.920904
545.550548	2568.803962
545.909761	2553.680500
546.268918	2565.947308
546.628019	2549.983654
546.987064	2567.123577
547.346053	2572.500808
547.704986	2570.232288
548.063863	2567.879750
548.422684	2569.560135
548.781449	2555.444904
549.140158	2570.568365
549.498811	2573.256981
549.857408	2556.705192
550.215949	2573.341000
550.574434	2556.957250
550.932864	2563.090654
551.291237	2558.637635
551.649555	2564.771038
552.007817	2569.560135
552.366022	2578.214115
552.724173	2561.158212
553.082267	2548.051212
553.440305	2575.609519
553.798288	2576.869808
554.156215	2565.527212
554.514086	2568.299846
554.871902	2568.635923
555.229661	2569.812192
555.587365	2562.838596
555.945014	2554.604712
556.302606	2555.612942
556.660143	2566.619462
557.017625	2567.963769
557.375050	2569.644154
557.732421	2572.416788
558.089735	2574.265212
558.446994	2567.627692
558.804197	2552.840308
559.161345	2584.515558
559.518437	2570.736404
559.875474	2571.912673
560.232455	2570.400327
560.589381	2581.490865
560.946251	2567.291615
561.303065	2583.339288
561.659825	2567.375635
562.016528	2546.790923
562.373177	2565.191135
562.729770	2576.365692
563.086307	2560.822135
563.442789	2571.912673
563.799216	2578.634212
564.155587	2575.777558
564.511904	2557.293327
564.868164	2564.182904
565.224370	2558.973712
565.580520	2580.818712
565.936615	2568.719942
566.292654	2570.316308
566.648638	2561.326250
567.004567	2555.024808
567.360441	2567.879750
567.716260	2564.182904
568.072023	2570.988462
568.427732	2567.291615
568.783385	2577.962058
569.138982	2563.594769
569.494525	2554.184615
569.850013	2563.930846
570.205445	2564.603000
570.560823	2575.273442
570.916145	2557.461365
571.271412	2558.217538
571.626625	2570.064250
571.981782	2553.344423
572.336884	2571.156500
572.691931	2572.836885
573.046923	2561.746346
573.401860	2556.873231
573.756743	2560.738115
574.111570	2564.014865
574.466342	2568.299846
574.821059	2566.199365
575.175722	2564.687019
575.530330	2573.341000
575.884882	2562.418500
576.239380	2559.645865
576.593823	2561.578308
576.948211	2551.496000
577.302544	2569.476115
577.656823	2572.080712
578.011047	2565.275154
578.365216	2569.728173
578.719330	2560.486058
579.073389	2571.828654
579.427394	2567.459654
579.781344	2561.662327
580.135239	2576.365692
580.489080	2570.904442
580.842866	2565.611231
581.196597	2570.652385
581.550273	2574.013154
581.903895	2558.973712
582.257463	2569.140038
582.610975	2573.088942
582.964434	2570.484346
583.317837	2559.729885
583.671186	2564.014865
584.024481	2561.914385
584.377721	2563.258692
584.730906	2574.013154
585.084037	2562.502519
585.437113	2588.044365
585.790135	2572.500808
586.143103	2561.326250
586.496016	2576.869808
586.848874	2563.426731
587.201679	2566.871519
587.554428	2562.754577
587.907124	2558.721654
588.259765	2558.637635
588.612352	2565.023096
588.964884	2563.762808
589.317362	2569.560135
589.669786	2560.318019
590.022155	2562.250462
590.374470	2568.719942
590.726731	2549.899635
591.078937	2566.619462
591.431090	2569.644154
591.783188	2586.279962
592.135232	2556.369115
592.487222	2568.887981
592.839157	2577.121865
593.191038	2569.056019
593.542866	2574.349231
593.894639	2578.214115
594.246358	2560.990173
594.598022	2553.848538
594.949633	2575.357462
595.301190	2558.721654
595.652692	2570.484346
596.004141	2568.803962
596.355535	2556.453135
596.706876	2577.541962
597.058162	2563.762808
597.409395	2558.553615
597.760573	2559.393808
598.111698	2569.308077
598.462768	2557.041269
598.813785	2574.853346
599.164748	2571.912673
599.515657	2577.625981
599.866511	2579.054308
600.217312	2566.199365
600.568060	2568.047788
600.918753	2565.527212
601.269392	2577.962058
601.619978	2571.240519
601.970510	2577.710000
602.320988	2565.779269
602.671412	2571.828654
603.021783	2569.896212
603.372100	2562.754577
603.722363	2567.795731
604.072572	2557.629404
604.422728	2576.365692
604.772830	2572.164731
605.122878	2578.802250
605.472872	2560.738115
605.822813	2568.467885
606.172701	2579.894500
606.522534	2572.332769
606.872314	2573.256981
607.222041	2564.014865
607.571714	2566.115346
607.921333	2569.980231
608.270899	2572.500808
608.620411	2576.449712
608.969870	2569.476115
609.319276	2565.275154
609.668627	2573.929135
610.017926	2542.505942
610.367171	2547.883173
610.716362	2566.871519
611.065500	2573.677077
611.414585	2564.434962
611.763616	2567.291615
612.112594	2556.537154
612.461518	2557.377346
612.810389	2546.790923
613.159207	2572.668846
613.507971	2574.517269
613.856682	2572.584827
614.205340	2564.098885
614.553945	2561.662327
614.902496	2558.637635
615.250994	2577.205885
615.599439	2557.125288
615.947830	2565.863288
616.296169	2562.838596
616.644454	2569.308077
616.992686	2571.156500
617.340864	2576.533731
617.688990	2590.396904
618.037063	2565.695250
618.385082	2565.107115
618.733048	2560.149981
619.080961	2557.125288
619.428821	2573.761096
619.776628	2567.459654
620.124382	2562.082423
620.472083	2567.795731
620.819731	2562.754577
621.167326	2567.963769
621.514868	2559.981942
621.862357	2557.377346
622.209793	2566.367404
622.557176	2574.853346
622.904506	2561.578308
623.251783	2566.787500
623.599007	2572.332769
623.946179	2570.232288
624.293297	2560.822135
624.640363	2571.912673
624.987376	2558.637635
625.334336	2578.634212
625.681243	2551.748058
626.028097	2559.225769
626.374899	2573.509038
626.721647	2567.459654
627.068343	2566.535442
627.414987	2577.625981
627.761577	2567.543673
628.108115	2557.797442
628.454600	2583.087231
628.801032	2560.402038
629.147412	2565.695250
629.493739	2556.369115
629.840014	2579.642442
630.186236	2568.383865
630.532405	2574.349231
630.878521	2562.166442
631.224585	2557.881462
631.570597	2568.047788
631.916556	2575.777558
632.262462	2560.654096
632.608316	2582.919192
632.954117	2552.840308
633.299866	2566.955538
633.645562	2564.855058
633.991206	2578.298135
634.336797	2565.359173
634.682336	2578.298135
635.027823	2576.785788
635.373257	2565.863288
635.718639	2568.972000
636.063968	2575.777558
636.409245	2569.392096
636.754470	2567.291615
637.099642	2567.291615
637.444762	2561.998404
637.789829	2557.377346
638.134845	2555.192846
638.479808	2549.311500
638.824719	2575.945596
639.169577	2573.761096
639.514383	2571.492577
639.859137	2549.059442
640.203839	2577.289904
640.548489	2556.453135
640.893086	2568.047788
641.237632	2568.215827
641.582125	2557.797442
641.926566	2567.543673
642.270955	2564.266923
642.615292	2565.107115
642.959576	2574.181192
643.303809	2568.215827
643.647990	2564.939077
643.992118	2574.853346
644.336195	2570.484346
644.680219	2572.416788
645.024192	2558.721654
645.368112	2563.594769
645.711981	2564.603000
646.055797	2566.535442
646.399562	2559.981942
646.743274	2564.182904
647.086935	2566.115346
647.430544	2581.742923
647.774101	2558.889692
648.117606	2560.149981
648.461059	2569.644154
648.804460	2564.939077
649.147810	2534.020000
649.491108	2562.250462
649.834354	2573.088942
650.177548	2564.687019
650.520690	2561.326250
650.863781	2559.309788
651.206820	2575.861577
651.549807	2559.561846
651.892742	2584.179481
652.235626	2559.813904
652.578458	2564.939077
652.921238	2563.090654
653.263967	2569.392096
653.606644	2575.273442
653.949269	2551.916096
654.291843	2571.240519
654.634365	2560.149981
654.976836	2563.510750
655.319255	2568.215827
655.661622	2576.953827
656.003938	2554.520692
656.346203	2564.434962
656.688416	2565.023096
657.030577	2575.357462
657.372687	2551.916096
657.714746	2562.670558
658.056753	2565.191135
658.398708	2565.107115
658.740612	2574.769327
659.082465	2580.650673
659.424266	2574.685308
659.766016	2582.163019
660.107715	2556.033038
660.449362	2558.469596
660.790958	2564.098885
661.132503	2564.182904
661.473996	2570.400327
661.815438	2565.107115
662.156829	2568.803962
662.498168	2571.492577
662.839456	2557.041269
663.180693	2561.074192
663.521879	2564.518981
663.863013	2547.211019
664.204097	2563.426731
664.545129	2577.541962
664.886110	2570.568365
665.227040	2571.828654
665.567918	2550.235712
665.908746	2566.031327
666.249522	2558.889692
666.590248	2564.939077
666.930922	2573.004923
667.271545	2563.594769
667.612118	2555.276865
667.952639	2587.204173
668.293109	2577.457942
668.633528	2554.100596
668.973896	2552.672269
669.314213	2569.980231
669.654480	2558.973712
669.994695	2561.998404
670.334859	2559.225769
670.674973	2569.140038
671.015035	2564.518981
671.355047	2572.248750
671.695008	2562.250462
672.034918	2545.698673
672.374777	2569.812192
672.714585	2567.459654
673.054342	2564.014865
673.394049	2563.090654
673.733705	2571.492577
674.073310	2570.232288
674.412864	2563.846827
674.752368	2553.344423
675.091820	2572.584827
675.431223	2557.797442
675.770574	2559.645865
676.109875	2556.201077
676.449125	2552.924327
676.788324	2580.146558
677.127473	2563.594769
677.466571	2559.141750
677.805619	2567.963769
678.144616	2562.502519
678.483562	2575.693538
678.822458	2555.949019
679.161303	2557.377346
679.500098	2574.517269
679.838842	2563.678788
680.177535	2559.897923
680.516179	2562.082423
680.854771	2565.443192
681.193314	2587.624269
681.531805	2557.713423
681.870247	2545.866712
682.208638	2573.341000
682.546978	2557.041269
682.885268	2553.344423
683.223508	2564.014865
683.561697	2575.945596
683.899836	2567.123577
684.237925	2558.049500
684.575963	2561.410269
684.913951	2573.677077
685.251889	2573.593058
685.589776	2564.687019
685.927614	2575.273442
686.265401	2579.138327
686.603137	2568.383865
686.940824	2568.131808
687.278460	2554.688731
687.616046	2575.525500
687.953582	2552.336192
688.291068	2561.998404
688.628504	2578.550192
688.965889	2558.889692
689.303224	2570.064250
689.640510	2568.972000
689.977745	2552.672269
690.314930	2572.248750
690.652065	2558.133519
690.989150	2560.318019
691.326185	2551.327962
691.663170	2573.761096
692.000105	2557.461365
692.336990	2560.065962
692.673825	2569.392096
693.010610	2565.023096
693.347345	2564.518981
693.684030	2564.603000
694.020665	2565.275154
694.357251	2559.477827
694.693786	2571.408558
695.030272	2562.670558
695.366707	2568.131808
695.703093	2571.744635
696.039429	2564.603000
696.375716	2569.644154
696.711952	2583.591346
697.048139	2545.950731
697.384276	2577.205885
697.720363	2583.423308
698.056400	2578.298135
698.392388	2562.166442
698.728326	2558.805673
699.064214	2564.939077
699.400053	2563.090654
699.735842	2565.947308
700.071581	2559.561846
700.407270	2564.603000
700.742910	2562.502519
701.078501	2563.342712
701.414042	2571.912673
701.749533	2567.795731
702.084974	2574.937365
702.420366	2564.687019
702.755709	2557.797442
703.091002	2559.561846
703.426246	2563.846827
703.761440	2565.947308
704.096584	2572.080712
704.431679	2559.057731
704.766725	2563.762808
705.101721	2562.418500
705.436668	2563.006635
705.771565	2552.420212
706.106413	2572.920904
706.441212	2556.789212
706.775961	2569.560135
707.110661	2555.444904
707.445311	2563.762808
707.779913	2566.787500
708.114465	2550.571788
708.448967	2573.256981
708.783421	2557.965481
709.117825	2550.235712
709.452180	2577.205885
709.786485	2571.996692
710.120742	2556.621173
710.454949	2553.260404
710.789107	2565.443192
711.123216	2563.846827
711.457275	2565.527212
711.791286	2564.855058
712.125247	2561.410269
712.459159	2576.449712
712.793023	2542.505942
713.126837	2570.904442
713.460602	2571.240519
713.794318	2553.848538
714.127985	2553.344423
714.461602	2565.107115
714.795171	2553.596481
715.128691	2563.678788
715.462162	2545.950731
715.795584	2567.207596
716.128957	2563.678788
716.462281	2562.922615
716.795556	2552.756288
717.128782	2564.350942
717.461960	2558.217538
717.795088	2551.411981
718.128167	2561.578308
718.461198	2569.140038
718.794180	2549.815615
719.127113	2562.670558
719.459997	2568.719942
719.792833	2574.181192
720.125619	2558.889692
720.458357	2568.719942
720.791046	2554.016577
721.123686	2540.153404
721.456278	2570.232288
721.788821	2571.240519
722.121315	2572.080712
722.453761	2559.309788
722.786158	2567.963769
723.118506	2565.443192
723.450805	2562.922615
723.783056	2562.082423
724.115259	2557.713423
724.447412	2552.840308
724.779518	2570.652385
725.111574	2557.713423
725.443582	2547.715135
725.775542	2569.644154
726.107453	2562.670558
726.439315	2567.207596
726.771129	2583.843404
727.102895	2556.201077
727.434612	2565.695250
727.766281	2563.426731
728.097901	2553.848538
728.429473	2567.207596
728.760996	2567.123577
729.092471	2562.166442
729.423897	2573.677077
729.755276	2565.611231
730.086606	2568.887981
730.417887	2565.863288
730.749120	2554.100596
731.080305	2562.754577
731.411442	2565.947308
731.742530	2575.021385
732.073570	2569.812192
732.404562	2555.360885
732.735506	2567.375635
733.066401	2564.771038
733.397249	2561.830365
733.728048	2567.459654
734.058798	2570.064250
734.389501	2556.621173
734.720156	2569.476115
735.050762	2565.359173
735.381320	2552.504231
735.711831	2567.963769
736.042293	2559.897923
736.372707	2555.612942
736.703073	2569.392096
737.033391	2553.680500
737.363661	2564.939077
737.693883	2558.637635
738.024056	2569.392096
738.354182	2561.662327
738.684260	2563.342712
739.014290	2561.494288
739.344272	2563.594769
739.674207	2563.426731
740.004093	2560.990173
740.333931	2568.972000
740.663722	2551.075904
740.993464	2572.584827
741.323159	2574.097173
741.652806	2565.443192
741.982405	2575.693538
742.311956	2572.332769
742.641460	2548.891404
742.970915	2566.787500
743.300323	2562.670558
743.629683	2558.973712
743.958996	2557.125288
744.288260	2555.528923
744.617477	2563.174673
744.946647	2567.291615
745.275768	2567.207596
745.604842	2559.981942
745.933869	2560.234000
746.262847	2553.344423
746.591778	2560.318019
746.920662	2558.301558
747.249498	2556.873231
747.578286	2557.377346
747.907027	2568.887981
748.235720	2551.832077
748.564365	2578.802250
748.892963	2561.326250
749.221514	2556.285096
749.550017	2572.584827
749.878473	2572.752865
750.206881	2558.217538
750.535242	2564.855058
750.863555	2557.209308
751.191821	2567.039558
751.520039	2562.838596
751.848210	2567.291615
752.176334	2573.425019
752.504411	2566.703481
752.832440	2555.192846
753.160421	2568.131808
753.488356	2561.662327
753.816243	2572.836885
754.144082	2562.334481
754.471875	2564.603000
754.799620	2554.436673
755.127318	2562.754577
755.454969	2559.225769
755.782572	2561.494288
756.110129	2554.184615
756.437638	2570.232288
756.765100	2566.451423
757.092515	2553.680500
757.419882	2580.650673
757.747203	2566.283385
758.074477	2557.629404
758.401703	2561.998404
758.728882	2552.000115
759.056014	2563.258692
759.383099	2565.443192
759.710138	2553.008346
760.037129	2569.476115
760.364073	2568.551904
760.690970	2559.897923
761.017820	2550.319731
761.344623	2565.359173
761.671379	2560.822135
761.998088	2578.802250
762.324751	2563.006635
762.651366	2574.853346
762.977935	2553.512462
763.304456	2553.680500
763.630931	2567.375635
763.957359	2559.981942
764.283740	2561.410269
764.610074	2561.242231
764.936362	2544.102308
765.262602	2560.486058
765.588796	2562.754577
765.914943	2565.947308
766.241044	2585.187712
766.567097	2554.940788
766.893104	2564.266923
767.219064	2553.848538
767.544978	2566.031327
767.870845	2545.950731
768.196665	2562.586538
768.522438	2563.762808
768.848165	2565.527212
769.173846	2552.756288
769.499479	2564.771038
769.825066	2566.367404
770.150607	2574.601288
770.476101	2548.051212
770.801548	2555.612942
771.126949	2574.601288
771.452303	2563.426731
771.777611	2559.813904
772.102872	2563.846827
772.428087	2568.047788
772.753256	2556.201077
773.078378	2551.832077
773.403453	2571.828654
773.728482	2576.449712
774.053465	2544.438385
774.378401	2553.260404
774.703291	2556.201077
775.028135	2549.815615
775.352932	2557.377346
775.677683	2557.965481
776.002388	2561.998404
776.327046	2541.329673
776.651658	2571.996692
776.976224	2565.611231
777.300743	2565.443192
777.625216	2566.367404
777.949643	2548.975423
778.274024	2550.655808
778.598359	2561.830365
778.922647	2558.217538
779.246889	2562.586538
779.571086	2558.133519
779.895236	2554.940788
780.219339	2569.896212
780.543397	2570.904442
780.867409	2562.670558
781.191374	2559.561846
781.515294	2563.678788
781.839167	2559.981942
782.162995	2561.074192
782.486776	2563.678788
782.810511	2553.596481
783.134201	2559.813904
783.457844	2570.064250
783.781441	2570.736404
784.104993	2563.678788
784.428498	2559.309788
784.751958	2555.780981
785.075372	2562.250462
785.398739	2558.721654
785.722061	2554.856769
786.045337	2562.586538
786.368568	2561.746346
786.691752	2574.013154
787.014891	2555.612942
787.337983	2557.125288
787.661030	2565.611231
787.984031	2562.082423
788.306987	2569.224058
788.629897	2586.448000
788.952760	2560.234000
789.275579	2568.803962
789.598351	2571.660615
789.921078	2558.721654
790.243759	2579.642442
790.566395	2544.774462
790.888984	2549.647577
791.211529	2559.897923
791.534027	2554.520692
791.856480	2564.266923
792.178888	2563.006635
792.501249	2572.920904
792.823566	2565.191135
793.145836	2556.369115
793.468062	2562.418500
793.790241	2557.377346
794.112375	2548.723365
794.434464	2558.973712
794.756507	2574.181192
795.078505	2564.014865
795.400457	2563.594769
795.722364	2572.668846
796.044226	2551.496000
796.366042	2556.789212
796.687812	2552.336192
797.009538	2569.980231
797.331218	2560.318019
797.652852	2556.033038
797.974442	2556.537154
798.295986	2572.752865
798.617484	2568.299846
798.938938	2555.528923
799.260346	2569.056019
799.581709	2572.752865
799.903026	2565.359173
800.224299	2559.309788
800.545526	2553.260404
800.866708	2552.420212
801.187845	2563.006635
801.508936	2560.990173
801.829983	2553.176385
802.150984	2559.897923
802.471940	2570.736404
802.792851	2559.393808
803.113717	2570.904442
803.434538	2559.477827
803.755314	2562.250462
804.076045	2559.561846
804.396731	2553.344423
804.717372	2577.205885
805.037967	2561.074192
805.358518	2562.754577
805.679024	2571.996692
805.999485	2562.082423
806.319901	2548.135231
806.640272	2554.604712
806.960598	2553.428442
807.280879	2559.897923
807.601115	2559.897923
807.921306	2560.570077
808.241453	2566.283385
808.561554	2542.758000
808.881611	2567.543673
809.201623	2558.973712
809.521590	2565.611231
809.841513	2545.614654
810.161390	2572.752865
810.481223	2576.701769
810.801011	2543.766231
811.120755	2565.863288
811.440453	2568.047788
811.760107	2556.369115
812.079716	2567.291615
812.399281	2567.291615
812.718801	2570.148269
813.038276	2560.065962
813.357707	2562.586538
813.677093	2551.580019
813.996434	2574.769327
814.315731	2542.253885
814.634983	2556.789212
814.954191	2564.182904
815.273354	2549.815615
815.592473	2559.225769
815.911547	2561.494288
816.230577	2560.149981
816.549562	2570.652385
816.868502	2553.596481
817.187399	2546.958962
817.506250	2566.115346
817.825058	2542.589962
818.143821	2566.283385
818.462539	2561.494288
818.781213	2555.865000
819.099843	2556.117058
819.418429	2563.678788
819.736970	2564.434962
820.055466	2567.459654
820.373919	2560.906154
820.692327	2558.301558
821.010691	2550.067673
821.329011	2569.476115
821.647286	2588.632500
821.965517	2570.652385
822.283704	2553.512462
822.601847	2561.158212
822.919945	2566.115346
823.237999	2558.301558
823.556010	2567.963769
823.873976	2549.983654
824.191897	2554.772750
824.509775	2557.713423
824.827609	2556.789212
825.145398	2555.528923
825.463144	2565.191135
825.780845	2569.644154
826.098502	2554.436673
826.416116	2561.410269
826.733685	2566.955538
827.051210	2563.006635
827.368692	2566.871519
827.686129	2570.232288
828.003522	2542.169865
828.320872	2571.156500
828.638177	2556.453135
828.955439	2550.739827
829.272656	2560.234000
829.589830	2557.293327
829.906960	2552.504231
830.224046	2560.822135
830.541088	2570.232288
830.858086	2555.360885
831.175041	2568.131808
831.491952	2553.512462
831.808819	2552.084135
832.125642	2569.728173
832.442421	2560.822135
832.759157	2558.301558
833.075849	2558.301558
833.392497	2559.981942
833.709101	2547.463077
834.025662	2562.418500
834.342179	2567.879750
834.658653	2570.736404
834.975083	2570.820423
835.291469	2586.868096
835.607811	2555.192846
835.924110	2553.344423
836.240366	2555.865000
836.556578	2570.316308
836.872746	2557.629404
837.188871	2557.461365
837.504952	2553.176385
837.820990	2560.738115
838.136984	2553.260404
838.452935	2570.400327
838.768842	2556.285096
839.084706	2549.731596
839.400526	2555.108827
839.716303	2564.434962
840.032037	2548.471308
840.347727	2563.258692
840.663373	2545.194558
840.978977	2565.191135
841.294537	2554.352654
841.610054	2554.604712
841.925527	2568.299846
842.240957	2553.512462
842.556344	2552.924327
842.871687	2554.520692
843.186987	2544.186327
843.502244	2553.680500
843.817458	2542.842019
844.132629	2567.039558
844.447756	2559.393808
844.762840	2564.350942
845.077881	2560.738115
845.392879	2558.637635
845.707833	2559.141750
846.022745	2556.201077
846.337613	2573.677077
846.652438	2553.428442
846.967221	2551.411981
847.281960	2556.285096
847.596656	2565.695250
847.911309	2571.744635
848.225919	2565.443192
848.540485	2565.779269
848.855009	2562.838596
849.169490	2553.512462
849.483928	2569.980231
849.798323	2553.176385
850.112675	2556.285096
850.426984	2542.673981
850.741251	2554.772750
851.055474	2574.013154
851.369654	2566.787500
851.683792	2560.738115
851.997887	2564.182904
852.311938	2564.518981
852.625947	2554.016577
852.939914	2573.172962
853.253837	2556.285096
853.567718	2561.746346
853.881555	2571.912673
854.195350	2558.973712
854.509103	2565.275154
854.822812	2549.815615
855.136479	2552.924327
855.450103	2556.285096
855.763685	2568.467885
856.077224	2551.496000
856.390720	2554.352654
856.704173	2571.240519
857.017584	2562.670558
857.330953	2554.268635
857.644278	2567.879750
857.957561	2574.601288
858.270802	2564.014865
858.584000	2557.797442
858.897155	2572.920904
859.210268	2575.273442
859.523339	2570.652385
859.836367	2562.838596
860.149352	2567.627692
860.462295	2571.492577
860.775195	2557.293327
861.088054	2552.672269
861.400869	2561.578308
861.713642	2566.199365
862.026373	2548.807385
862.339062	2551.580019
862.651708	2559.057731
862.964312	2549.395519
863.276873	2563.510750
863.589392	2563.510750
863.901869	2549.563558
864.214303	2558.973712
864.526696	2558.049500
864.839045	2565.947308
865.151353	2553.008346
865.463619	2554.016577
865.775842	2560.570077
866.088023	2563.594769
866.400162	2560.822135
866.712258	2559.225769
867.024313	2573.088942
867.336325	2546.118769
867.648296	2545.782692
867.960224	2543.430154
868.272110	2557.545385
868.583954	2567.963769
868.895755	2542.421923
869.207515	2568.047788
869.519233	2562.502519
869.830909	2555.949019
870.142542	2551.496000
870.454134	2574.601288
870.765684	2552.840308
871.077191	2566.451423
871.388657	2560.149981
871.700081	2562.670558
872.011463	2558.973712
872.322803	2555.528923
872.634101	2541.749769
872.945357	2557.209308
873.256571	2554.268635
873.567744	2574.853346
873.878874	2560.990173
874.189963	2554.772750
874.501010	2553.008346
874.812015	2561.998404
875.122979	2571.828654
875.433900	2542.085846
875.744780	2544.102308
876.055618	2570.064250
876.366415	2554.940788
876.677169	2558.805673
876.987882	2539.649288
877.298554	2554.688731
877.609183	2557.461365
877.919771	2566.787500
878.230317	2560.906154
878.540822	2559.981942
878.851285	2552.756288
879.161707	2552.756288
879.472087	2562.166442
879.782425	2548.555327
880.092722	2552.420212
880.402977	2561.410269
880.713191	2556.285096
881.023363	2558.049500
881.333494	2566.451423
881.643583	2555.024808
881.953631	2563.678788
882.263637	2531.667462
882.573602	2563.846827
882.883526	2560.318019
883.193408	2576.449712
883.503248	2550.907865
883.813048	2574.181192
884.122806	2563.846827
884.432522	2572.164731
884.742197	2567.375635
885.051831	2559.225769
885.361424	2562.586538
885.670975	2554.940788
885.980485	2556.117058
886.289954	2565.947308
886.599382	2555.360885
886.908768	2566.619462
887.218113	2566.031327
887.527417	2554.856769
887.836680	2553.092365
888.145901	2541.917808
888.455082	2567.207596
888.764221	2552.420212
889.073319	2549.983654
889.382376	2544.858481
889.691392	2544.270346
890.000366	2563.342712
890.309300	2554.184615
890.618193	2558.973712
890.927044	2548.303269
891.235855	2564.350942
891.544625	2561.494288
891.853353	2550.235712
892.162041	2551.832077
892.470687	2545.614654
892.779293	2560.654096
893.087858	2545.278577
893.396381	2566.367404
893.704864	2544.522404
894.013306	2553.764519
894.321707	2551.327962
894.630068	2564.687019
894.938387	2558.133519
895.246665	2542.169865
895.554903	2566.451423
895.863100	2565.947308
896.171256	2565.107115
896.479371	2548.387288
896.787446	2558.637635
897.095480	2563.174673
897.403473	2572.752865
897.711425	2561.830365
898.019336	2557.125288
898.327207	2553.008346
898.635038	2570.904442
898.942827	2562.502519
899.250576	2572.080712
899.558284	2561.746346
899.865952	2554.856769
900.173579	2555.276865
900.481165	2538.893115
900.788711	2561.158212
901.096216	2553.764519
901.403681	2555.696962
901.711105	2574.517269
902.018489	2551.916096
902.325832	2555.612942
902.633135	2545.698673
902.940397	2541.161635
903.247619	2558.469596
903.554800	2558.469596
903.861941	2553.092365
904.169041	2577.205885
904.476101	2563.090654
904.783121	2559.057731
905.090100	2553.596481
905.397039	2562.922615
905.703938	2570.316308
906.010796	2566.199365
906.317614	2537.128712
906.624391	2555.949019
906.931129	2554.352654
907.237826	2566.451423
907.544483	2552.756288
907.851099	2548.471308
908.157675	2556.369115
908.464211	2553.092365
908.770707	2588.296423
909.077163	2555.108827
909.383578	2555.444904
909.689954	2573.004923
909.996289	2545.614654
910.302584	2559.897923
910.608839	2576.365692
910.915054	2561.830365
911.221229	2561.158212
911.527363	2563.678788
911.833458	2552.924327
912.139513	2555.192846
912.445527	2575.525500
912.751502	2558.721654
913.057436	2547.211019
913.363331	2568.887981
913.669186	2547.715135
913.975000	2567.543673
914.280775	2557.545385
914.586510	2564.603000
914.892205	2567.291615
915.197859	2562.082423
915.503475	2552.336192
915.809050	2552.252173
916.114585	2557.041269
916.420081	2552.168154
916.725536	2566.031327
917.030952	2558.469596
917.336328	2562.754577
917.641665	2556.957250
917.946961	2563.006635
918.252218	2564.182904
918.557435	2553.848538
918.862612	2542.337904
919.167750	2559.141750
919.472848	2555.276865
919.777906	2550.235712
920.082925	2563.174673
920.387904	2560.486058
920.692843	2559.897923
920.997743	2566.871519
921.302603	2553.596481
921.607423	2557.461365
921.912204	2568.131808
922.216946	2552.168154
922.521647	2567.375635
922.826310	2550.487769
923.130932	2556.033038
923.435516	2551.496000
923.740059	2552.588250
924.044564	2556.369115
924.349028	2556.873231
924.653454	2565.275154
924.957840	2542.505942
925.262186	2566.703481
925.566493	2548.975423
925.870761	2558.049500
926.174989	2549.731596
926.479178	2562.418500
926.783328	2561.242231
927.087438	2550.487769
927.391509	2557.797442
927.695541	2554.184615
927.999533	2560.402038
928.303486	2560.486058
928.607400	2548.219250
928.911275	2563.846827
929.215110	2543.094077
929.518906	2557.377346
929.822663	2558.217538
930.126381	2551.411981
930.430060	2564.855058
930.733699	2561.242231
931.037299	2569.140038
931.340861	2549.059442
931.644383	2553.596481
931.947866	2557.965481
932.251309	2555.865000
932.554714	2562.670558
932.858080	2547.463077
933.161407	2546.454846
933.464694	2552.504231
933.767943	2563.342712
934.071153	2549.731596
934.374323	2558.721654
934.677455	2557.545385
934.980548	2560.065962
935.283602	2557.797442
935.586617	2543.346135
935.889593	2553.092365
936.192530	2545.530635
936.495428	2555.612942
936.798287	2555.108827
937.101108	2575.945596
937.403890	2563.090654
937.706632	2564.014865
938.009336	2548.471308
938.312002	2556.789212
938.614628	2544.858481
938.917216	2564.855058
939.219765	2557.209308
939.522275	2559.645865
939.824747	2560.738115
940.127179	2560.990173
940.429573	2555.108827
940.731929	2553.764519
941.034246	2547.127000
941.336524	2542.505942
941.638763	2551.580019
941.940964	2566.199365
942.243126	2556.957250
942.545250	2551.916096
942.847335	2546.118769
943.149381	2554.352654
943.451389	2555.696962
943.753359	2567.123577
944.055290	2549.395519
944.357182	2558.889692
944.659036	2559.813904
944.960851	2547.379058
945.262628	2538.389000
945.564367	2563.510750
945.866067	2561.830365
946.167729	2559.729885
946.469352	2563.510750
946.770937	2564.014865
947.072484	2549.647577
947.373992	2551.075904
947.675462	2553.932558
947.976893	2553.344423
948.278286	2574.517269
948.579641	2553.596481
948.880958	2542.926038
949.182236	2548.975423
949.483476	2560.654096
949.784678	2537.800865
950.085841	2550.907865
950.386967	2559.393808
950.688054	2561.662327
950.989103	2554.856769
951.290114	2546.202788
951.591087	2554.352654
951.892021	2558.889692
952.192917	2544.942500
952.493776	2572.836885
952.794596	2536.708615
953.095378	2555.696962
953.396122	2549.647577
953.696828	2560.570077
953.997496	2545.950731
954.298126	2563.930846
954.598718	2557.377346
954.899272	2556.789212
955.199788	2556.369115
955.500266	2546.622885
955.800706	2556.369115
956.101108	2547.295038
956.401472	2564.014865
956.701798	2551.580019
957.002087	2559.813904
957.302337	2553.176385
957.602550	2548.555327
957.902724	2563.510750
958.202861	2550.235712
958.502960	2555.696962
958.803022	2556.957250
959.103045	2556.705192
959.403031	2548.303269
959.702979	2551.664038
960.002889	2558.217538
960.302762	2544.270346
960.602596	2578.886269
960.902393	2564.771038
961.202153	2548.975423
961.501875	2555.949019
961.801559	2564.434962
962.101205	2560.402038
962.400814	2559.813904
962.700385	2568.803962
962.999918	2567.879750
963.299414	2556.117058
963.598873	2557.965481
963.898293	2551.580019
964.197677	2546.790923
964.497022	2556.369115
964.796331	2555.444904
965.095601	2559.309788
965.394835	2566.283385
965.694030	2562.502519
965.993189	2547.967192
966.292309	2545.530635
966.591393	2529.819038
966.890439	2555.696962
967.189447	2545.782692
967.488419	2563.426731
967.787353	2552.504231
968.086249	2545.698673
968.385108	2554.352654
968.683930	2561.410269
968.982714	2556.369115
969.281462	2553.008346
969.580172	2569.224058
969.878844	2549.311500
970.177480	2547.883173
970.476078	2562.754577
970.774639	2542.673981
971.073162	2560.486058
971.371649	2558.889692
971.670098	2550.067673
971.968510	2551.664038
972.266885	2552.000115
972.565223	2554.100596
972.863524	2553.092365
973.161788	2560.149981
973.460014	2559.729885
973.758204	2548.555327
974.056356	2549.983654
974.354471	2563.930846
974.652550	2553.764519
974.950591	2558.385577
975.248595	2567.459654
975.546563	2552.084135
975.844493	2564.434962
976.142386	2550.571788
976.440243	2554.016577
976.738062	2560.822135
977.035845	2543.010058
977.333590	2558.973712
977.631299	2547.799154
977.928971	2561.074192
978.226606	2558.217538
978.524204	2553.260404
978.821765	2564.771038
979.119290	2567.459654
979.416777	2539.313212
979.714228	2553.428442
980.011642	2571.408558
980.309020	2544.942500
980.606360	2538.641058
980.903664	2558.049500
981.200931	2552.168154
981.498162	2561.242231
981.795356	2555.865000
982.092513	2557.041269
982.389633	2558.553615
982.686717	2548.555327
982.983764	2556.117058
983.280775	2565.023096
983.577749	2547.799154
983.874686	2555.444904
984.171587	2550.571788
984.468451	2567.879750
984.765279	2558.469596
985.062070	2552.252173
985.358824	2561.578308
985.655543	2548.471308
985.952224	2544.774462
986.248869	2547.042981
986.545478	2549.059442
986.842050	2562.334481
987.138586	2556.033038
987.435086	2542.505942
987.731549	2552.840308
988.027975	2570.568365
988.324366	2539.061154
988.620719	2560.065962
988.917037	2541.581731
989.213318	2561.998404
989.509563	2556.621173
989.805772	2562.334481
990.101944	2560.654096
990.398080	2556.033038
990.694180	2550.991885
990.990244	2560.990173
991.286271	2550.655808
991.582262	2558.721654
991.878217	2564.855058
992.174136	2547.379058
992.470019	2551.748058
992.765865	2557.629404
993.061676	2562.502519
993.357450	2560.486058
993.653188	2549.227481
993.948890	2556.537154
994.244556	2546.034750
994.540186	2551.243942
994.835780	2546.538865
995.131337	2563.930846
995.426859	2564.014865
995.722345	2551.411981
996.017795	2553.596481
996.313208	2563.174673
996.608586	2544.270346
996.903928	2551.580019
997.199234	2550.067673
997.494504	2556.369115
997.789738	2540.909577
998.084936	2560.402038
998.380099	2545.278577
998.675225	2548.555327
998.970316	2566.199365
999.265371	2552.840308
999.560390	2553.680500
999.855373	2559.225769
1000.150320	2560.906154
1000.445232	2572.416788
1000.740108	2558.721654
1001.034948	2547.127000
1001.329752	2553.428442
1001.624521	2558.805673
1001.919254	2556.033038
1002.213951	2561.410269
1002.508613	2572.752865
1002.803239	2568.131808
1003.097829	2544.858481
1003.392384	2560.738115
1003.686903	2554.856769
1003.981386	2556.537154
1004.275834	2566.367404
1004.570246	2553.596481
1004.864623	2542.926038
1005.158964	2546.538865
1005.453270	2576.953827
1005.747540	2553.176385
1006.041775	2554.772750
1006.335974	2566.367404
1006.630138	2559.225769
1006.924266	2548.387288
1007.218359	2552.000115
1007.512416	2562.586538
1007.806438	2552.504231
1008.100425	2553.428442
1008.394376	2553.512462
1008.688292	2543.178096
1008.982172	2557.209308
1009.276017	2539.229192
1009.569827	2554.604712
1009.863602	2543.010058
1010.157341	2572.500808
1010.451045	2548.723365
1010.744714	2549.563558
1011.038347	2567.207596
1011.331945	2550.487769
1011.625508	2555.024808
1011.919036	2553.848538
1012.212528	2541.917808
1012.505986	2564.939077
1012.799408	2547.967192
1013.092795	2554.184615
1013.386147	2553.512462
1013.679464	2539.985365
1013.972745	2568.131808
1014.265992	2557.461365
1014.559204	2553.260404
1014.852380	2560.402038
1015.145521	2555.780981
1015.438628	2570.736404
1015.731699	2545.950731
1016.024736	2563.762808
1016.317737	2554.940788
1016.610703	2540.237423
1016.903635	2567.291615
1017.196531	2555.696962
1017.489393	2548.555327
1017.782219	2557.965481
1018.075011	2545.866712
1018.367768	2557.797442
1018.660490	2544.942500
1018.953177	2544.942500
1019.245829	2544.942500
