Dividing Wavelength (nm)	Counts (n)	Slit_number_22_of_a_total_of_40	
326.493990	2133.080231
326.888308	2133.080231
327.282561	2133.080231
327.676750	2123.165962
328.070874	2125.182423
328.464933	2127.366923
328.858929	2138.289423
329.252859	2153.076808
329.646726	2167.192038
330.040528	2165.511654
330.434265	2197.859058
330.827938	2221.048365
331.221547	2235.415654
331.615091	2266.418750
332.008571	2262.217788
332.401986	2284.902981
332.795338	2319.939000
333.188625	2343.800462
333.581847	2348.841615
333.975006	2363.881058
334.368100	2383.961654
334.761129	2412.528192
335.154095	2428.491846
335.546996	2439.582385
335.939833	2452.689385
336.332606	2467.140692
336.725315	2485.540904
337.117960	2497.723692
337.510540	2487.305308
337.903056	2513.351269
338.295508	2508.814231
338.687896	2519.568692
339.080220	2523.517596
339.472480	2541.329673
339.864676	2540.069385
340.256807	2534.020000
340.648875	2541.917808
341.040879	2535.784404
341.432818	2541.665750
341.824694	2548.555327
342.216506	2556.453135
342.608253	2528.054635
342.999937	2547.463077
343.391557	2551.664038
343.783113	2539.817327
344.174605	2536.876654
344.566033	2532.507654
344.957397	2543.598192
345.348697	2534.776173
345.739934	2543.934269
346.131106	2542.926038
346.522215	2543.010058
346.913260	2520.408885
347.304241	2532.843731
347.695159	2513.939404
348.086012	2518.140365
348.476802	2529.987077
348.867528	2520.660942
349.258191	2521.333096
349.648789	2523.181519
350.039324	2512.763135
350.429796	2524.693865
350.820203	2517.384192
351.210548	2504.613269
351.600828	2520.156827
351.991045	2505.705519
352.381198	2529.819038
352.771288	2500.412308
353.161314	2504.613269
353.551276	2517.804288
353.941175	2517.132135
354.331010	2519.232615
354.720782	2498.899962
355.110490	2519.904769
355.500135	2526.458269
355.889717	2521.081038
356.279235	2511.166769
356.668689	2520.324865
357.058080	2513.183231
357.447408	2512.006962
357.836672	2528.474731
358.225873	2526.038173
358.615010	2513.351269
359.004084	2517.048115
359.393095	2511.586865
359.782043	2516.628019
360.170927	2525.954154
360.559748	2516.964096
360.948505	2524.945923
361.337199	2503.016904
361.725830	2499.824173
362.114398	2497.135558
362.502903	2548.387288
362.891344	2517.888308
363.279722	2517.804288
363.668037	2516.628019
364.056289	2530.995308
364.444478	2513.351269
364.832603	2527.802577
365.220665	2524.189750
365.608665	2523.601615
365.996601	2528.978846
366.384474	2518.644481
366.772284	2528.894827
367.160031	2536.036462
367.547715	2527.130423
367.935336	2515.871846
368.322893	2530.071096
368.710388	2522.593385
369.097820	2532.507654
369.485189	2530.743250
369.872495	2518.812519
370.259738	2518.896538
370.646918	2514.779596
371.034035	2535.868423
371.421090	2528.390712
371.808081	2529.819038
372.195010	2528.474731
372.581875	2519.568692
372.968678	2534.104019
373.355418	2527.214442
373.742096	2529.903058
374.128710	2525.113962
374.515262	2529.482962
374.901751	2528.810808
375.288177	2531.583442
375.674540	2531.499423
376.060841	2524.189750
376.447079	2537.464788
376.833254	2542.505942
377.219367	2532.507654
377.605417	2534.356077
377.991404	2541.413692
378.377329	2535.784404
378.763191	2533.179808
379.148991	2538.220962
379.534727	2539.481250
379.920402	2537.632827
380.306013	2543.514173
380.691563	2538.389000
381.077049	2536.288519
381.462474	2543.514173
381.847835	2525.029942
382.233134	2529.398942
382.618371	2543.010058
383.003545	2530.071096
383.388657	2541.161635
383.773706	2535.952442
384.158693	2531.499423
384.543618	2535.616365
384.928480	2544.102308
385.313280	2528.894827
385.698017	2532.255596
386.082692	2540.657519
386.467305	2534.440096
386.851856	2530.071096
387.236344	2537.212731
387.620770	2544.774462
388.005133	2541.077615
388.389435	2543.178096
388.773674	2527.550519
389.157851	2560.822135
389.541965	2536.540577
389.926018	2551.832077
390.310008	2530.743250
390.693936	2544.774462
391.077802	2541.749769
391.461606	2553.176385
391.845348	2553.680500
392.229027	2546.118769
392.612645	2547.715135
392.996200	2524.609846
393.379694	2538.641058
393.763125	2548.051212
394.146494	2541.245654
394.529801	2542.673981
394.913047	2547.295038
395.296230	2562.418500
395.679351	2543.346135
396.062410	2564.350942
396.445408	2541.665750
396.828343	2553.092365
397.211217	2556.621173
397.594028	2563.342712
397.976778	2552.756288
398.359466	2564.014865
398.742092	2567.963769
399.124656	2575.189423
399.507158	2582.415077
399.889598	2593.421596
400.271977	2589.640731
400.654294	2588.464462
401.036549	2606.864673
401.418742	2608.293000
401.800874	2618.963442
402.182944	2624.424692
402.564952	2645.933615
402.946898	2664.249808
403.328783	2677.776904
403.710606	2686.430885
404.092367	2723.399346
404.474067	2742.975827
404.855705	2737.934673
405.237282	2758.519385
405.618797	2810.275231
406.000250	2811.115423
406.381642	2861.190885
406.762972	2878.162769
407.144240	2878.582865
407.525447	2917.903865
407.906593	2944.453942
408.287677	2982.094558
408.668700	3016.122346
409.049661	3028.389154
409.430560	3067.542115
409.811399	3090.227308
410.192176	3139.378558
410.572891	3151.477327
410.953545	3219.280846
411.334138	3211.803135
411.714669	3262.886827
412.095139	3248.687577
412.475547	3329.850154
412.855894	3340.940692
413.236180	3375.136519
413.616405	3385.806962
413.996568	3440.503481
414.376670	3456.299096
414.756711	3477.051846
415.136691	3499.064885
415.516609	3553.929442
415.896466	3569.893096
416.276262	3628.202442
416.655997	3686.763846
417.035670	3704.491904
417.415283	3768.178481
417.794834	3809.852019
418.174324	3818.506000
418.553753	3819.766288
418.933121	3869.337635
419.312428	3864.548538
419.691674	3859.675423
420.070859	3907.398346
420.449983	3884.209038
420.829045	3934.536558
421.208047	3904.121596
421.586988	3935.040673
421.965867	3954.953231
422.344686	3961.422712
422.723444	3979.990962
423.102141	3870.261846
423.480777	3961.758788
423.859352	3901.685038
424.237866	3961.758788
424.616319	3924.958365
424.994712	3958.229981
425.373044	3913.783808
425.751314	3926.554731
426.129524	3827.832135
426.507673	3877.907596
426.885762	3812.456615
427.263789	3779.521077
427.641756	3756.331769
428.019662	3743.308788
428.397508	3690.208635
428.775292	3665.422962
429.153016	3624.505596
429.530679	3585.520673
429.908282	3576.278558
430.285824	3470.414327
430.663305	3480.076538
431.040726	3401.350519
431.418086	3357.912577
431.795385	3345.477731
432.172624	3319.599808
432.549802	3253.308635
432.926920	3217.432423
433.303977	3181.556212
433.680974	3135.849750
434.057910	3102.074019
434.434786	3077.960500
434.811601	3025.448481
435.188355	3009.400808
435.565050	2977.221442
435.941683	2956.552712
436.318257	2922.776981
436.694770	2890.849673
437.071222	2887.572923
437.447614	2849.764269
437.823946	2807.754654
438.200218	2809.014942
438.576429	2776.835577
438.952580	2756.250865
439.328670	2744.236115
439.704700	2735.918212
440.080670	2709.284115
440.456580	2705.839327
440.832429	2690.043712
441.208218	2665.426077
441.583947	2658.452481
441.959616	2657.360231
442.335224	2644.505288
442.710773	2633.078673
443.086261	2624.424692
443.461689	2614.426404
443.837057	2632.406519
444.212365	2615.518654
444.587612	2599.975096
444.962800	2606.444577
445.337927	2602.999788
445.712995	2600.479212
446.088002	2590.564942
446.462949	2598.462750
446.837837	2587.288192
447.212664	2583.843404
447.587431	2583.003212
447.962139	2588.212404
448.336786	2606.864673
448.711374	2580.986750
449.085901	2583.423308
449.460369	2581.406846
449.834776	2574.853346
450.209124	2579.978519
450.583412	2578.298135
450.957640	2584.263500
451.331808	2576.533731
451.705917	2568.131808
452.079965	2584.431538
452.453954	2587.120154
452.827883	2582.751154
453.201752	2575.777558
453.575562	2578.970288
453.949311	2579.894500
454.323001	2571.240519
454.696632	2592.833462
455.070202	2572.248750
455.443713	2566.283385
455.817164	2590.985038
456.190556	2573.425019
456.563888	2577.373923
456.937160	2570.316308
457.310373	2564.350942
457.683526	2570.568365
458.056619	2568.719942
458.429653	2572.416788
458.802628	2557.797442
459.175542	2577.710000
459.548398	2587.372212
459.921194	2581.826942
460.293930	2586.111923
460.666607	2558.049500
461.039224	2564.603000
461.411782	2567.039558
461.784280	2577.457942
462.156719	2569.308077
462.529099	2569.980231
462.901419	2581.154788
463.273680	2565.359173
463.645882	2558.637635
464.018024	2570.652385
464.390106	2580.734692
464.762130	2561.242231
465.134094	2553.680500
465.505999	2584.599577
465.877845	2577.794019
466.249631	2570.232288
466.621358	2570.988462
466.993026	2562.082423
467.364634	2600.647250
467.736184	2558.049500
468.107674	2587.288192
468.479105	2577.878038
468.850477	2571.072481
469.221790	2572.752865
469.593043	2551.243942
469.964238	2568.719942
470.335373	2572.836885
470.706449	2575.273442
471.077467	2574.517269
471.448425	2570.064250
471.819324	2568.047788
472.190164	2575.945596
472.560945	2570.400327
472.931667	2562.166442
473.302330	2571.156500
473.672934	2568.972000
474.043479	2565.695250
474.413965	2579.642442
474.784393	2568.635923
475.154761	2558.973712
475.525070	2567.963769
475.895321	2566.115346
476.265513	2563.762808
476.635645	2572.752865
477.005719	2571.744635
477.375734	2578.970288
477.745691	2584.851635
478.115588	2583.759385
478.485427	2576.281673
478.855207	2562.586538
479.224928	2564.855058
479.594591	2569.560135
479.964194	2564.434962
480.333739	2580.482635
480.703226	2584.095462
481.072653	2563.930846
481.442022	2564.687019
481.811333	2565.191135
482.180584	2582.751154
482.549777	2573.425019
482.918912	2566.619462
483.287988	2580.734692
483.657005	2568.047788
484.025964	2585.775846
484.394864	2581.994981
484.763706	2573.088942
485.132489	2576.113635
485.501213	2559.981942
485.869879	2581.406846
486.238487	2580.314596
486.607036	2579.894500
486.975527	2567.711712
487.343959	2581.154788
487.712333	2587.456231
488.080648	2563.258692
488.448905	2575.861577
488.817104	2579.978519
489.185244	2581.406846
489.553326	2559.393808
489.921350	2565.359173
490.289315	2579.390385
490.657222	2572.332769
491.025070	2567.207596
491.392861	2582.583115
491.760593	2577.710000
492.128267	2576.029615
492.495883	2571.240519
492.863440	2598.042654
493.230939	2579.642442
493.598380	2589.304654
493.965763	2597.118442
494.333088	2574.853346
494.700354	2591.909250
495.067563	2590.901019
495.434713	2568.131808
495.801805	2575.861577
496.168839	2585.187712
496.535815	2572.416788
496.902733	2581.994981
497.269593	2574.517269
497.636395	2578.550192
498.003139	2574.349231
498.369825	2590.480923
498.736453	2584.599577
499.103023	2579.222346
499.469535	2591.489154
499.835989	2579.222346
500.202385	2591.741212
500.568723	2577.625981
500.935003	2580.230577
501.301226	2575.441481
501.667390	2584.683596
502.033497	2583.339288
502.399546	2576.449712
502.765537	2575.945596
503.131470	2579.894500
503.497345	2588.632500
503.863163	2579.642442
504.228923	2585.439769
504.594625	2577.289904
504.960269	2585.355750
505.325856	2583.171250
505.691385	2578.970288
506.056856	2580.986750
506.422270	2583.759385
506.787625	2568.467885
507.152924	2593.001500
507.518164	2596.026192
507.883347	2576.029615
508.248472	2589.388673
508.613540	2584.347519
508.978550	2580.566654
509.343503	2574.349231
509.708398	2577.037846
510.073236	2572.416788
510.438016	2582.751154
510.802738	2581.238808
511.167403	2592.413365
511.532010	2585.355750
511.896561	2586.279962
512.261053	2590.144846
512.625488	2579.474404
512.989866	2601.739500
513.354186	2573.761096
513.718449	2571.156500
514.082655	2585.439769
514.446803	2577.625981
514.810894	2581.322827
515.174927	2588.044365
515.538904	2572.668846
515.902822	2578.886269
516.266684	2579.810481
516.630488	2597.622558
516.994235	2597.202462
517.357925	2582.835173
517.721558	2584.851635
518.085133	2581.994981
518.448651	2598.042654
518.812112	2585.103692
519.175516	2588.464462
519.538863	2581.994981
519.902152	2588.128385
520.265385	2581.490865
520.628560	2585.103692
520.991678	2577.037846
521.354739	2568.887981
521.717743	2578.130096
522.080690	2568.972000
522.443580	2572.668846
522.806413	2580.482635
523.169189	2593.589635
523.531908	2596.278250
523.894569	2591.405135
524.257174	2573.004923
524.619722	2579.978519
524.982213	2580.902731
525.344647	2574.685308
525.707025	2588.800538
526.069345	2584.515558
526.431608	2585.691827
526.793815	2585.691827
527.155964	2581.994981
527.518057	2580.650673
527.880093	2575.861577
528.242072	2587.540250
528.603995	2579.810481
528.965860	2591.657192
529.327669	2592.161308
529.689421	2593.085519
530.051117	2576.869808
530.412755	2598.630788
530.774337	2577.541962
531.135862	2576.953827
531.497331	2581.994981
531.858743	2579.054308
532.220098	2575.777558
532.581396	2579.222346
532.942638	2578.298135
533.303824	2575.693538
533.664953	2598.630788
534.026025	2588.044365
534.387040	2590.564942
534.747999	2577.289904
535.108902	2584.767615
535.469748	2572.500808
535.830537	2598.966865
536.191270	2586.616038
536.551947	2580.566654
536.912567	2585.271731
537.273131	2589.556712
537.633638	2579.726462
537.994089	2592.833462
538.354483	2588.884558
538.714821	2596.614327
539.075103	2587.204173
539.435328	2590.144846
539.795497	2567.627692
540.155609	2584.263500
540.515665	2592.245327
540.875665	2578.802250
541.235609	2597.790596
541.595496	2588.548481
541.955328	2584.263500
542.315102	2595.270019
542.674821	2581.910962
543.034483	2585.187712
543.394090	2580.482635
543.753640	2601.067346
544.113134	2575.189423
544.472571	2609.301231
544.831953	2583.675365
545.191278	2592.413365
545.550548	2584.431538
545.909761	2578.214115
546.268918	2579.054308
546.628019	2601.319404
546.987064	2585.859865
547.346053	2573.256981
547.704986	2571.912673
548.063863	2568.551904
548.422684	2567.375635
548.781449	2576.449712
549.140158	2583.843404
549.498811	2571.828654
549.857408	2577.794019
550.215949	2578.550192
550.574434	2588.212404
550.932864	2580.314596
551.291237	2589.304654
551.649555	2595.690115
552.007817	2572.248750
552.366022	2573.425019
552.724173	2573.088942
553.082267	2576.953827
553.440305	2579.558423
553.798288	2571.744635
554.156215	2571.576596
554.514086	2578.634212
554.871902	2580.986750
555.229661	2583.339288
555.587365	2575.357462
555.945014	2586.448000
556.302606	2590.480923
556.660143	2585.439769
557.017625	2598.378731
557.375050	2574.097173
557.732421	2561.914385
558.089735	2575.441481
558.446994	2583.507327
558.804197	2596.194231
559.161345	2585.775846
559.518437	2590.901019
559.875474	2574.013154
560.232455	2592.917481
560.589381	2585.523788
560.946251	2578.382154
561.303065	2586.868096
561.659825	2575.189423
562.016528	2587.792308
562.373177	2599.639019
562.729770	2580.062538
563.086307	2583.423308
563.442789	2570.568365
563.799216	2576.113635
564.155587	2589.388673
564.511904	2579.894500
564.868164	2583.255269
565.224370	2590.060827
565.580520	2587.624269
565.936615	2582.667135
566.292654	2587.120154
566.648638	2581.574885
567.004567	2585.187712
567.360441	2589.472692
567.716260	2591.489154
568.072023	2591.573173
568.427732	2588.128385
568.783385	2587.120154
569.138982	2583.927423
569.494525	2593.421596
569.850013	2589.136615
570.205445	2578.214115
570.560823	2581.742923
570.916145	2582.751154
571.271412	2587.288192
571.626625	2578.634212
571.981782	2582.163019
572.336884	2581.994981
572.691931	2581.154788
573.046923	2579.894500
573.401860	2578.550192
573.756743	2589.892788
574.111570	2578.298135
574.466342	2593.673654
574.821059	2589.136615
575.175722	2574.181192
575.530330	2578.886269
575.884882	2588.464462
576.239380	2587.624269
576.593823	2588.800538
576.948211	2580.650673
577.302544	2587.876327
577.656823	2584.095462
578.011047	2575.861577
578.365216	2595.101981
578.719330	2569.476115
579.073389	2562.586538
579.427394	2595.101981
579.781344	2584.851635
580.135239	2582.835173
580.489080	2589.976808
580.842866	2590.060827
581.196597	2593.757673
581.550273	2594.681885
581.903895	2582.499096
582.257463	2583.591346
582.610975	2574.265212
582.964434	2582.331058
583.317837	2575.861577
583.671186	2568.803962
584.024481	2573.845115
584.377721	2578.382154
584.730906	2585.523788
585.084037	2578.802250
585.437113	2594.177769
585.790135	2583.843404
586.143103	2584.599577
586.496016	2599.891077
586.848874	2586.111923
587.201679	2603.419885
587.554428	2566.535442
587.907124	2580.314596
588.259765	2577.121865
588.612352	2580.902731
588.964884	2597.370500
589.317362	2589.304654
589.669786	2576.365692
590.022155	2582.331058
590.374470	2592.413365
590.726731	2581.910962
591.078937	2591.321115
591.431090	2588.716519
591.783188	2579.810481
592.135232	2583.927423
592.487222	2585.859865
592.839157	2590.732981
593.191038	2586.279962
593.542866	2582.079000
593.894639	2575.945596
594.246358	2576.533731
594.598022	2586.532019
594.949633	2580.062538
595.301190	2580.818712
595.652692	2598.462750
596.004141	2589.892788
596.355535	2577.962058
596.706876	2588.716519
597.058162	2575.609519
597.409395	2580.734692
597.760573	2554.772750
598.111698	2579.810481
598.462768	2572.332769
598.813785	2583.339288
599.164748	2578.886269
599.515657	2572.584827
599.866511	2592.161308
600.217312	2596.530308
600.568060	2578.046077
600.918753	2602.915769
601.269392	2595.606096
601.619978	2587.288192
601.970510	2574.181192
602.320988	2560.654096
602.671412	2577.457942
603.021783	2568.719942
603.372100	2569.308077
603.722363	2588.716519
604.072572	2577.373923
604.422728	2584.935654
604.772830	2593.001500
605.122878	2589.052596
605.472872	2586.952115
605.822813	2589.640731
606.172701	2561.242231
606.522534	2584.095462
606.872314	2583.507327
607.222041	2583.507327
607.571714	2586.532019
607.921333	2580.902731
608.270899	2589.220635
608.620411	2585.607808
608.969870	2571.912673
609.319276	2576.869808
609.668627	2572.164731
610.017926	2582.079000
610.367171	2572.248750
610.716362	2590.564942
611.065500	2591.237096
611.414585	2576.365692
611.763616	2567.711712
612.112594	2574.013154
612.461518	2586.868096
612.810389	2577.625981
613.159207	2577.373923
613.507971	2573.172962
613.856682	2569.056019
614.205340	2580.566654
614.553945	2582.835173
614.902496	2587.372212
615.250994	2583.339288
615.599439	2564.182904
615.947830	2590.985038
616.296169	2573.425019
616.644454	2576.953827
616.992686	2575.105404
617.340864	2580.398615
617.688990	2584.851635
618.037063	2578.298135
618.385082	2561.830365
618.733048	2571.912673
619.080961	2589.220635
619.428821	2583.423308
619.776628	2589.388673
620.124382	2587.036135
620.472083	2572.500808
620.819731	2569.644154
621.167326	2590.732981
621.514868	2560.906154
621.862357	2584.935654
622.209793	2588.212404
622.557176	2582.751154
622.904506	2570.400327
623.251783	2567.795731
623.599007	2580.482635
623.946179	2589.976808
624.293297	2565.611231
624.640363	2580.818712
624.987376	2583.843404
625.334336	2571.996692
625.681243	2586.448000
626.028097	2565.527212
626.374899	2580.902731
626.721647	2584.767615
627.068343	2577.962058
627.414987	2583.759385
627.761577	2583.759385
628.108115	2578.382154
628.454600	2581.994981
628.801032	2584.263500
629.147412	2579.726462
629.493739	2564.098885
629.840014	2576.701769
630.186236	2582.751154
630.532405	2578.466173
630.878521	2570.568365
631.224585	2568.887981
631.570597	2576.785788
631.916556	2594.345808
632.262462	2574.685308
632.608316	2577.457942
632.954117	2573.845115
633.299866	2570.904442
633.645562	2577.373923
633.991206	2576.365692
634.336797	2564.603000
634.682336	2588.968577
635.027823	2556.537154
635.373257	2589.976808
635.718639	2584.011442
636.063968	2565.695250
636.409245	2582.079000
636.754470	2581.406846
637.099642	2573.256981
637.444762	2580.230577
637.789829	2573.845115
638.134845	2571.912673
638.479808	2574.937365
638.824719	2577.121865
639.169577	2581.406846
639.514383	2564.350942
639.859137	2589.724750
640.203839	2573.341000
640.548489	2568.635923
640.893086	2582.835173
641.237632	2575.777558
641.582125	2569.644154
641.926566	2572.248750
642.270955	2573.172962
642.615292	2572.332769
642.959576	2576.365692
643.303809	2575.105404
643.647990	2589.556712
643.992118	2579.222346
644.336195	2566.871519
644.680219	2573.845115
645.024192	2586.448000
645.368112	2588.632500
645.711981	2577.037846
646.055797	2558.973712
646.399562	2588.548481
646.743274	2563.174673
647.086935	2574.181192
647.430544	2595.690115
647.774101	2556.537154
648.117606	2574.433250
648.461059	2589.808769
648.804460	2582.667135
649.147810	2570.484346
649.491108	2590.144846
649.834354	2576.953827
650.177548	2583.591346
650.520690	2565.359173
650.863781	2558.469596
651.206820	2585.019673
651.549807	2580.062538
651.892742	2575.189423
652.235626	2579.474404
652.578458	2573.509038
652.921238	2574.937365
653.263967	2557.881462
653.606644	2579.306365
653.949269	2583.507327
654.291843	2593.757673
654.634365	2576.953827
654.976836	2588.716519
655.319255	2570.232288
655.661622	2581.322827
656.003938	2564.266923
656.346203	2572.080712
656.688416	2569.224058
657.030577	2582.079000
657.372687	2570.652385
657.714746	2570.652385
658.056753	2575.273442
658.398708	2561.074192
658.740612	2571.240519
659.082465	2575.609519
659.424266	2575.945596
659.766016	2573.172962
660.107715	2583.423308
660.449362	2582.499096
660.790958	2589.892788
661.132503	2584.011442
661.473996	2583.927423
661.815438	2582.667135
662.156829	2561.242231
662.498168	2583.255269
662.839456	2559.561846
663.180693	2580.062538
663.521879	2591.909250
663.863013	2559.897923
664.204097	2566.619462
664.545129	2577.205885
664.886110	2571.744635
665.227040	2587.708288
665.567918	2572.416788
665.908746	2575.861577
666.249522	2587.540250
666.590248	2576.365692
666.930922	2573.088942
667.271545	2566.031327
667.612118	2573.088942
667.952639	2562.586538
668.293109	2573.761096
668.633528	2563.510750
668.973896	2585.859865
669.314213	2578.550192
669.654480	2568.719942
669.994695	2588.968577
670.334859	2570.400327
670.674973	2582.079000
671.015035	2578.130096
671.355047	2574.685308
671.695008	2561.914385
672.034918	2568.047788
672.374777	2568.719942
672.714585	2583.339288
673.054342	2576.449712
673.394049	2569.056019
673.733705	2570.988462
674.073310	2578.130096
674.412864	2560.822135
674.752368	2576.197654
675.091820	2571.240519
675.431223	2577.457942
675.770574	2575.693538
676.109875	2584.263500
676.449125	2575.441481
676.788324	2572.920904
677.127473	2584.767615
677.466571	2583.675365
677.805619	2583.843404
678.144616	2582.331058
678.483562	2593.421596
678.822458	2578.970288
679.161303	2573.004923
679.500098	2582.079000
679.838842	2562.502519
680.177535	2560.822135
680.516179	2570.316308
680.854771	2575.357462
681.193314	2573.593058
681.531805	2577.541962
681.870247	2580.902731
682.208638	2569.812192
682.546978	2565.611231
682.885268	2564.771038
683.223508	2580.902731
683.561697	2564.518981
683.899836	2578.382154
684.237925	2571.744635
684.575963	2603.083808
684.913951	2570.820423
685.251889	2571.492577
685.589776	2575.441481
685.927614	2568.803962
686.265401	2548.975423
686.603137	2574.769327
686.940824	2583.507327
687.278460	2581.742923
687.616046	2587.540250
687.953582	2581.238808
688.291068	2581.154788
688.628504	2563.258692
688.965889	2569.980231
689.303224	2576.365692
689.640510	2583.171250
689.977745	2586.279962
690.314930	2557.209308
690.652065	2562.922615
690.989150	2567.879750
691.326185	2567.459654
691.663170	2566.367404
692.000105	2567.711712
692.336990	2572.332769
692.673825	2581.994981
693.010610	2558.973712
693.347345	2573.172962
693.684030	2582.247038
694.020665	2576.197654
694.357251	2575.609519
694.693786	2565.107115
695.030272	2577.541962
695.366707	2571.744635
695.703093	2543.514173
696.039429	2579.642442
696.375716	2587.120154
696.711952	2567.879750
697.048139	2570.568365
697.384276	2575.693538
697.720363	2565.611231
698.056400	2560.654096
698.392388	2560.149981
698.728326	2566.955538
699.064214	2569.560135
699.400053	2569.644154
699.735842	2571.492577
700.071581	2566.283385
700.407270	2567.123577
700.742910	2565.275154
701.078501	2570.736404
701.414042	2574.097173
701.749533	2561.494288
702.084974	2570.484346
702.420366	2582.079000
702.755709	2573.677077
703.091002	2580.146558
703.426246	2560.654096
703.761440	2575.441481
704.096584	2562.922615
704.431679	2556.201077
704.766725	2562.418500
705.101721	2580.314596
705.436668	2576.029615
705.771565	2585.859865
706.106413	2561.746346
706.441212	2579.390385
706.775961	2583.171250
707.110661	2568.131808
707.445311	2591.741212
707.779913	2568.467885
708.114465	2559.729885
708.448967	2576.281673
708.783421	2561.494288
709.117825	2583.675365
709.452180	2572.080712
709.786485	2567.711712
710.120742	2576.281673
710.454949	2583.675365
710.789107	2584.851635
711.123216	2562.166442
711.457275	2551.411981
711.791286	2557.965481
712.125247	2580.314596
712.459159	2573.425019
712.793023	2573.845115
713.126837	2588.716519
713.460602	2560.990173
713.794318	2576.533731
714.127985	2559.729885
714.461602	2562.922615
714.795171	2560.822135
715.128691	2569.224058
715.462162	2565.275154
715.795584	2582.919192
716.128957	2568.215827
716.462281	2579.138327
716.795556	2582.079000
717.128782	2581.070769
717.461960	2563.762808
717.795088	2578.214115
718.128167	2568.972000
718.461198	2582.247038
718.794180	2581.238808
719.127113	2571.996692
719.459997	2580.902731
719.792833	2569.308077
720.125619	2577.457942
720.458357	2583.927423
720.791046	2574.181192
721.123686	2560.402038
721.456278	2555.276865
721.788821	2572.080712
722.121315	2568.383865
722.453761	2560.149981
722.786158	2566.283385
723.118506	2573.761096
723.450805	2573.172962
723.783056	2565.359173
724.115259	2575.693538
724.447412	2568.719942
724.779518	2570.400327
725.111574	2563.762808
725.443582	2584.095462
725.775542	2576.029615
726.107453	2570.316308
726.439315	2563.090654
726.771129	2592.329346
727.102895	2570.988462
727.434612	2585.691827
727.766281	2581.910962
728.097901	2578.550192
728.429473	2572.248750
728.760996	2584.851635
729.092471	2559.645865
729.423897	2567.711712
729.755276	2573.341000
730.086606	2570.904442
730.417887	2562.418500
730.749120	2581.322827
731.080305	2567.543673
731.411442	2563.174673
731.742530	2567.543673
732.073570	2565.611231
732.404562	2571.828654
732.735506	2574.769327
733.066401	2564.350942
733.397249	2584.431538
733.728048	2563.090654
734.058798	2559.057731
734.389501	2581.406846
734.720156	2572.248750
735.050762	2573.172962
735.381320	2570.316308
735.711831	2579.054308
736.042293	2578.970288
736.372707	2563.846827
736.703073	2560.738115
737.033391	2572.752865
737.363661	2558.049500
737.693883	2576.449712
738.024056	2587.876327
738.354182	2563.594769
738.684260	2559.645865
739.014290	2555.528923
739.344272	2574.769327
739.674207	2570.064250
740.004093	2556.369115
740.333931	2572.080712
740.663722	2561.410269
740.993464	2570.904442
741.323159	2567.207596
741.652806	2562.922615
741.982405	2565.863288
742.311956	2563.258692
742.641460	2568.131808
742.970915	2560.822135
743.300323	2557.797442
743.629683	2564.182904
743.958996	2564.266923
744.288260	2581.238808
744.617477	2565.359173
744.946647	2576.281673
745.275768	2567.459654
745.604842	2571.324538
745.933869	2576.365692
746.262847	2571.408558
746.591778	2564.350942
746.920662	2569.812192
747.249498	2557.041269
747.578286	2575.525500
747.907027	2558.469596
748.235720	2563.510750
748.564365	2567.627692
748.892963	2573.845115
749.221514	2570.316308
749.550017	2560.149981
749.878473	2560.234000
750.206881	2585.271731
750.535242	2563.510750
750.863555	2578.298135
751.191821	2579.474404
751.520039	2559.981942
751.848210	2571.156500
752.176334	2551.748058
752.504411	2563.426731
752.832440	2552.924327
753.160421	2567.879750
753.488356	2579.978519
753.816243	2564.182904
754.144082	2568.803962
754.471875	2568.215827
754.799620	2568.383865
755.127318	2578.802250
755.454969	2567.711712
755.782572	2580.902731
756.110129	2571.912673
756.437638	2571.576596
756.765100	2563.678788
757.092515	2560.570077
757.419882	2579.558423
757.747203	2574.013154
758.074477	2577.457942
758.401703	2572.752865
758.728882	2579.222346
759.056014	2573.761096
759.383099	2565.947308
759.710138	2571.408558
760.037129	2578.130096
760.364073	2571.996692
760.690970	2578.466173
761.017820	2576.029615
761.344623	2576.449712
761.671379	2575.525500
761.998088	2566.619462
762.324751	2569.056019
762.651366	2569.980231
762.977935	2569.560135
763.304456	2576.365692
763.630931	2589.304654
763.957359	2581.490865
764.283740	2572.752865
764.610074	2546.538865
764.936362	2566.703481
765.262602	2569.560135
765.588796	2581.490865
765.914943	2560.738115
766.241044	2562.586538
766.567097	2560.318019
766.893104	2556.621173
767.219064	2569.812192
767.544978	2567.459654
767.870845	2579.390385
768.196665	2574.265212
768.522438	2562.502519
768.848165	2572.080712
769.173846	2576.197654
769.499479	2584.599577
769.825066	2563.426731
770.150607	2573.256981
770.476101	2579.642442
770.801548	2570.820423
771.126949	2550.823846
771.452303	2557.293327
771.777611	2565.863288
772.102872	2567.963769
772.428087	2555.865000
772.753256	2569.812192
773.078378	2583.675365
773.403453	2579.978519
773.728482	2563.258692
774.053465	2572.416788
774.378401	2574.853346
774.703291	2560.486058
775.028135	2561.158212
775.352932	2565.695250
775.677683	2557.293327
776.002388	2575.441481
776.327046	2560.149981
776.651658	2572.752865
776.976224	2571.072481
777.300743	2554.940788
777.625216	2574.265212
777.949643	2571.492577
778.274024	2566.031327
778.598359	2563.426731
778.922647	2566.871519
779.246889	2575.693538
779.571086	2562.166442
779.895236	2575.609519
780.219339	2561.830365
780.543397	2561.326250
780.867409	2574.517269
781.191374	2555.192846
781.515294	2575.441481
781.839167	2578.130096
782.162995	2581.742923
782.486776	2562.334481
782.810511	2574.349231
783.134201	2575.693538
783.457844	2560.402038
783.781441	2558.553615
784.104993	2547.799154
784.428498	2566.451423
784.751958	2568.467885
785.075372	2561.662327
785.398739	2555.192846
785.722061	2566.535442
786.045337	2572.080712
786.368568	2574.769327
786.691752	2561.326250
787.014891	2565.947308
787.337983	2550.571788
787.661030	2549.647577
787.984031	2566.199365
788.306987	2560.318019
788.629897	2562.250462
788.952760	2571.408558
789.275579	2582.079000
789.598351	2568.467885
789.921078	2568.887981
790.243759	2559.897923
790.566395	2545.026519
790.888984	2589.136615
791.211529	2557.881462
791.534027	2559.393808
791.856480	2568.299846
792.178888	2543.850250
792.501249	2563.426731
792.823566	2555.780981
793.145836	2563.762808
793.468062	2554.436673
793.790241	2563.762808
794.112375	2576.281673
794.434464	2556.705192
794.756507	2569.896212
795.078505	2559.477827
795.400457	2564.603000
795.722364	2571.996692
796.044226	2566.619462
796.366042	2556.957250
796.687812	2569.980231
797.009538	2572.332769
797.331218	2572.668846
797.652852	2571.912673
797.974442	2563.006635
798.295986	2550.655808
798.617484	2568.383865
798.938938	2561.914385
799.260346	2567.879750
799.581709	2582.247038
799.903026	2559.477827
800.224299	2566.703481
800.545526	2572.584827
800.866708	2570.064250
801.187845	2576.449712
801.508936	2579.810481
801.829983	2549.731596
802.150984	2550.823846
802.471940	2569.476115
802.792851	2565.527212
803.113717	2562.838596
803.434538	2560.149981
803.755314	2569.980231
804.076045	2575.357462
804.396731	2558.133519
804.717372	2569.224058
805.037967	2558.973712
805.358518	2551.159923
805.679024	2572.836885
805.999485	2560.486058
806.319901	2551.411981
806.640272	2562.670558
806.960598	2579.474404
807.280879	2562.250462
807.601115	2564.687019
807.921306	2570.148269
808.241453	2559.393808
808.561554	2553.176385
808.881611	2556.201077
809.201623	2567.207596
809.521590	2562.838596
809.841513	2558.049500
810.161390	2555.780981
810.481223	2576.113635
810.801011	2567.207596
811.120755	2570.064250
811.440453	2551.159923
811.760107	2561.158212
812.079716	2584.347519
812.399281	2571.240519
812.718801	2556.957250
813.038276	2560.738115
813.357707	2573.425019
813.677093	2575.105404
813.996434	2564.434962
814.315731	2572.416788
814.634983	2567.627692
814.954191	2552.252173
815.273354	2581.070769
815.592473	2546.706904
815.911547	2558.217538
816.230577	2557.461365
816.549562	2570.064250
816.868502	2552.336192
817.187399	2567.795731
817.506250	2548.975423
817.825058	2565.863288
818.143821	2569.812192
818.462539	2561.830365
818.781213	2578.718231
819.099843	2565.947308
819.418429	2558.637635
819.736970	2565.443192
820.055466	2554.100596
820.373919	2550.487769
820.692327	2571.660615
821.010691	2564.434962
821.329011	2570.484346
821.647286	2575.273442
821.965517	2582.331058
822.283704	2568.215827
822.601847	2586.868096
822.919945	2578.634212
823.237999	2587.540250
823.556010	2586.784077
823.873976	2594.345808
824.191897	2571.744635
824.509775	2593.925712
824.827609	2576.785788
825.145398	2574.517269
825.463144	2557.629404
825.780845	2567.207596
826.098502	2582.919192
826.416116	2574.013154
826.733685	2566.115346
827.051210	2560.318019
827.368692	2579.810481
827.686129	2582.247038
828.003522	2580.818712
828.320872	2575.693538
828.638177	2556.957250
828.955439	2577.457942
829.272656	2562.334481
829.589830	2561.242231
829.906960	2578.214115
830.224046	2569.980231
830.541088	2561.158212
830.858086	2583.675365
831.175041	2567.459654
831.491952	2556.957250
831.808819	2557.965481
832.125642	2572.416788
832.442421	2573.509038
832.759157	2567.123577
833.075849	2555.192846
833.392497	2567.543673
833.709101	2586.363981
834.025662	2565.863288
834.342179	2557.461365
834.658653	2570.484346
834.975083	2573.845115
835.291469	2570.904442
835.607811	2577.962058
835.924110	2558.553615
836.240366	2571.576596
836.556578	2579.138327
836.872746	2559.645865
837.188871	2555.108827
837.504952	2580.650673
837.820990	2561.326250
838.136984	2563.762808
838.452935	2584.263500
838.768842	2570.652385
839.084706	2572.584827
839.400526	2572.920904
839.716303	2570.568365
840.032037	2572.080712
840.347727	2563.510750
840.663373	2568.719942
840.978977	2571.072481
841.294537	2559.897923
841.610054	2566.031327
841.925527	2575.945596
842.240957	2564.939077
842.556344	2564.350942
842.871687	2569.812192
843.186987	2553.176385
843.502244	2558.553615
843.817458	2573.088942
844.132629	2567.291615
844.447756	2568.635923
844.762840	2577.373923
845.077881	2549.395519
845.392879	2555.612942
845.707833	2562.334481
846.022745	2558.301558
846.337613	2567.711712
846.652438	2551.916096
846.967221	2552.000115
847.281960	2571.324538
847.596656	2568.131808
847.911309	2566.283385
848.225919	2559.981942
848.540485	2562.082423
848.855009	2570.148269
849.169490	2565.947308
849.483928	2568.299846
849.798323	2553.260404
850.112675	2570.820423
850.426984	2566.031327
850.741251	2577.794019
851.055474	2574.181192
851.369654	2552.168154
851.683792	2572.920904
851.997887	2563.006635
852.311938	2568.383865
852.625947	2576.785788
852.939914	2564.266923
853.253837	2546.622885
853.567718	2559.561846
853.881555	2565.527212
854.195350	2563.846827
854.509103	2557.293327
854.822812	2569.140038
855.136479	2555.780981
855.450103	2555.024808
855.763685	2561.746346
856.077224	2569.224058
856.390720	2556.033038
856.704173	2559.141750
857.017584	2557.209308
857.330953	2560.486058
857.644278	2560.234000
857.957561	2584.767615
858.270802	2564.014865
858.584000	2565.947308
858.897155	2550.739827
859.210268	2563.846827
859.523339	2561.074192
859.836367	2566.703481
860.149352	2567.207596
860.462295	2552.756288
860.775195	2562.166442
861.088054	2545.194558
861.400869	2556.453135
861.713642	2553.428442
862.026373	2560.234000
862.339062	2576.953827
862.651708	2573.845115
862.964312	2544.606423
863.276873	2548.639346
863.589392	2564.855058
863.901869	2559.981942
864.214303	2567.207596
864.526696	2574.265212
864.839045	2571.996692
865.151353	2561.578308
865.463619	2555.528923
865.775842	2566.199365
866.088023	2572.332769
866.400162	2569.140038
866.712258	2563.762808
867.024313	2570.148269
867.336325	2568.551904
867.648296	2551.664038
867.960224	2556.201077
868.272110	2564.098885
868.583954	2556.537154
868.895755	2567.375635
869.207515	2569.140038
869.519233	2562.166442
869.830909	2575.189423
870.142542	2559.981942
870.454134	2569.728173
870.765684	2570.904442
871.077191	2561.830365
871.388657	2549.983654
871.700081	2557.629404
872.011463	2560.654096
872.322803	2567.375635
872.634101	2566.871519
872.945357	2566.619462
873.256571	2559.729885
873.567744	2557.797442
873.878874	2579.222346
874.189963	2560.822135
874.501010	2547.631115
874.812015	2576.365692
875.122979	2532.423635
875.433900	2576.029615
875.744780	2550.067673
876.055618	2568.467885
876.366415	2567.879750
876.677169	2553.932558
876.987882	2557.629404
877.298554	2571.996692
877.609183	2559.477827
877.919771	2558.385577
878.230317	2549.899635
878.540822	2574.517269
878.851285	2562.418500
879.161707	2555.612942
879.472087	2557.713423
879.782425	2564.182904
880.092722	2566.199365
880.402977	2571.324538
880.713191	2557.713423
881.023363	2580.314596
881.333494	2589.388673
881.643583	2566.451423
881.953631	2580.902731
882.263637	2565.947308
882.573602	2575.609519
882.883526	2586.363981
883.193408	2571.744635
883.503248	2575.525500
883.813048	2572.080712
884.122806	2570.400327
884.432522	2568.803962
884.742197	2563.510750
885.051831	2574.265212
885.361424	2573.256981
885.670975	2566.283385
885.980485	2568.131808
886.289954	2564.098885
886.599382	2566.535442
886.908768	2558.217538
887.218113	2563.258692
887.527417	2555.780981
887.836680	2563.762808
888.145901	2574.433250
888.455082	2572.836885
888.764221	2567.711712
889.073319	2556.957250
889.382376	2564.014865
889.691392	2573.929135
890.000366	2575.609519
890.309300	2567.711712
890.618193	2556.537154
890.927044	2553.008346
891.235855	2560.570077
891.544625	2574.181192
891.853353	2571.156500
892.162041	2566.199365
892.470687	2564.182904
892.779293	2566.199365
893.087858	2562.166442
893.396381	2554.268635
893.704864	2566.955538
894.013306	2569.644154
894.321707	2560.738115
894.630068	2561.242231
894.938387	2570.568365
895.246665	2573.088942
895.554903	2566.703481
895.863100	2555.528923
896.171256	2583.843404
896.479371	2561.074192
896.787446	2552.336192
897.095480	2574.349231
897.403473	2567.711712
897.711425	2569.392096
898.019336	2566.871519
898.327207	2568.972000
898.635038	2573.004923
898.942827	2567.375635
899.250576	2557.629404
899.558284	2572.080712
899.865952	2567.627692
900.173579	2570.484346
900.481165	2560.654096
900.788711	2576.617750
901.096216	2569.392096
901.403681	2566.283385
901.711105	2555.444904
902.018489	2553.932558
902.325832	2562.670558
902.633135	2564.350942
902.940397	2571.492577
903.247619	2567.207596
903.554800	2566.619462
903.861941	2550.907865
904.169041	2564.518981
904.476101	2556.453135
904.783121	2564.350942
905.090100	2565.359173
905.397039	2566.871519
905.703938	2570.148269
906.010796	2562.670558
906.317614	2569.896212
906.624391	2570.400327
906.931129	2566.199365
907.237826	2554.688731
907.544483	2562.670558
907.851099	2554.604712
908.157675	2548.723365
908.464211	2566.451423
908.770707	2566.787500
909.077163	2573.088942
909.383578	2556.033038
909.689954	2563.006635
909.996289	2557.209308
910.302584	2553.764519
910.608839	2566.535442
910.915054	2565.443192
911.221229	2564.687019
911.527363	2577.878038
911.833458	2551.664038
912.139513	2567.291615
912.445527	2546.874942
912.751502	2544.942500
913.057436	2554.520692
913.363331	2555.612942
913.669186	2549.647577
913.975000	2560.318019
914.280775	2567.459654
914.586510	2555.528923
914.892205	2567.207596
915.197859	2571.240519
915.503475	2558.973712
915.809050	2560.570077
916.114585	2572.332769
916.420081	2562.334481
916.725536	2567.879750
917.030952	2561.662327
917.336328	2561.578308
917.641665	2561.410269
917.946961	2565.611231
918.252218	2560.318019
918.557435	2576.029615
918.862612	2554.604712
919.167750	2550.403750
919.472848	2562.082423
919.777906	2565.275154
920.082925	2554.520692
920.387904	2564.603000
920.692843	2553.260404
920.997743	2569.392096
921.302603	2543.430154
921.607423	2567.123577
921.912204	2581.490865
922.216946	2561.662327
922.521647	2558.301558
922.826310	2567.207596
923.130932	2569.476115
923.435516	2561.158212
923.740059	2568.047788
924.044564	2563.678788
924.349028	2552.420212
924.653454	2568.719942
924.957840	2570.736404
925.262186	2562.418500
925.566493	2547.042981
925.870761	2576.197654
926.174989	2571.996692
926.479178	2559.813904
926.783328	2564.518981
927.087438	2563.426731
927.391509	2574.433250
927.695541	2557.125288
927.999533	2554.520692
928.303486	2569.896212
928.607400	2549.311500
928.911275	2550.235712
929.215110	2559.141750
929.518906	2573.341000
929.822663	2544.690442
930.126381	2570.820423
930.430060	2540.237423
930.733699	2563.510750
931.037299	2564.098885
931.340861	2561.578308
931.644383	2559.225769
931.947866	2550.067673
932.251309	2548.303269
932.554714	2562.334481
932.858080	2570.484346
933.161407	2558.049500
933.464694	2571.072481
933.767943	2544.942500
934.071153	2559.897923
934.374323	2564.603000
934.677455	2540.069385
934.980548	2559.225769
935.283602	2567.711712
935.586617	2557.797442
935.889593	2558.553615
936.192530	2564.266923
936.495428	2558.553615
936.798287	2551.411981
937.101108	2570.148269
937.403890	2563.258692
937.706632	2542.253885
938.009336	2565.611231
938.312002	2563.174673
938.614628	2561.662327
938.917216	2557.713423
939.219765	2573.593058
939.522275	2551.916096
939.824747	2555.192846
940.127179	2564.434962
940.429573	2550.991885
940.731929	2559.729885
941.034246	2554.940788
941.336524	2575.189423
941.638763	2554.688731
941.940964	2566.367404
942.243126	2560.990173
942.545250	2563.762808
942.847335	2570.232288
943.149381	2564.182904
943.451389	2563.342712
943.753359	2554.520692
944.055290	2570.820423
944.357182	2552.420212
944.659036	2555.528923
944.960851	2565.863288
945.262628	2558.469596
945.564367	2552.000115
945.866067	2537.884885
946.167729	2559.225769
946.469352	2551.664038
946.770937	2551.748058
947.072484	2560.318019
947.373992	2560.570077
947.675462	2555.444904
947.976893	2558.721654
948.278286	2563.258692
948.579641	2543.430154
948.880958	2566.031327
949.182236	2552.000115
949.483476	2557.881462
949.784678	2552.504231
950.085841	2566.031327
950.386967	2552.420212
950.688054	2568.047788
950.989103	2560.570077
951.290114	2561.410269
951.591087	2557.965481
951.892021	2568.467885
952.192917	2567.291615
952.493776	2548.387288
952.794596	2559.645865
953.095378	2562.082423
953.396122	2558.469596
953.696828	2560.990173
953.997496	2563.930846
954.298126	2554.856769
954.598718	2557.629404
954.899272	2545.950731
955.199788	2564.350942
955.500266	2547.547096
955.800706	2573.341000
956.101108	2562.754577
956.401472	2559.645865
956.701798	2555.276865
957.002087	2563.006635
957.302337	2559.477827
957.602550	2549.059442
957.902724	2568.215827
958.202861	2550.991885
958.502960	2568.635923
958.803022	2576.029615
959.103045	2562.754577
959.403031	2559.309788
959.702979	2552.168154
960.002889	2569.140038
960.302762	2555.360885
960.602596	2569.980231
960.902393	2570.400327
961.202153	2553.008346
961.501875	2555.528923
961.801559	2558.805673
962.101205	2562.418500
962.400814	2562.250462
962.700385	2567.039558
962.999918	2548.471308
963.299414	2560.822135
963.598873	2567.543673
963.898293	2556.537154
964.197677	2572.668846
964.497022	2556.705192
964.796331	2554.436673
965.095601	2548.219250
965.394835	2552.756288
965.694030	2567.963769
965.993189	2556.789212
966.292309	2549.143462
966.591393	2567.627692
966.890439	2555.949019
967.189447	2552.840308
967.488419	2559.141750
967.787353	2549.479538
968.086249	2558.721654
968.385108	2546.790923
968.683930	2557.041269
968.982714	2544.942500
969.281462	2557.041269
969.580172	2563.258692
969.878844	2557.125288
970.177480	2552.336192
970.476078	2566.787500
970.774639	2570.904442
971.073162	2555.949019
971.371649	2552.924327
971.670098	2547.883173
971.968510	2563.678788
972.266885	2562.334481
972.565223	2553.344423
972.863524	2557.125288
973.161788	2550.823846
973.460014	2552.840308
973.758204	2569.308077
974.056356	2563.510750
974.354471	2547.211019
974.652550	2559.057731
974.950591	2550.235712
975.248595	2564.939077
975.546563	2561.746346
975.844493	2567.963769
976.142386	2561.578308
976.440243	2548.051212
976.738062	2564.434962
977.035845	2578.046077
977.333590	2575.357462
977.631299	2558.469596
977.928971	2555.108827
978.226606	2548.639346
978.524204	2541.581731
978.821765	2562.586538
979.119290	2560.318019
979.416777	2562.418500
979.714228	2542.842019
980.011642	2569.812192
980.309020	2551.580019
980.606360	2571.072481
980.903664	2550.907865
981.200931	2563.426731
981.498162	2537.716846
981.795356	2556.453135
982.092513	2552.336192
982.389633	2554.604712
982.686717	2552.168154
982.983764	2561.494288
983.280775	2561.746346
983.577749	2551.159923
983.874686	2542.505942
984.171587	2552.924327
984.468451	2558.805673
984.765279	2552.840308
985.062070	2558.805673
985.358824	2573.088942
985.655543	2554.436673
985.952224	2553.176385
986.248869	2563.174673
986.545478	2548.723365
986.842050	2561.158212
987.138586	2575.189423
987.435086	2546.874942
987.731549	2566.199365
988.027975	2565.359173
988.324366	2553.512462
988.620719	2573.004923
988.917037	2560.990173
989.213318	2559.141750
989.509563	2573.088942
989.805772	2553.092365
990.101944	2551.832077
990.398080	2554.184615
990.694180	2563.510750
990.990244	2558.133519
991.286271	2553.932558
991.582262	2563.762808
991.878217	2556.537154
992.174136	2565.359173
992.470019	2562.166442
992.765865	2556.201077
993.061676	2568.635923
993.357450	2563.174673
993.653188	2546.538865
993.948890	2574.517269
994.244556	2571.156500
994.540186	2549.563558
994.835780	2548.051212
995.131337	2554.100596
995.426859	2546.790923
995.722345	2564.518981
996.017795	2553.932558
996.313208	2560.402038
996.608586	2549.059442
996.903928	2559.813904
997.199234	2564.939077
997.494504	2558.805673
997.789738	2558.469596
998.084936	2559.477827
998.380099	2559.309788
998.675225	2557.377346
998.970316	2552.420212
999.265371	2558.553615
999.560390	2566.535442
999.855373	2556.537154
1000.150320	2552.084135
1000.445232	2558.553615
1000.740108	2549.227481
1001.034948	2554.856769
1001.329752	2555.612942
1001.624521	2536.624596
1001.919254	2561.326250
1002.213951	2561.410269
1002.508613	2553.680500
1002.803239	2549.311500
1003.097829	2571.828654
1003.392384	2545.278577
1003.686903	2557.041269
1003.981386	2558.553615
1004.275834	2543.598192
1004.570246	2572.584827
1004.864623	2553.848538
1005.158964	2553.764519
1005.453270	2545.950731
1005.747540	2556.789212
1006.041775	2561.326250
1006.335974	2561.158212
1006.630138	2562.838596
1006.924266	2554.940788
1007.218359	2566.367404
1007.512416	2560.990173
1007.806438	2566.871519
1008.100425	2562.922615
1008.394376	2544.186327
1008.688292	2568.887981
1008.982172	2546.538865
1009.276017	2567.543673
1009.569827	2550.655808
1009.863602	2549.647577
1010.157341	2569.308077
1010.451045	2557.209308
1010.744714	2565.107115
1011.038347	2559.813904
1011.331945	2561.914385
1011.625508	2551.580019
1011.919036	2564.182904
1012.212528	2554.772750
1012.505986	2553.344423
1012.799408	2558.469596
1013.092795	2561.578308
1013.386147	2547.967192
1013.679464	2552.336192
1013.972745	2562.418500
1014.265992	2543.766231
1014.559204	2552.252173
1014.852380	2544.774462
1015.145521	2565.107115
1015.438628	2557.629404
1015.731699	2552.840308
1016.024736	2556.957250
1016.317737	2543.850250
1016.610703	2560.149981
1016.903635	2559.225769
1017.196531	2576.869808
1017.489393	2563.342712
1017.782219	2545.614654
1018.075011	2554.100596
1018.367768	2553.848538
1018.660490	2557.125288
1018.953177	2557.125288
1019.245829	2557.125288
