Dividing Wavelength (nm)	Counts (n)	Slit_number_4_of_a_total_of_40	
326.493990	2039.398788
326.888308	2039.398788
327.282561	2039.398788
327.676750	1997.053096
328.070874	2018.478000
328.464933	2047.968750
328.858929	2049.229038
329.252859	2061.075750
329.646726	2070.149827
330.040528	2090.062385
330.434265	2103.169385
330.827938	2129.887500
331.221547	2147.027423
331.615091	2150.052115
332.008571	2198.447192
332.401986	2197.438962
332.795338	2199.203365
333.188625	2226.677654
333.581847	2268.267173
333.975006	2298.262038
334.368100	2307.588173
334.761129	2318.426654
335.154095	2312.881385
335.546996	2332.289827
335.939833	2419.753846
336.332606	2407.150962
336.725315	2442.439038
337.117960	2441.682865
337.510540	2440.674635
337.903056	2459.326904
338.295508	2456.554269
338.687896	2458.066615
339.080220	2520.828981
339.472480	2471.929788
339.864676	2487.305308
340.256807	2491.842346
340.648875	2472.181846
341.040879	2485.288846
341.432818	2493.102635
341.824694	2495.875269
342.216506	2488.061481
342.608253	2500.664365
342.999937	2490.582058
343.391557	2507.721981
343.783113	2496.883500
344.174605	2493.354692
344.566033	2488.313538
344.957397	2478.735346
345.348697	2492.094404
345.739934	2512.763135
346.131106	2490.077942
346.522215	2481.003865
346.913260	2498.647904
347.304241	2444.203442
347.695159	2462.099538
348.086012	2509.738442
348.476802	2475.710654
348.867528	2454.789865
349.258191	2453.277519
349.648789	2472.685962
350.039324	2477.979173
350.429796	2484.280615
350.820203	2453.277519
351.210548	2434.877308
351.600828	2443.699327
351.991045	2446.471962
352.381198	2468.905096
352.771288	2445.715788
353.161314	2450.252827
353.551276	2475.206538
353.941175	2438.154058
354.331010	2461.343365
354.720782	2477.979173
355.110490	2467.140692
355.500135	2461.595423
355.889717	2472.181846
356.279235	2440.170519
356.668689	2461.595423
357.058080	2472.938019
357.447408	2476.970942
357.836672	2452.521346
358.225873	2494.362923
358.615010	2465.628346
359.004084	2449.748712
359.393095	2491.590288
359.782043	2471.929788
360.170927	2505.201404
360.559748	2430.088212
360.948505	2473.442135
361.337199	2470.165385
361.725830	2462.351596
362.114398	2463.863942
362.502903	2485.792962
362.891344	2463.107769
363.279722	2490.077942
363.668037	2478.483288
364.056289	2475.458596
364.444478	2468.905096
364.832603	2471.929788
365.220665	2476.214769
365.608665	2483.020327
365.996601	2468.148923
366.384474	2485.288846
366.772284	2477.475058
367.160031	2488.061481
367.547715	2487.557365
367.935336	2482.012096
368.322893	2475.458596
368.710388	2462.099538
369.097820	2481.760038
369.485189	2467.644808
369.872495	2466.384519
370.259738	2469.661269
370.646918	2474.702423
371.034035	2478.231231
371.421090	2470.921558
371.808081	2486.297077
372.195010	2489.069712
372.581875	2482.516212
372.968678	2492.346462
373.355418	2472.685962
373.742096	2474.954481
374.128710	2490.834115
374.515262	2475.962712
374.901751	2476.214769
375.288177	2469.661269
375.674540	2461.847481
376.060841	2477.475058
376.447079	2502.428769
376.833254	2471.677731
377.219367	2473.442135
377.605417	2488.061481
377.991404	2488.061481
378.377329	2486.549135
378.763191	2490.330000
379.148991	2486.801192
379.534727	2493.606750
379.920402	2492.598519
380.306013	2471.173615
380.691563	2490.582058
381.077049	2472.685962
381.462474	2456.554269
381.847835	2473.946250
382.233134	2471.677731
382.618371	2467.644808
383.003545	2525.366019
383.388657	2488.565596
383.773706	2485.288846
384.158693	2479.743577
384.543618	2502.176712
384.928480	2462.603654
385.313280	2454.789865
385.698017	2454.537808
386.082692	2482.012096
386.467305	2493.606750
386.851856	2517.552231
387.236344	2493.606750
387.620770	2489.573827
388.005133	2475.206538
388.389435	2473.442135
388.773674	2471.677731
389.157851	2514.023423
389.541965	2490.077942
389.926018	2487.305308
390.310008	2485.288846
390.693936	2497.891731
391.077802	2490.834115
391.461606	2496.379385
391.845348	2495.623212
392.229027	2516.039885
392.612645	2492.094404
392.996200	2512.006962
393.379694	2487.809423
393.763125	2511.754904
394.146494	2479.995635
394.529801	2492.598519
394.913047	2510.998731
395.296230	2495.875269
395.679351	2477.223000
396.062410	2487.809423
396.445408	2493.354692
396.828343	2478.735346
397.211217	2470.417442
397.594028	2483.272385
397.976778	2508.478154
398.359466	2485.792962
398.742092	2477.223000
399.124656	2511.754904
399.507158	2509.990500
399.889598	2490.330000
400.271977	2478.987404
400.654294	2485.792962
401.036549	2464.872173
401.418742	2471.929788
401.800874	2498.395846
402.182944	2477.727115
402.564952	2491.086173
402.946898	2504.697288
403.328783	2469.409212
403.710606	2471.425673
404.092367	2507.217865
404.474067	2481.760038
404.855705	2474.702423
405.237282	2483.776500
405.618797	2492.094404
406.000250	2498.899962
406.381642	2480.751808
406.762972	2500.664365
407.144240	2448.992538
407.525447	2516.291942
407.906593	2506.965808
408.287677	2515.535769
408.668700	2493.354692
409.049661	2492.850577
409.430560	2500.664365
409.811399	2514.023423
410.192176	2500.916423
410.572891	2485.540904
410.953545	2496.379385
411.334138	2496.127327
411.714669	2505.705519
412.095139	2477.223000
412.475547	2514.527538
412.855894	2520.324865
413.236180	2511.754904
413.616405	2526.878365
413.996568	2492.094404
414.376670	2516.544000
414.756711	2480.751808
415.136691	2504.445231
415.516609	2495.875269
415.896466	2509.738442
416.276262	2497.639673
416.655997	2492.850577
417.035670	2479.995635
417.415283	2504.949346
417.794834	2508.226096
418.174324	2498.395846
418.553753	2493.858808
418.933121	2483.776500
419.312428	2515.535769
419.691674	2519.820750
420.070859	2498.395846
420.449983	2488.313538
420.829045	2505.201404
421.208047	2525.113962
421.586988	2494.110865
421.965867	2509.234327
422.344686	2497.387615
422.723444	2508.226096
423.102141	2513.267250
423.480777	2490.582058
423.859352	2498.395846
424.237866	2491.086173
424.616319	2490.582058
424.994712	2474.702423
425.373044	2514.527538
425.751314	2494.110865
426.129524	2475.458596
426.507673	2500.160250
426.885762	2501.924654
427.263789	2508.226096
427.641756	2499.404077
428.019662	2511.250788
428.397508	2502.428769
428.775292	2506.461692
429.153016	2500.916423
429.530679	2500.412308
429.908282	2492.094404
430.285824	2495.875269
430.663305	2494.867038
431.040726	2506.965808
431.418086	2516.039885
431.795385	2510.746673
432.172624	2521.333096
432.549802	2487.305308
432.926920	2515.031654
433.303977	2513.519308
433.680974	2497.639673
434.057910	2505.957577
434.434786	2498.143788
434.811601	2525.870135
435.188355	2487.557365
435.565050	2497.891731
435.941683	2494.110865
436.318257	2508.226096
436.694770	2526.374250
437.071222	2508.478154
437.447614	2501.168481
437.823946	2516.039885
438.200218	2504.193173
438.576429	2483.776500
438.952580	2482.768269
439.328670	2492.094404
439.704700	2499.404077
440.080670	2502.680827
440.456580	2513.267250
440.832429	2497.387615
441.208218	2527.382481
441.583947	2501.168481
441.959616	2515.283712
442.335224	2505.957577
442.710773	2506.209635
443.086261	2497.891731
443.461689	2527.382481
443.837057	2508.730212
444.212365	2503.941115
444.587612	2491.338231
444.962800	2535.952442
445.337927	2511.754904
445.712995	2497.891731
446.088002	2504.697288
446.462949	2529.903058
446.837837	2482.516212
447.212664	2495.875269
447.587431	2527.130423
447.962139	2481.760038
448.336786	2509.234327
448.711374	2494.867038
449.085901	2516.039885
449.460369	2496.883500
449.834776	2518.560462
450.209124	2503.689058
450.583412	2503.184942
450.957640	2492.346462
451.331808	2513.267250
451.705917	2513.267250
452.079965	2509.486385
452.453954	2506.965808
452.827883	2513.771365
453.201752	2488.817654
453.575562	2488.061481
453.949311	2504.949346
454.323001	2495.371154
454.696632	2518.056346
455.070202	2493.606750
455.443713	2482.012096
455.817164	2495.119096
456.190556	2519.316635
456.563888	2504.193173
456.937160	2503.941115
457.310373	2534.188038
457.683526	2528.390712
458.056619	2507.974038
458.429653	2504.193173
458.802628	2486.045019
459.175542	2520.072808
459.548398	2496.379385
459.921194	2489.825885
460.293930	2515.031654
460.666607	2514.779596
461.039224	2505.957577
461.411782	2515.535769
461.784280	2525.366019
462.156719	2518.308404
462.529099	2492.850577
462.901419	2512.259019
463.273680	2509.234327
463.645882	2519.820750
464.018024	2504.697288
464.390106	2509.486385
464.762130	2524.609846
465.134094	2507.721981
465.505999	2498.647904
465.877845	2497.891731
466.249631	2504.949346
466.621358	2510.242558
466.993026	2513.519308
467.364634	2527.634538
467.736184	2540.489481
468.107674	2539.985365
468.479105	2515.031654
468.850477	2515.787827
469.221790	2493.858808
469.593043	2504.949346
469.964238	2526.122192
470.335373	2515.283712
470.706449	2514.527538
471.077467	2515.031654
471.448425	2538.725077
471.819324	2518.308404
472.190164	2500.916423
472.560945	2510.242558
472.931667	2529.398942
473.302330	2513.015192
473.672934	2525.366019
474.043479	2519.064577
474.413965	2550.571788
474.784393	2514.023423
475.154761	2519.064577
475.525070	2506.461692
475.895321	2522.089269
476.265513	2498.647904
476.635645	2516.039885
477.005719	2495.371154
477.375734	2501.672596
477.745691	2517.048115
478.115588	2491.086173
478.485427	2507.721981
478.855207	2500.916423
479.224928	2516.039885
479.594591	2527.382481
479.964194	2506.713750
480.333739	2509.486385
480.703226	2512.259019
481.072653	2532.675692
481.442022	2514.527538
481.811333	2519.064577
482.180584	2504.697288
482.549777	2527.382481
482.918912	2508.226096
483.287988	2523.601615
483.657005	2499.656135
484.025964	2485.792962
484.394864	2530.911288
484.763706	2530.659231
485.132489	2497.387615
485.501213	2505.453462
485.869879	2516.039885
486.238487	2519.820750
486.607036	2520.576923
486.975527	2537.212731
487.343959	2519.820750
487.712333	2528.642769
488.080648	2552.588250
488.448905	2500.412308
488.817104	2533.683923
489.185244	2546.034750
489.553326	2525.618077
489.921350	2548.051212
490.289315	2513.267250
490.657222	2506.713750
491.025070	2517.300173
491.392861	2508.226096
491.760593	2510.998731
492.128267	2516.796058
492.495883	2529.398942
492.863440	2518.812519
493.230939	2505.957577
493.598380	2553.596481
493.965763	2510.998731
494.333088	2536.456558
494.700354	2507.974038
495.067563	2536.204500
495.434713	2525.113962
495.801805	2503.941115
496.168839	2527.382481
496.535815	2501.168481
496.902733	2491.338231
497.269593	2489.825885
497.636395	2535.700385
498.003139	2543.514173
498.369825	2509.486385
498.736453	2529.903058
499.103023	2507.469923
499.469535	2528.642769
499.835989	2521.837212
500.202385	2495.875269
500.568723	2528.138654
500.935003	2509.738442
501.301226	2539.985365
501.667390	2498.899962
502.033497	2512.763135
502.399546	2535.448327
502.765537	2506.209635
503.131470	2499.404077
503.497345	2528.894827
503.863163	2532.171577
504.228923	2497.639673
504.594625	2513.771365
504.960269	2509.990500
505.325856	2515.787827
505.691385	2488.061481
506.056856	2537.968904
506.422270	2505.453462
506.787625	2532.927750
507.152924	2503.184942
507.518164	2514.023423
507.883347	2544.270346
508.248472	2518.560462
508.613540	2521.081038
508.978550	2503.437000
509.343503	2529.398942
509.708398	2526.122192
510.073236	2534.692154
510.438016	2512.511077
510.802738	2538.977135
511.167403	2517.300173
511.532010	2556.873231
511.896561	2523.349558
512.261053	2534.944212
512.625488	2516.544000
512.989866	2514.023423
513.354186	2537.212731
513.718449	2499.404077
514.082655	2524.861904
514.446803	2546.538865
514.810894	2515.031654
515.174927	2519.064577
515.538904	2523.601615
515.902822	2513.771365
516.266684	2535.952442
516.630488	2546.286808
516.994235	2527.130423
517.357925	2520.828981
517.721558	2546.790923
518.085133	2540.741538
518.448651	2516.796058
518.812112	2531.919519
519.175516	2513.267250
519.538863	2534.692154
519.902152	2556.369115
520.265385	2560.402038
520.628560	2527.634538
520.991678	2556.117058
521.354739	2539.985365
521.717743	2576.029615
522.080690	2546.538865
522.443580	2532.423635
522.806413	2574.517269
523.169189	2564.182904
523.531908	2555.108827
523.894569	2546.034750
524.257174	2580.818712
524.619722	2552.336192
524.982213	2519.820750
525.344647	2561.410269
525.707025	2584.095462
526.069345	2564.434962
526.431608	2560.906154
526.793815	2549.059442
527.155964	2558.637635
527.518057	2548.555327
527.880093	2610.057404
528.242072	2565.695250
528.603995	2576.029615
528.965860	2571.744635
529.327669	2588.380442
529.689421	2578.550192
530.051117	2571.492577
530.412755	2584.095462
530.774337	2542.758000
531.135862	2562.418500
531.497331	2571.492577
531.858743	2572.752865
532.220098	2579.558423
532.581396	2589.892788
532.942638	2578.046077
533.303824	2600.479212
533.664953	2584.599577
534.026025	2561.662327
534.387040	2601.739500
534.747999	2604.512135
535.108902	2609.049173
535.469748	2588.380442
535.830537	2585.607808
536.191270	2606.780654
536.551947	2623.164404
536.912567	2596.698346
537.273131	2605.772423
537.633638	2605.772423
537.994089	2604.008019
538.354483	2617.619135
538.714821	2616.862962
539.075103	2627.953500
539.435328	2630.474077
539.795497	2637.279635
540.155609	2628.457615
540.515665	2635.263173
540.875665	2614.594442
541.235609	2611.569750
541.595496	2627.701442
541.955328	2635.263173
542.315102	2633.750827
542.674821	2628.709673
543.034483	2666.770385
543.394090	2618.627365
543.753640	2646.857827
544.113134	2599.975096
544.472571	2647.614000
544.831953	2632.994654
545.191278	2622.408231
545.550548	2610.561519
545.909761	2632.742596
546.268918	2615.602673
546.628019	2636.523462
546.987064	2628.205558
547.346053	2628.205558
547.704986	2629.213788
548.063863	2643.581077
548.422684	2678.112981
548.781449	2638.539923
549.140158	2618.627365
549.498811	2640.052269
549.857408	2622.912346
550.215949	2663.241577
550.574434	2631.986423
550.932864	2651.394865
551.291237	2642.068731
551.649555	2650.638692
552.007817	2615.098558
552.366022	2643.833135
552.724173	2638.791981
553.082267	2666.014212
553.440305	2641.312558
553.798288	2659.964827
554.156215	2655.427788
554.514086	2654.923673
554.871902	2634.002885
555.229661	2638.539923
555.587365	2623.164404
555.945014	2615.098558
556.302606	2641.564615
556.660143	2618.627365
557.017625	2622.156173
557.375050	2654.923673
557.732421	2654.167500
558.089735	2636.775519
558.446994	2646.101654
558.804197	2662.989519
559.161345	2620.895885
559.518437	2608.797115
559.875474	2629.969962
560.232455	2622.660288
560.589381	2650.386635
560.946251	2631.986423
561.303065	2631.986423
561.659825	2636.019346
562.016528	2651.142808
562.373177	2621.400000
562.729770	2647.866058
563.086307	2637.279635
563.442789	2650.638692
563.799216	2655.931904
564.155587	2648.622231
564.511904	2645.597538
564.868164	2609.301231
565.224370	2642.320788
565.580520	2634.759058
565.936615	2613.334154
566.292654	2650.890750
566.648638	2631.230250
567.004567	2612.073865
567.360441	2626.945269
567.716260	2631.230250
568.072023	2627.197327
568.427732	2628.205558
568.783385	2642.572846
569.138982	2643.329019
569.494525	2626.189096
569.850013	2638.035808
570.205445	2636.523462
570.560823	2642.824904
570.916145	2667.526558
571.271412	2624.928808
571.626625	2649.630462
571.981782	2628.205558
572.336884	2650.134577
572.691931	2621.147942
573.046923	2646.857827
573.401860	2648.370173
573.756743	2669.795077
574.111570	2639.548154
574.466342	2626.945269
574.821059	2648.370173
575.175722	2650.890750
575.530330	2635.515231
575.884882	2621.904115
576.239380	2634.759058
576.593823	2634.759058
576.948211	2634.507000
577.302544	2623.920577
577.656823	2626.945269
578.011047	2631.734365
578.365216	2634.507000
578.719330	2640.808442
579.073389	2632.994654
579.427394	2645.849596
579.781344	2642.068731
580.135239	2639.044038
580.489080	2642.320788
580.842866	2615.854731
581.196597	2651.898981
581.550273	2636.775519
581.903895	2635.263173
582.257463	2628.205558
582.610975	2611.569750
582.964434	2624.172635
583.317837	2619.383538
583.671186	2631.230250
584.024481	2634.507000
584.377721	2655.931904
584.730906	2623.416462
585.084037	2657.444250
585.437113	2643.329019
585.790135	2643.329019
586.143103	2643.581077
586.496016	2639.296096
586.848874	2640.304327
587.201679	2630.222019
587.554428	2656.940135
587.907124	2616.862962
588.259765	2634.002885
588.612352	2658.200423
588.964884	2669.038904
589.317362	2649.126346
589.669786	2631.230250
590.022155	2639.548154
590.374470	2652.655154
590.726731	2624.928808
591.078937	2622.660288
591.431090	2664.753923
591.783188	2638.287865
592.135232	2647.361942
592.487222	2635.767288
592.839157	2645.849596
593.191038	2655.175731
593.542866	2651.898981
593.894639	2668.534788
594.246358	2689.455577
594.598022	2647.109885
594.949633	2662.485404
595.301190	2647.614000
595.652692	2660.973058
596.004141	2649.378404
596.355535	2662.989519
596.706876	2653.411327
597.058162	2664.249808
597.409395	2666.518327
597.760573	2641.312558
598.111698	2667.778615
598.462768	2669.038904
598.813785	2681.641788
599.164748	2658.704538
599.515657	2687.187058
599.866511	2638.035808
600.217312	2681.641788
600.568060	2666.770385
600.918753	2699.285827
601.269392	2690.967923
601.619978	2699.537885
601.970510	2707.099615
602.320988	2691.219981
602.671412	2697.521423
603.021783	2709.620192
603.372100	2704.326981
603.722363	2715.165462
604.072572	2699.285827
604.422728	2716.677808
604.772830	2737.598596
605.122878	2708.107846
605.472872	2687.439115
605.822813	2730.793038
606.172701	2702.058462
606.522534	2730.288923
606.872314	2734.825962
607.222041	2719.702500
607.571714	2752.722058
607.921333	2730.036865
608.270899	2721.466904
608.620411	2767.845519
608.969870	2786.497788
609.319276	2767.593462
609.668627	2752.217942
610.017926	2763.812596
610.367171	2784.733385
610.716362	2792.295115
611.065500	2777.171654
611.414585	2784.229269
611.763616	2796.075981
612.112594	2804.141827
612.461518	2846.991635
612.810389	2825.314673
613.159207	2855.813654
613.507971	2850.016327
613.856682	2863.879500
614.205340	2880.515308
614.553945	2891.101731
614.902496	2888.581154
615.250994	2884.296173
615.599439	2908.493712
615.947830	2916.559558
616.296169	2908.745769
616.644454	2962.182000
616.992686	2956.888788
617.340864	2979.826038
617.688990	3000.494769
618.037063	3040.824000
618.385082	3029.985519
618.733048	3042.588404
619.080961	3080.145000
619.428821	3071.827096
619.776628	3075.355904
620.124382	3101.065788
620.472083	3112.912500
620.819731	3139.882673
621.167326	3155.258192
621.514868	3150.469096
621.862357	3143.159423
622.209793	3135.849750
622.557176	3167.356962
622.904506	3188.781865
623.251783	3150.973212
623.599007	3185.253058
623.946179	3165.088442
624.293297	3208.442365
624.640363	3191.050385
624.987376	3214.239692
625.334336	3201.636808
625.681243	3214.491750
626.028097	3249.275712
626.374899	3234.656365
626.721647	3257.593615
627.068343	3276.245885
627.414987	3270.700615
627.761577	3326.909481
628.108115	3299.687250
628.454600	3323.128615
628.801032	3360.685212
629.147412	3393.956827
629.493739	3394.460942
629.840014	3431.261365
630.186236	3438.318981
630.532405	3457.475365
630.878521	3472.346769
631.224585	3486.209942
631.570597	3512.676000
631.916556	3530.320038
632.262462	3557.794327
632.608316	3571.909558
632.954117	3612.238788
633.299866	3615.767596
633.645562	3649.039212
633.991206	3643.493942
634.336797	3675.253212
634.682336	3677.269673
635.027823	3683.823173
635.373257	3688.864327
635.718639	3695.417827
636.063968	3698.694577
636.409245	3701.215154
636.754470	3730.453846
637.099642	3722.135942
637.444762	3734.486769
637.789829	3746.081423
638.134845	3713.313923
638.479808	3753.391096
638.824719	3785.402423
639.169577	3821.950788
639.514383	3804.558808
639.859137	3809.599962
640.203839	3834.553673
640.548489	3890.510481
640.893086	3887.233731
641.237632	3887.233731
641.582125	3939.661731
641.926566	3955.289308
642.270955	3936.637038
642.615292	3993.097962
642.959576	4043.005385
643.303809	4016.287269
643.647990	4073.504365
643.992118	4081.066096
644.336195	4122.403558
644.680219	4152.146365
645.024192	4149.877846
645.368112	4243.643308
645.711981	4248.936519
646.055797	4352.784288
646.399562	4338.921115
646.743274	4424.368673
647.086935	4575.099173
647.430544	4554.178385
647.774101	4615.176346
648.117606	4709.697981
648.461059	4719.528231
648.804460	4724.317327
649.147810	4727.342019
649.491108	4729.610538
649.834354	4778.509731
650.177548	4711.462385
650.520690	4748.766923
650.863781	4753.303962
651.206820	4782.794712
651.549807	4732.383173
651.892742	4702.136250
652.235626	4725.577615
652.578458	4747.002519
652.921238	4744.986058
653.263967	4796.153769
653.606644	4796.405827
653.949269	4824.888346
654.291843	4815.814269
654.634365	4862.192885
654.976836	4912.604423
655.319255	4889.667173
655.661622	4921.678500
656.003938	4971.081808
656.346203	4977.383250
656.688416	5039.641500
657.030577	5067.367846
657.372687	5056.025250
657.714746	5094.842135
658.056753	5160.629192
658.398708	5127.861692
658.740612	5143.741327
659.082465	5193.144635
659.424266	5233.473865
659.766016	5290.943019
660.107715	5276.071615
660.449362	5366.812385
660.790958	5388.993462
661.132503	5447.974962
661.473996	5499.142673
661.815438	5474.693077
662.156829	5555.603596
662.498168	5555.855654
662.839456	5596.941058
663.180693	5625.927692
663.521879	5665.752808
663.863013	5720.701385
664.204097	5755.989462
664.545129	5842.697308
664.886110	5901.678808
665.227040	5903.443212
665.567918	6010.063615
665.908746	6040.058481
666.249522	6038.798192
666.590248	6155.500904
666.930922	6164.574981
667.271545	6220.279731
667.612118	6288.587365
667.952639	6337.486558
668.293109	6328.916596
668.633528	6373.530808
668.973896	6393.947481
669.314213	6448.139885
669.654480	6433.772596
669.994695	6483.680019
670.334859	6524.513365
670.674973	6530.562750
671.015035	6563.582308
671.355047	6611.221212
671.695008	6663.901269
672.034918	6648.273692
672.374777	6731.956846
672.714585	6712.044288
673.054342	6813.119423
673.394049	6793.710981
673.733705	6919.739827
674.073310	6958.052596
674.412864	7012.245000
674.752368	6975.444577
675.091820	7019.302615
675.431223	7049.549538
675.770574	7083.577327
676.109875	7096.684327
676.449125	7073.747077
676.788324	7108.783096
677.127473	7045.264558
677.466571	7096.936385
677.805619	7039.719288
678.144616	7075.259423
678.483562	7135.501212
678.822458	7122.142154
679.161303	7141.550596
679.500098	7124.158615
679.838842	7165.244019
680.177535	7216.159673
680.516179	7259.765654
680.854771	7309.421019
681.193314	7457.883000
681.531805	7709.184519
681.870247	7852.857404
682.208638	8159.359558
682.546978	8319.668250
682.885268	8446.453269
683.223508	8379.153865
683.561697	8365.038635
683.899836	8441.412115
684.237925	8348.150769
684.575963	8406.124038
684.913951	8330.506731
685.251889	8415.702231
685.589776	8462.332904
685.927614	8481.489288
686.265401	8603.485212
686.603137	8646.839135
686.940824	8814.709558
687.278460	8946.787788
687.616046	9020.640692
687.953582	9185.990538
688.291068	9326.134615
688.628504	9504.843519
688.965889	9587.014327
689.303224	9585.249923
689.640510	9561.808558
689.977745	9497.029731
690.314930	9397.971058
690.652065	9324.622269
690.989150	9178.428808
691.326185	8993.418462
691.663170	8937.713712
692.000105	8808.660173
692.336990	8559.879231
692.673825	8553.325731
693.010610	8482.497519
693.347345	8406.376096
693.684030	8266.736135
694.020665	8206.998462
694.357251	8091.051923
694.693786	8160.619846
695.030272	8109.452135
695.366707	8008.124942
695.703093	7978.886250
696.039429	7985.439750
696.375716	7993.001481
696.711952	7980.146538
697.048139	7969.056000
697.384276	7997.034404
697.720363	8080.717558
698.056400	8073.155827
698.392388	8061.309115
698.728326	8102.394519
699.064214	8119.534442
699.400053	8091.808096
699.735842	8039.632154
700.071581	8075.172288
700.407270	8018.963423
700.742910	7980.398596
701.078501	7969.812173
701.414042	7923.937673
701.749533	7864.452058
702.084974	7817.065212
702.420366	7929.987058
702.755709	7829.668096
703.091002	7779.760673
703.426246	7825.383115
703.761440	7836.473654
704.096584	7720.275058
704.431679	7780.264788
704.766725	7740.691731
705.101721	7795.892365
705.436668	7837.733942
705.771565	7808.495250
706.106413	7905.033346
706.441212	7894.446923
706.775961	7966.787481
707.110661	8041.900673
707.445311	8156.586923
707.779913	8203.217596
708.114465	8307.569481
708.448967	8396.041731
708.783421	8685.656019
709.117825	8731.782577
709.452180	8878.984269
709.786485	9007.029577
710.120742	9252.029654
710.454949	9367.976192
710.789107	9532.065750
711.123216	9863.269558
711.457275	9948.213000
711.791286	10212.117404
712.125247	10326.299538
712.459159	10239.591692
712.793023	10621.711154
713.126837	10347.724442
713.460602	10522.652481
713.794318	10472.240942
714.127985	10364.612308
714.461602	10106.757288
714.795171	10121.628692
715.128691	9836.803500
715.462162	9763.706769
715.795584	9587.266385
716.128957	9547.945385
716.462281	9476.108942
716.795556	9376.546154
717.128782	9242.199404
717.461960	9099.786808
717.795088	9066.011077
718.128167	8938.217827
718.461198	8776.396788
718.794180	8776.144731
719.127113	8685.403962
719.459997	8650.872058
719.792833	8542.235192
720.125619	8584.832942
720.458357	8523.834981
720.791046	8407.384327
721.123686	8379.153865
721.456278	8393.773212
721.788821	8297.739231
722.121315	8288.917212
722.453761	8289.673385
722.786158	8316.139442
723.118506	8353.696038
723.450805	8284.632231
723.783056	8375.625058
724.115259	8423.768077
724.447412	8364.030404
724.779518	8496.108635
725.111574	8549.292808
725.443582	8650.115885
725.775542	8651.880288
726.107453	8907.214731
726.439315	8799.586096
726.771129	9002.996654
727.102895	9205.651038
727.434612	9322.353750
727.766281	9485.939192
728.097901	9627.343558
728.429473	9687.081231
728.760996	9725.394000
729.092471	9829.493827
729.423897	9800.507192
729.755276	9773.032904
730.086606	9820.419750
730.417887	10031.139981
730.749120	10323.778962
731.080305	10433.676115
731.411442	10700.857269
731.742530	10756.057904
732.073570	10891.412885
732.404562	11078.439692
732.735506	11111.963365
733.066401	11179.262769
733.397249	11028.028154
733.728048	10835.708135
734.058798	10429.391135
734.389501	10194.221308
734.720156	10000.641000
735.050762	9663.387808
735.381320	9532.065750
735.711831	9445.357904
736.042293	9169.858846
736.372707	9261.103731
736.703073	9098.778577
737.033391	9238.670596
737.363661	9190.023462
737.693883	9249.761135
738.024056	9342.518365
738.354182	9474.596596
738.684260	9552.230365
739.014290	9646.499942
739.344272	9803.027769
739.674207	9953.254154
740.004093	10070.208923
740.333931	10102.976423
740.663722	10300.589654
740.993464	10341.927115
741.323159	10235.306712
741.652806	10214.890038
741.982405	10153.640019
742.311956	10032.652327
742.641460	10023.578250
742.970915	9893.516481
743.300323	9814.622423
743.629683	9647.508173
743.958996	9579.452596
744.288260	9484.174788
744.617477	9328.655192
744.946647	9334.452519
745.275768	9216.741577
745.604842	9090.964788
745.933869	9043.325885
746.262847	9056.937000
746.591778	8995.686981
746.920662	8940.738404
747.249498	8920.573788
747.578286	9009.046038
747.907027	9039.292962
748.235720	9173.387654
748.564365	9299.164442
748.892963	9266.649000
749.221514	9260.347558
749.550017	9270.177808
749.878473	9336.468981
750.206881	9204.138692
750.535242	9207.415442
750.863555	9219.262154
751.191821	9083.151000
751.520039	9115.666442
751.848210	9043.577942
752.176334	9122.472000
752.504411	9076.345442
752.832440	9049.627327
753.160421	9098.022404
753.488356	9070.044000
753.816243	9028.706538
754.144082	8974.010019
754.471875	8945.275442
754.799620	8871.674596
755.127318	8871.170481
755.454969	8835.378288
755.782572	8856.551135
756.110129	8894.611846
756.437638	8870.666365
756.765100	8903.937981
757.092515	8860.584058
757.419882	8891.839212
757.747203	8826.304212
758.074477	8980.563519
758.401703	8886.546000
758.728882	9065.002846
759.056014	9018.372173
759.383099	9110.373231
759.710138	9223.799192
760.037129	9350.332154
760.364073	9358.650058
760.690970	9396.458712
761.017820	9381.839365
761.344623	9463.254000
761.671379	9689.853865
761.998088	9909.648173
762.324751	10515.846923
762.651366	11830.579846
762.977935	13939.294500
763.304456	16150.596635
763.630931	17565.396462
763.957359	17852.742231
764.283740	16958.693596
764.610074	16005.663462
764.936362	14545.241192
765.262602	13333.851923
765.588796	12111.120058
765.914943	11280.842019
766.241044	10475.517692
766.567097	9900.322038
766.893104	9420.404192
767.219064	9020.892750
767.544978	8732.538750
767.870845	8492.579827
768.196665	8352.435750
768.522438	8171.458327
768.848165	8031.062192
769.173846	7932.255577
769.499479	7809.251423
769.825066	7650.707135
770.150607	7581.643327
770.476101	7527.702981
770.801548	7477.543500
771.126949	7396.380923
771.452303	7324.292423
771.777611	7192.214192
772.102872	7207.841769
772.428087	7156.169942
772.753256	7041.231635
773.078378	7025.604058
773.403453	6887.224385
773.728482	6819.924981
774.053465	6753.381750
774.378401	6673.227404
774.703291	6656.087481
775.028135	6576.437250
775.352932	6547.450615
775.677683	6512.666654
776.002388	6386.889865
776.327046	6440.830212
776.651658	6351.097673
776.976224	6295.644981
777.300743	6324.379558
777.625216	6238.679942
777.949643	6193.309558
778.274024	6229.605865
778.598359	6193.813673
778.922647	6160.794115
779.246889	6131.555423
779.571086	6134.328058
779.895236	6074.842442
780.219339	6149.451519
780.543397	6160.037942
780.867409	6181.462846
781.191374	6203.139808
781.515294	6220.027673
781.839167	6297.913500
782.162995	6255.567808
782.486776	6235.151135
782.810511	6163.566750
783.134201	6126.514269
783.457844	6202.887750
783.781441	6131.303365
784.104993	6143.654192
784.428498	6071.061577
784.751958	6097.275577
785.075372	6085.176808
785.398739	6057.954577
785.722061	6056.442231
786.045337	6048.628442
786.368568	6148.443288
786.691752	6101.308500
787.014891	6341.015365
787.337983	6405.542135
787.661030	6716.329269
787.984031	7033.165788
788.306987	7412.260558
788.629897	7632.306923
788.952760	7762.368692
789.275579	7728.088846
789.598351	7600.043538
789.921078	7328.577404
790.243759	7151.884962
790.566395	6970.403423
790.888984	6774.302538
791.211529	6637.687269
791.534027	6408.062712
791.856480	6303.206712
792.178888	6261.113077
792.501249	6141.637731
792.823566	6087.697385
793.145836	6040.562596
793.468062	5988.134596
793.790241	5939.991577
794.112375	5935.958654
794.434464	6082.152115
794.756507	6037.285846
795.078505	6062.995731
795.400457	6218.767385
795.722364	6446.627538
796.044226	6616.262365
796.366042	6783.628673
796.687812	6845.382808
797.009538	6888.484673
797.331218	6897.810808
797.652852	6894.282000
797.974442	6809.842673
798.295986	6743.551500
798.617484	6664.153327
798.938938	6535.099788
799.260346	6520.732500
799.581709	6388.906327
799.903026	6336.478327
800.224299	6248.762250
800.545526	6151.467981
800.866708	6051.401077
801.187845	6044.091404
801.508936	5950.325942
801.829983	5900.670577
802.150984	5778.674654
802.471940	5749.435962
802.792851	5747.923615
803.113717	5743.134519
803.434538	5647.856712
803.755314	5682.892731
804.076045	5622.903000
804.396731	5591.899904
804.717372	5566.946192
805.037967	5567.954423
805.358518	5560.392692
805.679024	5643.319673
805.999485	5612.820692
806.319901	5647.100538
806.640272	5623.911231
806.960598	5763.047077
807.280879	5698.772365
807.601115	5742.378346
807.921306	5721.457558
808.241453	5721.205500
808.561554	5756.493577
808.881611	5752.460654
809.201623	5733.052212
809.521590	5740.613942
809.841513	5740.361885
810.161390	5759.266212
810.481223	5683.144788
810.801011	5677.347462
811.120755	5700.788827
811.440453	5630.464731
811.760107	5569.466769
812.079716	5627.944154
812.399281	5519.307288
812.718801	5545.521288
813.038276	5528.129308
813.357707	5482.254808
813.677093	5528.381365
813.996434	5450.999654
814.315731	5460.325788
814.634983	5495.361808
814.954191	5483.515096
815.273354	5532.414288
815.592473	5569.970885
815.911547	5640.294981
816.230577	5720.953442
816.549562	5837.404096
816.868502	5884.034769
817.187399	6027.203538
817.506250	6085.176808
817.825058	6180.454615
818.143821	6328.664538
818.462539	6514.431058
818.781213	6713.304577
819.099843	6993.340673
819.418429	7541.818212
819.736970	8196.159981
820.055466	8879.488385
820.373919	9825.460904
820.692327	11028.028154
821.010691	12790.919654
821.329011	16327.037019
821.647286	22403.643865
821.965517	30680.210250
822.283704	37866.123000
822.601847	43646.310000
822.919945	43831.320346
823.237999	41910.640731
823.556010	38185.984212
823.873976	33854.624827
824.191897	29371.526712
824.509775	25667.286865
824.827609	22026.313500
825.145398	19702.845692
825.463144	18040.021096
825.780845	17467.093962
826.098502	17571.193788
826.416116	19025.314615
826.733685	21510.351404
827.051210	23493.037212
827.368692	23871.375808
827.686129	22361.298173
828.003522	19955.911615
828.320872	17187.814038
828.638177	14809.145596
828.955439	13048.774673
829.272656	11577.261865
829.589830	10270.594788
829.906960	9274.966904
830.224046	8482.245462
830.541088	7796.900596
830.858086	7407.219404
831.175041	7020.058788
831.491952	6860.002154
831.808819	6768.001096
832.125642	6871.848865
832.442421	7233.047538
832.759157	7959.477808
833.075849	9421.160365
833.392497	11393.763865
833.709101	13335.616327
834.025662	14279.572385
834.342179	14106.156692
834.658653	12897.792115
834.975083	11505.173365
835.291469	10255.723385
835.607811	9185.990538
835.924110	8381.170327
836.240366	7755.059019
836.556578	7012.245000
836.872746	6514.179000
837.188871	6088.957673
837.504952	5752.460654
837.820990	5439.909115
838.136984	5248.093212
838.452935	5112.990288
838.768842	5030.063308
839.084706	5116.771154
839.400526	5490.824769
839.716303	6373.278750
840.032037	7395.372692
840.347727	7989.976788
840.663373	7836.221596
840.978977	7171.797519
841.294537	6418.145019
841.610054	5946.293019
841.925527	5537.455442
842.240957	5222.131269
842.556344	4984.692923
842.871687	4730.114654
843.186987	4522.167058
843.502244	4305.145385
843.817458	4188.946788
844.132629	4052.079462
844.447756	3998.643231
844.762840	3902.357192
845.077881	3826.235769
845.392879	3790.695635
845.707833	3723.900346
846.022745	3699.954865
846.337613	3677.269673
846.652438	3648.030981
846.967221	3659.877692
847.281960	3590.057712
847.596656	3578.211000
847.911309	3564.851942
848.225919	3537.377654
848.540485	3535.361192
848.855009	3509.651308
849.169490	3509.399250
849.483928	3450.921865
849.798323	3472.094712
850.112675	3467.557673
850.426984	3460.248000
850.741251	3444.872481
851.055474	3425.211981
851.369654	3432.521654
851.683792	3445.376596
851.997887	3411.348808
852.311938	3435.294288
852.625947	3434.034000
852.939914	3421.683173
853.253837	3419.414654
853.567718	3444.872481
853.881555	3427.732558
854.195350	3441.595731
854.509103	3453.442442
854.822812	3405.047365
855.136479	3446.384827
855.450103	3412.357038
855.763685	3405.047365
856.077224	3378.329250
856.390720	3410.592635
856.704173	3481.672904
857.017584	3450.669808
857.330953	3471.086481
857.644278	3437.562808
857.957561	3487.470231
858.270802	3457.727423
858.584000	3480.412615
858.897155	3465.037096
859.210268	3468.061788
859.523339	3426.724327
859.836367	3436.806635
860.149352	3448.401288
860.462295	3431.261365
860.775195	3435.546346
861.088054	3418.406423
861.400869	3434.538115
861.713642	3409.836462
862.026373	3407.063827
862.339062	3447.897173
862.651708	3440.587500
862.964312	3451.173923
863.276873	3442.351904
863.589392	3495.536077
863.901869	3505.870442
864.214303	3549.476423
864.526696	3553.761404
864.839045	3564.599885
865.151353	3632.403404
865.463619	3628.622538
865.775842	3634.923981
866.088023	3637.444558
866.400162	3653.576250
866.712258	3667.439423
867.024313	3687.604038
867.336325	3670.464115
867.648296	3671.724404
867.960224	3700.458981
868.272110	3682.310827
868.583954	3642.737769
868.895755	3663.658558
869.207515	3692.897250
869.519233	3722.388000
869.830909	3729.193558
870.142542	3738.015577
870.454134	3709.785115
870.765684	3773.555712
871.077191	3758.432250
871.388657	3805.819096
871.700081	3776.580404
872.011463	3816.405519
872.322803	3868.329404
872.634101	3880.428173
872.945357	3916.976538
873.256571	3945.963173
873.567744	3984.275942
873.878874	3998.391173
874.189963	4017.043442
874.501010	4033.679250
874.812015	4026.117519
875.122979	4019.059904
875.433900	4065.942635
875.744780	4071.235846
876.055618	4102.995115
876.366415	4083.838731
876.677169	4119.126808
876.987882	4166.765712
877.298554	4169.538346
877.609183	4247.172115
877.919771	4267.084673
878.230317	4347.239019
878.540822	4479.065192
878.851285	4666.092000
879.161707	4873.283423
879.472087	5278.088077
879.782425	5826.817673
880.092722	6841.349885
880.402977	8380.918269
880.713191	10389.566019
881.023363	12699.170654
881.333494	14643.039577
881.643583	16029.356885
881.953631	16592.957885
882.263637	16492.134808
882.573602	15998.857904
882.883526	15233.610750
883.193408	14289.402635
883.503248	13264.284000
883.813048	12155.482212
884.122806	11307.308077
884.432522	10268.830385
884.742197	9357.389769
885.051831	8556.602481
885.361424	7801.185577
885.670975	7185.912750
885.980485	6636.426981
886.289954	6183.479308
886.599382	5817.743596
886.908768	5561.905038
887.218113	5261.956385
887.527417	5049.723808
887.836680	4836.483000
888.145901	4665.587885
888.455082	4537.794635
888.764221	4436.215385
889.073319	4296.575423
889.382376	4237.341865
889.691392	4142.064058
890.000366	4140.047596
890.309300	4135.006442
890.618193	4134.754385
890.927044	4100.222481
891.235855	4098.962192
891.544625	4109.800673
891.853353	4124.420019
892.162041	4207.347000
892.470687	4308.422135
892.779293	4357.069269
893.087858	4581.400615
893.396381	4862.192885
893.704864	5274.811327
894.013306	5842.193192
894.321707	6567.867288
894.630068	7257.245077
894.938387	7708.428346
895.246665	7829.163981
895.554903	7613.150538
895.863100	7193.222423
896.171256	6818.664692
896.479371	6454.441327
896.787446	6091.982365
897.095480	5770.104692
897.403473	5554.091250
897.711425	5248.849385
898.019336	5093.833904
898.327207	4882.609558
898.635038	4745.742231
898.942827	4551.657808
899.250576	4447.305923
899.558284	4261.035288
899.865952	4188.190615
900.173579	4075.520827
900.481165	4000.911750
900.788711	3934.116462
901.096216	3880.932288
901.403681	3819.430212
901.711105	3795.484731
902.018489	3799.013538
902.325832	3783.890077
902.633135	3792.964154
902.940397	3919.245058
903.247619	4179.368596
903.554800	4763.638327
903.861941	5782.203462
904.169041	6908.397231
904.476101	7889.153712
904.783121	8180.028288
905.090100	7909.570385
905.397039	7370.166923
905.703938	6881.931173
906.010796	6359.163519
906.317614	5986.622250
906.624391	5600.217808
906.931129	5276.323673
907.237826	4950.413077
907.544483	4707.429462
907.851099	4481.585769
908.157675	4201.801731
908.464211	3946.215231
908.770707	3792.207981
909.077163	3618.288173
909.383578	3520.237731
909.689954	3397.485635
909.996289	3357.660519
910.302584	3309.769558
910.608839	3266.919750
910.915054	3238.185173
911.221229	3220.793192
911.527363	3227.094635
911.833458	3236.924885
912.139513	3250.283942
912.445527	3250.031885
912.751502	3319.851865
913.057436	3356.652288
913.363331	3425.211981
913.669186	3509.147192
913.975000	3625.345788
914.280775	3836.822192
914.586510	4119.882981
914.892205	4558.211308
915.197859	5079.970731
915.503475	5774.389673
915.809050	6471.581250
916.114585	7112.563962
916.420081	7513.335692
916.725536	7672.132038
917.030952	7477.291442
917.336328	7310.681308
917.641665	7077.780000
917.946961	6794.719212
918.252218	6472.337423
918.557435	6118.196365
918.862612	5855.552250
919.167750	5545.017173
919.472848	5307.074712
919.777906	5028.550962
920.082925	4793.885250
920.387904	4545.860481
920.692843	4360.093962
920.997743	4149.121673
921.302603	4004.440558
921.607423	3915.716250
921.912204	3771.287192
922.216946	3690.628731
922.521647	3599.635904
922.826310	3511.667769
923.130932	3481.672904
923.435516	3382.866288
923.740059	3365.222250
924.044564	3311.533962
924.349028	3218.272615
924.653454	3224.826115
924.957840	3158.282885
925.262186	3141.395019
925.566493	3109.383692
925.870761	3054.183058
926.174989	3038.303423
926.479178	3004.275635
926.783328	2990.412462
927.087438	2930.926846
927.391509	2924.877462
927.695541	2902.192269
927.999533	2884.548231
928.303486	2842.958712
928.607400	2841.950481
928.911275	2849.512212
929.215110	2845.227231
929.518906	2840.186077
929.822663	2824.810558
930.126381	2818.509115
930.430060	2822.289981
930.733699	2822.289981
931.037299	2852.032788
931.340861	2814.224135
931.644383	2861.863038
931.947866	2826.322904
932.251309	2811.451500
932.554714	2843.462827
932.858080	2811.199442
933.161407	2799.100673
933.464694	2821.281750
933.767943	2801.873308
934.071153	2805.654173
934.374323	2816.996769
934.677455	2789.774538
934.980548	2801.117135
935.283602	2787.506019
935.586617	2796.075981
935.889593	2808.678865
936.192530	2774.399019
936.495428	2787.253962
936.798287	2787.758077
937.101108	2822.794096
937.403890	2856.317769
937.706632	2850.016327
938.009336	2895.134654
938.312002	2952.855865
938.614628	3001.503000
938.917216	3033.514327
939.219765	3063.761250
939.522275	3086.698500
939.824747	3133.329173
940.127179	3133.581231
940.429573	3109.635750
940.731929	3105.854885
941.034246	3090.983481
941.336524	3077.120308
941.638763	3075.103846
941.940964	3081.909404
942.243126	3056.703635
942.545250	3013.601769
942.847335	3028.221115
943.149381	3000.242712
943.451389	3001.755058
943.753359	2954.620269
944.055290	2968.231385
944.357182	2913.030750
944.659036	2892.362019
944.960851	2908.493712
945.262628	2897.403173
945.564367	2886.816750
945.866067	2905.216962
946.167729	2881.019423
946.469352	2858.334231
946.770937	2885.304404
947.072484	2863.627442
947.373992	2871.189173
947.675462	2874.717981
947.976893	2839.934019
948.278286	2876.986500
948.579641	2857.830115
948.880958	2850.016327
949.182236	2848.251923
949.483476	2834.388750
949.784678	2830.103769
950.085841	2823.802327
950.386967	2823.550269
950.688054	2848.503981
950.989103	2834.640808
951.290114	2862.115096
951.591087	2862.115096
951.892021	2917.819846
952.192917	2939.496808
952.493776	2920.088365
952.794596	2926.641865
953.095378	2937.228288
953.396122	2962.938173
953.696828	2949.831173
953.997496	2941.765327
954.298126	2945.546192
954.598718	2936.976231
954.899272	2928.658327
955.199788	2899.923750
955.500266	2860.854808
955.800706	2862.367154
956.101108	2822.289981
956.401472	2825.818788
956.701798	2796.075981
957.002087	2764.316712
957.302337	2775.911365
957.602550	2739.110942
957.902724	2704.831096
958.202861	2693.488500
958.502960	2702.058462
958.803022	2663.997750
959.103045	2644.085192
959.403031	2675.088288
959.702979	2608.545058
960.002889	2620.895885
960.302762	2616.358846
960.602596	2586.111923
960.902393	2586.868096
961.202153	2590.901019
961.501875	2569.476115
961.801559	2579.306365
962.101205	2572.500808
962.400814	2562.670558
962.700385	2594.681885
962.999918	2568.719942
963.299414	2569.728173
963.598873	2547.295038
963.898293	2554.352654
964.197677	2570.484346
964.497022	2544.774462
964.796331	2544.018288
965.095601	2543.514173
965.394835	2565.443192
965.694030	2546.790923
965.993189	2535.448327
966.292309	2564.434962
966.591393	2555.360885
966.890439	2558.637635
967.189447	2552.084135
967.488419	2551.075904
967.787353	2550.571788
968.086249	2541.245654
968.385108	2577.541962
968.683930	2542.001827
968.982714	2572.752865
969.281462	2542.505942
969.580172	2558.133519
969.878844	2590.144846
970.177480	2566.955538
970.476078	2548.555327
970.774639	2568.719942
971.073162	2595.186000
971.371649	2591.909250
971.670098	2613.586212
971.968510	2602.243615
972.266885	2611.569750
972.565223	2616.358846
972.863524	2604.260077
973.161788	2587.120154
973.460014	2595.690115
973.758204	2608.040942
974.056356	2603.503904
974.354471	2621.400000
974.652550	2639.296096
974.950591	2622.660288
975.248595	2641.060500
975.546563	2609.049173
975.844493	2603.503904
976.142386	2605.772423
976.440243	2604.008019
976.738062	2587.372212
977.035845	2604.764192
977.333590	2599.975096
977.631299	2558.385577
977.928971	2564.939077
978.226606	2568.467885
978.524204	2585.103692
978.821765	2561.410269
979.119290	2531.919519
979.416777	2558.889692
979.714228	2561.158212
980.011642	2576.029615
980.309020	2580.818712
980.606360	2557.629404
980.903664	2589.136615
981.200931	2581.574885
981.498162	2626.945269
981.795356	2671.307423
982.092513	2718.190154
982.389633	2783.221038
982.686717	2806.914462
982.983764	2917.819846
983.280775	2960.669654
983.577749	2987.387769
983.874686	2967.727269
984.171587	2966.466981
984.468451	2931.935077
984.765279	2917.567788
985.062070	2869.928885
985.358824	2834.640808
985.655543	2826.322904
985.952224	2773.642846
986.248869	2776.415481
986.545478	2720.458673
986.842050	2696.765250
987.138586	2623.920577
987.435086	2610.309462
987.731549	2586.868096
988.027975	2591.405135
988.324366	2573.509038
988.620719	2559.897923
988.917037	2540.237423
989.213318	2525.618077
989.509563	2514.527538
989.805772	2526.122192
990.101944	2514.527538
990.398080	2539.229192
990.694180	2506.713750
990.990244	2473.190077
991.286271	2495.119096
991.582262	2524.357788
991.878217	2541.245654
992.174136	2530.155115
992.470019	2547.799154
992.765865	2509.738442
993.061676	2537.212731
993.357450	2526.374250
993.653188	2556.621173
993.948890	2528.390712
994.244556	2551.327962
994.540186	2560.149981
994.835780	2583.591346
995.131337	2615.602673
995.426859	2613.586212
995.722345	2667.274500
996.017795	2687.943231
996.313208	2719.198385
996.608586	2730.288923
996.903928	2756.502923
997.199234	2739.615058
997.494504	2737.850654
997.789738	2762.804365
998.084936	2760.031731
998.380099	2734.825962
998.675225	2701.806404
998.970316	2688.699404
999.265371	2666.518327
999.560390	2647.109885
999.855373	2601.487442
1000.150320	2613.334154
1000.445232	2596.950404
1000.740108	2573.256981
1001.034948	2568.972000
1001.329752	2593.421596
1001.624521	2542.001827
1001.919254	2528.642769
1002.213951	2519.064577
1002.508613	2524.861904
1002.803239	2513.267250
1003.097829	2533.179808
1003.392384	2487.305308
1003.686903	2503.689058
1003.981386	2505.957577
1004.275834	2498.647904
1004.570246	2501.168481
1004.864623	2483.272385
1005.158964	2503.941115
1005.453270	2499.656135
1005.747540	2496.631442
1006.041775	2490.582058
1006.335974	2505.957577
1006.630138	2486.549135
1006.924266	2498.143788
1007.218359	2493.354692
1007.512416	2484.280615
1007.806438	2489.321769
1008.100425	2485.288846
1008.394376	2473.190077
1008.688292	2479.491519
1008.982172	2479.239462
1009.276017	2495.119096
1009.569827	2497.387615
1009.863602	2488.061481
1010.157341	2490.330000
1010.451045	2507.469923
1010.744714	2486.045019
1011.038347	2516.039885
1011.331945	2473.190077
1011.625508	2521.837212
1011.919036	2494.362923
1012.212528	2476.970942
1012.505986	2490.077942
1012.799408	2479.491519
1013.092795	2496.883500
1013.386147	2472.181846
1013.679464	2516.039885
1013.972745	2494.614981
1014.265992	2490.077942
1014.559204	2478.735346
1014.852380	2469.157154
1015.145521	2492.094404
1015.438628	2481.760038
1015.731699	2472.938019
1016.024736	2495.119096
1016.317737	2478.483288
1016.610703	2498.143788
1016.903635	2497.387615
1017.196531	2485.288846
1017.489393	2469.661269
1017.782219	2493.354692
1018.075011	2483.776500
1018.367768	2502.428769
1018.660490	2485.540904
1018.953177	2485.540904
1019.245829	2485.540904
