Dividing Wavelength (nm)	Counts (n)	Slit_number_26_of_a_total_of_40	
326.493990	2034.609692
326.888308	2034.609692
327.282561	2034.609692
327.676750	2000.329846
328.070874	2018.478000
328.464933	2006.631288
328.858929	2035.617923
329.252859	2035.617923
329.646726	2061.075750
330.040528	2070.401885
330.434265	2091.070615
330.827938	2111.991404
331.221547	2118.544904
331.615091	2147.279481
332.008571	2190.633404
332.401986	2199.203365
332.795338	2216.847404
333.188625	2222.896788
333.581847	2246.842269
333.975006	2259.445154
334.368100	2284.398865
334.761129	2273.560385
335.154095	2318.426654
335.546996	2357.243538
335.939833	2348.673577
336.332606	2342.120077
336.725315	2379.424615
337.117960	2379.424615
337.510540	2415.720923
337.903056	2389.002808
338.295508	2385.474000
338.687896	2444.455500
339.080220	2423.282654
339.472480	2423.786769
339.864676	2417.989442
340.256807	2443.699327
340.648875	2438.406115
341.040879	2431.348500
341.432818	2430.340269
341.824694	2450.504885
342.216506	2464.872173
342.608253	2438.154058
342.999937	2425.299115
343.391557	2436.893769
343.783113	2442.439038
344.174605	2429.079981
344.566033	2443.951385
344.957397	2442.943154
345.348697	2418.241500
345.739934	2405.134500
346.131106	2430.340269
346.522215	2420.257962
346.913260	2408.159192
347.304241	2434.877308
347.695159	2430.340269
348.086012	2438.406115
348.476802	2422.526481
348.867528	2425.047058
349.258191	2417.737385
349.648789	2393.287788
350.039324	2398.328942
350.429796	2391.019269
350.820203	2428.071750
351.210548	2405.890673
351.600828	2388.498692
351.991045	2408.411250
352.381198	2390.767212
352.771288	2400.849519
353.161314	2400.093346
353.551276	2375.895808
353.941175	2386.734288
354.331010	2407.655077
354.720782	2399.589231
355.110490	2413.704462
355.500135	2401.101577
355.889717	2403.622154
356.279235	2413.200346
356.668689	2424.290885
357.058080	2382.197250
357.447408	2423.030596
357.836672	2388.498692
358.225873	2420.762077
358.615010	2384.465769
359.004084	2422.778538
359.393095	2419.753846
359.782043	2396.060423
360.170927	2416.729154
360.559748	2442.439038
360.948505	2432.860846
361.337199	2427.567635
361.725830	2415.972981
362.114398	2420.005904
362.502903	2419.249731
362.891344	2432.860846
363.279722	2433.869077
363.668037	2430.088212
364.056289	2393.539846
364.444478	2408.159192
364.832603	2421.266192
365.220665	2409.167423
365.608665	2396.312481
365.996601	2424.542942
366.384474	2423.282654
366.772284	2416.477096
367.160031	2428.071750
367.547715	2401.101577
367.935336	2417.233269
368.322893	2417.737385
368.710388	2421.770308
369.097820	2425.299115
369.485189	2412.192115
369.872495	2426.559404
370.259738	2411.940058
370.646918	2418.997673
371.034035	2433.112904
371.421090	2436.641712
371.808081	2393.791904
372.195010	2432.608788
372.581875	2429.836154
372.968678	2430.340269
373.355418	2443.195212
373.742096	2409.671538
374.128710	2410.427712
374.515262	2400.345404
374.901751	2424.290885
375.288177	2439.918462
375.674540	2429.332038
376.060841	2402.613923
376.447079	2440.674635
376.833254	2416.477096
377.219367	2406.646846
377.605417	2433.364962
377.991404	2431.348500
378.377329	2417.485327
378.763191	2430.088212
379.148991	2419.501788
379.534727	2441.430808
379.920402	2447.480192
380.306013	2432.356731
380.691563	2429.836154
381.077049	2423.534712
381.462474	2437.145827
381.847835	2458.066615
382.233134	2456.050154
382.618371	2451.261058
383.003545	2474.702423
383.388657	2505.957577
383.773706	2502.680827
384.158693	2470.417442
384.543618	2500.412308
384.928480	2511.250788
385.313280	2519.316635
385.698017	2544.774462
386.082692	2542.505942
386.467305	2558.637635
386.851856	2573.761096
387.236344	2604.008019
387.620770	2616.610904
388.005133	2636.775519
388.389435	2674.080058
388.773674	2683.658250
389.157851	2691.976154
389.541965	2734.069788
389.926018	2731.549212
390.310008	2768.601692
390.693936	2780.448404
391.077802	2844.723115
391.461606	2876.986500
391.845348	2855.309538
392.229027	2900.679923
392.612645	2934.203596
392.996200	2942.017385
393.379694	3000.494769
393.763125	3035.782846
394.146494	3053.931000
394.529801	3083.673808
394.913047	3110.391923
395.296230	3130.304481
395.679351	3144.671769
396.062410	3193.570962
396.445408	3197.099769
396.828343	3208.190308
397.211217	3248.519538
397.594028	3267.927981
397.976778	3273.221192
398.359466	3281.287038
398.742092	3281.791154
399.124656	3311.533962
399.507158	3326.909481
399.889598	3321.112154
400.271977	3377.321019
400.654294	3379.589538
401.036549	3393.452712
401.418742	3387.655385
401.800874	3404.291192
402.182944	3416.642019
402.564952	3459.239769
402.946898	3433.529885
403.328783	3419.414654
403.710606	3400.510327
404.092367	3441.595731
404.474067	3443.108077
404.855705	3439.831327
405.237282	3366.986654
405.618797	3439.579269
406.000250	3413.617327
406.381642	3434.538115
406.762972	3394.713000
407.144240	3344.049404
407.525447	3342.789115
407.906593	3295.150212
408.287677	3294.898154
408.668700	3286.580250
409.049661	3234.656365
409.430560	3195.839481
409.811399	3145.932058
410.192176	3164.332269
410.572891	3112.912500
410.953545	3118.457769
411.334138	3022.675846
411.714669	3050.150135
412.095139	2966.466981
412.475547	2977.305462
412.855894	2896.647000
413.236180	2881.523538
413.616405	2845.227231
413.996568	2839.177846
414.376670	2818.005000
414.756711	2752.470000
415.136691	2758.015269
415.516609	2762.048192
415.896466	2707.603731
416.276262	2701.302288
416.655997	2695.757019
417.035670	2652.403096
417.415283	2657.192192
417.794834	2638.791981
418.174324	2624.928808
418.553753	2609.553288
418.933121	2597.958635
419.312428	2584.851635
419.691674	2568.972000
420.070859	2549.059442
420.449983	2546.538865
420.829045	2538.725077
421.208047	2536.456558
421.586988	2529.398942
421.965867	2523.601615
422.344686	2518.560462
422.723444	2503.941115
423.102141	2492.346462
423.480777	2504.949346
423.859352	2499.908192
424.237866	2488.817654
424.616319	2475.962712
424.994712	2466.888635
425.373044	2484.028558
425.751314	2473.946250
426.129524	2480.247692
426.507673	2464.368058
426.885762	2483.524442
427.263789	2481.760038
427.641756	2467.392750
428.019662	2481.507981
428.397508	2476.214769
428.775292	2469.661269
429.153016	2470.669500
429.530679	2474.702423
429.908282	2452.017231
430.285824	2468.148923
430.663305	2430.088212
431.040726	2462.351596
431.418086	2472.181846
431.795385	2475.710654
432.172624	2488.817654
432.549802	2465.628346
432.926920	2449.244596
433.303977	2443.195212
433.680974	2454.285750
434.057910	2447.480192
434.434786	2471.929788
434.811601	2482.264154
435.188355	2479.743577
435.565050	2446.471962
435.941683	2480.247692
436.318257	2457.058385
436.694770	2447.480192
437.071222	2477.475058
437.447614	2450.756942
437.823946	2442.943154
438.200218	2458.570731
438.576429	2477.727115
438.952580	2465.880404
439.328670	2466.888635
439.704700	2451.009000
440.080670	2452.773404
440.456580	2458.822788
440.832429	2472.685962
441.208218	2446.219904
441.583947	2457.814558
441.959616	2468.400981
442.335224	2456.302212
442.710773	2473.694192
443.086261	2454.285750
443.461689	2456.050154
443.837057	2447.732250
444.212365	2458.570731
444.587612	2456.554269
444.962800	2471.173615
445.337927	2483.524442
445.712995	2476.466827
446.088002	2468.148923
446.462949	2474.954481
446.837837	2472.433904
447.212664	2494.614981
447.587431	2469.913327
447.962139	2486.297077
448.336786	2467.644808
448.711374	2447.480192
449.085901	2473.190077
449.460369	2456.050154
449.834776	2473.190077
450.209124	2499.656135
450.583412	2457.058385
450.957640	2456.302212
451.331808	2446.976077
451.705917	2457.310442
452.079965	2475.962712
452.453954	2447.228135
452.827883	2471.173615
453.201752	2465.376288
453.575562	2475.458596
453.949311	2448.236365
454.323001	2468.653038
454.696632	2456.554269
455.070202	2470.165385
455.443713	2456.806327
455.817164	2444.959615
456.190556	2477.475058
456.563888	2489.069712
456.937160	2481.507981
457.310373	2469.157154
457.683526	2479.743577
458.056619	2463.611885
458.429653	2452.269288
458.802628	2474.702423
459.175542	2484.028558
459.548398	2486.549135
459.921194	2445.715788
460.293930	2474.198308
460.666607	2465.376288
461.039224	2505.705519
461.411782	2466.636577
461.784280	2476.718885
462.156719	2456.302212
462.529099	2469.913327
462.901419	2471.425673
463.273680	2466.384519
463.645882	2469.409212
464.018024	2460.083077
464.390106	2435.129365
464.762130	2461.595423
465.134094	2450.756942
465.505999	2491.590288
465.877845	2474.450365
466.249631	2482.012096
466.621358	2448.236365
466.993026	2487.809423
467.364634	2489.573827
467.736184	2482.264154
468.107674	2482.012096
468.479105	2479.491519
468.850477	2498.395846
469.221790	2488.817654
469.593043	2473.694192
469.964238	2468.400981
470.335373	2441.430808
470.706449	2457.814558
471.077467	2485.036788
471.448425	2479.239462
471.819324	2461.595423
472.190164	2487.053250
472.560945	2484.280615
472.931667	2494.614981
473.302330	2463.359827
473.672934	2490.834115
474.043479	2462.855712
474.413965	2453.529577
474.784393	2469.157154
475.154761	2475.962712
475.525070	2472.685962
475.895321	2475.962712
476.265513	2476.970942
476.635645	2464.620115
477.005719	2482.264154
477.375734	2465.376288
477.745691	2483.020327
478.115588	2483.020327
478.485427	2497.891731
478.855207	2483.524442
479.224928	2462.099538
479.594591	2512.511077
479.964194	2492.598519
480.333739	2476.214769
480.703226	2483.272385
481.072653	2503.689058
481.442022	2498.899962
481.811333	2485.288846
482.180584	2484.280615
482.549777	2473.946250
482.918912	2467.140692
483.287988	2512.511077
483.657005	2475.206538
484.025964	2474.450365
484.394864	2479.239462
484.763706	2490.834115
485.132489	2481.507981
485.501213	2468.148923
485.869879	2484.532673
486.238487	2508.730212
486.607036	2500.664365
486.975527	2495.371154
487.343959	2489.069712
487.712333	2478.735346
488.080648	2512.511077
488.448905	2483.272385
488.817104	2461.091308
489.185244	2476.214769
489.553326	2480.247692
489.921350	2494.867038
490.289315	2485.036788
490.657222	2484.532673
491.025070	2483.272385
491.392861	2462.099538
491.760593	2488.061481
492.128267	2476.466827
492.495883	2503.437000
492.863440	2474.198308
493.230939	2472.181846
493.598380	2503.437000
493.965763	2475.962712
494.333088	2490.834115
494.700354	2493.102635
495.067563	2474.954481
495.434713	2497.387615
495.801805	2482.516212
496.168839	2466.132462
496.535815	2490.077942
496.902733	2502.932885
497.269593	2492.850577
497.636395	2498.395846
498.003139	2472.181846
498.369825	2481.507981
498.736453	2471.425673
499.103023	2472.181846
499.469535	2489.573827
499.835989	2469.157154
500.202385	2463.863942
500.568723	2480.247692
500.935003	2473.442135
501.301226	2463.863942
501.667390	2474.198308
502.033497	2476.970942
502.399546	2475.206538
502.765537	2457.310442
503.131470	2492.850577
503.497345	2488.313538
503.863163	2455.546038
504.228923	2496.631442
504.594625	2472.938019
504.960269	2484.532673
505.325856	2488.313538
505.691385	2462.855712
506.056856	2467.644808
506.422270	2476.970942
506.787625	2452.269288
507.152924	2478.735346
507.518164	2481.760038
507.883347	2491.590288
508.248472	2460.839250
508.613540	2461.343365
508.978550	2485.036788
509.343503	2484.280615
509.708398	2460.587192
510.073236	2485.792962
510.438016	2494.110865
510.802738	2486.045019
511.167403	2473.442135
511.532010	2469.157154
511.896561	2489.573827
512.261053	2479.491519
512.625488	2469.409212
512.989866	2484.532673
513.354186	2504.193173
513.718449	2475.710654
514.082655	2489.573827
514.446803	2488.565596
514.810894	2464.116000
515.174927	2488.817654
515.538904	2484.028558
515.902822	2509.486385
516.266684	2494.614981
516.630488	2463.863942
516.994235	2493.354692
517.357925	2476.970942
517.721558	2464.872173
518.085133	2479.995635
518.448651	2473.442135
518.812112	2449.244596
519.175516	2479.995635
519.538863	2485.540904
519.902152	2468.653038
520.265385	2484.784731
520.628560	2486.045019
520.991678	2484.280615
521.354739	2469.157154
521.717743	2487.557365
522.080690	2452.017231
522.443580	2502.932885
522.806413	2499.908192
523.169189	2485.540904
523.531908	2487.809423
523.894569	2483.776500
524.257174	2456.806327
524.619722	2484.280615
524.982213	2473.190077
525.344647	2493.354692
525.707025	2465.628346
526.069345	2487.557365
526.431608	2488.817654
526.793815	2469.157154
527.155964	2488.313538
527.518057	2477.223000
527.880093	2472.433904
528.242072	2470.921558
528.603995	2525.113962
528.965860	2479.239462
529.327669	2469.661269
529.689421	2487.305308
530.051117	2493.858808
530.412755	2457.562500
530.774337	2474.954481
531.135862	2470.417442
531.497331	2474.702423
531.858743	2493.354692
532.220098	2492.850577
532.581396	2505.957577
532.942638	2447.480192
533.303824	2478.987404
533.664953	2486.801192
534.026025	2480.499750
534.387040	2477.223000
534.747999	2460.587192
535.108902	2507.721981
535.469748	2467.644808
535.830537	2482.516212
536.191270	2491.086173
536.551947	2493.858808
536.912567	2473.442135
537.273131	2470.921558
537.633638	2470.669500
537.994089	2498.395846
538.354483	2486.297077
538.714821	2484.532673
539.075103	2472.938019
539.435328	2489.825885
539.795497	2484.532673
540.155609	2469.409212
540.515665	2479.239462
540.875665	2446.976077
541.235609	2496.631442
541.595496	2488.817654
541.955328	2481.003865
542.315102	2476.970942
542.674821	2485.792962
543.034483	2452.017231
543.394090	2478.735346
543.753640	2472.433904
544.113134	2478.231231
544.472571	2499.908192
544.831953	2476.214769
545.191278	2480.751808
545.550548	2487.305308
545.909761	2445.715788
546.268918	2495.119096
546.628019	2496.631442
546.987064	2486.549135
547.346053	2466.132462
547.704986	2471.677731
548.063863	2493.354692
548.422684	2466.132462
548.781449	2500.160250
549.140158	2474.198308
549.498811	2463.611885
549.857408	2472.433904
550.215949	2456.554269
550.574434	2473.694192
550.932864	2460.839250
551.291237	2481.507981
551.649555	2472.433904
552.007817	2487.809423
552.366022	2477.223000
552.724173	2467.896865
553.082267	2455.041923
553.440305	2487.809423
553.798288	2491.086173
554.156215	2479.491519
554.514086	2462.351596
554.871902	2483.776500
555.229661	2481.003865
555.587365	2467.392750
555.945014	2472.433904
556.302606	2468.653038
556.660143	2489.069712
557.017625	2473.694192
557.375050	2489.321769
557.732421	2489.825885
558.089735	2495.875269
558.446994	2492.346462
558.804197	2501.420538
559.161345	2458.318673
559.518437	2452.269288
559.875474	2469.409212
560.232455	2466.384519
560.589381	2482.264154
560.946251	2494.362923
561.303065	2494.362923
561.659825	2473.190077
562.016528	2497.639673
562.373177	2482.012096
562.729770	2468.400981
563.086307	2477.727115
563.442789	2489.825885
563.799216	2468.400981
564.155587	2455.293981
564.511904	2481.760038
564.868164	2491.086173
565.224370	2473.694192
565.580520	2444.707558
565.936615	2467.644808
566.292654	2498.395846
566.648638	2493.354692
567.004567	2469.913327
567.360441	2494.110865
567.716260	2498.647904
568.072023	2495.371154
568.427732	2468.905096
568.783385	2471.425673
569.138982	2473.946250
569.494525	2454.033692
569.850013	2463.359827
570.205445	2478.987404
570.560823	2479.995635
570.916145	2487.557365
571.271412	2486.045019
571.626625	2473.190077
571.981782	2515.283712
572.336884	2469.157154
572.691931	2478.735346
573.046923	2492.598519
573.401860	2455.293981
573.756743	2478.987404
574.111570	2497.387615
574.466342	2506.209635
574.821059	2501.672596
575.175722	2482.012096
575.530330	2469.913327
575.884882	2465.376288
576.239380	2453.529577
576.593823	2509.486385
576.948211	2505.201404
577.302544	2500.160250
577.656823	2483.776500
578.011047	2498.395846
578.365216	2466.384519
578.719330	2500.916423
579.073389	2478.735346
579.427394	2471.929788
579.781344	2465.628346
580.135239	2467.896865
580.489080	2488.313538
580.842866	2466.132462
581.196597	2504.193173
581.550273	2475.458596
581.903895	2484.532673
582.257463	2479.239462
582.610975	2470.165385
582.964434	2459.326904
583.317837	2469.661269
583.671186	2472.181846
584.024481	2484.532673
584.377721	2473.946250
584.730906	2503.941115
585.084037	2476.970942
585.437113	2471.677731
585.790135	2471.425673
586.143103	2466.636577
586.496016	2488.313538
586.848874	2489.321769
587.201679	2496.883500
587.554428	2487.809423
587.907124	2477.979173
588.259765	2473.442135
588.612352	2463.611885
588.964884	2503.437000
589.317362	2488.061481
589.669786	2487.557365
590.022155	2489.069712
590.374470	2484.532673
590.726731	2462.099538
591.078937	2442.943154
591.431090	2485.288846
591.783188	2478.735346
592.135232	2506.209635
592.487222	2491.842346
592.839157	2451.009000
593.191038	2499.152019
593.542866	2481.507981
593.894639	2471.425673
594.246358	2483.272385
594.598022	2487.557365
594.949633	2476.214769
595.301190	2477.223000
595.652692	2484.028558
596.004141	2483.524442
596.355535	2455.546038
596.706876	2457.814558
597.058162	2487.809423
597.409395	2475.458596
597.760573	2496.631442
598.111698	2480.751808
598.462768	2482.012096
598.813785	2454.285750
599.164748	2497.135558
599.515657	2470.669500
599.866511	2485.036788
600.217312	2463.611885
600.568060	2457.058385
600.918753	2513.519308
601.269392	2473.442135
601.619978	2476.970942
601.970510	2506.209635
602.320988	2483.776500
602.671412	2471.425673
603.021783	2459.074846
603.372100	2463.107769
603.722363	2474.450365
604.072572	2480.247692
604.422728	2476.718885
604.772830	2462.351596
605.122878	2487.557365
605.472872	2465.124231
605.822813	2458.066615
606.172701	2486.801192
606.522534	2469.661269
606.872314	2484.028558
607.222041	2486.549135
607.571714	2483.272385
607.921333	2462.855712
608.270899	2501.924654
608.620411	2466.888635
608.969870	2464.368058
609.319276	2487.557365
609.668627	2463.863942
610.017926	2475.962712
610.367171	2489.321769
610.716362	2485.540904
611.065500	2458.066615
611.414585	2464.620115
611.763616	2486.297077
612.112594	2467.644808
612.461518	2494.867038
612.810389	2465.880404
613.159207	2483.776500
613.507971	2456.302212
613.856682	2476.466827
614.205340	2499.404077
614.553945	2462.855712
614.902496	2476.970942
615.250994	2456.050154
615.599439	2492.346462
615.947830	2471.929788
616.296169	2478.483288
616.644454	2472.181846
616.992686	2476.970942
617.340864	2489.825885
617.688990	2474.702423
618.037063	2501.168481
618.385082	2487.809423
618.733048	2475.458596
619.080961	2475.206538
619.428821	2461.343365
619.776628	2476.214769
620.124382	2465.628346
620.472083	2466.384519
620.819731	2456.050154
621.167326	2485.540904
621.514868	2448.992538
621.862357	2471.677731
622.209793	2490.330000
622.557176	2478.231231
622.904506	2467.140692
623.251783	2493.102635
623.599007	2457.058385
623.946179	2477.475058
624.293297	2495.371154
624.640363	2463.107769
624.987376	2458.318673
625.334336	2467.140692
625.681243	2499.404077
626.028097	2470.669500
626.374899	2483.524442
626.721647	2469.913327
627.068343	2464.872173
627.414987	2477.979173
627.761577	2484.784731
628.108115	2478.735346
628.454600	2485.792962
628.801032	2489.573827
629.147412	2462.351596
629.493739	2470.165385
629.840014	2442.691096
630.186236	2470.669500
630.532405	2480.751808
630.878521	2473.946250
631.224585	2454.033692
631.570597	2476.466827
631.916556	2470.921558
632.262462	2476.214769
632.608316	2447.984308
632.954117	2469.157154
633.299866	2483.776500
633.645562	2492.598519
633.991206	2447.228135
634.336797	2472.433904
634.682336	2466.888635
635.027823	2467.140692
635.373257	2481.003865
635.718639	2472.433904
636.063968	2458.822788
636.409245	2494.614981
636.754470	2457.310442
637.099642	2488.313538
637.444762	2482.264154
637.789829	2472.938019
638.134845	2474.702423
638.479808	2471.677731
638.824719	2454.537808
639.169577	2520.324865
639.514383	2486.297077
639.859137	2462.099538
640.203839	2482.012096
640.548489	2455.293981
640.893086	2505.957577
641.237632	2499.152019
641.582125	2504.697288
641.926566	2487.053250
642.270955	2465.124231
642.615292	2473.442135
642.959576	2441.934923
643.303809	2483.272385
643.647990	2487.557365
643.992118	2484.280615
644.336195	2475.710654
644.680219	2481.003865
645.024192	2474.450365
645.368112	2473.190077
645.711981	2494.867038
646.055797	2514.527538
646.399562	2481.003865
646.743274	2495.623212
647.086935	2489.825885
647.430544	2470.165385
647.774101	2466.132462
648.117606	2467.392750
648.461059	2492.346462
648.804460	2465.124231
649.147810	2478.231231
649.491108	2495.623212
649.834354	2444.203442
650.177548	2462.603654
650.520690	2449.748712
650.863781	2488.313538
651.206820	2480.247692
651.549807	2483.776500
651.892742	2474.702423
652.235626	2491.338231
652.578458	2474.450365
652.921238	2478.735346
653.263967	2472.938019
653.606644	2492.094404
653.949269	2464.872173
654.291843	2471.929788
654.634365	2471.677731
654.976836	2490.582058
655.319255	2505.201404
655.661622	2455.798096
656.003938	2465.628346
656.346203	2472.685962
656.688416	2466.888635
657.030577	2487.053250
657.372687	2470.417442
657.714746	2494.362923
658.056753	2485.288846
658.398708	2477.979173
658.740612	2457.058385
659.082465	2464.368058
659.424266	2465.628346
659.766016	2475.710654
660.107715	2471.929788
660.449362	2483.272385
660.790958	2467.896865
661.132503	2456.554269
661.473996	2460.839250
661.815438	2477.223000
662.156829	2500.664365
662.498168	2463.611885
662.839456	2480.247692
663.180693	2480.499750
663.521879	2494.614981
663.863013	2454.285750
664.204097	2478.231231
664.545129	2446.724019
664.886110	2494.614981
665.227040	2487.557365
665.567918	2498.143788
665.908746	2447.984308
666.249522	2462.099538
666.590248	2499.656135
666.930922	2469.913327
667.271545	2488.313538
667.612118	2452.521346
667.952639	2485.288846
668.293109	2475.962712
668.633528	2487.053250
668.973896	2453.781635
669.314213	2470.417442
669.654480	2442.691096
669.994695	2475.962712
670.334859	2496.379385
670.674973	2464.620115
671.015035	2473.946250
671.355047	2447.732250
671.695008	2475.962712
672.034918	2457.058385
672.374777	2484.784731
672.714585	2483.524442
673.054342	2455.546038
673.394049	2478.483288
673.733705	2465.880404
674.073310	2499.404077
674.412864	2487.053250
674.752368	2491.842346
675.091820	2448.236365
675.431223	2456.302212
675.770574	2462.855712
676.109875	2487.557365
676.449125	2500.664365
676.788324	2478.231231
677.127473	2484.280615
677.466571	2472.685962
677.805619	2473.946250
678.144616	2463.863942
678.483562	2469.157154
678.822458	2494.110865
679.161303	2466.888635
679.500098	2486.045019
679.838842	2470.417442
680.177535	2486.297077
680.516179	2437.902000
680.854771	2457.814558
681.193314	2487.809423
681.531805	2458.570731
681.870247	2489.321769
682.208638	2475.458596
682.546978	2486.045019
682.885268	2493.354692
683.223508	2485.036788
683.561697	2453.529577
683.899836	2449.496654
684.237925	2494.110865
684.575963	2492.598519
684.913951	2487.557365
685.251889	2480.499750
685.589776	2452.773404
685.927614	2484.784731
686.265401	2474.702423
686.603137	2470.165385
686.940824	2477.979173
687.278460	2479.239462
687.616046	2476.466827
687.953582	2483.524442
688.291068	2471.173615
688.628504	2473.190077
688.965889	2470.165385
689.303224	2469.409212
689.640510	2462.855712
689.977745	2478.483288
690.314930	2467.140692
690.652065	2483.272385
690.989150	2485.540904
691.326185	2477.223000
691.663170	2453.025462
692.000105	2471.929788
692.336990	2490.077942
692.673825	2440.422577
693.010610	2443.447269
693.347345	2451.261058
693.684030	2474.954481
694.020665	2486.549135
694.357251	2478.483288
694.693786	2470.165385
695.030272	2472.938019
695.366707	2476.718885
695.703093	2453.529577
696.039429	2459.831019
696.375716	2468.905096
696.711952	2442.691096
697.048139	2478.483288
697.384276	2460.839250
697.720363	2444.707558
698.056400	2468.905096
698.392388	2511.502846
698.728326	2482.768269
699.064214	2492.346462
699.400053	2452.521346
699.735842	2463.359827
700.071581	2465.628346
700.407270	2490.582058
700.742910	2444.455500
701.078501	2449.748712
701.414042	2476.466827
701.749533	2455.546038
702.084974	2484.532673
702.420366	2460.083077
702.755709	2483.020327
703.091002	2475.206538
703.426246	2478.735346
703.761440	2484.532673
704.096584	2491.086173
704.431679	2454.537808
704.766725	2458.066615
705.101721	2467.644808
705.436668	2484.280615
705.771565	2466.384519
706.106413	2466.888635
706.441212	2488.565596
706.775961	2460.587192
707.110661	2476.970942
707.445311	2470.165385
707.779913	2465.376288
708.114465	2469.409212
708.448967	2437.145827
708.783421	2469.157154
709.117825	2478.735346
709.452180	2454.033692
709.786485	2476.970942
710.120742	2452.269288
710.454949	2450.252827
710.789107	2470.669500
711.123216	2500.412308
711.457275	2459.831019
711.791286	2476.718885
712.125247	2443.195212
712.459159	2449.748712
712.793023	2470.165385
713.126837	2463.359827
713.460602	2488.565596
713.794318	2469.409212
714.127985	2473.442135
714.461602	2466.132462
714.795171	2476.970942
715.128691	2469.913327
715.462162	2466.636577
715.795584	2466.888635
716.128957	2472.433904
716.462281	2482.516212
716.795556	2485.540904
717.128782	2485.036788
717.461960	2456.302212
717.795088	2475.962712
718.128167	2479.995635
718.461198	2461.847481
718.794180	2478.231231
719.127113	2451.009000
719.459997	2489.573827
719.792833	2460.083077
720.125619	2468.653038
720.458357	2476.214769
720.791046	2460.587192
721.123686	2445.211673
721.456278	2492.346462
721.788821	2461.343365
722.121315	2465.124231
722.453761	2476.214769
722.786158	2477.223000
723.118506	2427.315577
723.450805	2482.264154
723.783056	2468.400981
724.115259	2468.653038
724.447412	2474.702423
724.779518	2466.132462
725.111574	2487.809423
725.443582	2466.636577
725.775542	2458.570731
726.107453	2472.938019
726.439315	2483.524442
726.771129	2433.364962
727.102895	2458.066615
727.434612	2467.644808
727.766281	2448.740481
728.097901	2456.050154
728.429473	2473.442135
728.760996	2481.255923
729.092471	2458.318673
729.423897	2443.195212
729.755276	2463.611885
730.086606	2448.740481
730.417887	2470.165385
730.749120	2451.513115
731.080305	2428.071750
731.411442	2471.173615
731.742530	2493.354692
732.073570	2455.798096
732.404562	2490.834115
732.735506	2463.107769
733.066401	2498.395846
733.397249	2477.979173
733.728048	2479.491519
734.058798	2497.891731
734.389501	2475.962712
734.720156	2468.905096
735.050762	2458.318673
735.381320	2443.447269
735.711831	2490.077942
736.042293	2467.896865
736.372707	2461.847481
736.703073	2475.710654
737.033391	2477.223000
737.363661	2471.677731
737.693883	2442.691096
738.024056	2450.504885
738.354182	2474.702423
738.684260	2480.751808
739.014290	2437.397885
739.344272	2457.058385
739.674207	2461.091308
740.004093	2497.387615
740.333931	2449.748712
740.663722	2452.773404
740.993464	2474.450365
741.323159	2480.247692
741.652806	2467.644808
741.982405	2487.305308
742.311956	2476.466827
742.641460	2465.376288
742.970915	2459.074846
743.300323	2469.157154
743.629683	2476.970942
743.958996	2497.639673
744.288260	2458.822788
744.617477	2475.458596
744.946647	2476.970942
745.275768	2466.636577
745.604842	2457.058385
745.933869	2457.814558
746.262847	2485.288846
746.591778	2469.157154
746.920662	2435.381423
747.249498	2477.727115
747.578286	2451.765173
747.907027	2461.847481
748.235720	2435.633481
748.564365	2473.442135
748.892963	2456.302212
749.221514	2478.987404
749.550017	2439.666404
749.878473	2443.195212
750.206881	2484.784731
750.535242	2470.417442
750.863555	2478.735346
751.191821	2445.715788
751.520039	2466.888635
751.848210	2490.330000
752.176334	2467.644808
752.504411	2471.425673
752.832440	2471.425673
753.160421	2443.951385
753.488356	2477.223000
753.816243	2463.107769
754.144082	2492.598519
754.471875	2472.685962
754.799620	2475.962712
755.127318	2493.102635
755.454969	2466.384519
755.782572	2478.735346
756.110129	2463.107769
756.437638	2457.562500
756.765100	2435.885538
757.092515	2480.247692
757.419882	2462.855712
757.747203	2476.214769
758.074477	2473.946250
758.401703	2497.639673
758.728882	2464.620115
759.056014	2486.801192
759.383099	2452.773404
759.710138	2483.776500
760.037129	2438.658173
760.364073	2476.718885
760.690970	2463.863942
761.017820	2456.302212
761.344623	2478.987404
761.671379	2461.595423
761.998088	2470.417442
762.324751	2458.570731
762.651366	2462.855712
762.977935	2441.178750
763.304456	2489.573827
763.630931	2462.855712
763.957359	2473.694192
764.283740	2465.124231
764.610074	2446.724019
764.936362	2477.223000
765.262602	2453.277519
765.588796	2488.313538
765.914943	2480.247692
766.241044	2514.275481
766.567097	2464.116000
766.893104	2472.685962
767.219064	2465.376288
767.544978	2484.028558
767.870845	2462.351596
768.196665	2468.148923
768.522438	2488.565596
768.848165	2485.036788
769.173846	2466.132462
769.499479	2462.351596
769.825066	2491.086173
770.150607	2452.521346
770.476101	2449.244596
770.801548	2436.389654
771.126949	2467.896865
771.452303	2481.003865
771.777611	2496.379385
772.102872	2485.792962
772.428087	2443.699327
772.753256	2459.831019
773.078378	2468.148923
773.403453	2466.636577
773.728482	2441.430808
774.053465	2476.214769
774.378401	2459.074846
774.703291	2466.888635
775.028135	2468.400981
775.352932	2476.970942
775.677683	2443.447269
776.002388	2481.255923
776.327046	2437.902000
776.651658	2464.116000
776.976224	2463.107769
777.300743	2441.934923
777.625216	2466.132462
777.949643	2462.351596
778.274024	2464.872173
778.598359	2453.025462
778.922647	2491.842346
779.246889	2491.086173
779.571086	2470.669500
779.895236	2441.682865
780.219339	2470.165385
780.543397	2447.228135
780.867409	2467.896865
781.191374	2447.480192
781.515294	2474.198308
781.839167	2460.839250
782.162995	2459.326904
782.486776	2472.433904
782.810511	2469.409212
783.134201	2479.995635
783.457844	2461.343365
783.781441	2464.620115
784.104993	2486.297077
784.428498	2460.587192
784.751958	2480.247692
785.075372	2467.392750
785.398739	2481.507981
785.722061	2452.521346
786.045337	2452.773404
786.368568	2478.735346
786.691752	2425.299115
787.014891	2458.318673
787.337983	2481.507981
787.661030	2464.368058
787.984031	2431.348500
788.306987	2483.272385
788.629897	2451.261058
788.952760	2495.371154
789.275579	2456.806327
789.598351	2466.384519
789.921078	2458.570731
790.243759	2473.694192
790.566395	2457.562500
790.888984	2467.896865
791.211529	2443.195212
791.534027	2458.318673
791.856480	2468.148923
792.178888	2474.954481
792.501249	2461.847481
792.823566	2454.033692
793.145836	2487.809423
793.468062	2426.559404
793.790241	2442.943154
794.112375	2437.397885
794.434464	2477.475058
794.756507	2460.839250
795.078505	2462.855712
795.400457	2450.252827
795.722364	2486.297077
796.044226	2451.513115
796.366042	2500.664365
796.687812	2449.496654
797.009538	2460.587192
797.331218	2441.682865
797.652852	2462.351596
797.974442	2482.012096
798.295986	2465.376288
798.617484	2453.781635
798.938938	2455.293981
799.260346	2458.570731
799.581709	2459.074846
799.903026	2470.165385
800.224299	2454.285750
800.545526	2470.669500
800.866708	2468.148923
801.187845	2470.165385
801.508936	2453.529577
801.829983	2427.567635
802.150984	2478.987404
802.471940	2435.885538
802.792851	2458.318673
803.113717	2459.831019
803.434538	2469.661269
803.755314	2445.463731
804.076045	2463.611885
804.396731	2462.603654
804.717372	2458.822788
805.037967	2456.302212
805.358518	2470.669500
805.679024	2437.902000
805.999485	2456.050154
806.319901	2457.310442
806.640272	2483.020327
806.960598	2486.549135
807.280879	2465.376288
807.601115	2447.480192
807.921306	2466.132462
808.241453	2479.491519
808.561554	2465.124231
808.881611	2482.516212
809.201623	2469.913327
809.521590	2434.877308
809.841513	2456.554269
810.161390	2462.603654
810.481223	2456.554269
810.801011	2457.814558
811.120755	2467.896865
811.440453	2481.255923
811.760107	2461.343365
812.079716	2460.839250
812.399281	2436.893769
812.718801	2469.913327
813.038276	2458.318673
813.357707	2470.921558
813.677093	2466.888635
813.996434	2448.236365
814.315731	2470.165385
814.634983	2431.600558
814.954191	2462.351596
815.273354	2459.074846
815.592473	2479.239462
815.911547	2476.466827
816.230577	2462.099538
816.549562	2463.611885
816.868502	2454.789865
817.187399	2467.392750
817.506250	2463.611885
817.825058	2443.195212
818.143821	2458.822788
818.462539	2470.669500
818.781213	2461.091308
819.099843	2476.718885
819.418429	2488.817654
819.736970	2420.762077
820.055466	2454.033692
820.373919	2472.433904
820.692327	2458.066615
821.010691	2472.685962
821.329011	2430.088212
821.647286	2484.784731
821.965517	2491.338231
822.283704	2482.768269
822.601847	2506.713750
822.919945	2495.875269
823.237999	2507.974038
823.556010	2496.883500
823.873976	2500.412308
824.191897	2445.715788
824.509775	2461.595423
824.827609	2470.165385
825.145398	2472.685962
825.463144	2450.000769
825.780845	2504.697288
826.098502	2470.417442
826.416116	2486.801192
826.733685	2475.206538
827.051210	2453.025462
827.368692	2480.499750
827.686129	2456.554269
828.003522	2486.801192
828.320872	2489.825885
828.638177	2456.554269
828.955439	2467.644808
829.272656	2467.392750
829.589830	2479.995635
829.906960	2479.239462
830.224046	2477.727115
830.541088	2467.896865
830.858086	2458.066615
831.175041	2487.053250
831.491952	2459.074846
831.808819	2475.710654
832.125642	2452.269288
832.442421	2436.389654
832.759157	2458.318673
833.075849	2469.409212
833.392497	2460.587192
833.709101	2465.376288
834.025662	2469.913327
834.342179	2466.384519
834.658653	2473.190077
834.975083	2456.050154
835.291469	2470.417442
835.607811	2465.628346
835.924110	2456.554269
836.240366	2452.269288
836.556578	2475.458596
836.872746	2432.860846
837.188871	2479.995635
837.504952	2455.546038
837.820990	2473.190077
838.136984	2443.699327
838.452935	2468.400981
838.768842	2469.157154
839.084706	2487.305308
839.400526	2463.611885
839.716303	2471.929788
840.032037	2466.132462
840.347727	2457.562500
840.663373	2460.587192
840.978977	2485.792962
841.294537	2477.979173
841.610054	2447.228135
841.925527	2467.392750
842.240957	2478.231231
842.556344	2465.124231
842.871687	2461.595423
843.186987	2428.323808
843.502244	2465.880404
843.817458	2462.603654
844.132629	2463.107769
844.447756	2454.285750
844.762840	2480.751808
845.077881	2463.107769
845.392879	2455.798096
845.707833	2474.702423
846.022745	2441.682865
846.337613	2450.756942
846.652438	2441.682865
846.967221	2482.768269
847.281960	2459.074846
847.596656	2472.938019
847.911309	2487.809423
848.225919	2454.285750
848.540485	2448.236365
848.855009	2458.822788
849.169490	2442.186981
849.483928	2441.682865
849.798323	2470.417442
850.112675	2446.471962
850.426984	2483.020327
850.741251	2470.165385
851.055474	2473.694192
851.369654	2452.017231
851.683792	2461.091308
851.997887	2449.496654
852.311938	2440.422577
852.625947	2442.439038
852.939914	2447.228135
853.253837	2446.471962
853.567718	2426.559404
853.881555	2471.425673
854.195350	2466.384519
854.509103	2433.364962
854.822812	2458.570731
855.136479	2450.252827
855.450103	2439.918462
855.763685	2446.219904
856.077224	2436.389654
856.390720	2448.488423
856.704173	2447.984308
857.017584	2447.228135
857.330953	2446.471962
857.644278	2432.104673
857.957561	2484.280615
858.270802	2459.326904
858.584000	2467.140692
858.897155	2459.074846
859.210268	2474.702423
859.523339	2475.710654
859.836367	2459.831019
860.149352	2451.009000
860.462295	2437.649942
860.775195	2461.091308
861.088054	2456.806327
861.400869	2483.020327
861.713642	2442.691096
862.026373	2468.148923
862.339062	2442.943154
862.651708	2484.532673
862.964312	2456.806327
863.276873	2469.157154
863.589392	2474.450365
863.901869	2444.203442
864.214303	2483.776500
864.526696	2435.129365
864.839045	2478.987404
865.151353	2441.682865
865.463619	2437.145827
865.775842	2469.157154
866.088023	2457.310442
866.400162	2441.430808
866.712258	2434.625250
867.024313	2467.140692
867.336325	2429.584096
867.648296	2456.806327
867.960224	2442.186981
868.272110	2476.214769
868.583954	2460.335135
868.895755	2462.351596
869.207515	2466.888635
869.519233	2447.480192
869.830909	2470.417442
870.142542	2453.025462
870.454134	2458.570731
870.765684	2455.041923
871.077191	2442.943154
871.388657	2476.214769
871.700081	2456.050154
872.011463	2461.343365
872.322803	2446.471962
872.634101	2448.236365
872.945357	2456.050154
873.256571	2465.880404
873.567744	2459.326904
873.878874	2451.765173
874.189963	2463.863942
874.501010	2454.033692
874.812015	2450.252827
875.122979	2452.269288
875.433900	2445.967846
875.744780	2468.148923
876.055618	2454.789865
876.366415	2466.384519
876.677169	2439.414346
876.987882	2454.789865
877.298554	2443.447269
877.609183	2466.888635
877.919771	2456.050154
878.230317	2485.288846
878.540822	2487.305308
878.851285	2471.929788
879.161707	2456.554269
879.472087	2457.814558
879.782425	2435.633481
880.092722	2450.252827
880.402977	2460.587192
880.713191	2437.145827
881.023363	2471.677731
881.333494	2467.896865
881.643583	2443.951385
881.953631	2480.247692
882.263637	2466.132462
882.573602	2437.649942
882.883526	2464.620115
883.193408	2470.417442
883.503248	2476.214769
883.813048	2475.206538
884.122806	2462.351596
884.432522	2484.028558
884.742197	2465.880404
885.051831	2447.984308
885.361424	2455.293981
885.670975	2464.368058
885.980485	2455.546038
886.289954	2471.929788
886.599382	2467.140692
886.908768	2450.252827
887.218113	2463.359827
887.527417	2458.066615
887.836680	2460.335135
888.145901	2459.326904
888.455082	2443.195212
888.764221	2465.628346
889.073319	2444.203442
889.382376	2461.343365
889.691392	2435.381423
890.000366	2471.425673
890.309300	2455.798096
890.618193	2462.099538
890.927044	2467.644808
891.235855	2483.524442
891.544625	2462.351596
891.853353	2457.814558
892.162041	2445.463731
892.470687	2477.727115
892.779293	2445.463731
893.087858	2481.760038
893.396381	2446.219904
893.704864	2455.798096
894.013306	2444.959615
894.321707	2460.083077
894.630068	2443.951385
894.938387	2496.379385
895.246665	2466.384519
895.554903	2452.269288
895.863100	2444.959615
896.171256	2442.439038
896.479371	2449.496654
896.787446	2456.050154
897.095480	2478.735346
897.403473	2468.148923
897.711425	2459.831019
898.019336	2479.239462
898.327207	2458.318673
898.635038	2466.888635
898.942827	2481.003865
899.250576	2476.466827
899.558284	2448.740481
899.865952	2457.562500
900.173579	2446.219904
900.481165	2440.170519
900.788711	2436.893769
901.096216	2442.186981
901.403681	2450.252827
901.711105	2477.223000
902.018489	2442.691096
902.325832	2476.970942
902.633135	2462.603654
902.940397	2468.905096
903.247619	2447.732250
903.554800	2441.430808
903.861941	2448.488423
904.169041	2458.570731
904.476101	2488.565596
904.783121	2478.231231
905.090100	2466.888635
905.397039	2471.677731
905.703938	2478.483288
906.010796	2453.025462
906.317614	2450.000769
906.624391	2462.351596
906.931129	2458.066615
907.237826	2470.669500
907.544483	2445.463731
907.851099	2437.397885
908.157675	2465.628346
908.464211	2457.058385
908.770707	2453.025462
909.077163	2445.463731
909.383578	2458.066615
909.689954	2452.017231
909.996289	2484.280615
910.302584	2447.480192
910.608839	2451.765173
910.915054	2452.269288
911.221229	2472.938019
911.527363	2442.943154
911.833458	2479.491519
912.139513	2456.302212
912.445527	2473.442135
912.751502	2445.715788
913.057436	2451.009000
913.363331	2430.844385
913.669186	2474.198308
913.975000	2464.116000
914.280775	2444.707558
914.586510	2475.206538
914.892205	2426.307346
915.197859	2453.529577
915.503475	2439.414346
915.809050	2453.529577
916.114585	2475.206538
916.420081	2480.751808
916.725536	2482.768269
917.030952	2449.496654
917.336328	2469.409212
917.641665	2445.211673
917.946961	2468.400981
918.252218	2464.368058
918.557435	2484.280615
918.862612	2454.537808
919.167750	2482.516212
919.472848	2469.661269
919.777906	2459.326904
920.082925	2478.483288
920.387904	2471.929788
920.692843	2455.546038
920.997743	2461.847481
921.302603	2494.867038
921.607423	2456.554269
921.912204	2445.211673
922.216946	2459.578962
922.521647	2487.305308
922.826310	2475.206538
923.130932	2453.529577
923.435516	2465.124231
923.740059	2455.041923
924.044564	2429.079981
924.349028	2470.417442
924.653454	2450.756942
924.957840	2464.620115
925.262186	2433.617019
925.566493	2455.798096
925.870761	2459.578962
926.174989	2454.537808
926.479178	2455.798096
926.783328	2472.181846
927.087438	2455.293981
927.391509	2456.806327
927.695541	2413.704462
927.999533	2460.335135
928.303486	2459.074846
928.607400	2477.727115
928.911275	2450.504885
929.215110	2471.173615
929.518906	2454.789865
929.822663	2468.653038
930.126381	2458.570731
930.430060	2460.587192
930.733699	2462.351596
931.037299	2449.244596
931.340861	2439.162288
931.644383	2457.310442
931.947866	2462.603654
932.251309	2470.165385
932.554714	2438.910231
932.858080	2440.170519
933.161407	2447.984308
933.464694	2455.041923
933.767943	2461.847481
934.071153	2481.255923
934.374323	2462.603654
934.677455	2448.488423
934.980548	2464.872173
935.283602	2448.488423
935.586617	2441.178750
935.889593	2468.653038
936.192530	2456.806327
936.495428	2480.247692
936.798287	2447.984308
937.101108	2473.442135
937.403890	2450.252827
937.706632	2453.277519
938.009336	2425.551173
938.312002	2458.066615
938.614628	2451.765173
938.917216	2445.211673
939.219765	2435.633481
939.522275	2471.929788
939.824747	2469.661269
940.127179	2446.976077
940.429573	2454.033692
940.731929	2465.628346
941.034246	2433.869077
941.336524	2465.880404
941.638763	2434.121135
941.940964	2458.570731
942.243126	2437.145827
942.545250	2469.913327
942.847335	2467.392750
943.149381	2458.318673
943.451389	2459.074846
943.753359	2441.934923
944.055290	2468.400981
944.357182	2446.724019
944.659036	2429.836154
944.960851	2483.524442
945.262628	2432.356731
945.564367	2451.513115
945.866067	2477.475058
946.167729	2473.694192
946.469352	2444.203442
946.770937	2447.228135
947.072484	2448.236365
947.373992	2436.389654
947.675462	2465.628346
947.976893	2475.962712
948.278286	2465.376288
948.579641	2452.521346
948.880958	2437.397885
949.182236	2461.091308
949.483476	2444.707558
949.784678	2441.430808
950.085841	2486.045019
950.386967	2456.806327
950.688054	2445.967846
950.989103	2457.310442
951.290114	2444.455500
951.591087	2434.877308
951.892021	2456.806327
952.192917	2468.653038
952.493776	2460.587192
952.794596	2461.091308
953.095378	2441.682865
953.396122	2472.685962
953.696828	2418.997673
953.997496	2473.442135
954.298126	2459.326904
954.598718	2465.628346
954.899272	2440.674635
955.199788	2494.362923
955.500266	2462.351596
955.800706	2456.806327
956.101108	2465.376288
956.401472	2464.116000
956.701798	2467.896865
957.002087	2425.299115
957.302337	2442.943154
957.602550	2467.140692
957.902724	2465.880404
958.202861	2444.959615
958.502960	2474.702423
958.803022	2471.173615
959.103045	2455.546038
959.403031	2431.600558
959.702979	2417.485327
960.002889	2461.595423
960.302762	2441.178750
960.602596	2452.017231
960.902393	2450.252827
961.202153	2459.326904
961.501875	2449.496654
961.801559	2476.970942
962.101205	2447.732250
962.400814	2442.943154
962.700385	2442.186981
962.999918	2429.079981
963.299414	2462.099538
963.598873	2443.195212
963.898293	2465.628346
964.197677	2440.170519
964.497022	2470.921558
964.796331	2452.521346
965.095601	2453.529577
965.394835	2433.617019
965.694030	2462.603654
965.993189	2442.691096
966.292309	2462.351596
966.591393	2447.984308
966.890439	2461.595423
967.189447	2487.557365
967.488419	2439.162288
967.787353	2481.760038
968.086249	2418.745615
968.385108	2454.537808
968.683930	2470.669500
968.982714	2436.389654
969.281462	2467.644808
969.580172	2454.537808
969.878844	2440.926692
970.177480	2478.735346
970.476078	2451.261058
970.774639	2477.475058
971.073162	2430.844385
971.371649	2455.041923
971.670098	2457.310442
971.968510	2443.447269
972.266885	2426.811462
972.565223	2452.773404
972.863524	2459.578962
973.161788	2469.157154
973.460014	2454.789865
973.758204	2424.290885
974.056356	2468.905096
974.354471	2460.587192
974.652550	2473.946250
974.950591	2440.674635
975.248595	2475.710654
975.546563	2402.613923
975.844493	2472.685962
976.142386	2455.041923
976.440243	2454.537808
976.738062	2477.223000
977.035845	2442.691096
977.333590	2428.071750
977.631299	2478.735346
977.928971	2483.020327
978.226606	2460.587192
978.524204	2456.050154
978.821765	2450.504885
979.119290	2459.578962
979.416777	2457.562500
979.714228	2433.869077
980.011642	2460.587192
980.309020	2437.902000
980.606360	2452.773404
980.903664	2447.732250
981.200931	2455.293981
981.498162	2424.290885
981.795356	2463.611885
982.092513	2443.195212
982.389633	2460.839250
982.686717	2434.877308
982.983764	2475.206538
983.280775	2437.902000
983.577749	2450.756942
983.874686	2449.748712
984.171587	2465.628346
984.468451	2463.611885
984.765279	2476.466827
985.062070	2466.132462
985.358824	2492.094404
985.655543	2451.513115
985.952224	2474.198308
986.248869	2459.578962
986.545478	2447.984308
986.842050	2439.918462
987.138586	2433.617019
987.435086	2441.682865
987.731549	2455.293981
988.027975	2449.244596
988.324366	2466.384519
988.620719	2474.702423
988.917037	2455.798096
989.213318	2452.521346
989.509563	2464.872173
989.805772	2435.129365
990.101944	2469.409212
990.398080	2465.880404
990.694180	2438.406115
990.990244	2439.666404
991.286271	2447.984308
991.582262	2447.480192
991.878217	2450.756942
992.174136	2450.252827
992.470019	2446.976077
992.765865	2468.905096
993.061676	2441.934923
993.357450	2457.562500
993.653188	2421.518250
993.948890	2448.236365
994.244556	2442.691096
994.540186	2429.836154
994.835780	2490.834115
995.131337	2448.236365
995.426859	2464.620115
995.722345	2438.154058
996.017795	2453.781635
996.313208	2461.595423
996.608586	2451.261058
996.903928	2447.984308
997.199234	2456.806327
997.494504	2473.694192
997.789738	2450.252827
998.084936	2483.272385
998.380099	2460.587192
998.675225	2462.855712
998.970316	2465.628346
999.265371	2449.496654
999.560390	2421.518250
999.855373	2464.116000
1000.150320	2453.025462
1000.445232	2453.277519
1000.740108	2456.806327
1001.034948	2445.715788
1001.329752	2446.724019
1001.624521	2456.050154
1001.919254	2454.537808
1002.213951	2454.285750
1002.508613	2435.381423
1002.803239	2458.066615
1003.097829	2439.414346
1003.392384	2459.831019
1003.686903	2478.483288
1003.981386	2441.178750
1004.275834	2457.814558
1004.570246	2441.682865
1004.864623	2455.041923
1005.158964	2460.083077
1005.453270	2439.414346
1005.747540	2452.521346
1006.041775	2451.009000
1006.335974	2450.504885
1006.630138	2465.124231
1006.924266	2447.480192
1007.218359	2454.789865
1007.512416	2467.392750
1007.806438	2458.066615
1008.100425	2459.831019
1008.394376	2440.170519
1008.688292	2457.562500
1008.982172	2451.513115
1009.276017	2447.984308
1009.569827	2441.178750
1009.863602	2440.170519
1010.157341	2442.186981
1010.451045	2429.584096
1010.744714	2445.463731
1011.038347	2450.504885
1011.331945	2461.343365
1011.625508	2444.203442
1011.919036	2448.740481
1012.212528	2464.116000
1012.505986	2466.636577
1012.799408	2431.348500
1013.092795	2450.504885
1013.386147	2436.893769
1013.679464	2478.483288
1013.972745	2438.658173
1014.265992	2455.546038
1014.559204	2446.471962
1014.852380	2450.000769
1015.145521	2452.017231
1015.438628	2436.641712
1015.731699	2458.318673
1016.024736	2459.831019
1016.317737	2484.532673
1016.610703	2464.872173
1016.903635	2463.107769
1017.196531	2475.962712
1017.489393	2469.913327
1017.782219	2431.852615
1018.075011	2459.326904
1018.367768	2454.285750
1018.660490	2469.913327
1018.953177	2469.913327
1019.245829	2469.913327
