Dividing Wavelength (nm)	Counts (n)	Slit_number_9_of_a_total_of_40	
326.493990	2159.714327
326.888308	2159.714327
327.282561	2159.714327
327.676750	2140.053827
328.070874	2133.584346
328.464933	2129.215346
328.858929	2146.103212
329.252859	2147.279481
329.646726	2159.210212
330.040528	2193.238000
330.434265	2206.765096
330.827938	2216.511327
331.221547	2247.178346
331.615091	2273.728423
332.008571	2294.145096
332.401986	2308.680423
332.795338	2332.709923
333.188625	2356.739423
333.581847	2354.975019
333.975006	2388.582712
334.368100	2405.974692
334.761129	2414.208577
335.154095	2430.424288
335.546996	2454.033692
335.939833	2468.821077
336.332606	2486.969231
336.725315	2481.592000
337.117960	2517.636250
337.510540	2524.777885
337.903056	2513.939404
338.295508	2529.566981
338.687896	2533.095788
339.080220	2534.860192
339.472480	2545.950731
339.864676	2555.024808
340.256807	2542.673981
340.648875	2564.098885
341.040879	2551.159923
341.432818	2563.426731
341.824694	2560.149981
342.216506	2564.350942
342.608253	2550.739827
342.999937	2554.016577
343.391557	2561.998404
343.783113	2542.926038
344.174605	2552.672269
344.566033	2538.893115
344.957397	2564.855058
345.348697	2545.614654
345.739934	2541.161635
346.131106	2528.978846
346.522215	2523.517596
346.913260	2539.397231
347.304241	2526.038173
347.695159	2552.420212
348.086012	2530.239135
348.476802	2526.878365
348.867528	2531.751481
349.258191	2541.917808
349.648789	2522.929462
350.039324	2538.304981
350.429796	2524.525827
350.820203	2540.657519
351.210548	2506.377673
351.600828	2528.054635
351.991045	2525.282000
352.381198	2523.853673
352.771288	2520.913000
353.161314	2538.809096
353.551276	2543.178096
353.941175	2526.626308
354.331010	2527.382481
354.720782	2522.173288
355.110490	2524.357788
355.500135	2534.104019
355.889717	2527.718558
356.279235	2519.064577
356.668689	2539.145173
357.058080	2515.871846
357.447408	2542.758000
357.836672	2541.497712
358.225873	2517.972327
358.615010	2539.061154
359.004084	2531.583442
359.393095	2524.861904
359.782043	2519.232615
360.170927	2541.245654
360.559748	2525.197981
360.948505	2543.766231
361.337199	2540.153404
361.725830	2526.038173
362.114398	2542.253885
362.502903	2536.708615
362.891344	2541.077615
363.279722	2536.708615
363.668037	2540.825558
364.056289	2526.290231
364.444478	2525.954154
364.832603	2533.599904
365.220665	2533.179808
365.608665	2542.505942
365.996601	2532.843731
366.384474	2532.843731
366.772284	2535.448327
367.160031	2539.229192
367.547715	2545.614654
367.935336	2535.028231
368.322893	2541.413692
368.710388	2548.891404
369.097820	2537.380769
369.485189	2550.991885
369.872495	2546.202788
370.259738	2542.589962
370.646918	2556.873231
371.034035	2537.968904
371.421090	2546.874942
371.808081	2544.270346
372.195010	2532.255596
372.581875	2545.278577
372.968678	2541.077615
373.355418	2536.036462
373.742096	2542.253885
374.128710	2549.227481
374.515262	2552.924327
374.901751	2529.146885
375.288177	2534.188038
375.674540	2537.884885
376.060841	2539.733308
376.447079	2556.285096
376.833254	2536.036462
377.219367	2566.871519
377.605417	2550.823846
377.991404	2546.958962
378.377329	2542.253885
378.763191	2544.606423
379.148991	2541.749769
379.534727	2546.958962
379.920402	2557.629404
380.306013	2547.463077
380.691563	2540.909577
381.077049	2558.469596
381.462474	2539.901346
381.847835	2542.505942
382.233134	2538.725077
382.618371	2542.337904
383.003545	2541.161635
383.388657	2544.102308
383.773706	2563.510750
384.158693	2553.596481
384.543618	2569.812192
384.928480	2546.538865
385.313280	2549.143462
385.698017	2552.588250
386.082692	2544.522404
386.467305	2554.520692
386.851856	2551.580019
387.236344	2544.606423
387.620770	2562.754577
388.005133	2552.336192
388.389435	2550.907865
388.773674	2555.360885
389.157851	2543.262115
389.541965	2568.131808
389.926018	2563.090654
390.310008	2551.580019
390.693936	2551.580019
391.077802	2549.227481
391.461606	2538.725077
391.845348	2553.008346
392.229027	2560.402038
392.612645	2550.655808
392.996200	2544.438385
393.379694	2554.184615
393.763125	2554.100596
394.146494	2548.555327
394.529801	2561.074192
394.913047	2546.622885
395.296230	2549.983654
395.679351	2543.010058
396.062410	2558.217538
396.445408	2568.551904
396.828343	2559.981942
397.211217	2550.487769
397.594028	2561.074192
397.976778	2547.211019
398.359466	2557.209308
398.742092	2558.469596
399.124656	2563.342712
399.507158	2563.510750
399.889598	2557.797442
400.271977	2545.026519
400.654294	2544.858481
401.036549	2568.131808
401.418742	2560.906154
401.800874	2561.410269
402.182944	2548.555327
402.564952	2563.846827
402.946898	2558.721654
403.328783	2571.072481
403.710606	2560.822135
404.092367	2557.797442
404.474067	2563.930846
404.855705	2557.125288
405.237282	2553.680500
405.618797	2561.242231
406.000250	2562.838596
406.381642	2560.065962
406.762972	2564.939077
407.144240	2559.141750
407.525447	2564.603000
407.906593	2573.761096
408.287677	2540.741538
408.668700	2575.021385
409.049661	2565.443192
409.430560	2565.359173
409.811399	2553.428442
410.192176	2562.166442
410.572891	2579.810481
410.953545	2565.023096
411.334138	2552.504231
411.714669	2568.299846
412.095139	2557.041269
412.475547	2581.826942
412.855894	2557.125288
413.236180	2563.594769
413.616405	2553.764519
413.996568	2565.107115
414.376670	2554.688731
414.756711	2562.418500
415.136691	2548.975423
415.516609	2576.701769
415.896466	2560.065962
416.276262	2565.527212
416.655997	2569.896212
417.035670	2559.225769
417.415283	2574.433250
417.794834	2552.756288
418.174324	2564.350942
418.553753	2559.141750
418.933121	2552.000115
419.312428	2554.520692
419.691674	2558.133519
420.070859	2570.232288
420.449983	2570.232288
420.829045	2563.174673
421.208047	2580.482635
421.586988	2569.644154
421.965867	2558.889692
422.344686	2559.477827
422.723444	2571.156500
423.102141	2556.957250
423.480777	2575.861577
423.859352	2578.550192
424.237866	2570.148269
424.616319	2571.744635
424.994712	2565.863288
425.373044	2559.393808
425.751314	2566.619462
426.129524	2560.065962
426.507673	2577.289904
426.885762	2564.939077
427.263789	2561.998404
427.641756	2563.342712
428.019662	2567.963769
428.397508	2574.601288
428.775292	2562.334481
429.153016	2565.947308
429.530679	2577.373923
429.908282	2563.006635
430.285824	2562.334481
430.663305	2563.930846
431.040726	2584.767615
431.418086	2572.920904
431.795385	2565.863288
432.172624	2563.090654
432.549802	2575.441481
432.926920	2574.601288
433.303977	2568.719942
433.680974	2565.443192
434.057910	2563.006635
434.434786	2569.056019
434.811601	2564.687019
435.188355	2567.627692
435.565050	2579.642442
435.941683	2574.685308
436.318257	2576.533731
436.694770	2577.710000
437.071222	2569.980231
437.447614	2563.426731
437.823946	2586.195942
438.200218	2559.225769
438.576429	2574.265212
438.952580	2572.836885
439.328670	2557.797442
439.704700	2577.878038
440.080670	2569.728173
440.456580	2568.467885
440.832429	2573.004923
441.208218	2581.910962
441.583947	2571.408558
441.959616	2574.769327
442.335224	2553.512462
442.710773	2571.324538
443.086261	2577.121865
443.461689	2575.609519
443.837057	2579.390385
444.212365	2577.962058
444.587612	2578.550192
444.962800	2599.639019
445.337927	2567.963769
445.712995	2599.555000
446.088002	2580.650673
446.462949	2585.103692
446.837837	2564.182904
447.212664	2586.700058
447.587431	2587.708288
447.962139	2582.499096
448.336786	2580.146558
448.711374	2579.474404
449.085901	2573.509038
449.460369	2577.962058
449.834776	2571.408558
450.209124	2595.942173
450.583412	2569.308077
450.957640	2569.392096
451.331808	2576.365692
451.705917	2573.088942
452.079965	2580.398615
452.453954	2580.566654
452.827883	2579.138327
453.201752	2575.105404
453.575562	2574.937365
453.949311	2592.329346
454.323001	2574.685308
454.696632	2561.074192
455.070202	2576.617750
455.443713	2589.136615
455.817164	2588.716519
456.190556	2576.029615
456.563888	2581.070769
456.937160	2553.344423
457.310373	2592.413365
457.683526	2579.390385
458.056619	2577.541962
458.429653	2586.027904
458.802628	2589.892788
459.175542	2588.632500
459.548398	2585.859865
459.921194	2582.331058
460.293930	2576.953827
460.666607	2592.665423
461.039224	2569.812192
461.411782	2589.052596
461.784280	2594.093750
462.156719	2583.843404
462.529099	2586.868096
462.901419	2577.962058
463.273680	2588.716519
463.645882	2584.263500
464.018024	2579.810481
464.390106	2580.146558
464.762130	2582.751154
465.134094	2580.818712
465.505999	2603.335865
465.877845	2586.111923
466.249631	2586.111923
466.621358	2565.443192
466.993026	2594.933942
467.364634	2603.251846
467.736184	2600.563231
468.107674	2595.522077
468.479105	2590.060827
468.850477	2590.732981
469.221790	2600.143135
469.593043	2581.238808
469.964238	2587.204173
470.335373	2599.639019
470.706449	2586.448000
471.077467	2584.599577
471.448425	2593.841692
471.819324	2591.069058
472.190164	2605.604385
472.560945	2595.690115
472.931667	2601.907538
473.302330	2604.764192
473.672934	2591.993269
474.043479	2593.673654
474.413965	2590.901019
474.784393	2619.299519
475.154761	2588.548481
475.525070	2594.345808
475.895321	2610.141423
476.265513	2597.286481
476.635645	2618.459327
477.005719	2602.495673
477.375734	2600.311173
477.745691	2612.409942
478.115588	2610.645538
478.485427	2605.604385
478.855207	2600.899308
479.224928	2604.848212
479.594591	2608.040942
479.964194	2611.905827
480.333739	2610.645538
480.703226	2625.432923
481.072653	2604.512135
481.442022	2612.325923
481.811333	2622.408231
482.180584	2620.727846
482.549777	2620.475788
482.918912	2620.811865
483.287988	2610.897596
483.657005	2616.610904
484.025964	2616.442865
484.394864	2621.904115
484.763706	2621.820096
485.132489	2622.156173
485.501213	2601.235385
485.869879	2618.711385
486.238487	2618.795404
486.607036	2614.090327
486.975527	2631.062212
487.343959	2618.795404
487.712333	2616.946981
488.080648	2612.073865
488.448905	2632.070442
488.817104	2628.877712
489.185244	2623.752538
489.553326	2625.096846
489.921350	2619.215500
490.289315	2623.332442
490.657222	2640.304327
491.025070	2648.538212
491.392861	2629.549865
491.760593	2623.752538
492.128267	2620.895885
492.495883	2631.734365
492.863440	2629.129769
493.230939	2621.063923
493.598380	2630.474077
493.965763	2645.849596
494.333088	2625.769000
494.700354	2626.357135
495.067563	2634.591019
495.434713	2634.507000
495.801805	2636.355423
496.168839	2620.055692
496.535815	2631.650346
496.902733	2622.744308
497.269593	2633.582788
497.636395	2628.709673
498.003139	2628.037519
498.369825	2640.304327
498.736453	2639.968250
499.103023	2647.361942
499.469535	2630.306038
499.835989	2634.591019
500.202385	2643.329019
500.568723	2644.085192
500.935003	2631.482308
501.301226	2642.236769
501.667390	2638.455904
502.033497	2645.345481
502.399546	2645.597538
502.765537	2650.386635
503.131470	2649.462423
503.497345	2651.814962
503.863163	2648.370173
504.228923	2660.300904
504.594625	2647.950077
504.960269	2664.081769
505.325856	2665.005981
505.691385	2663.829712
506.056856	2676.432596
506.422270	2657.024154
506.787625	2664.249808
507.152924	2669.459000
507.518164	2661.813250
507.883347	2674.836231
508.248472	2680.213462
508.613540	2674.668192
508.978550	2693.572519
509.343503	2688.027250
509.708398	2685.674712
510.073236	2704.663058
510.438016	2708.948038
510.802738	2714.997423
511.167403	2700.462096
511.532010	2719.030346
511.896561	2718.022115
512.261053	2728.020404
512.625488	2732.809500
512.989866	2732.725481
513.354186	2731.465192
513.718449	2741.967596
514.082655	2754.570481
514.446803	2754.906558
514.810894	2774.399019
515.174927	2775.407250
515.538904	2778.431942
515.902822	2803.049577
516.266684	2807.754654
516.630488	2802.293404
516.994235	2809.351019
517.357925	2835.228942
517.721558	2845.143212
518.085133	2854.301308
518.448651	2859.090404
518.812112	2876.062288
519.175516	2884.548231
519.538863	2895.806808
519.902152	2920.340423
520.265385	2923.869231
520.628560	2949.411077
520.991678	2978.229673
521.354739	2968.819519
521.717743	3011.333250
522.080690	3007.384346
522.443580	3042.252327
522.806413	3052.754731
523.169189	3088.042808
523.531908	3100.477654
523.894569	3122.238635
524.257174	3151.141250
524.619722	3162.315808
524.982213	3189.958135
525.344647	3204.241404
525.707025	3245.830923
526.069345	3276.497942
526.431608	3294.394038
526.793815	3329.009962
527.155964	3358.248654
527.518057	3389.923904
527.880093	3406.727750
528.242072	3446.132769
528.603995	3471.002462
528.965860	3506.038481
529.327669	3546.199673
529.689421	3576.950712
530.051117	3624.001481
530.412755	3676.345462
530.774337	3714.574212
531.135862	3750.954538
531.497331	3792.544058
531.858743	3806.827327
532.220098	3904.289635
532.581396	3933.108231
532.942638	3975.958038
533.303824	4025.529385
533.664953	4076.445038
534.026025	4136.938885
534.387040	4207.767096
534.747999	4260.111077
535.108902	4299.516096
535.469748	4374.125173
535.830537	4404.540135
536.191270	4487.971231
536.551947	4547.876942
536.912567	4640.382115
537.273131	4700.119788
537.633638	4766.831058
537.994089	4831.105769
538.354483	4883.953865
538.714821	4984.356846
539.075103	5103.916212
539.435328	5149.622673
539.795497	5230.533192
540.155609	5321.189942
540.515665	5442.513712
540.875665	5461.670096
541.235609	5588.875212
541.595496	5665.920846
541.955328	5810.433923
542.315102	5881.094096
542.674821	5940.159615
543.034483	6024.430904
543.394090	6140.125385
543.753640	6206.248519
544.113134	6418.481096
544.472571	6449.148115
544.831953	6675.916019
545.191278	6673.395442
545.550548	6755.482231
545.909761	6936.459654
546.268918	7069.882192
546.628019	7213.471058
546.987064	7282.870942
547.346053	7327.485154
547.704986	7524.930346
548.063863	7596.178654
548.422684	7762.032615
548.781449	7879.407481
549.140158	8051.730923
549.498811	8137.010442
549.857408	8213.972058
550.215949	8441.244077
550.574434	8543.411462
550.932864	8653.392635
551.291237	8869.658135
551.649555	8983.084096
552.007817	9137.427423
552.366022	9233.209346
552.724173	9397.046846
553.082267	9570.462538
553.440305	9799.667000
553.798288	9852.179019
554.156215	10001.901288
554.514086	10206.404096
554.871902	10271.434981
555.229661	10487.616462
555.587365	10552.899404
555.945014	10713.208096
556.302606	10845.874462
556.660143	11047.100519
557.017625	11202.284038
557.375050	11346.377019
557.732421	11561.214192
558.089735	11683.378154
558.446994	11828.143288
558.804197	12084.654000
559.161345	12235.804596
559.518437	12206.565904
559.875474	12400.818365
560.232455	12604.985096
560.589381	12783.105865
560.946251	12861.999923
561.303065	13246.303885
561.659825	13318.644442
562.016528	13374.433212
562.373177	13482.986058
562.729770	13713.450808
563.086307	13767.307135
563.442789	14043.982462
563.799216	14191.352192
564.155587	14279.740423
564.511904	14397.199308
564.868164	14558.432212
565.224370	14774.697712
565.580520	14867.791019
565.936615	15097.919692
566.292654	15063.471808
566.648638	15271.839500
567.004567	15440.802173
567.360441	15536.164000
567.716260	15690.171250
568.072023	15882.491269
568.427732	15966.510500
568.783385	15984.070519
569.138982	16192.942327
569.494525	16335.018846
569.850013	16368.878596
570.205445	16471.214019
570.560823	16530.531596
570.916145	16623.036769
571.271412	16753.350596
571.626625	16807.543000
571.981782	16886.437058
572.336884	16871.229577
572.691931	17125.891865
573.046923	17042.376750
573.401860	17085.562635
573.756743	17168.237558
574.111570	17303.676558
574.466342	17364.506481
574.821059	17468.690327
575.175722	17422.899846
575.530330	17485.326135
575.884882	17522.462635
576.239380	17565.228423
576.593823	17573.966423
576.948211	17649.499712
577.302544	17535.485615
577.656823	17610.598808
578.011047	17805.859500
578.365216	17722.260365
578.719330	17656.725365
579.073389	17661.178385
579.427394	17766.118404
579.781344	17765.278212
580.135239	17723.772712
580.489080	17728.981904
580.842866	17595.475346
581.196597	17749.986712
581.550273	17744.357423
581.903895	17691.929423
582.257463	17901.809462
582.610975	17721.504192
582.964434	17818.882481
583.317837	17612.783308
583.671186	17624.546000
584.024481	17720.495962
584.377721	17546.660173
584.730906	17675.293615
585.084037	17706.044654
585.437113	17570.101538
585.790135	17541.787058
586.143103	17429.369327
586.496016	17478.772635
586.848874	17510.279846
587.201679	17453.482846
587.554428	17212.347654
587.907124	17312.078481
588.259765	17183.445038
588.612352	17203.861712
588.964884	17049.518385
589.317362	17107.575673
589.669786	17028.681615
590.022155	16906.097558
590.374470	17059.768731
590.726731	16860.559135
591.078937	16649.082731
591.431090	16608.249385
591.783188	16502.133096
592.135232	16318.467058
592.487222	16400.721885
592.839157	16393.664269
593.191038	16296.790096
593.542866	16165.215981
593.894639	15850.984058
594.246358	15918.031404
594.598022	15853.504635
594.949633	15644.800865
595.301190	15573.552558
595.652692	15480.627288
596.004141	15553.976077
596.355535	15184.711558
596.706876	15108.086019
597.058162	15046.583942
597.409395	15113.967365
597.760573	15072.965981
598.111698	14802.424058
598.462768	14797.718981
598.813785	14715.212096
599.164748	14466.599192
599.515657	14523.564231
599.866511	14270.582327
600.217312	14381.235654
600.568060	13958.870981
600.918753	14137.579885
601.269392	14047.427250
601.619978	13864.937481
601.970510	13810.745077
602.320988	13769.071538
602.671412	13761.341769
603.021783	13589.102346
603.372100	13431.986385
603.722363	13373.424981
604.072572	13283.776462
604.422728	13243.951346
604.772830	13082.550404
605.122878	12945.010923
605.472872	12815.789346
605.822813	12761.008808
606.172701	12650.271462
606.522534	12603.052654
606.872314	12563.479596
607.222041	12438.122904
607.571714	12393.676731
607.921333	12142.459231
608.270899	12093.644058
608.620411	12103.054212
608.969870	11889.309288
609.319276	11820.329500
609.668627	11722.699154
610.017926	11732.529404
610.367171	11625.152827
610.716362	11523.405538
611.065500	11423.422654
611.414585	11320.499096
611.763616	11318.902731
612.112594	11136.581000
612.461518	11116.584423
612.810389	11037.102231
613.159207	10896.622077
613.507971	10772.861750
613.856682	10774.458115
614.205340	10625.071923
614.553945	10665.821250
614.902496	10456.949442
615.250994	10384.608885
615.599439	10299.497404
615.947830	10227.660962
616.296169	10118.351942
616.644454	10020.385519
616.992686	9961.067942
617.340864	9931.157096
617.688990	9764.715000
618.037063	9752.868288
618.385082	9646.752000
618.733048	9631.712558
619.080961	9529.461154
619.428821	9383.939846
619.776628	9312.691538
620.124382	9150.282365
620.472083	9091.384885
620.819731	9067.355385
621.167326	8882.092981
621.514868	8777.489038
621.862357	8627.598731
622.209793	8529.968385
622.557176	8361.341788
622.904506	8225.986808
623.251783	8095.420923
623.599007	7973.845096
623.946179	7846.976058
624.293297	7729.433154
624.640363	7551.900519
624.987376	7457.883000
625.334336	7329.921712
625.681243	7191.037923
626.028097	7093.995712
626.374899	7017.538212
626.721647	6946.625981
627.068343	6812.615308
627.414987	6732.040865
627.761577	6613.069635
628.108115	6559.549385
628.454600	6466.456077
628.801032	6411.507500
629.147412	6321.270846
629.493739	6265.314038
629.840014	6199.022865
630.186236	6134.832173
630.532405	6025.355115
630.878521	5996.620538
631.224585	5921.171269
631.570597	5826.817673
631.916556	5797.831038
632.262462	5727.254885
632.608316	5642.815558
632.954117	5616.097442
633.299866	5541.992481
633.645562	5470.240058
633.991206	5399.915962
634.336797	5316.316827
634.682336	5242.211865
635.027823	5169.199154
635.373257	5098.791038
635.718639	5026.198423
636.063968	4960.075288
636.409245	4877.736442
636.754470	4825.056385
637.099642	4766.747038
637.444762	4693.566288
637.789829	4631.728135
638.134845	4587.786077
638.479808	4544.684212
638.824719	4498.809712
639.169577	4421.848096
639.514383	4399.583000
639.859137	4345.306577
640.203839	4296.575423
640.548489	4256.330212
640.893086	4230.452288
641.237632	4186.510231
641.582125	4157.019481
641.926566	4131.561654
642.270955	4093.080846
642.615292	4067.707038
642.959576	4019.395981
643.303809	3988.308865
643.647990	3955.877442
643.992118	3917.732712
644.336195	3914.287923
644.680219	3874.882904
645.024192	3866.733038
645.368112	3881.772481
645.711981	3832.285154
646.055797	3867.909308
646.399562	3837.326308
646.743274	3841.107173
647.086935	3846.148327
647.430544	3843.123635
647.774101	3828.000173
648.117606	3799.097558
648.461059	3788.175058
648.804460	3775.656192
649.147810	3717.346846
649.491108	3685.335519
649.834354	3638.536808
650.177548	3602.996673
650.520690	3572.245635
650.863781	3554.265519
651.206820	3521.666058
651.549807	3491.335115
651.892742	3467.557673
652.235626	3458.399577
652.578458	3434.454096
652.921238	3377.657096
653.263967	3360.349135
653.606644	3347.326154
653.949269	3341.360788
654.291843	3318.675596
654.634365	3307.921135
654.976836	3291.789442
655.319255	3271.876885
655.661622	3259.274000
656.003938	3235.076462
656.346203	3223.397788
656.688416	3231.127558
657.030577	3209.702654
657.372687	3190.210192
657.714746	3188.613827
658.056753	3160.467385
658.398708	3131.816827
658.740612	3146.352154
659.082465	3132.152904
659.424266	3134.253385
659.766016	3118.877865
660.107715	3111.484173
660.449362	3105.518808
660.790958	3098.881288
661.132503	3078.044519
661.473996	3062.500962
661.815438	3069.558577
662.156829	3064.265365
662.498168	3034.270500
662.839456	3047.797596
663.180693	3025.280442
663.521879	3013.013635
663.863013	3014.189904
664.204097	3004.779750
664.545129	3012.593538
664.886110	2991.504712
665.227040	2988.732077
665.567918	2982.682692
665.908746	2986.631596
666.249522	2975.877135
666.590248	2968.147365
666.930922	2952.015673
667.271545	2956.720750
667.612118	2959.325346
667.952639	2943.025615
668.293109	2938.488577
668.633528	2934.119577
668.973896	2925.381577
669.314213	2924.457365
669.654480	2916.139462
669.994695	2910.594192
670.334859	2893.370250
670.674973	2883.876077
671.015035	2893.370250
671.355047	2884.884308
671.695008	2860.350692
672.034918	2877.910712
672.374777	2870.601038
672.714585	2843.294788
673.054342	2845.059192
673.394049	2843.546846
673.733705	2844.807135
674.073310	2847.327712
674.412864	2825.062615
674.752368	2825.566731
675.091820	2823.970365
675.431223	2819.265288
675.770574	2820.273519
676.109875	2815.316385
676.449125	2808.594846
676.788324	2812.543750
677.127473	2794.479615
677.466571	2794.143538
677.805619	2788.094154
678.144616	2778.684000
678.483562	2786.161712
678.822458	2793.891481
679.161303	2762.048192
679.500098	2762.216231
679.838842	2760.031731
680.177535	2747.848942
680.516179	2743.143865
680.854771	2751.629808
681.193314	2762.216231
681.531805	2765.829058
681.870247	2775.827346
682.208638	2759.779673
682.546978	2774.315000
682.885268	2767.005327
683.223508	2764.820827
683.561697	2765.997096
683.899836	2751.881865
684.237925	2748.269038
684.575963	2737.010462
684.913951	2743.563962
685.251889	2737.430558
685.589776	2737.682615
685.927614	2739.615058
686.265401	2738.942904
686.603137	2744.740231
686.940824	2724.827673
687.278460	2751.713827
687.616046	2739.110942
687.953582	2737.934673
688.291068	2746.588654
688.628504	2733.397635
688.965889	2720.206615
689.303224	2731.633231
689.640510	2730.204904
689.977745	2728.188442
690.314930	2712.896942
690.652065	2722.727192
690.989150	2706.175404
691.326185	2700.882192
691.663170	2693.908596
692.000105	2683.658250
692.336990	2682.986096
692.673825	2680.969635
693.010610	2675.340346
693.347345	2680.297481
693.684030	2674.836231
694.020665	2682.902077
694.357251	2665.594115
694.693786	2658.368462
695.030272	2671.223404
695.366707	2675.340346
695.703093	2669.543019
696.039429	2664.081769
696.375716	2655.091712
696.711952	2655.343769
697.048139	2646.605769
697.384276	2642.656865
697.720363	2657.444250
698.056400	2668.870865
698.392388	2653.831423
698.728326	2661.813250
699.064214	2651.394865
699.400053	2646.941846
699.735842	2640.304327
700.071581	2634.507000
700.407270	2637.951788
700.742910	2629.969962
701.078501	2648.370173
701.414042	2641.732654
701.749533	2637.783750
702.084974	2638.539923
702.420366	2630.558096
702.755709	2623.416462
703.091002	2619.467558
703.426246	2633.582788
703.761440	2637.951788
704.096584	2621.147942
704.431679	2614.510423
704.766725	2628.121538
705.101721	2635.263173
705.436668	2630.390058
705.771565	2619.299519
706.106413	2619.215500
706.441212	2617.199038
706.775961	2619.551577
707.110661	2619.047462
707.445311	2617.955212
707.779913	2609.889365
708.114465	2616.442865
708.448967	2613.082096
708.783421	2637.111596
709.117825	2627.197327
709.452180	2608.713096
709.786485	2621.147942
710.120742	2619.299519
710.454949	2621.484019
710.789107	2641.396577
711.123216	2622.828327
711.457275	2639.212077
711.791286	2634.422981
712.125247	2623.836558
712.459159	2633.498769
712.793023	2626.189096
713.126837	2634.591019
713.460602	2625.684981
713.794318	2635.263173
714.127985	2622.660288
714.461602	2625.600962
714.795171	2605.520365
715.128691	2619.803635
715.462162	2622.828327
715.795584	2617.199038
716.128957	2618.711385
716.462281	2615.686692
716.795556	2631.482308
717.128782	2611.989846
717.461960	2624.592731
717.795088	2611.317692
718.128167	2621.484019
718.461198	2611.149654
718.794180	2606.192519
719.127113	2615.602673
719.459997	2606.780654
719.792833	2601.067346
720.125619	2604.764192
720.458357	2606.948692
720.791046	2599.302942
721.123686	2603.755962
721.456278	2618.039231
721.788821	2602.159596
722.121315	2617.703154
722.453761	2611.989846
722.786158	2595.270019
723.118506	2613.922288
723.450805	2604.008019
723.783056	2609.889365
724.115259	2593.841692
724.447412	2592.161308
724.779518	2601.235385
725.111574	2609.133192
725.443582	2613.418173
725.775542	2600.899308
726.107453	2595.101981
726.439315	2614.342385
726.771129	2624.424692
727.102895	2603.839981
727.434612	2613.418173
727.766281	2606.276538
728.097901	2589.052596
728.429473	2609.973385
728.760996	2605.268308
729.092471	2607.956923
729.423897	2597.538538
729.755276	2594.177769
730.086606	2618.879423
730.417887	2609.553288
730.749120	2600.647250
731.080305	2604.092038
731.411442	2600.479212
731.742530	2595.270019
732.073570	2601.991558
732.404562	2607.116731
732.735506	2620.811865
733.066401	2596.866385
733.397249	2595.101981
733.728048	2614.930519
734.058798	2605.436346
734.389501	2595.186000
734.720156	2611.737788
735.050762	2611.485731
735.381320	2588.296423
735.711831	2606.192519
736.042293	2602.243615
736.372707	2589.388673
736.703073	2616.022769
737.033391	2597.034423
737.363661	2602.243615
737.693883	2602.663712
738.024056	2592.917481
738.354182	2604.764192
738.684260	2603.251846
739.014290	2599.555000
739.344272	2604.512135
739.674207	2604.512135
740.004093	2611.317692
740.333931	2606.192519
740.663722	2590.228865
740.993464	2592.497385
741.323159	2590.480923
741.652806	2604.848212
741.982405	2592.497385
742.311956	2605.100269
742.641460	2601.739500
742.970915	2597.034423
743.300323	2591.825231
743.629683	2594.093750
743.958996	2597.454519
744.288260	2596.866385
744.617477	2592.413365
744.946647	2583.843404
745.275768	2596.614327
745.604842	2600.059115
745.933869	2596.950404
746.262847	2602.831750
746.591778	2597.790596
746.920662	2594.933942
747.249498	2583.927423
747.578286	2594.009731
747.907027	2605.436346
748.235720	2580.398615
748.564365	2584.179481
748.892963	2589.472692
749.221514	2590.648962
749.550017	2588.968577
749.878473	2589.388673
750.206881	2587.792308
750.535242	2578.718231
750.863555	2582.499096
751.191821	2602.159596
751.520039	2598.714808
751.848210	2589.976808
752.176334	2600.563231
752.504411	2608.881135
752.832440	2593.925712
753.160421	2582.751154
753.488356	2605.940462
753.816243	2578.970288
754.144082	2585.439769
754.471875	2594.933942
754.799620	2586.868096
755.127318	2593.421596
755.454969	2591.657192
755.782572	2606.360558
756.110129	2592.161308
756.437638	2583.759385
756.765100	2589.892788
757.092515	2594.933942
757.419882	2584.599577
757.747203	2593.001500
758.074477	2593.505615
758.401703	2593.085519
758.728882	2600.563231
759.056014	2594.597865
759.383099	2587.876327
759.710138	2590.060827
760.037129	2590.901019
760.364073	2591.657192
760.690970	2591.909250
761.017820	2590.144846
761.344623	2582.919192
761.671379	2616.610904
761.998088	2588.632500
762.324751	2584.683596
762.651366	2603.335865
762.977935	2591.825231
763.304456	2603.503904
763.630931	2614.174346
763.957359	2605.268308
764.283740	2599.975096
764.610074	2605.772423
764.936362	2602.495673
765.262602	2592.917481
765.588796	2597.118442
765.914943	2587.288192
766.241044	2597.790596
766.567097	2582.583115
766.893104	2607.704865
767.219064	2582.919192
767.544978	2570.904442
767.870845	2578.046077
768.196665	2599.134904
768.522438	2590.312885
768.848165	2592.833462
769.173846	2590.985038
769.499479	2589.556712
769.825066	2580.398615
770.150607	2583.759385
770.476101	2590.144846
770.801548	2597.958635
771.126949	2585.775846
771.452303	2585.607808
771.777611	2573.509038
772.102872	2589.220635
772.428087	2592.833462
772.753256	2589.388673
773.078378	2585.523788
773.403453	2596.698346
773.728482	2583.339288
774.053465	2589.052596
774.378401	2580.818712
774.703291	2592.077288
775.028135	2585.859865
775.352932	2592.581404
775.677683	2590.901019
776.002388	2579.390385
776.327046	2581.994981
776.651658	2579.138327
776.976224	2592.161308
777.300743	2574.517269
777.625216	2594.261788
777.949643	2575.441481
778.274024	2581.406846
778.598359	2588.800538
778.922647	2583.843404
779.246889	2584.347519
779.571086	2585.775846
779.895236	2590.396904
780.219339	2575.021385
780.543397	2588.800538
780.867409	2577.205885
781.191374	2581.070769
781.515294	2579.306365
781.839167	2590.144846
782.162995	2572.500808
782.486776	2585.103692
782.810511	2589.136615
783.134201	2580.146558
783.457844	2585.103692
783.781441	2597.874615
784.104993	2587.456231
784.428498	2583.507327
784.751958	2588.128385
785.075372	2575.777558
785.398739	2579.726462
785.722061	2584.011442
786.045337	2585.271731
786.368568	2581.994981
786.691752	2590.312885
787.014891	2588.632500
787.337983	2595.101981
787.661030	2580.734692
787.984031	2585.187712
788.306987	2581.406846
788.629897	2588.884558
788.952760	2597.202462
789.275579	2584.599577
789.598351	2594.765904
789.921078	2584.599577
790.243759	2577.625981
790.566395	2586.784077
790.888984	2581.910962
791.211529	2595.270019
791.534027	2594.765904
791.856480	2589.640731
792.178888	2599.302942
792.501249	2594.429827
792.823566	2581.658904
793.145836	2572.584827
793.468062	2582.331058
793.790241	2584.683596
794.112375	2600.899308
794.434464	2576.701769
794.756507	2591.825231
795.078505	2580.818712
795.400457	2586.700058
795.722364	2572.920904
796.044226	2606.360558
796.366042	2567.795731
796.687812	2584.935654
797.009538	2595.858154
797.331218	2569.728173
797.652852	2597.622558
797.974442	2582.919192
798.295986	2593.841692
798.617484	2599.975096
798.938938	2579.894500
799.260346	2606.108500
799.581709	2579.390385
799.903026	2596.278250
800.224299	2599.050885
800.545526	2581.574885
800.866708	2584.935654
801.187845	2582.499096
801.508936	2599.807058
801.829983	2587.540250
802.150984	2592.245327
802.471940	2576.449712
802.792851	2587.540250
803.113717	2576.533731
803.434538	2576.953827
803.755314	2580.650673
804.076045	2579.138327
804.396731	2582.331058
804.717372	2569.056019
805.037967	2588.128385
805.358518	2588.548481
805.679024	2578.550192
805.999485	2576.701769
806.319901	2590.480923
806.640272	2579.810481
806.960598	2563.342712
807.280879	2581.406846
807.601115	2573.677077
807.921306	2578.970288
808.241453	2567.879750
808.561554	2587.876327
808.881611	2586.027904
809.201623	2598.378731
809.521590	2580.734692
809.841513	2581.742923
810.161390	2592.077288
810.481223	2585.943885
810.801011	2572.164731
811.120755	2592.917481
811.440453	2591.321115
811.760107	2567.291615
812.079716	2595.438058
812.399281	2584.263500
812.718801	2581.490865
813.038276	2598.378731
813.357707	2580.482635
813.677093	2592.581404
813.996434	2570.232288
814.315731	2572.164731
814.634983	2588.212404
814.954191	2587.792308
815.273354	2576.281673
815.592473	2594.093750
815.911547	2596.362269
816.230577	2582.331058
816.549562	2565.863288
816.868502	2565.863288
817.187399	2584.851635
817.506250	2585.439769
817.825058	2595.354038
818.143821	2586.279962
818.462539	2565.275154
818.781213	2598.378731
819.099843	2600.731269
819.418429	2592.497385
819.736970	2594.933942
820.055466	2576.617750
820.373919	2582.835173
820.692327	2594.513846
821.010691	2598.966865
821.329011	2611.065635
821.647286	2617.199038
821.965517	2630.222019
822.283704	2651.058788
822.601847	2643.245000
822.919945	2652.991231
823.237999	2648.118115
823.556010	2635.179154
823.873976	2650.554673
824.191897	2613.502192
824.509775	2627.029288
824.827609	2616.778942
825.145398	2614.930519
825.463144	2601.067346
825.780845	2603.755962
826.098502	2607.788885
826.416116	2617.703154
826.733685	2609.553288
827.051210	2616.946981
827.368692	2618.795404
827.686129	2612.409942
828.003522	2623.920577
828.320872	2602.411654
828.638177	2584.095462
828.955439	2585.607808
829.272656	2598.882846
829.589830	2590.144846
829.906960	2593.421596
830.224046	2607.200750
830.541088	2586.784077
830.858086	2583.171250
831.175041	2594.009731
831.491952	2577.289904
831.808819	2585.943885
832.125642	2588.380442
832.442421	2580.986750
832.759157	2601.319404
833.075849	2580.146558
833.392497	2597.370500
833.709101	2598.126673
834.025662	2594.429827
834.342179	2593.757673
834.658653	2599.723038
834.975083	2597.286481
835.291469	2615.770712
835.607811	2590.228865
835.924110	2587.288192
836.240366	2583.087231
836.556578	2590.480923
836.872746	2579.642442
837.188871	2586.700058
837.504952	2587.456231
837.820990	2573.677077
838.136984	2591.573173
838.452935	2578.130096
838.768842	2573.088942
839.084706	2581.322827
839.400526	2581.238808
839.716303	2592.245327
840.032037	2593.169538
840.347727	2586.868096
840.663373	2565.107115
840.978977	2584.767615
841.294537	2577.625981
841.610054	2584.851635
841.925527	2593.001500
842.240957	2592.665423
842.556344	2583.003212
842.871687	2587.036135
843.186987	2597.958635
843.502244	2576.113635
843.817458	2577.794019
844.132629	2578.970288
844.447756	2587.792308
844.762840	2581.322827
845.077881	2579.726462
845.392879	2585.523788
845.707833	2598.798827
846.022745	2576.365692
846.337613	2579.642442
846.652438	2592.833462
846.967221	2576.449712
847.281960	2582.331058
847.596656	2584.347519
847.911309	2589.640731
848.225919	2575.861577
848.540485	2575.273442
848.855009	2573.172962
849.169490	2572.416788
849.483928	2580.734692
849.798323	2572.248750
850.112675	2576.281673
850.426984	2584.935654
850.741251	2582.583115
851.055474	2580.230577
851.369654	2572.416788
851.683792	2580.734692
851.997887	2584.683596
852.311938	2580.482635
852.625947	2589.976808
852.939914	2583.591346
853.253837	2572.836885
853.567718	2584.179481
853.881555	2575.441481
854.195350	2583.255269
854.509103	2577.962058
854.822812	2578.298135
855.136479	2574.265212
855.450103	2586.111923
855.763685	2576.365692
856.077224	2567.375635
856.390720	2582.331058
856.704173	2585.355750
857.017584	2589.808769
857.330953	2582.247038
857.644278	2578.970288
857.957561	2605.520365
858.270802	2585.355750
858.584000	2585.271731
858.897155	2583.843404
859.210268	2567.627692
859.523339	2581.574885
859.836367	2587.540250
860.149352	2572.080712
860.462295	2569.056019
860.775195	2579.642442
861.088054	2587.288192
861.400869	2569.140038
861.713642	2567.291615
862.026373	2576.617750
862.339062	2584.851635
862.651708	2569.728173
862.964312	2571.492577
863.276873	2594.765904
863.589392	2588.212404
863.901869	2574.265212
864.214303	2575.945596
864.526696	2589.136615
864.839045	2582.331058
865.151353	2578.802250
865.463619	2595.101981
865.775842	2588.968577
866.088023	2583.507327
866.400162	2567.291615
866.712258	2586.279962
867.024313	2563.342712
867.336325	2590.564942
867.648296	2582.415077
867.960224	2588.548481
868.272110	2571.576596
868.583954	2569.896212
868.895755	2601.655481
869.207515	2585.355750
869.519233	2570.400327
869.830909	2575.273442
870.142542	2574.181192
870.454134	2575.693538
870.765684	2591.909250
871.077191	2571.660615
871.388657	2569.224058
871.700081	2592.833462
872.011463	2570.988462
872.322803	2584.011442
872.634101	2585.019673
872.945357	2574.013154
873.256571	2587.876327
873.567744	2582.247038
873.878874	2584.431538
874.189963	2573.593058
874.501010	2594.345808
874.812015	2581.406846
875.122979	2583.087231
875.433900	2561.494288
875.744780	2584.935654
876.055618	2587.960346
876.366415	2581.910962
876.677169	2580.230577
876.987882	2584.851635
877.298554	2574.265212
877.609183	2583.927423
877.919771	2585.271731
878.230317	2568.383865
878.540822	2586.027904
878.851285	2580.398615
879.161707	2587.792308
879.472087	2580.650673
879.782425	2581.070769
880.092722	2594.009731
880.402977	2599.134904
880.713191	2591.489154
881.023363	2603.419885
881.333494	2598.882846
881.643583	2604.596154
881.953631	2595.438058
882.263637	2605.520365
882.573602	2608.461038
882.883526	2625.264885
883.193408	2614.090327
883.503248	2605.604385
883.813048	2603.335865
884.122806	2589.052596
884.432522	2589.136615
884.742197	2579.810481
885.051831	2589.976808
885.361424	2581.826942
885.670975	2590.480923
885.980485	2588.548481
886.289954	2580.398615
886.599382	2590.985038
886.908768	2573.845115
887.218113	2589.304654
887.527417	2577.541962
887.836680	2602.747731
888.145901	2600.815288
888.455082	2582.247038
888.764221	2585.019673
889.073319	2584.851635
889.382376	2579.726462
889.691392	2576.953827
890.000366	2601.235385
890.309300	2590.648962
890.618193	2590.564942
890.927044	2583.591346
891.235855	2585.271731
891.544625	2586.616038
891.853353	2589.220635
892.162041	2582.667135
892.470687	2582.499096
892.779293	2579.810481
893.087858	2593.589635
893.396381	2589.136615
893.704864	2570.904442
894.013306	2581.238808
894.321707	2592.665423
894.630068	2584.599577
894.938387	2597.454519
895.246665	2574.181192
895.554903	2584.011442
895.863100	2591.993269
896.171256	2597.034423
896.479371	2582.247038
896.787446	2594.933942
897.095480	2586.784077
897.403473	2582.247038
897.711425	2577.037846
898.019336	2584.935654
898.327207	2581.658904
898.635038	2589.388673
898.942827	2565.863288
899.250576	2585.355750
899.558284	2575.693538
899.865952	2583.759385
900.173579	2584.515558
900.481165	2572.500808
900.788711	2567.879750
901.096216	2589.808769
901.403681	2580.146558
901.711105	2576.953827
902.018489	2574.013154
902.325832	2575.777558
902.633135	2572.752865
902.940397	2574.517269
903.247619	2581.994981
903.554800	2594.261788
903.861941	2592.161308
904.169041	2592.497385
904.476101	2587.708288
904.783121	2593.169538
905.090100	2588.548481
905.397039	2588.380442
905.703938	2595.101981
906.010796	2588.296423
906.317614	2588.044365
906.624391	2577.289904
906.931129	2580.566654
907.237826	2573.509038
907.544483	2575.441481
907.851099	2587.876327
908.157675	2586.363981
908.464211	2592.833462
908.770707	2590.144846
909.077163	2578.718231
909.383578	2583.927423
909.689954	2570.820423
909.996289	2580.230577
910.302584	2572.500808
910.608839	2586.111923
910.915054	2567.039558
911.221229	2562.922615
911.527363	2585.775846
911.833458	2579.138327
912.139513	2564.939077
912.445527	2581.826942
912.751502	2576.113635
913.057436	2584.095462
913.363331	2597.202462
913.669186	2557.209308
913.975000	2584.515558
914.280775	2591.825231
914.586510	2567.207596
914.892205	2577.457942
915.197859	2588.548481
915.503475	2582.331058
915.809050	2592.581404
916.114585	2586.279962
916.420081	2585.439769
916.725536	2583.087231
917.030952	2576.029615
917.336328	2595.017962
917.641665	2584.851635
917.946961	2578.718231
918.252218	2582.919192
918.557435	2593.001500
918.862612	2592.329346
919.167750	2586.195942
919.472848	2589.472692
919.777906	2568.299846
920.082925	2594.261788
920.387904	2574.601288
920.692843	2583.171250
920.997743	2578.382154
921.302603	2580.650673
921.607423	2586.784077
921.912204	2601.319404
922.216946	2582.751154
922.521647	2578.886269
922.826310	2575.609519
923.130932	2583.171250
923.435516	2584.179481
923.740059	2574.181192
924.044564	2588.128385
924.349028	2560.318019
924.653454	2561.410269
924.957840	2581.406846
925.262186	2571.744635
925.566493	2584.431538
925.870761	2581.490865
926.174989	2588.296423
926.479178	2582.415077
926.783328	2574.517269
927.087438	2579.810481
927.391509	2566.031327
927.695541	2570.064250
927.999533	2570.988462
928.303486	2574.433250
928.607400	2577.794019
928.911275	2583.507327
929.215110	2566.115346
929.518906	2577.205885
929.822663	2583.339288
930.126381	2590.396904
930.430060	2584.347519
930.733699	2586.363981
931.037299	2581.406846
931.340861	2572.500808
931.644383	2589.136615
931.947866	2577.373923
932.251309	2576.197654
932.554714	2579.474404
932.858080	2587.036135
933.161407	2582.415077
933.464694	2582.667135
933.767943	2559.645865
934.071153	2575.105404
934.374323	2565.695250
934.677455	2574.433250
934.980548	2580.062538
935.283602	2589.304654
935.586617	2567.375635
935.889593	2574.937365
936.192530	2583.171250
936.495428	2581.238808
936.798287	2591.069058
937.101108	2570.064250
937.403890	2577.205885
937.706632	2589.052596
938.009336	2585.859865
938.312002	2585.355750
938.614628	2580.062538
938.917216	2573.509038
939.219765	2582.331058
939.522275	2572.248750
939.824747	2582.919192
940.127179	2569.308077
940.429573	2591.321115
940.731929	2581.490865
941.034246	2570.652385
941.336524	2584.431538
941.638763	2601.991558
941.940964	2588.044365
942.243126	2571.492577
942.545250	2579.474404
942.847335	2578.802250
943.149381	2567.879750
943.451389	2569.140038
943.753359	2578.886269
944.055290	2583.255269
944.357182	2583.423308
944.659036	2578.382154
944.960851	2589.052596
945.262628	2582.835173
945.564367	2554.268635
945.866067	2578.718231
946.167729	2575.945596
946.469352	2574.349231
946.770937	2584.515558
947.072484	2575.777558
947.373992	2585.355750
947.675462	2574.517269
947.976893	2569.812192
948.278286	2569.812192
948.579641	2571.408558
948.880958	2574.013154
949.182236	2579.558423
949.483476	2564.771038
949.784678	2577.289904
950.085841	2564.350942
950.386967	2575.609519
950.688054	2578.634212
950.989103	2580.566654
951.290114	2591.825231
951.591087	2567.039558
951.892021	2564.687019
952.192917	2575.105404
952.493776	2562.838596
952.794596	2575.693538
953.095378	2581.826942
953.396122	2583.675365
953.696828	2570.988462
953.997496	2576.281673
954.298126	2567.711712
954.598718	2576.953827
954.899272	2577.289904
955.199788	2560.822135
955.500266	2579.054308
955.800706	2580.062538
956.101108	2585.691827
956.401472	2586.027904
956.701798	2568.215827
957.002087	2568.887981
957.302337	2579.054308
957.602550	2591.069058
957.902724	2581.154788
958.202861	2562.418500
958.502960	2560.822135
958.803022	2574.265212
959.103045	2566.283385
959.403031	2576.113635
959.702979	2578.550192
960.002889	2574.685308
960.302762	2576.197654
960.602596	2565.611231
960.902393	2576.365692
961.202153	2571.072481
961.501875	2563.594769
961.801559	2561.410269
962.101205	2567.543673
962.400814	2572.584827
962.700385	2561.074192
962.999918	2579.642442
963.299414	2578.634212
963.598873	2584.431538
963.898293	2574.937365
964.197677	2584.767615
964.497022	2555.696962
964.796331	2572.668846
965.095601	2596.026192
965.394835	2570.316308
965.694030	2566.955538
965.993189	2576.533731
966.292309	2551.411981
966.591393	2567.123577
966.890439	2577.457942
967.189447	2581.238808
967.488419	2571.996692
967.787353	2555.108827
968.086249	2573.845115
968.385108	2567.123577
968.683930	2577.710000
968.982714	2561.998404
969.281462	2577.710000
969.580172	2563.930846
969.878844	2574.853346
970.177480	2577.205885
970.476078	2581.574885
970.774639	2585.523788
971.073162	2581.070769
971.371649	2576.617750
971.670098	2573.509038
971.968510	2592.833462
972.266885	2581.238808
972.565223	2573.845115
972.863524	2556.621173
973.161788	2571.156500
973.460014	2571.912673
973.758204	2570.736404
974.056356	2579.390385
974.354471	2574.517269
974.652550	2565.275154
974.950591	2568.635923
975.248595	2582.331058
975.546563	2575.105404
975.844493	2578.550192
976.142386	2578.214115
976.440243	2575.273442
976.738062	2573.341000
977.035845	2573.845115
977.333590	2583.339288
977.631299	2576.197654
977.928971	2574.265212
978.226606	2568.887981
978.524204	2571.996692
978.821765	2585.019673
979.119290	2579.054308
979.416777	2564.687019
979.714228	2583.087231
980.011642	2566.031327
980.309020	2588.800538
980.606360	2574.685308
980.903664	2580.146558
981.200931	2569.056019
981.498162	2561.914385
981.795356	2574.601288
982.092513	2570.064250
982.389633	2583.255269
982.686717	2568.551904
982.983764	2571.324538
983.280775	2572.668846
983.577749	2576.533731
983.874686	2583.759385
984.171587	2579.390385
984.468451	2575.945596
984.765279	2579.894500
985.062070	2588.296423
985.358824	2583.087231
985.655543	2567.711712
985.952224	2560.990173
986.248869	2560.149981
986.545478	2572.080712
986.842050	2593.253558
987.138586	2578.718231
987.435086	2567.459654
987.731549	2576.281673
988.027975	2566.451423
988.324366	2579.726462
988.620719	2573.845115
988.917037	2569.980231
989.213318	2564.098885
989.509563	2552.756288
989.805772	2566.115346
990.101944	2574.097173
990.398080	2560.738115
990.694180	2564.771038
990.990244	2573.425019
991.286271	2567.459654
991.582262	2566.115346
991.878217	2591.741212
992.174136	2576.785788
992.470019	2582.499096
992.765865	2569.896212
993.061676	2564.939077
993.357450	2573.172962
993.653188	2568.047788
993.948890	2567.879750
994.244556	2574.685308
994.540186	2589.304654
994.835780	2580.398615
995.131337	2569.560135
995.426859	2563.090654
995.722345	2558.217538
996.017795	2571.240519
996.313208	2567.795731
996.608586	2568.551904
996.903928	2577.457942
997.199234	2575.189423
997.494504	2565.275154
997.789738	2583.087231
998.084936	2566.619462
998.380099	2590.312885
998.675225	2581.826942
998.970316	2581.490865
999.265371	2558.889692
999.560390	2582.667135
999.855373	2575.945596
1000.150320	2571.492577
1000.445232	2569.896212
1000.740108	2566.283385
1001.034948	2584.347519
1001.329752	2577.121865
1001.624521	2570.736404
1001.919254	2580.902731
1002.213951	2583.255269
1002.508613	2576.701769
1002.803239	2575.525500
1003.097829	2563.342712
1003.392384	2585.271731
1003.686903	2569.476115
1003.981386	2590.060827
1004.275834	2575.105404
1004.570246	2582.415077
1004.864623	2581.574885
1005.158964	2577.457942
1005.453270	2585.187712
1005.747540	2572.836885
1006.041775	2562.754577
1006.335974	2574.349231
1006.630138	2586.616038
1006.924266	2558.721654
1007.218359	2592.749442
1007.512416	2581.994981
1007.806438	2565.947308
1008.100425	2580.314596
1008.394376	2565.863288
1008.688292	2581.658904
1008.982172	2572.920904
1009.276017	2573.509038
1009.569827	2563.510750
1009.863602	2566.115346
1010.157341	2566.619462
1010.451045	2572.500808
1010.744714	2564.350942
1011.038347	2585.607808
1011.331945	2587.036135
1011.625508	2577.710000
1011.919036	2580.986750
1012.212528	2564.603000
1012.505986	2570.232288
1012.799408	2570.736404
1013.092795	2572.836885
1013.386147	2567.795731
1013.679464	2572.920904
1013.972745	2577.289904
1014.265992	2576.533731
1014.559204	2567.291615
1014.852380	2565.443192
1015.145521	2563.342712
1015.438628	2570.316308
1015.731699	2583.171250
1016.024736	2579.726462
1016.317737	2571.744635
1016.610703	2563.762808
1016.903635	2575.105404
1017.196531	2563.846827
1017.489393	2576.365692
1017.782219	2562.502519
1018.075011	2552.924327
1018.367768	2574.937365
1018.660490	2559.813904
1018.953177	2559.813904
1019.245829	2559.813904
