Dividing Wavelength (nm)	Counts (n)	Slit_number_19_of_a_total_of_40	
326.493990	2043.708975
326.888308	2043.708975
327.282561	2043.708975
327.676750	2018.528412
328.070874	2021.401869
328.464933	2027.426048
328.858929	2031.786646
329.252859	2049.783565
329.646726	2056.488300
330.040528	2073.955898
330.434265	2093.767633
330.827938	2109.874119
331.221547	2137.751700
331.615091	2148.514563
332.008571	2175.182267
332.401986	2190.255317
332.795338	2221.409648
333.188625	2239.255333
333.581847	2255.437437
333.975006	2269.199787
334.368100	2284.247631
334.761129	2306.958029
335.154095	2324.425627
335.546996	2345.699296
335.939833	2356.966275
336.332606	2369.115456
336.725315	2373.929758
337.117960	2390.817623
337.510540	2396.715773
337.903056	2407.755900
338.295508	2407.377813
338.687896	2420.787283
339.080220	2428.449837
339.472480	2430.592327
339.864676	2432.533171
340.256807	2430.844385
340.648875	2438.128852
341.040879	2439.439552
341.432818	2442.136569
341.824694	2448.488423
342.216506	2445.917435
342.608253	2429.130392
342.999937	2435.860333
343.391557	2429.886565
343.783113	2441.002310
344.174605	2434.171546
344.566033	2425.803231
344.957397	2430.718356
345.348697	2425.500762
345.739934	2428.853129
346.131106	2428.903540
346.522215	2423.786769
346.913260	2425.374733
347.304241	2415.242013
347.695159	2415.141190
348.086012	2418.417940
348.476802	2417.636562
348.867528	2423.207037
349.258191	2410.100037
349.648789	2414.611869
350.039324	2411.587177
350.429796	2412.015675
350.820203	2410.150448
351.210548	2406.848492
351.600828	2407.226579
351.991045	2410.226065
352.381198	2407.276990
352.771288	2409.444687
353.161314	2404.781619
353.551276	2410.478123
353.941175	2408.007958
354.331010	2408.033163
354.720782	2408.965777
355.110490	2408.764131
355.500135	2407.554254
355.889717	2409.671538
356.279235	2407.781106
356.668689	2408.562485
357.058080	2416.451890
357.447408	2410.881415
357.836672	2414.511046
358.225873	2403.470919
358.615010	2407.881929
359.004084	2415.065573
359.393095	2411.461148
359.782043	2416.880388
360.170927	2411.889646
360.559748	2420.988929
360.948505	2423.660740
361.337199	2427.164342
361.725830	2409.671538
362.114398	2417.611356
362.502903	2410.352094
362.891344	2406.520817
363.279722	2415.872158
363.668037	2422.425658
364.056289	2417.460121
364.444478	2414.208577
364.832603	2424.618560
365.220665	2418.493558
365.608665	2416.451890
365.996601	2418.518763
366.384474	2420.963723
366.772284	2420.736871
367.160031	2414.334606
367.547715	2420.812488
367.935336	2413.578433
368.322893	2417.409710
368.710388	2423.030596
369.097820	2419.249731
369.485189	2418.417940
369.872495	2423.081008
370.259738	2419.829463
370.646918	2420.661254
371.034035	2414.536252
371.421090	2426.786256
371.808081	2422.501275
372.195010	2421.946748
372.581875	2424.542942
372.968678	2420.610842
373.355418	2428.096956
373.742096	2418.972467
374.128710	2426.282140
374.515262	2435.784715
374.901751	2424.240473
375.288177	2421.719896
375.674540	2421.871131
376.060841	2426.861873
376.447079	2426.761050
376.833254	2422.929773
377.219367	2420.812488
377.605417	2432.583583
377.991404	2427.063519
378.377329	2433.919488
378.763191	2424.366502
379.148991	2431.373706
379.534727	2435.910744
379.920402	2433.768254
380.306013	2428.248190
380.691563	2432.810435
381.077049	2432.785229
381.462474	2427.038313
381.847835	2427.920515
382.233134	2429.206010
382.618371	2430.718356
383.003545	2430.415887
383.388657	2430.718356
383.773706	2436.162802
384.158693	2437.649942
384.543618	2432.255908
384.928480	2442.489450
385.313280	2430.592327
385.698017	2433.869077
386.082692	2435.053748
386.467305	2436.692123
386.851856	2434.322781
387.236344	2438.607762
387.620770	2441.506425
388.005133	2425.626790
388.389435	2436.868563
388.773674	2426.962696
389.157851	2428.953952
389.541965	2437.523913
389.926018	2438.910231
390.310008	2432.709612
390.693936	2441.934923
391.077802	2441.632454
391.461606	2441.657660
391.845348	2438.254881
392.229027	2442.741508
392.612645	2439.792433
392.996200	2443.774944
393.379694	2447.102106
393.763125	2440.825869
394.146494	2447.429781
394.529801	2441.556837
394.913047	2447.581015
395.296230	2443.396858
395.679351	2439.086671
396.062410	2438.733790
396.445408	2452.849021
396.828343	2451.739967
397.211217	2444.480706
397.594028	2444.959615
397.976778	2442.237392
398.359466	2444.253854
398.742092	2443.522887
399.124656	2447.202929
399.507158	2443.043977
399.889598	2443.674121
400.271977	2450.404062
400.654294	2444.909204
401.036549	2450.605708
401.418742	2442.716302
401.800874	2449.219390
402.182944	2456.579475
402.564952	2454.815071
402.946898	2442.791919
403.328783	2458.721965
403.710606	2450.555296
404.092367	2450.756942
404.474067	2454.915894
404.855705	2443.119594
405.237282	2455.646862
405.618797	2456.655092
406.000250	2464.645321
406.381642	2455.167952
406.762972	2458.343879
407.144240	2449.421037
407.525447	2461.368571
407.906593	2461.091308
408.287677	2453.529577
408.668700	2468.527010
409.049661	2467.796042
409.430560	2456.629887
409.811399	2463.737913
410.192176	2471.299644
410.572891	2463.284210
410.953545	2477.626292
411.334138	2480.121663
411.714669	2487.078456
412.095139	2484.154587
412.475547	2490.128354
412.855894	2501.395333
413.236180	2504.167967
413.616405	2508.528565
413.996568	2520.249248
414.376670	2526.676719
414.756711	2537.137113
415.136691	2552.714279
415.516609	2555.008004
415.896466	2580.012127
416.276262	2595.816144
416.655997	2635.036321
417.035670	2648.521408
417.415283	2684.212777
417.794834	2716.551779
418.174324	2737.094481
418.553753	2769.282248
418.933121	2813.820842
419.312428	2849.587829
419.691674	2885.808519
420.070859	2951.444342
420.449983	2984.690752
420.829045	3065.954152
421.208047	3108.829165
421.586988	3191.756146
421.965867	3273.574073
422.344686	3353.678008
422.723444	3465.516006
423.102141	3458.660037
423.480777	3620.808750
423.859352	3668.094773
424.237866	3865.380329
424.616319	3948.937454
424.994712	4110.178760
425.373044	4202.154612
425.751314	4408.010129
426.129524	4395.029158
426.507673	4673.149615
426.885762	4763.915590
427.263789	4913.738683
427.641756	5068.350871
428.019662	5215.300506
428.397508	5365.904977
428.775292	5553.587135
429.153016	5693.504360
429.530679	5839.823850
429.908282	5981.203010
430.285824	6055.156737
430.663305	6356.441296
431.040726	6374.665067
431.418086	6471.102340
431.795385	6755.700681
432.172624	7004.053125
432.549802	7014.916812
432.926920	7194.432300
433.303977	7284.744571
433.680974	7465.419525
434.057910	7673.720002
434.434786	7796.119217
434.811601	7897.320381
435.188355	8322.844177
435.565050	8335.976383
435.941683	8394.100887
436.318257	8812.390627
436.694770	8860.911733
437.071222	9187.679325
437.447614	8936.150954
437.823946	9020.136577
438.200218	9166.456067
438.576429	9145.560485
438.952580	9303.298188
439.328670	9350.029685
439.704700	9538.064723
440.080670	9418.589377
440.456580	9689.551396
440.832429	9786.669225
441.208218	9424.689173
441.583947	9586.560623
441.959616	9640.072471
442.335224	9753.800902
442.710773	9808.925919
443.086261	9990.231017
443.461689	9707.875990
443.837057	9759.774669
444.212365	9991.491306
444.587612	9925.880688
444.962800	9713.295231
445.337927	9841.693419
445.712995	9306.272469
446.088002	9915.823587
446.462949	9939.390981
446.837837	9921.041181
447.212664	9791.785996
447.587431	10583.423590
447.962139	11520.095181
448.336786	12336.106754
448.711374	11871.967719
449.085901	10488.145783
449.460369	10288.793354
449.834776	10060.681142
450.209124	10685.481750
450.583412	10430.928687
450.957640	10532.785200
451.331808	9991.012396
451.705917	9418.589377
452.079965	9267.707642
452.453954	9222.891785
452.827883	9047.434425
453.201752	8832.605654
453.575562	8718.650371
453.949311	8848.081996
454.323001	8714.768683
454.696632	8488.698138
455.070202	8710.408085
455.443713	8617.424002
455.817164	8566.256290
456.190556	8536.286631
456.563888	8268.248481
456.937160	8215.492806
457.310373	7699.480298
457.683526	7627.114535
458.056619	7448.254396
458.429653	7258.732217
458.802628	7208.925617
459.175542	7069.361273
459.548398	7111.404496
459.921194	7229.493525
460.293930	7186.316042
460.666607	7357.261569
461.039224	7494.809452
461.411782	7398.548619
461.784280	7067.874133
462.156719	6805.734133
462.529099	6547.072529
462.901419	6208.911929
463.273680	5889.983331
463.645882	5722.969904
464.018024	5575.390125
464.390106	5506.301112
464.762130	5616.929233
465.134094	5918.516262
465.505999	6325.866698
465.877845	6648.979454
466.249631	6588.258756
466.621358	6224.211831
466.993026	5811.013656
467.364634	5472.575792
467.736184	5161.763452
468.107674	4924.501546
468.479105	4743.423300
468.850477	4568.444850
469.221790	4376.729769
469.593043	4171.958100
469.964238	4020.799102
470.335373	3919.245058
470.706449	3890.787744
471.077467	3893.383938
471.448425	3989.745594
471.819324	4027.655071
472.190164	3897.416862
472.560945	3711.146227
472.931667	3531.403887
473.302330	3429.522167
473.672934	3340.394567
474.043479	3297.998463
474.413965	3231.404821
474.784393	3181.547810
475.154761	3144.192860
475.525070	3119.944910
475.895321	3066.357444
476.265513	3034.951056
476.635645	3020.861031
477.005719	2985.698983
477.375734	2962.786938
477.745691	2951.192285
478.115588	2941.034360
478.485427	2933.245777
478.855207	2942.244237
479.224928	2964.072433
479.594591	2952.780248
479.964194	2922.356885
480.333739	2906.779719
480.703226	2888.253479
481.072653	2876.986500
481.442022	2874.995244
481.811333	2861.283306
482.180584	2825.314673
482.549777	2811.905204
482.918912	2796.983388
483.287988	2781.859927
483.657005	2770.013215
484.025964	2761.745723
484.394864	2747.781727
484.763706	2739.337794
485.132489	2726.860938
485.501213	2713.476675
485.869879	2714.056408
486.238487	2700.898996
486.607036	2691.572862
486.975527	2680.961233
487.343959	2673.828000
487.712333	2678.239010
488.080648	2662.157729
488.448905	2659.990033
488.817104	2649.630462
489.185244	2644.538896
489.553326	2640.783237
489.921350	2648.218938
490.289315	2656.385608
490.657222	2644.211221
491.025070	2650.260606
491.392861	2625.684981
491.760593	2623.013169
492.128267	2607.688062
492.495883	2598.714808
492.863440	2590.270875
493.230939	2578.046077
493.598380	2570.257494
493.965763	2564.813048
494.333088	2563.073850
494.700354	2555.234856
495.067563	2557.150494
495.434713	2549.765204
495.801805	2546.916952
496.168839	2543.312527
496.535815	2538.851106
496.902733	2534.868594
497.269593	2541.623740
497.636395	2538.019315
498.003139	2530.255938
498.369825	2525.517254
498.736453	2527.382481
499.103023	2528.365506
499.469535	2527.684950
499.835989	2524.635052
500.202385	2514.502333
500.568723	2518.459638
500.935003	2512.737929
501.301226	2521.736388
501.667390	2519.039371
502.033497	2522.240504
502.399546	2513.015192
502.765537	2508.730212
503.131470	2515.535769
503.497345	2519.064577
503.863163	2521.938035
504.228923	2512.788340
504.594625	2518.938548
504.960269	2513.771365
505.325856	2513.191633
505.691385	2519.593898
506.056856	2518.736902
506.422270	2513.342867
506.787625	2516.594412
507.152924	2519.745133
507.518164	2509.083092
507.883347	2512.989987
508.248472	2512.208608
508.613540	2509.385562
508.978550	2506.612927
509.343503	2512.687517
509.708398	2516.165913
510.073236	2513.342867
510.438016	2515.233300
510.802738	2517.527025
511.167403	2511.654081
511.532010	2513.922600
511.896561	2515.687004
512.261053	2511.679287
512.625488	2507.142248
512.989866	2514.779596
513.354186	2519.669515
513.718449	2504.798112
514.082655	2512.385048
514.446803	2516.896881
514.810894	2511.376817
515.174927	2512.309431
515.538904	2513.645337
515.902822	2508.301713
516.266684	2507.192660
516.630488	2511.099554
516.994235	2512.687517
517.357925	2506.234840
517.721558	2502.050683
518.085133	2509.410767
518.448651	2504.067144
518.812112	2503.386588
519.175516	2501.244098
519.538863	2501.067658
519.902152	2506.638133
520.265385	2506.234840
520.628560	2505.075375
520.991678	2516.947292
521.354739	2504.520848
521.717743	2515.964267
522.080690	2516.619617
522.443580	2509.385562
522.806413	2506.587721
523.169189	2507.444717
523.531908	2509.360356
523.894569	2504.596465
524.257174	2515.560975
524.619722	2508.503360
524.982213	2502.932885
525.344647	2511.452435
525.707025	2512.889163
526.069345	2520.173631
526.431608	2509.032681
526.793815	2514.300687
527.155964	2526.273427
527.518057	2514.149452
527.880093	2514.905625
528.242072	2519.971985
528.603995	2512.939575
528.965860	2520.803775
529.327669	2520.677746
529.689421	2513.116015
530.051117	2518.736902
530.412755	2517.527025
530.774337	2514.729185
531.135862	2508.679800
531.497331	2507.192660
531.858743	2518.031140
532.220098	2519.921573
532.581396	2511.049142
532.942638	2516.090296
533.303824	2523.475587
533.664953	2510.343381
534.026025	2508.175685
534.387040	2513.468896
534.747999	2512.561488
535.108902	2514.577950
535.469748	2512.687517
535.830537	2505.806342
536.191270	2518.358815
536.551947	2508.831035
536.912567	2511.654081
537.273131	2512.813546
537.633638	2501.748213
537.994089	2507.016219
538.354483	2506.638133
538.714821	2508.780623
539.075103	2512.687517
539.435328	2506.058400
539.795497	2502.252329
540.155609	2504.848523
540.515665	2507.545540
540.875665	2504.873729
541.235609	2507.898421
541.595496	2508.679800
541.955328	2502.227123
542.315102	2511.981756
542.674821	2498.194200
543.034483	2505.453462
543.394090	2507.848010
543.753640	2503.941115
544.113134	2505.604696
544.472571	2492.926194
544.831953	2500.714777
545.191278	2496.833088
545.550548	2501.849037
545.909761	2497.841319
546.268918	2495.900475
546.628019	2496.354179
546.987064	2504.319202
547.346053	2503.865498
547.704986	2499.177225
548.063863	2500.891217
548.422684	2500.135044
548.781449	2500.714777
549.140158	2506.134017
549.498811	2493.178252
549.857408	2495.950887
550.215949	2504.243585
550.574434	2506.864985
550.932864	2504.848523
551.291237	2496.127327
551.649555	2507.117042
552.007817	2504.293996
552.366022	2499.252842
552.724173	2510.444204
553.082267	2499.605723
553.440305	2495.572800
553.798288	2502.529592
554.156215	2507.142248
554.514086	2503.739469
554.871902	2496.757471
555.229661	2503.336177
555.587365	2495.119096
555.945014	2501.218892
556.302606	2490.834115
556.660143	2497.614467
557.017625	2507.520335
557.375050	2498.849550
557.732421	2495.345948
558.089735	2501.244098
558.446994	2493.783190
558.804197	2503.815087
559.161345	2498.143788
559.518437	2499.504900
559.875474	2492.043992
560.232455	2498.547081
560.589381	2505.352638
560.946251	2498.194200
561.303065	2502.479181
561.659825	2501.874242
562.016528	2497.816113
562.373177	2496.530619
562.729770	2491.212202
563.086307	2499.479694
563.442789	2499.605723
563.799216	2510.015706
564.155587	2493.757985
564.511904	2503.663852
564.868164	2501.924654
565.224370	2502.176712
565.580520	2498.748727
565.936615	2496.908706
566.292654	2501.244098
566.648638	2499.202431
567.004567	2513.494102
567.360441	2505.982783
567.716260	2502.403563
568.072023	2505.806342
568.427732	2500.412308
568.783385	2503.789881
569.138982	2500.664365
569.494525	2497.185969
569.850013	2502.050683
570.205445	2500.210662
570.560823	2503.310971
570.916145	2500.109838
571.271412	2500.261073
571.626625	2503.336177
571.981782	2503.361383
572.336884	2501.395333
572.691931	2496.858294
573.046923	2505.201404
573.401860	2502.504387
573.756743	2499.681340
574.111570	2508.553771
574.466342	2500.563542
574.821059	2502.781650
575.175722	2507.318688
575.530330	2500.034221
575.884882	2498.773933
576.239380	2504.117556
576.593823	2500.235867
576.948211	2506.965808
577.302544	2501.470950
577.656823	2506.486898
578.011047	2497.387615
578.365216	2488.792448
578.719330	2496.404590
579.073389	2497.488438
579.427394	2504.974552
579.781344	2493.984837
580.135239	2498.017760
580.489080	2499.983810
580.842866	2504.319202
581.196597	2501.874242
581.550273	2494.715804
581.903895	2503.159737
582.257463	2500.387102
582.610975	2503.815087
582.964434	2490.456029
583.317837	2503.865498
583.671186	2499.580517
584.024481	2503.109325
584.377721	2500.664365
584.730906	2502.403563
585.084037	2503.310971
585.437113	2495.673623
585.790135	2493.304281
586.143103	2504.520848
586.496016	2504.344408
586.848874	2498.446258
587.201679	2495.068685
587.554428	2492.800165
587.907124	2496.152533
588.259765	2498.698315
588.612352	2499.908192
588.964884	2491.060967
589.317362	2508.200890
589.669786	2501.118069
590.022155	2490.909733
590.374470	2496.858294
590.726731	2502.781650
591.078937	2490.582058
591.431090	2506.159223
591.783188	2491.489465
592.135232	2494.287306
592.487222	2493.556338
592.839157	2500.160250
593.191038	2500.613954
593.542866	2493.279075
593.894639	2493.959631
594.246358	2496.581031
594.598022	2499.404077
594.949633	2496.505413
595.301190	2499.756958
595.652692	2499.681340
596.004141	2501.319715
596.355535	2502.327946
596.706876	2500.513131
597.058162	2497.564056
597.409395	2494.312512
597.760573	2502.580004
598.111698	2503.184942
598.462768	2500.563542
598.813785	2500.437513
599.164748	2495.749240
599.515657	2503.537823
599.866511	2497.916937
600.217312	2490.178765
600.568060	2493.657162
600.918753	2498.622698
601.269392	2498.320229
601.619978	2500.613954
601.970510	2495.824858
602.320988	2500.689571
602.671412	2492.422079
603.021783	2498.496669
603.372100	2494.690598
603.722363	2494.539363
604.072572	2490.481235
604.422728	2505.176198
604.772830	2492.371667
605.122878	2490.985350
605.472872	2491.741523
605.822813	2489.800679
606.172701	2498.748727
606.522534	2494.640187
606.872314	2501.748213
607.222041	2488.263127
607.571714	2494.312512
607.921333	2489.750267
608.270899	2486.952427
608.620411	2493.001812
608.969870	2500.437513
609.319276	2506.814573
609.668627	2502.000271
610.017926	2496.328973
610.367171	2496.505413
610.716362	2497.690085
611.065500	2490.229177
611.414585	2497.942142
611.763616	2488.968888
612.112594	2502.479181
612.461518	2499.353665
612.810389	2503.285765
613.159207	2501.143275
613.507971	2494.665392
613.856682	2490.834115
614.205340	2494.136071
614.553945	2494.010042
614.902496	2494.010042
615.250994	2503.310971
615.599439	2491.892758
615.947830	2494.715804
616.296169	2493.505927
616.644454	2498.042965
616.992686	2496.177738
617.340864	2495.850063
617.688990	2490.657675
618.037063	2495.245125
618.385082	2492.623725
618.733048	2500.513131
619.080961	2494.236894
619.428821	2491.035762
619.776628	2496.984323
620.124382	2497.992554
620.472083	2495.169508
620.819731	2493.833602
621.167326	2490.884527
621.514868	2497.992554
621.862357	2496.782677
622.209793	2493.354692
622.557176	2491.943169
622.904506	2494.463746
623.251783	2507.671569
623.599007	2495.724035
623.946179	2497.564056
624.293297	2484.482262
624.640363	2499.756958
624.987376	2491.514671
625.334336	2487.632983
625.681243	2494.791421
626.028097	2480.348515
626.374899	2494.993067
626.721647	2497.740496
627.068343	2487.380925
627.414987	2494.715804
627.761577	2495.093890
628.108115	2493.707573
628.454600	2487.380925
628.801032	2493.354692
629.147412	2484.583085
629.493739	2491.514671
629.840014	2501.218892
630.186236	2488.212715
630.532405	2489.977119
630.878521	2485.742550
631.224585	2494.614981
631.570597	2482.037302
631.916556	2494.967862
632.262462	2488.817654
632.608316	2493.959631
632.954117	2488.137098
633.299866	2494.892244
633.645562	2483.499237
633.991206	2488.817654
634.336797	2488.742037
634.682336	2486.070225
635.027823	2493.884013
635.373257	2480.676190
635.718639	2483.448825
636.063968	2482.037302
636.409245	2486.070225
636.754470	2483.070738
637.099642	2489.926708
637.444762	2492.144815
637.789829	2478.735346
638.134845	2487.632983
638.479808	2488.666419
638.824719	2490.330000
639.169577	2485.314052
639.514383	2489.019300
639.859137	2482.516212
640.203839	2483.700883
640.548489	2489.750267
640.893086	2487.935452
641.237632	2487.834629
641.582125	2487.985863
641.926566	2490.077942
642.270955	2484.835142
642.615292	2483.902529
642.959576	2483.020327
643.303809	2482.516212
643.647990	2480.802219
643.992118	2476.718885
644.336195	2490.909733
644.680219	2486.523929
645.024192	2488.237921
645.368112	2482.364977
645.711981	2480.121663
646.055797	2476.970942
646.399562	2491.287819
646.743274	2483.272385
647.086935	2486.196254
647.430544	2491.237408
647.774101	2489.825885
648.117606	2483.751294
648.461059	2494.085660
648.804460	2493.808396
649.147810	2482.264154
649.491108	2485.767756
649.834354	2478.810963
650.177548	2480.751808
650.520690	2480.903042
650.863781	2485.087200
651.206820	2487.179279
651.549807	2479.995635
651.892742	2484.406644
652.235626	2477.651498
652.578458	2481.381952
652.921238	2480.020840
653.263967	2481.659215
653.606644	2483.247179
653.949269	2481.961685
654.291843	2488.742037
654.634365	2484.381438
654.976836	2489.473004
655.319255	2484.935965
655.661622	2482.289360
656.003938	2483.751294
656.346203	2480.701396
656.688416	2477.853144
657.030577	2482.919504
657.372687	2481.029071
657.714746	2487.053250
658.056753	2482.238948
658.398708	2482.087713
658.740612	2474.324337
659.082465	2475.761065
659.424266	2473.416929
659.766016	2482.163331
660.107715	2477.298617
660.449362	2477.172588
660.790958	2486.775987
661.132503	2481.003865
661.473996	2480.676190
661.815438	2481.936479
662.156829	2481.029071
662.498168	2487.658188
662.839456	2473.668987
663.180693	2474.324337
663.521879	2484.255410
663.863013	2481.003865
664.204097	2485.792962
664.545129	2480.877837
664.886110	2480.474544
665.227040	2484.961171
665.567918	2484.507467
665.908746	2476.164358
666.249522	2478.911787
666.590248	2478.458083
666.930922	2480.953454
667.271545	2489.094917
667.612118	2479.365490
667.952639	2486.271871
668.293109	2478.306848
668.633528	2478.306848
668.973896	2473.719398
669.314213	2478.836169
669.654480	2481.129894
669.994695	2482.339771
670.334859	2489.473004
670.674973	2472.181846
671.015035	2474.223513
671.355047	2477.601087
671.695008	2487.985863
672.034918	2481.507981
672.374777	2493.127840
672.714585	2479.920017
673.054342	2487.456542
673.394049	2476.945737
673.733705	2484.633496
674.073310	2483.221973
674.412864	2479.693165
674.752368	2461.545012
675.091820	2492.648931
675.431223	2478.609317
675.770574	2487.103662
676.109875	2475.004892
676.449125	2469.963738
676.788324	2476.492033
677.127473	2485.036788
677.466571	2471.980200
677.805619	2482.112919
678.144616	2477.449852
678.483562	2482.566623
678.822458	2483.902529
679.161303	2475.080510
679.500098	2486.423106
679.838842	2468.400981
680.177535	2477.575881
680.516179	2474.147896
680.854771	2468.955508
681.193314	2480.928248
681.531805	2472.131435
681.870247	2470.190590
682.208638	2475.861888
682.546978	2482.112919
682.885268	2471.350056
683.223508	2486.095431
683.561697	2481.003865
683.899836	2481.180306
684.237925	2475.534213
684.575963	2476.870119
684.913951	2480.802219
685.251889	2473.971456
685.589776	2483.751294
685.927614	2479.138638
686.265401	2481.886067
686.603137	2487.557365
686.940824	2479.819194
687.278460	2474.475571
687.616046	2483.549648
687.953582	2476.996148
688.291068	2480.146869
688.628504	2477.046560
688.965889	2483.221973
689.303224	2476.492033
689.640510	2481.734833
689.977745	2479.793988
690.314930	2481.760038
690.652065	2481.608804
690.989150	2478.079996
691.326185	2474.551188
691.663170	2480.323310
692.000105	2475.256950
692.336990	2478.105202
692.673825	2471.929788
693.010610	2473.164871
693.347345	2468.199335
693.684030	2477.021354
694.020665	2473.568163
694.357251	2472.207052
694.693786	2477.021354
695.030272	2481.936479
695.366707	2484.028558
695.703093	2475.181333
696.039429	2470.568677
696.375716	2481.785244
696.711952	2473.013637
697.048139	2478.785758
697.384276	2483.423619
697.720363	2477.147383
698.056400	2475.987917
698.392388	2477.374235
698.728326	2468.300158
699.064214	2475.584625
699.400053	2472.736373
699.735842	2475.786271
700.071581	2481.835656
700.407270	2472.912813
700.742910	2479.214256
701.078501	2476.466827
701.414042	2472.433904
701.749533	2471.551702
702.084974	2473.744604
702.420366	2469.106742
702.755709	2475.685448
703.091002	2471.097998
703.426246	2474.223513
703.761440	2469.283183
704.096584	2474.702423
704.431679	2473.845427
704.766725	2475.534213
705.101721	2466.586165
705.436668	2470.392237
705.771565	2478.987404
706.106413	2482.138125
706.441212	2470.871146
706.775961	2472.433904
707.110661	2473.668987
707.445311	2473.290900
707.779913	2478.105202
708.114465	2466.132462
708.448967	2479.819194
708.783421	2461.015690
709.117825	2470.316619
709.452180	2479.037815
709.786485	2473.795015
710.120742	2473.744604
710.454949	2463.183387
710.789107	2482.289360
711.123216	2470.316619
711.457275	2469.938533
711.791286	2480.777013
712.125247	2473.895838
712.459159	2480.046046
712.793023	2468.073306
713.126837	2466.157667
713.460602	2468.930302
713.794318	2479.667960
714.127985	2474.551188
714.461602	2468.199335
714.795171	2469.862915
715.128691	2469.686475
715.462162	2483.751294
715.795584	2468.678244
716.128957	2469.409212
716.462281	2473.442135
716.795556	2475.534213
717.128782	2462.275979
717.461960	2468.552215
717.795088	2478.810963
718.128167	2471.602113
718.461198	2472.736373
718.794180	2471.123204
719.127113	2468.905096
719.459997	2463.208592
719.792833	2462.023921
720.125619	2475.357773
720.458357	2466.712194
720.791046	2466.913840
721.123686	2474.954481
721.456278	2470.039356
721.788821	2474.223513
722.121315	2469.988944
722.453761	2470.845940
722.786158	2465.451906
723.118506	2474.273925
723.450805	2470.644294
723.783056	2464.746144
724.115259	2476.870119
724.447412	2474.929275
724.779518	2467.745631
725.111574	2468.148923
725.443582	2469.358800
725.775542	2463.057358
726.107453	2479.617548
726.439315	2465.048613
726.771129	2478.382465
727.102895	2466.308902
727.434612	2466.485342
727.766281	2462.578448
728.097901	2470.820735
728.429473	2466.737400
728.760996	2470.921558
729.092471	2466.888635
729.423897	2472.660756
729.755276	2473.391723
730.086606	2469.510035
730.417887	2469.762092
730.749120	2476.063535
731.080305	2468.703450
731.411442	2470.392237
731.742530	2478.382465
732.073570	2480.676190
732.404562	2467.594396
732.735506	2466.460137
733.066401	2473.593369
733.397249	2472.811990
733.728048	2475.130921
734.058798	2477.223000
734.389501	2477.626292
734.720156	2469.081537
735.050762	2469.283183
735.381320	2469.837710
735.711831	2467.543985
736.042293	2468.426187
736.372707	2465.829992
736.703073	2469.736887
737.033391	2465.275465
737.363661	2467.291927
737.693883	2469.888121
738.024056	2467.140692
738.354182	2471.324850
738.684260	2475.534213
739.014290	2473.593369
739.344272	2475.685448
739.674207	2465.855198
740.004093	2472.711167
740.333931	2467.518779
740.663722	2466.006433
740.993464	2474.097485
741.323159	2467.997688
741.652806	2464.746144
741.982405	2459.125258
742.311956	2463.989971
742.641460	2476.340798
742.970915	2468.678244
743.300323	2467.241515
743.629683	2466.056844
743.958996	2459.200875
744.288260	2462.679271
744.617477	2468.048100
744.946647	2470.669500
745.275768	2467.191104
745.604842	2461.998715
745.933869	2472.433904
746.262847	2469.459623
746.591778	2462.830506
746.920662	2457.915381
747.249498	2468.930302
747.578286	2466.989458
747.907027	2472.736373
748.235720	2472.912813
748.564365	2462.628860
748.892963	2468.350569
749.221514	2466.182873
749.550017	2468.174129
749.878473	2464.267235
750.206881	2471.904583
750.535242	2466.208079
750.863555	2471.476085
751.191821	2464.821762
751.520039	2472.408698
751.848210	2472.660756
752.176334	2473.064048
752.504411	2470.039356
752.832440	2459.831019
753.160421	2470.719912
753.488356	2471.728142
753.816243	2466.510548
754.144082	2466.283696
754.471875	2469.081537
754.799620	2472.761579
755.127318	2470.064562
755.454969	2466.031638
755.782572	2469.131948
756.110129	2467.846454
756.437638	2473.215283
756.765100	2472.887608
757.092515	2465.981227
757.419882	2463.637090
757.747203	2469.560446
758.074477	2470.316619
758.401703	2462.880917
758.728882	2466.586165
759.056014	2466.460137
759.383099	2473.517752
759.710138	2466.082050
760.037129	2462.124744
760.364073	2470.997175
760.690970	2459.604167
761.017820	2470.745117
761.344623	2466.737400
761.671379	2467.417956
761.998088	2477.323823
762.324751	2466.737400
762.651366	2469.736887
762.977935	2466.686988
763.304456	2466.787812
763.630931	2474.273925
763.957359	2470.795529
764.283740	2481.255923
764.610074	2472.534727
764.936362	2473.139665
765.262602	2474.551188
765.588796	2464.519292
765.914943	2469.409212
766.241044	2468.930302
766.567097	2465.628346
766.893104	2467.140692
767.219064	2469.358800
767.544978	2470.820735
767.870845	2468.829479
768.196665	2461.040896
768.522438	2460.864456
768.848165	2462.754888
769.173846	2460.814044
769.499479	2466.082050
769.825066	2466.989458
770.150607	2461.948304
770.476101	2465.829992
770.801548	2458.318673
771.126949	2460.662810
771.452303	2464.116000
771.777611	2470.140179
772.102872	2466.006433
772.428087	2456.705504
772.753256	2466.485342
773.078378	2461.797069
773.403453	2466.208079
773.728482	2462.351596
774.053465	2464.922585
774.378401	2462.326390
774.703291	2468.653038
775.028135	2459.805813
775.352932	2463.914354
775.677683	2460.914867
776.002388	2460.057871
776.327046	2460.158694
776.651658	2453.857252
776.976224	2459.125258
777.300743	2469.434417
777.625216	2453.983281
777.949643	2461.242542
778.274024	2458.394290
778.598359	2463.309415
778.922647	2459.150463
779.246889	2461.040896
779.571086	2460.133488
779.895236	2461.671040
780.219339	2464.796556
780.543397	2466.813017
780.867409	2471.022381
781.191374	2460.688015
781.515294	2456.251800
781.839167	2474.147896
782.162995	2466.409725
782.486776	2463.284210
782.810511	2458.797583
783.134201	2464.065588
783.457844	2473.921044
783.781441	2474.702423
784.104993	2457.083590
784.428498	2455.041923
784.751958	2460.612398
785.075372	2467.140692
785.398739	2461.797069
785.722061	2464.116000
786.045337	2460.158694
786.368568	2467.670013
786.691752	2464.317646
787.014891	2465.225054
787.337983	2464.040383
787.661030	2456.982767
787.984031	2469.031125
788.306987	2466.308902
788.629897	2462.880917
788.952760	2466.384519
789.275579	2465.502317
789.598351	2465.956021
789.921078	2454.865483
790.243759	2463.082563
790.566395	2456.554269
790.888984	2459.352110
791.211529	2457.890175
791.534027	2465.199848
791.856480	2464.897379
792.178888	2463.284210
792.501249	2459.427727
792.823566	2455.924125
793.145836	2461.872687
793.468062	2459.805813
793.790241	2458.772377
794.112375	2458.243056
794.434464	2466.636577
794.756507	2461.923098
795.078505	2459.301698
795.400457	2465.577935
795.722364	2461.494600
796.044226	2461.872687
796.366042	2470.114973
796.687812	2473.542958
797.009538	2462.477625
797.331218	2462.200362
797.652852	2462.326390
797.974442	2463.158181
798.295986	2464.317646
798.617484	2463.838737
798.938938	2467.846454
799.260346	2468.400981
799.581709	2452.899433
799.903026	2456.705504
800.224299	2456.352623
800.545526	2468.375775
800.866708	2456.932356
801.187845	2458.974023
801.508936	2461.822275
801.829983	2462.275979
802.150984	2460.486369
802.471940	2464.872173
802.792851	2460.209106
803.113717	2464.216823
803.434538	2467.392750
803.755314	2455.898919
804.076045	2463.611885
804.396731	2471.778554
804.717372	2458.192644
805.037967	2452.042437
805.358518	2465.527523
805.679024	2462.502831
805.999485	2461.595423
806.319901	2455.394804
806.640272	2462.351596
806.960598	2464.166412
807.280879	2461.595423
807.601115	2466.283696
807.921306	2462.578448
808.241453	2460.587192
808.561554	2453.126285
808.881611	2460.234312
809.201623	2449.950358
809.521590	2465.804787
809.841513	2466.686988
810.161390	2461.746658
810.481223	2463.460650
810.801011	2460.814044
811.120755	2463.561473
811.440453	2458.469908
811.760107	2455.167952
812.079716	2466.611371
812.399281	2460.183900
812.718801	2463.334621
813.038276	2460.410752
813.357707	2459.024435
813.677093	2457.663323
813.996434	2463.763119
814.315731	2459.982254
814.634983	2455.596450
814.954191	2456.831533
815.273354	2472.081023
815.592473	2464.418469
815.911547	2467.821248
816.230577	2450.101592
816.549562	2462.578448
816.868502	2454.235338
817.187399	2468.552215
817.506250	2452.596963
817.825058	2463.082563
818.143821	2462.049127
818.462539	2465.225054
818.781213	2465.678758
819.099843	2469.837710
819.418429	2464.116000
819.736970	2465.981227
820.055466	2458.016204
820.373919	2463.057358
820.692327	2461.015690
821.010691	2467.518779
821.329011	2470.770323
821.647286	2488.464773
821.965517	2494.085660
822.283704	2502.327946
822.601847	2515.787827
822.919945	2491.439054
823.237999	2505.150992
823.556010	2492.321256
823.873976	2487.481748
824.191897	2476.920531
824.509775	2475.559419
824.827609	2485.314052
825.145398	2464.519292
825.463144	2474.979687
825.780845	2471.249233
826.098502	2479.970429
826.416116	2476.668473
826.733685	2479.793988
827.051210	2484.457056
827.368692	2477.878350
827.686129	2487.128867
828.003522	2477.953967
828.320872	2472.534727
828.638177	2472.509521
828.955439	2467.342338
829.272656	2454.588219
829.589830	2467.392750
829.906960	2463.082563
830.224046	2465.073819
830.541088	2463.939560
830.858086	2457.386060
831.175041	2472.736373
831.491952	2463.687502
831.808819	2466.787812
832.125642	2454.638631
832.442421	2465.905610
832.759157	2468.148923
833.075849	2465.956021
833.392497	2467.014663
833.709101	2467.569190
834.025662	2467.191104
834.342179	2467.695219
834.658653	2465.905610
834.975083	2475.710654
835.291469	2473.341312
835.607811	2460.637604
835.924110	2457.537294
836.240366	2461.040896
836.556578	2462.679271
836.872746	2465.804787
837.188871	2466.485342
837.504952	2458.595937
837.820990	2457.965792
838.136984	2461.696246
838.452935	2465.376288
838.768842	2463.637090
839.084706	2465.073819
839.400526	2464.670527
839.716303	2461.393777
840.032037	2459.805813
840.347727	2456.201388
840.663373	2452.546552
840.978977	2457.083590
841.294537	2464.695733
841.610054	2465.376288
841.925527	2467.644808
842.240957	2463.158181
842.556344	2456.579475
842.871687	2460.713221
843.186987	2465.628346
843.502244	2456.428240
843.817458	2465.073819
844.132629	2455.293981
844.447756	2461.797069
844.762840	2458.343879
845.077881	2455.949331
845.392879	2455.672067
845.707833	2464.242029
846.022745	2457.411265
846.337613	2459.730196
846.652438	2460.108283
846.967221	2463.183387
847.281960	2455.041923
847.596656	2468.274952
847.911309	2468.148923
848.225919	2462.931329
848.540485	2455.167952
848.855009	2464.494087
849.169490	2454.210133
849.483928	2459.755402
849.798323	2451.487910
850.112675	2469.409212
850.426984	2468.199335
850.741251	2458.041410
851.055474	2454.386573
851.369654	2450.328444
851.683792	2457.386060
851.997887	2454.285750
852.311938	2461.973510
852.625947	2459.982254
852.939914	2462.200362
853.253837	2463.485856
853.567718	2453.983281
853.881555	2450.630913
854.195350	2465.527523
854.509103	2458.772377
854.822812	2465.451906
855.136479	2454.966306
855.450103	2457.814558
855.763685	2460.057871
856.077224	2452.975050
856.390720	2453.579988
856.704173	2453.529577
857.017584	2452.496140
857.330953	2459.301698
857.644278	2465.225054
857.957561	2465.225054
858.270802	2459.301698
858.584000	2462.049127
858.897155	2460.738427
859.210268	2461.444188
859.523339	2459.654579
859.836367	2456.302212
860.149352	2456.150977
860.462295	2460.889662
860.775195	2463.788325
861.088054	2455.672067
861.400869	2459.780608
861.713642	2459.427727
862.026373	2461.872687
862.339062	2460.133488
862.651708	2456.503858
862.964312	2452.344906
863.276873	2456.302212
863.589392	2461.267748
863.901869	2462.225567
864.214303	2455.823302
864.526696	2464.620115
864.839045	2450.227621
865.151353	2456.503858
865.463619	2458.217850
865.775842	2460.234312
866.088023	2464.443675
866.400162	2449.168979
866.712258	2453.832046
867.024313	2465.376288
867.336325	2458.293467
867.648296	2461.066102
867.960224	2457.184413
868.272110	2454.336162
868.583954	2457.486883
868.895755	2462.200362
869.207515	2463.561473
869.519233	2456.503858
869.830909	2462.099538
870.142542	2460.990485
870.454134	2459.755402
870.765684	2456.755915
871.077191	2458.091821
871.388657	2454.714248
871.700081	2455.898919
872.011463	2454.008487
872.322803	2449.345419
872.634101	2459.704990
872.945357	2459.704990
873.256571	2453.605194
873.567744	2459.730196
873.878874	2464.393263
874.189963	2458.117027
874.501010	2452.849021
874.812015	2447.555810
875.122979	2461.469394
875.433900	2456.100565
875.744780	2456.781121
876.055618	2457.007973
876.366415	2451.739967
876.677169	2458.217850
876.987882	2453.126285
877.298554	2457.234825
877.609183	2470.921558
877.919771	2461.418983
878.230317	2454.537808
878.540822	2468.753862
878.851285	2455.546038
879.161707	2456.982767
879.472087	2462.578448
879.782425	2461.444188
880.092722	2469.283183
880.402977	2461.822275
880.713191	2476.063535
881.023363	2472.559933
881.333494	2481.886067
881.643583	2481.054277
881.953631	2481.634010
882.263637	2475.685448
882.573602	2480.650985
882.883526	2474.425160
883.193408	2474.727629
883.503248	2470.896352
883.813048	2471.929788
884.122806	2471.778554
884.432522	2473.492546
884.742197	2467.770837
885.051831	2461.469394
885.361424	2456.150977
885.670975	2458.646348
885.980485	2461.267748
886.289954	2458.343879
886.599382	2469.005919
886.908768	2456.957562
887.218113	2463.511062
887.527417	2452.470935
887.836680	2456.150977
888.145901	2457.108796
888.455082	2457.512088
888.764221	2467.191104
889.073319	2453.126285
889.382376	2450.857765
889.691392	2465.880404
890.000366	2456.755915
890.309300	2463.032152
890.618193	2452.647375
890.927044	2464.292440
891.235855	2462.225567
891.544625	2454.915894
891.853353	2458.192644
892.162041	2464.015177
892.470687	2457.159208
892.779293	2450.504885
893.087858	2461.066102
893.396381	2459.856225
893.704864	2465.754375
894.013306	2453.050667
894.321707	2464.468881
894.630068	2467.291927
894.938387	2463.460650
895.246665	2461.998715
895.554903	2465.981227
895.863100	2463.057358
896.171256	2460.435958
896.479371	2462.452419
896.787446	2460.486369
897.095480	2460.209106
897.403473	2465.603140
897.711425	2460.259517
898.019336	2465.426700
898.327207	2457.864969
898.635038	2449.647888
898.942827	2453.706017
899.250576	2463.889148
899.558284	2453.201902
899.865952	2459.704990
900.173579	2450.278033
900.481165	2461.318160
900.788711	2457.612912
901.096216	2457.184413
901.403681	2449.975563
901.711105	2459.856225
902.018489	2458.318673
902.325832	2464.317646
902.633135	2460.435958
902.940397	2454.386573
903.247619	2462.049127
903.554800	2457.512088
903.861941	2456.176183
904.169041	2458.847994
904.476101	2469.988944
904.783121	2468.274952
905.090100	2460.108283
905.397039	2458.747171
905.703938	2459.805813
906.010796	2467.317133
906.317614	2463.132975
906.624391	2456.705504
906.931129	2465.174642
907.237826	2465.477112
907.544483	2460.209106
907.851099	2464.720938
908.157675	2453.327931
908.464211	2453.554783
908.770707	2452.143260
909.077163	2452.697787
909.383578	2453.756429
909.689954	2456.453446
909.996289	2454.588219
910.302584	2453.428754
910.608839	2454.815071
910.915054	2461.872687
911.221229	2455.722479
911.527363	2451.109823
911.833458	2453.227108
912.139513	2454.235338
912.445527	2450.908177
912.751502	2457.007973
913.057436	2454.537808
913.363331	2459.352110
913.669186	2460.209106
913.975000	2456.680298
914.280775	2453.655606
914.586510	2457.461677
914.892205	2459.679785
915.197859	2453.983281
915.503475	2463.889148
915.809050	2463.586679
916.114585	2455.999742
916.420081	2465.451906
916.725536	2466.409725
917.030952	2464.796556
917.336328	2462.427213
917.641665	2459.150463
917.946961	2457.285237
918.252218	2463.284210
918.557435	2461.570217
918.862612	2458.343879
919.167750	2456.705504
919.472848	2472.786785
919.777906	2455.193158
920.082925	2457.990998
920.387904	2461.973510
920.692843	2457.184413
920.997743	2461.343365
921.302603	2462.830506
921.607423	2450.782148
921.912204	2463.385033
922.216946	2459.906637
922.521647	2448.664863
922.826310	2456.302212
923.130932	2459.377315
923.435516	2464.821762
923.740059	2463.485856
924.044564	2456.503858
924.349028	2459.578962
924.653454	2453.882458
924.957840	2451.311469
925.262186	2463.914354
925.566493	2456.554269
925.870761	2453.201902
926.174989	2453.101079
926.479178	2461.318160
926.783328	2459.503344
927.087438	2454.915894
927.391509	2458.343879
927.695541	2455.873713
927.999533	2459.528550
928.303486	2457.360854
928.607400	2461.015690
928.911275	2461.847481
929.215110	2454.941100
929.518906	2450.328444
929.822663	2460.309929
930.126381	2459.352110
930.430060	2458.898406
930.733699	2451.160235
931.037299	2458.419496
931.340861	2453.353137
931.644383	2460.133488
931.947866	2452.722992
932.251309	2462.351596
932.554714	2465.956021
932.858080	2452.849021
933.161407	2451.689556
933.464694	2452.672581
933.767943	2447.328958
934.071153	2452.773404
934.374323	2455.596450
934.677455	2454.411779
934.980548	2454.966306
935.283602	2456.251800
935.586617	2453.277519
935.889593	2458.570731
936.192530	2463.662296
936.495428	2460.662810
936.798287	2458.948817
937.101108	2462.754888
937.403890	2456.377829
937.706632	2459.906637
938.009336	2457.159208
938.312002	2458.469908
938.614628	2462.704477
938.917216	2453.806840
939.219765	2450.983794
939.522275	2450.479679
939.824747	2466.611371
940.127179	2455.974537
940.429573	2451.992025
940.731929	2454.361367
941.034246	2453.075873
941.336524	2452.949844
941.638763	2455.974537
941.940964	2457.612912
942.243126	2455.621656
942.545250	2455.420010
942.847335	2458.419496
943.149381	2447.505398
943.451389	2460.511575
943.753359	2453.378342
944.055290	2453.025462
944.357182	2453.025462
944.659036	2455.445215
944.960851	2458.696760
945.262628	2444.984821
945.564367	2456.428240
945.866067	2451.135029
946.167729	2460.612398
946.469352	2450.756942
946.770937	2453.579988
947.072484	2458.268262
947.373992	2452.168465
947.675462	2451.941613
947.976893	2448.790892
948.278286	2448.438012
948.579641	2454.588219
948.880958	2459.427727
949.182236	2457.461677
949.483476	2456.352623
949.784678	2458.268262
950.085841	2460.637604
950.386967	2454.084104
950.688054	2453.605194
950.989103	2454.563013
951.290114	2454.941100
951.591087	2458.595937
951.892021	2447.606221
952.192917	2455.268775
952.493776	2461.242542
952.794596	2457.360854
953.095378	2459.100052
953.396122	2454.008487
953.696828	2450.227621
953.997496	2452.370112
954.298126	2451.891202
954.598718	2461.948304
954.899272	2461.545012
955.199788	2455.268775
955.500266	2458.621142
955.800706	2452.370112
956.101108	2452.067642
956.401472	2457.058385
956.701798	2460.637604
957.002087	2455.697273
957.302337	2448.463217
957.602550	2454.865483
957.902724	2457.461677
958.202861	2454.235338
958.502960	2454.336162
958.803022	2461.620629
959.103045	2448.463217
959.403031	2454.714248
959.702979	2457.007973
960.002889	2451.840790
960.302762	2464.191617
960.602596	2448.513629
960.902393	2451.361881
961.202153	2449.925152
961.501875	2453.579988
961.801559	2456.604681
962.101205	2449.295008
962.400814	2457.965792
962.700385	2450.076387
962.999918	2455.394804
963.299414	2454.890688
963.598873	2453.579988
963.898293	2446.950871
964.197677	2449.975563
964.497022	2456.907150
964.796331	2447.606221
965.095601	2459.856225
965.394835	2457.738940
965.694030	2456.125771
965.993189	2459.301698
966.292309	2447.807867
966.591393	2453.277519
966.890439	2452.269288
967.189447	2455.369598
967.488419	2457.638117
967.787353	2454.537808
968.086249	2447.757456
968.385108	2461.192131
968.683930	2454.764660
968.982714	2455.848508
969.281462	2456.881944
969.580172	2455.898919
969.878844	2454.033692
970.177480	2447.606221
970.476078	2454.512602
970.774639	2460.007460
971.073162	2450.555296
971.371649	2447.732250
971.670098	2457.209619
971.968510	2447.707044
972.266885	2456.251800
972.565223	2451.563527
972.863524	2445.715788
973.161788	2459.604167
973.460014	2453.655606
973.758204	2459.326904
974.056356	2452.294494
974.354471	2454.285750
974.652550	2444.858792
974.950591	2456.428240
975.248595	2455.823302
975.546563	2450.681325
975.844493	2459.704990
976.142386	2454.714248
976.440243	2451.513115
976.738062	2451.311469
977.035845	2448.059925
977.333590	2458.192644
977.631299	2458.595937
977.928971	2446.597990
978.226606	2452.647375
978.524204	2448.311983
978.821765	2448.942127
979.119290	2447.076900
979.416777	2453.252313
979.714228	2452.344906
980.011642	2454.361367
980.309020	2456.352623
980.606360	2447.883485
980.903664	2449.673094
981.200931	2450.706531
981.498162	2459.578962
981.795356	2455.167952
982.092513	2442.010540
982.389633	2454.537808
982.686717	2455.142746
982.983764	2450.681325
983.280775	2458.293467
983.577749	2456.251800
983.874686	2459.301698
984.171587	2451.639144
984.468451	2458.369085
984.765279	2457.411265
985.062070	2450.756942
985.358824	2455.672067
985.655543	2453.252313
985.952224	2455.697273
986.248869	2456.125771
986.545478	2458.696760
986.842050	2451.992025
987.138586	2445.589760
987.435086	2456.302212
987.731549	2454.386573
988.027975	2453.731223
988.324366	2460.637604
988.620719	2458.696760
988.917037	2451.815585
989.213318	2449.168979
989.509563	2452.521346
989.805772	2458.696760
990.101944	2444.304265
990.398080	2451.714762
990.694180	2451.714762
990.990244	2456.554269
991.286271	2456.226594
991.582262	2454.714248
991.878217	2450.378856
992.174136	2457.839763
992.470019	2448.992538
992.765865	2448.034719
993.061676	2452.319700
993.357450	2445.337702
993.653188	2449.395831
993.948890	2453.201902
994.244556	2455.974537
994.540186	2448.160748
994.835780	2447.480192
995.131337	2452.395317
995.426859	2449.547065
995.722345	2450.933383
996.017795	2449.370625
996.313208	2457.537294
996.608586	2458.797583
996.903928	2458.066615
997.199234	2454.058898
997.494504	2452.118054
997.789738	2454.058898
998.084936	2454.563013
998.380099	2453.958075
998.675225	2448.992538
998.970316	2447.202929
999.265371	2461.771863
999.560390	2452.445729
999.855373	2455.470421
1000.150320	2454.134515
1000.445232	2453.806840
1000.740108	2447.883485
1001.034948	2453.403548
1001.329752	2451.235852
1001.624521	2454.689042
1001.919254	2447.051694
1002.213951	2449.874740
1002.508613	2458.016204
1002.803239	2459.150463
1003.097829	2453.832046
1003.392384	2454.663837
1003.686903	2458.016204
1003.981386	2447.656633
1004.275834	2453.453960
1004.570246	2446.824842
1004.864623	2453.050667
1005.158964	2451.286263
1005.453270	2449.748712
1005.747540	2451.311469
1006.041775	2452.798610
1006.335974	2456.957562
1006.630138	2457.285237
1006.924266	2447.833073
1007.218359	2448.463217
1007.512416	2453.756429
1007.806438	2444.657146
1008.100425	2451.513115
1008.394376	2442.035746
1008.688292	2453.479165
1008.982172	2444.858792
1009.276017	2448.438012
1009.569827	2449.723506
1009.863602	2454.260544
1010.157341	2451.840790
1010.451045	2443.825356
1010.744714	2451.765173
1011.038347	2446.976077
1011.331945	2445.413319
1011.625508	2459.377315
1011.919036	2454.638631
1012.212528	2445.388113
1012.505986	2457.159208
1012.799408	2454.840277
1013.092795	2454.462190
1013.386147	2454.361367
1013.679464	2457.335648
1013.972745	2458.217850
1014.265992	2456.150977
1014.559204	2449.572271
1014.852380	2452.193671
1015.145521	2456.352623
1015.438628	2450.252827
1015.731699	2448.790892
1016.024736	2448.110337
1016.317737	2452.143260
1016.610703	2462.427213
1016.903635	2456.352623
1017.196531	2450.782148
1017.489393	2455.268775
1017.782219	2457.738940
1018.075011	2454.386573
1018.367768	2448.992538
1018.660490	2452.849021
1018.953177	2452.849021
1019.245829	2452.849021
