Dividing Wavelength (nm)	Counts (n)	Slit_number_31_of_a_total_of_40	
326.493990	2150.976327
326.888308	2150.976327
327.282561	2150.976327
327.676750	2130.559654
328.070874	2118.544904
328.464933	2131.987981
328.858929	2147.447519
329.252859	2145.851154
329.646726	2165.007538
330.040528	2181.643346
330.434265	2194.750346
330.827938	2213.570654
331.221547	2225.585404
331.615091	2255.244192
332.008571	2278.097423
332.401986	2298.766154
332.795338	2304.311423
333.188625	2333.466096
333.581847	2352.622481
333.975006	2378.668442
334.368100	2396.984635
334.761129	2421.602269
335.154095	2422.610500
335.546996	2453.529577
335.939833	2457.310442
336.332606	2479.827596
336.725315	2476.634865
337.117960	2482.852288
337.510540	2496.631442
337.903056	2505.537481
338.295508	2507.217865
338.687896	2526.206212
339.080220	2517.552231
339.472480	2528.474731
339.864676	2532.591673
340.256807	2531.835500
340.648875	2532.843731
341.040879	2536.792635
341.432818	2534.188038
341.824694	2536.960673
342.216506	2531.247365
342.608253	2544.354365
342.999937	2532.507654
343.391557	2542.505942
343.783113	2523.349558
344.174605	2537.128712
344.566033	2514.443519
344.957397	2529.062865
345.348697	2524.861904
345.739934	2528.978846
346.131106	2540.741538
346.522215	2519.736731
346.913260	2523.433577
347.304241	2524.777885
347.695159	2520.156827
348.086012	2512.090981
348.476802	2520.408885
348.867528	2513.855385
349.258191	2509.150308
349.648789	2525.954154
350.039324	2514.191462
350.429796	2521.669173
350.820203	2502.092692
351.210548	2512.595096
351.600828	2524.525827
351.991045	2497.555654
352.381198	2505.957577
352.771288	2510.746673
353.161314	2518.896538
353.551276	2512.511077
353.941175	2504.781308
354.331010	2529.398942
354.720782	2516.123904
355.110490	2515.787827
355.500135	2510.830692
355.889717	2518.896538
356.279235	2506.377673
356.668689	2515.115673
357.058080	2501.420538
357.447408	2521.669173
357.836672	2509.402365
358.225873	2513.687346
358.615010	2513.351269
359.004084	2519.316635
359.393095	2514.695577
359.782043	2510.746673
360.170927	2502.596808
360.559748	2513.687346
360.948505	2513.771365
361.337199	2495.707231
361.725830	2511.670885
362.114398	2517.888308
362.502903	2519.316635
362.891344	2525.029942
363.279722	2508.394135
363.668037	2517.804288
364.056289	2518.980558
364.444478	2513.939404
364.832603	2512.847154
365.220665	2513.771365
365.608665	2534.860192
365.996601	2533.683923
366.384474	2522.593385
366.772284	2519.568692
367.160031	2520.660942
367.547715	2514.527538
367.935336	2541.917808
368.322893	2525.702096
368.710388	2526.542288
369.097820	2509.822462
369.485189	2524.441808
369.872495	2518.392423
370.259738	2526.626308
370.646918	2532.087558
371.034035	2520.997019
371.421090	2517.804288
371.808081	2529.230904
372.195010	2533.683923
372.581875	2522.761423
372.968678	2517.384192
373.355418	2510.746673
373.742096	2533.851962
374.128710	2537.968904
374.515262	2520.408885
374.901751	2547.547096
375.288177	2523.769654
375.674540	2524.693865
376.060841	2528.474731
376.447079	2522.761423
376.833254	2540.573500
377.219367	2528.054635
377.605417	2528.978846
377.991404	2524.357788
378.377329	2517.468212
378.763191	2539.733308
379.148991	2537.128712
379.534727	2533.767942
379.920402	2533.599904
380.306013	2527.130423
380.691563	2533.095788
381.077049	2538.136942
381.462474	2545.362596
381.847835	2527.214442
382.233134	2532.003538
382.618371	2526.038173
383.003545	2529.230904
383.388657	2534.608135
383.773706	2538.641058
384.158693	2521.333096
384.543618	2530.407173
384.928480	2523.769654
385.313280	2536.456558
385.698017	2550.067673
386.082692	2553.344423
386.467305	2532.087558
386.851856	2531.835500
387.236344	2525.618077
387.620770	2537.884885
388.005133	2529.987077
388.389435	2533.767942
388.773674	2540.993596
389.157851	2532.003538
389.541965	2538.220962
389.926018	2517.636250
390.310008	2544.606423
390.693936	2555.108827
391.077802	2532.171577
391.461606	2540.237423
391.845348	2529.903058
392.229027	2528.978846
392.612645	2537.380769
392.996200	2529.482962
393.379694	2550.571788
393.763125	2541.245654
394.146494	2529.146885
394.529801	2527.466500
394.913047	2540.405462
395.296230	2538.641058
395.679351	2548.303269
396.062410	2533.935981
396.445408	2536.372538
396.828343	2536.456558
397.211217	2540.657519
397.594028	2538.893115
397.976778	2545.698673
398.359466	2529.314923
398.742092	2538.725077
399.124656	2553.260404
399.507158	2540.489481
399.889598	2540.405462
400.271977	2542.253885
400.654294	2551.832077
401.036549	2532.843731
401.418742	2548.723365
401.800874	2532.423635
402.182944	2527.970615
402.564952	2553.680500
402.946898	2535.448327
403.328783	2550.319731
403.710606	2550.403750
404.092367	2534.188038
404.474067	2540.993596
404.855705	2538.809096
405.237282	2542.842019
405.618797	2543.598192
406.000250	2540.069385
406.381642	2555.360885
406.762972	2545.530635
407.144240	2551.159923
407.525447	2542.589962
407.906593	2543.514173
408.287677	2544.606423
408.668700	2548.219250
409.049661	2540.489481
409.430560	2544.774462
409.811399	2537.464788
410.192176	2538.136942
410.572891	2553.848538
410.953545	2541.497712
411.334138	2546.622885
411.714669	2534.692154
412.095139	2559.141750
412.475547	2558.973712
412.855894	2535.952442
413.236180	2550.655808
413.616405	2547.042981
413.996568	2558.469596
414.376670	2560.318019
414.756711	2546.370827
415.136691	2551.411981
415.516609	2534.188038
415.896466	2542.926038
416.276262	2534.860192
416.655997	2555.024808
417.035670	2560.990173
417.415283	2565.275154
417.794834	2548.807385
418.174324	2548.135231
418.553753	2547.799154
418.933121	2554.352654
419.312428	2560.402038
419.691674	2544.354365
420.070859	2543.430154
420.449983	2552.336192
420.829045	2565.023096
421.208047	2549.059442
421.586988	2535.280288
421.965867	2541.245654
422.344686	2558.385577
422.723444	2547.547096
423.102141	2535.028231
423.480777	2539.229192
423.859352	2563.846827
424.237866	2559.981942
424.616319	2540.153404
424.994712	2556.705192
425.373044	2544.018288
425.751314	2545.950731
426.129524	2546.958962
426.507673	2548.555327
426.885762	2551.159923
427.263789	2539.229192
427.641756	2555.696962
428.019662	2553.764519
428.397508	2545.614654
428.775292	2557.041269
429.153016	2551.327962
429.530679	2540.321442
429.908282	2545.698673
430.285824	2558.637635
430.663305	2546.034750
431.040726	2543.598192
431.418086	2541.245654
431.795385	2547.967192
432.172624	2561.242231
432.549802	2541.665750
432.926920	2544.018288
433.303977	2564.855058
433.680974	2546.454846
434.057910	2553.092365
434.434786	2555.528923
434.811601	2553.176385
435.188355	2534.020000
435.565050	2541.077615
435.941683	2560.149981
436.318257	2539.313212
436.694770	2549.311500
437.071222	2548.639346
437.447614	2562.166442
437.823946	2552.420212
438.200218	2553.764519
438.576429	2550.739827
438.952580	2556.705192
439.328670	2552.756288
439.704700	2553.260404
440.080670	2539.817327
440.456580	2539.901346
440.832429	2566.703481
441.208218	2559.981942
441.583947	2574.601288
441.959616	2571.912673
442.335224	2554.520692
442.710773	2562.838596
443.086261	2563.426731
443.461689	2564.182904
443.837057	2549.311500
444.212365	2556.957250
444.587612	2551.580019
444.962800	2553.176385
445.337927	2568.719942
445.712995	2551.496000
446.088002	2547.547096
446.462949	2555.949019
446.837837	2538.893115
447.212664	2568.215827
447.587431	2558.385577
447.962139	2548.807385
448.336786	2560.318019
448.711374	2555.612942
449.085901	2575.021385
449.460369	2554.688731
449.834776	2553.932558
450.209124	2552.840308
450.583412	2551.916096
450.957640	2538.725077
451.331808	2549.731596
451.705917	2556.957250
452.079965	2569.056019
452.453954	2548.387288
452.827883	2557.881462
453.201752	2564.434962
453.575562	2567.627692
453.949311	2554.772750
454.323001	2566.199365
454.696632	2554.520692
455.070202	2553.848538
455.443713	2544.942500
455.817164	2565.863288
456.190556	2554.520692
456.563888	2550.991885
456.937160	2557.293327
457.310373	2562.082423
457.683526	2549.731596
458.056619	2564.939077
458.429653	2568.635923
458.802628	2561.998404
459.175542	2574.601288
459.548398	2549.563558
459.921194	2560.906154
460.293930	2558.973712
460.666607	2560.402038
461.039224	2551.075904
461.411782	2563.174673
461.784280	2551.075904
462.156719	2564.518981
462.529099	2554.604712
462.901419	2559.225769
463.273680	2566.031327
463.645882	2554.604712
464.018024	2553.092365
464.390106	2559.897923
464.762130	2572.332769
465.134094	2560.065962
465.505999	2566.619462
465.877845	2562.502519
466.249631	2555.612942
466.621358	2581.238808
466.993026	2558.217538
467.364634	2562.670558
467.736184	2556.453135
468.107674	2549.563558
468.479105	2558.553615
468.850477	2567.543673
469.221790	2547.379058
469.593043	2557.041269
469.964238	2562.502519
470.335373	2572.500808
470.706449	2555.360885
471.077467	2562.334481
471.448425	2574.349231
471.819324	2565.443192
472.190164	2565.863288
472.560945	2575.945596
472.931667	2556.117058
473.302330	2565.191135
473.672934	2561.074192
474.043479	2568.215827
474.413965	2560.149981
474.784393	2549.479538
475.154761	2570.904442
475.525070	2550.823846
475.895321	2577.457942
476.265513	2559.981942
476.635645	2559.141750
477.005719	2556.201077
477.375734	2558.889692
477.745691	2546.622885
478.115588	2553.680500
478.485427	2560.654096
478.855207	2567.795731
479.224928	2570.652385
479.594591	2570.652385
479.964194	2553.848538
480.333739	2559.897923
480.703226	2562.334481
481.072653	2560.822135
481.442022	2554.352654
481.811333	2568.215827
482.180584	2549.479538
482.549777	2562.082423
482.918912	2577.541962
483.287988	2566.451423
483.657005	2558.637635
484.025964	2574.265212
484.394864	2550.991885
484.763706	2558.805673
485.132489	2555.949019
485.501213	2552.252173
485.869879	2559.645865
486.238487	2560.065962
486.607036	2564.518981
486.975527	2569.644154
487.343959	2569.812192
487.712333	2568.887981
488.080648	2567.459654
488.448905	2547.799154
488.817104	2565.359173
489.185244	2573.593058
489.553326	2571.324538
489.921350	2565.107115
490.289315	2565.863288
490.657222	2572.836885
491.025070	2568.047788
491.392861	2554.016577
491.760593	2566.199365
492.128267	2563.174673
492.495883	2554.184615
492.863440	2567.459654
493.230939	2578.214115
493.598380	2569.896212
493.965763	2569.476115
494.333088	2566.367404
494.700354	2572.164731
495.067563	2563.342712
495.434713	2562.922615
495.801805	2571.996692
496.168839	2547.967192
496.535815	2557.377346
496.902733	2555.192846
497.269593	2575.273442
497.636395	2559.561846
498.003139	2565.191135
498.369825	2569.980231
498.736453	2562.082423
499.103023	2558.973712
499.469535	2553.932558
499.835989	2561.830365
500.202385	2563.594769
500.568723	2572.332769
500.935003	2568.215827
501.301226	2560.654096
501.667390	2563.006635
502.033497	2570.652385
502.399546	2570.400327
502.765537	2567.039558
503.131470	2557.125288
503.497345	2560.822135
503.863163	2571.828654
504.228923	2570.064250
504.594625	2555.192846
504.960269	2565.107115
505.325856	2570.904442
505.691385	2563.426731
506.056856	2572.416788
506.422270	2557.293327
506.787625	2550.655808
507.152924	2559.057731
507.518164	2566.031327
507.883347	2567.375635
508.248472	2565.863288
508.613540	2575.945596
508.978550	2569.308077
509.343503	2563.678788
509.708398	2574.097173
510.073236	2558.973712
510.438016	2561.242231
510.802738	2570.652385
511.167403	2591.573173
511.532010	2549.983654
511.896561	2569.392096
512.261053	2573.845115
512.625488	2560.990173
512.989866	2570.484346
513.354186	2571.828654
513.718449	2555.528923
514.082655	2561.158212
514.446803	2560.738115
514.810894	2566.451423
515.174927	2578.970288
515.538904	2547.127000
515.902822	2548.891404
516.266684	2562.502519
516.630488	2570.484346
516.994235	2565.191135
517.357925	2574.181192
517.721558	2555.528923
518.085133	2577.794019
518.448651	2564.182904
518.812112	2567.207596
519.175516	2575.021385
519.538863	2568.803962
519.902152	2559.141750
520.265385	2575.945596
520.628560	2574.769327
520.991678	2577.962058
521.354739	2548.135231
521.717743	2561.998404
522.080690	2560.149981
522.443580	2583.927423
522.806413	2555.528923
523.169189	2573.845115
523.531908	2594.681885
523.894569	2594.765904
524.257174	2574.685308
524.619722	2565.947308
524.982213	2568.803962
525.344647	2569.392096
525.707025	2570.316308
526.069345	2571.492577
526.431608	2581.154788
526.793815	2572.920904
527.155964	2566.535442
527.518057	2568.719942
527.880093	2565.779269
528.242072	2585.187712
528.603995	2552.420212
528.965860	2568.467885
529.327669	2569.392096
529.689421	2560.738115
530.051117	2544.606423
530.412755	2566.283385
530.774337	2569.560135
531.135862	2566.871519
531.497331	2571.324538
531.858743	2562.502519
532.220098	2558.385577
532.581396	2551.832077
532.942638	2562.502519
533.303824	2570.904442
533.664953	2571.324538
534.026025	2583.591346
534.387040	2560.065962
534.747999	2550.067673
535.108902	2552.084135
535.469748	2584.431538
535.830537	2569.056019
536.191270	2569.308077
536.551947	2560.234000
536.912567	2563.426731
537.273131	2561.914385
537.633638	2562.670558
537.994089	2573.509038
538.354483	2570.904442
538.714821	2574.601288
539.075103	2568.719942
539.435328	2566.283385
539.795497	2563.930846
540.155609	2572.248750
540.515665	2575.525500
540.875665	2558.385577
541.235609	2576.113635
541.595496	2564.266923
541.955328	2558.637635
542.315102	2579.810481
542.674821	2563.510750
543.034483	2577.794019
543.394090	2572.164731
543.753640	2562.922615
544.113134	2577.121865
544.472571	2568.972000
544.831953	2566.703481
545.191278	2560.234000
545.550548	2572.584827
545.909761	2572.164731
546.268918	2562.670558
546.628019	2571.492577
546.987064	2572.752865
547.346053	2566.199365
547.704986	2568.383865
548.063863	2567.963769
548.422684	2566.787500
548.781449	2575.357462
549.140158	2575.525500
549.498811	2582.079000
549.857408	2572.248750
550.215949	2572.332769
550.574434	2576.113635
550.932864	2558.049500
551.291237	2567.711712
551.649555	2573.593058
552.007817	2556.873231
552.366022	2573.004923
552.724173	2562.838596
553.082267	2588.212404
553.440305	2567.039558
553.798288	2558.133519
554.156215	2586.868096
554.514086	2575.441481
554.871902	2558.973712
555.229661	2574.685308
555.587365	2552.252173
555.945014	2568.215827
556.302606	2570.736404
556.660143	2555.276865
557.017625	2569.476115
557.375050	2558.385577
557.732421	2568.887981
558.089735	2577.710000
558.446994	2560.486058
558.804197	2558.805673
559.161345	2559.813904
559.518437	2580.398615
559.875474	2557.209308
560.232455	2557.797442
560.589381	2568.972000
560.946251	2562.838596
561.303065	2561.326250
561.659825	2574.349231
562.016528	2557.713423
562.373177	2572.668846
562.729770	2576.869808
563.086307	2583.843404
563.442789	2555.528923
563.799216	2575.525500
564.155587	2556.621173
564.511904	2593.169538
564.868164	2559.813904
565.224370	2572.248750
565.580520	2569.980231
565.936615	2570.484346
566.292654	2550.571788
566.648638	2584.599577
567.004567	2563.846827
567.360441	2568.551904
567.716260	2577.625981
568.072023	2557.545385
568.427732	2585.943885
568.783385	2570.400327
569.138982	2559.729885
569.494525	2564.266923
569.850013	2565.359173
570.205445	2572.920904
570.560823	2573.172962
570.916145	2570.568365
571.271412	2570.316308
571.626625	2567.459654
571.981782	2574.853346
572.336884	2576.029615
572.691931	2579.810481
573.046923	2561.578308
573.401860	2567.291615
573.756743	2553.932558
574.111570	2558.553615
574.466342	2564.939077
574.821059	2566.367404
575.175722	2578.550192
575.530330	2553.260404
575.884882	2554.772750
576.239380	2573.593058
576.593823	2580.398615
576.948211	2567.459654
577.302544	2567.627692
577.656823	2547.799154
578.011047	2565.863288
578.365216	2564.603000
578.719330	2575.189423
579.073389	2573.088942
579.427394	2565.779269
579.781344	2569.728173
580.135239	2575.525500
580.489080	2581.154788
580.842866	2572.668846
581.196597	2565.275154
581.550273	2577.878038
581.903895	2570.988462
582.257463	2577.878038
582.610975	2575.525500
582.964434	2557.545385
583.317837	2575.105404
583.671186	2564.098885
584.024481	2568.719942
584.377721	2579.810481
584.730906	2571.744635
585.084037	2576.449712
585.437113	2566.115346
585.790135	2566.871519
586.143103	2559.897923
586.496016	2571.996692
586.848874	2559.729885
587.201679	2578.382154
587.554428	2565.359173
587.907124	2565.023096
588.259765	2571.912673
588.612352	2571.744635
588.964884	2556.201077
589.317362	2555.276865
589.669786	2556.873231
590.022155	2562.082423
590.374470	2580.902731
590.726731	2557.713423
591.078937	2563.846827
591.431090	2566.451423
591.783188	2566.199365
592.135232	2571.156500
592.487222	2563.006635
592.839157	2560.906154
593.191038	2565.191135
593.542866	2573.341000
593.894639	2565.863288
594.246358	2578.886269
594.598022	2570.736404
594.949633	2563.426731
595.301190	2559.141750
595.652692	2574.433250
596.004141	2578.802250
596.355535	2567.795731
596.706876	2573.929135
597.058162	2562.250462
597.409395	2570.904442
597.760573	2569.644154
598.111698	2572.080712
598.462768	2567.123577
598.813785	2563.342712
599.164748	2561.578308
599.515657	2559.645865
599.866511	2559.645865
600.217312	2558.301558
600.568060	2586.532019
600.918753	2579.306365
601.269392	2570.232288
601.619978	2565.863288
601.970510	2570.568365
602.320988	2561.326250
602.671412	2570.736404
603.021783	2568.215827
603.372100	2560.402038
603.722363	2574.097173
604.072572	2560.822135
604.422728	2563.762808
604.772830	2573.425019
605.122878	2569.896212
605.472872	2570.232288
605.822813	2561.830365
606.172701	2554.268635
606.522534	2575.609519
606.872314	2569.896212
607.222041	2569.896212
607.571714	2567.795731
607.921333	2568.551904
608.270899	2568.299846
608.620411	2555.192846
608.969870	2566.283385
609.319276	2566.955538
609.668627	2561.074192
610.017926	2575.525500
610.367171	2572.836885
610.716362	2571.996692
611.065500	2564.855058
611.414585	2570.148269
611.763616	2574.349231
612.112594	2568.131808
612.461518	2566.787500
612.810389	2573.677077
613.159207	2562.334481
613.507971	2551.159923
613.856682	2558.721654
614.205340	2571.492577
614.553945	2592.329346
614.902496	2572.668846
615.250994	2560.149981
615.599439	2587.792308
615.947830	2579.642442
616.296169	2565.611231
616.644454	2569.560135
616.992686	2554.856769
617.340864	2572.164731
617.688990	2560.906154
618.037063	2585.775846
618.385082	2559.729885
618.733048	2556.957250
619.080961	2569.476115
619.428821	2561.578308
619.776628	2563.006635
620.124382	2547.295038
620.472083	2572.500808
620.819731	2563.342712
621.167326	2572.164731
621.514868	2563.258692
621.862357	2574.433250
622.209793	2577.710000
622.557176	2565.443192
622.904506	2557.125288
623.251783	2564.434962
623.599007	2561.830365
623.946179	2573.088942
624.293297	2558.133519
624.640363	2569.392096
624.987376	2576.365692
625.334336	2571.408558
625.681243	2571.324538
626.028097	2576.029615
626.374899	2549.395519
626.721647	2562.754577
627.068343	2580.230577
627.414987	2569.308077
627.761577	2576.197654
628.108115	2553.008346
628.454600	2557.713423
628.801032	2550.655808
629.147412	2570.652385
629.493739	2582.247038
629.840014	2555.865000
630.186236	2573.677077
630.532405	2575.357462
630.878521	2574.013154
631.224585	2572.248750
631.570597	2559.393808
631.916556	2567.879750
632.262462	2568.803962
632.608316	2554.940788
632.954117	2561.074192
633.299866	2578.298135
633.645562	2559.393808
633.991206	2566.955538
634.336797	2567.291615
634.682336	2573.172962
635.027823	2574.265212
635.373257	2569.812192
635.718639	2561.074192
636.063968	2563.762808
636.409245	2576.029615
636.754470	2566.451423
637.099642	2562.922615
637.444762	2549.143462
637.789829	2563.090654
638.134845	2566.955538
638.479808	2557.881462
638.824719	2563.510750
639.169577	2576.533731
639.514383	2571.576596
639.859137	2568.215827
640.203839	2563.846827
640.548489	2574.937365
640.893086	2552.756288
641.237632	2579.978519
641.582125	2564.266923
641.926566	2559.141750
642.270955	2568.803962
642.615292	2570.568365
642.959576	2566.283385
643.303809	2574.181192
643.647990	2559.813904
643.992118	2566.451423
644.336195	2571.996692
644.680219	2584.431538
645.024192	2579.894500
645.368112	2563.258692
645.711981	2565.107115
646.055797	2568.467885
646.399562	2557.629404
646.743274	2563.762808
647.086935	2575.105404
647.430544	2569.140038
647.774101	2572.584827
648.117606	2572.836885
648.461059	2566.283385
648.804460	2573.677077
649.147810	2565.023096
649.491108	2583.927423
649.834354	2568.383865
650.177548	2568.047788
650.520690	2577.962058
650.863781	2565.611231
651.206820	2569.140038
651.549807	2556.369115
651.892742	2557.881462
652.235626	2564.182904
652.578458	2568.803962
652.921238	2581.070769
653.263967	2567.459654
653.606644	2561.746346
653.949269	2557.125288
654.291843	2578.886269
654.634365	2568.047788
654.976836	2560.318019
655.319255	2571.744635
655.661622	2570.064250
656.003938	2556.201077
656.346203	2558.805673
656.688416	2560.149981
657.030577	2568.635923
657.372687	2575.609519
657.714746	2557.713423
658.056753	2559.309788
658.398708	2577.625981
658.740612	2561.830365
659.082465	2555.612942
659.424266	2582.079000
659.766016	2556.957250
660.107715	2565.275154
660.449362	2565.107115
660.790958	2561.662327
661.132503	2564.266923
661.473996	2570.736404
661.815438	2559.897923
662.156829	2555.949019
662.498168	2568.972000
662.839456	2570.904442
663.180693	2577.878038
663.521879	2564.014865
663.863013	2572.332769
664.204097	2584.767615
664.545129	2562.586538
664.886110	2570.820423
665.227040	2570.904442
665.567918	2571.576596
665.908746	2576.701769
666.249522	2572.752865
666.590248	2565.107115
666.930922	2564.518981
667.271545	2567.459654
667.612118	2561.326250
667.952639	2564.603000
668.293109	2575.021385
668.633528	2570.652385
668.973896	2581.322827
669.314213	2553.260404
669.654480	2571.576596
669.994695	2561.662327
670.334859	2570.904442
670.674973	2564.014865
671.015035	2561.998404
671.355047	2554.268635
671.695008	2564.266923
672.034918	2558.301558
672.374777	2574.013154
672.714585	2562.166442
673.054342	2555.612942
673.394049	2559.057731
673.733705	2571.660615
674.073310	2564.350942
674.412864	2576.617750
674.752368	2563.342712
675.091820	2564.014865
675.431223	2558.133519
675.770574	2555.192846
676.109875	2570.232288
676.449125	2573.761096
676.788324	2582.499096
677.127473	2578.130096
677.466571	2555.024808
677.805619	2564.771038
678.144616	2562.922615
678.483562	2573.341000
678.822458	2563.930846
679.161303	2572.416788
679.500098	2570.820423
679.838842	2572.416788
680.177535	2567.711712
680.516179	2563.426731
680.854771	2578.550192
681.193314	2571.576596
681.531805	2567.459654
681.870247	2560.990173
682.208638	2560.654096
682.546978	2552.840308
682.885268	2560.906154
683.223508	2579.810481
683.561697	2574.685308
683.899836	2566.955538
684.237925	2563.846827
684.575963	2566.451423
684.913951	2568.215827
685.251889	2568.719942
685.589776	2557.797442
685.927614	2563.594769
686.265401	2557.209308
686.603137	2575.273442
686.940824	2575.693538
687.278460	2573.929135
687.616046	2560.402038
687.953582	2576.365692
688.291068	2564.182904
688.628504	2561.914385
688.965889	2567.123577
689.303224	2564.182904
689.640510	2567.963769
689.977745	2551.327962
690.314930	2567.207596
690.652065	2563.258692
690.989150	2567.795731
691.326185	2571.156500
691.663170	2572.332769
692.000105	2564.603000
692.336990	2593.253558
692.673825	2553.680500
693.010610	2565.359173
693.347345	2572.584827
693.684030	2582.331058
694.020665	2551.327962
694.357251	2562.586538
694.693786	2561.326250
695.030272	2563.006635
695.366707	2588.464462
695.703093	2565.947308
696.039429	2567.291615
696.375716	2580.230577
696.711952	2565.107115
697.048139	2568.972000
697.384276	2567.123577
697.720363	2561.914385
698.056400	2574.013154
698.392388	2557.545385
698.728326	2586.868096
699.064214	2559.225769
699.400053	2580.062538
699.735842	2565.695250
700.071581	2563.762808
700.407270	2569.728173
700.742910	2567.291615
701.078501	2569.392096
701.414042	2584.683596
701.749533	2563.678788
702.084974	2557.713423
702.420366	2568.215827
702.755709	2576.197654
703.091002	2567.039558
703.426246	2568.047788
703.761440	2572.164731
704.096584	2564.771038
704.431679	2562.586538
704.766725	2566.451423
705.101721	2556.201077
705.436668	2570.484346
705.771565	2576.869808
706.106413	2541.665750
706.441212	2570.484346
706.775961	2564.603000
707.110661	2576.365692
707.445311	2572.836885
707.779913	2560.654096
708.114465	2558.637635
708.448967	2575.945596
708.783421	2569.140038
709.117825	2574.097173
709.452180	2557.629404
709.786485	2569.308077
710.120742	2568.887981
710.454949	2556.789212
710.789107	2577.205885
711.123216	2557.881462
711.457275	2574.265212
711.791286	2563.006635
712.125247	2564.939077
712.459159	2554.856769
712.793023	2564.939077
713.126837	2555.360885
713.460602	2569.056019
713.794318	2574.685308
714.127985	2578.886269
714.461602	2563.510750
714.795171	2567.627692
715.128691	2556.957250
715.462162	2563.678788
715.795584	2574.097173
716.128957	2576.617750
716.462281	2569.140038
716.795556	2576.365692
717.128782	2567.795731
717.461960	2560.570077
717.795088	2563.594769
718.128167	2571.996692
718.461198	2579.642442
718.794180	2580.734692
719.127113	2577.457942
719.459997	2560.065962
719.792833	2573.761096
720.125619	2581.154788
720.458357	2564.603000
720.791046	2567.375635
721.123686	2574.853346
721.456278	2555.024808
721.788821	2570.820423
722.121315	2557.545385
722.453761	2564.014865
722.786158	2570.652385
723.118506	2561.158212
723.450805	2562.418500
723.783056	2564.518981
724.115259	2561.830365
724.447412	2574.097173
724.779518	2574.013154
725.111574	2557.881462
725.443582	2563.090654
725.775542	2558.805673
726.107453	2574.853346
726.439315	2563.174673
726.771129	2589.220635
727.102895	2570.736404
727.434612	2556.705192
727.766281	2569.812192
728.097901	2566.283385
728.429473	2558.637635
728.760996	2556.873231
729.092471	2576.281673
729.423897	2576.701769
729.755276	2575.945596
730.086606	2568.803962
730.417887	2568.719942
730.749120	2576.113635
731.080305	2563.174673
731.411442	2556.537154
731.742530	2574.265212
732.073570	2573.256981
732.404562	2558.133519
732.735506	2565.191135
733.066401	2565.695250
733.397249	2563.258692
733.728048	2568.887981
734.058798	2561.746346
734.389501	2569.392096
734.720156	2563.342712
735.050762	2567.039558
735.381320	2555.108827
735.711831	2576.617750
736.042293	2560.234000
736.372707	2557.461365
736.703073	2573.088942
737.033391	2555.612942
737.363661	2563.510750
737.693883	2565.023096
738.024056	2550.991885
738.354182	2561.494288
738.684260	2561.662327
739.014290	2570.484346
739.344272	2566.283385
739.674207	2564.687019
740.004093	2557.545385
740.333931	2554.184615
740.663722	2568.383865
740.993464	2552.168154
741.323159	2571.912673
741.652806	2559.141750
741.982405	2555.696962
742.311956	2558.637635
742.641460	2564.939077
742.970915	2565.107115
743.300323	2570.232288
743.629683	2556.537154
743.958996	2577.541962
744.288260	2547.883173
744.617477	2562.250462
744.946647	2572.500808
745.275768	2566.367404
745.604842	2558.889692
745.933869	2567.291615
746.262847	2576.197654
746.591778	2563.846827
746.920662	2570.484346
747.249498	2565.779269
747.578286	2557.713423
747.907027	2564.098885
748.235720	2558.889692
748.564365	2569.056019
748.892963	2574.013154
749.221514	2569.980231
749.550017	2571.660615
749.878473	2563.510750
750.206881	2581.406846
750.535242	2564.266923
750.863555	2568.972000
751.191821	2557.041269
751.520039	2567.963769
751.848210	2566.451423
752.176334	2560.738115
752.504411	2570.316308
752.832440	2581.910962
753.160421	2562.250462
753.488356	2569.056019
753.816243	2555.276865
754.144082	2566.619462
754.471875	2558.049500
754.799620	2568.383865
755.127318	2548.975423
755.454969	2563.258692
755.782572	2581.154788
756.110129	2556.369115
756.437638	2559.225769
756.765100	2570.064250
757.092515	2544.186327
757.419882	2576.701769
757.747203	2565.275154
758.074477	2561.830365
758.401703	2546.622885
758.728882	2556.033038
759.056014	2566.115346
759.383099	2573.845115
759.710138	2550.991885
760.037129	2557.377346
760.364073	2581.574885
760.690970	2566.703481
761.017820	2574.097173
761.344623	2567.123577
761.671379	2571.576596
761.998088	2573.845115
762.324751	2561.746346
762.651366	2569.812192
762.977935	2558.049500
763.304456	2567.795731
763.630931	2562.922615
763.957359	2577.373923
764.283740	2566.871519
764.610074	2550.823846
764.936362	2564.014865
765.262602	2556.705192
765.588796	2568.803962
765.914943	2553.512462
766.241044	2578.130096
766.567097	2555.865000
766.893104	2549.983654
767.219064	2585.271731
767.544978	2567.459654
767.870845	2565.527212
768.196665	2555.276865
768.522438	2557.881462
768.848165	2570.652385
769.173846	2570.904442
769.499479	2566.619462
769.825066	2565.023096
770.150607	2558.553615
770.476101	2563.594769
770.801548	2564.098885
771.126949	2559.225769
771.452303	2567.207596
771.777611	2565.947308
772.102872	2577.289904
772.428087	2576.449712
772.753256	2562.082423
773.078378	2555.108827
773.403453	2573.425019
773.728482	2561.242231
774.053465	2557.881462
774.378401	2564.182904
774.703291	2562.754577
775.028135	2571.072481
775.352932	2560.486058
775.677683	2565.443192
776.002388	2572.920904
776.327046	2564.771038
776.651658	2573.845115
776.976224	2561.158212
777.300743	2559.981942
777.625216	2560.402038
777.949643	2574.769327
778.274024	2565.107115
778.598359	2555.949019
778.922647	2562.922615
779.246889	2581.490865
779.571086	2562.082423
779.895236	2573.509038
780.219339	2556.369115
780.543397	2560.234000
780.867409	2557.377346
781.191374	2571.408558
781.515294	2572.836885
781.839167	2578.214115
782.162995	2560.990173
782.486776	2566.451423
782.810511	2555.024808
783.134201	2562.586538
783.457844	2566.199365
783.781441	2566.283385
784.104993	2561.914385
784.428498	2564.014865
784.751958	2560.906154
785.075372	2551.159923
785.398739	2557.797442
785.722061	2573.256981
786.045337	2566.031327
786.368568	2561.158212
786.691752	2566.031327
787.014891	2572.836885
787.337983	2565.695250
787.661030	2559.057731
787.984031	2558.049500
788.306987	2573.761096
788.629897	2570.484346
788.952760	2556.537154
789.275579	2563.594769
789.598351	2565.611231
789.921078	2565.779269
790.243759	2556.621173
790.566395	2553.596481
790.888984	2578.886269
791.211529	2564.266923
791.534027	2560.234000
791.856480	2564.771038
792.178888	2557.041269
792.501249	2560.234000
792.823566	2568.383865
793.145836	2557.797442
793.468062	2567.627692
793.790241	2561.746346
794.112375	2566.871519
794.434464	2554.352654
794.756507	2549.899635
795.078505	2562.250462
795.400457	2566.283385
795.722364	2557.209308
796.044226	2559.897923
796.366042	2563.678788
796.687812	2554.016577
797.009538	2580.734692
797.331218	2563.174673
797.652852	2585.691827
797.974442	2566.115346
798.295986	2549.899635
798.617484	2564.182904
798.938938	2565.275154
799.260346	2564.434962
799.581709	2576.701769
799.903026	2560.486058
800.224299	2569.560135
800.545526	2567.123577
800.866708	2558.637635
801.187845	2567.123577
801.508936	2566.955538
801.829983	2560.654096
802.150984	2573.761096
802.471940	2552.672269
802.792851	2565.359173
803.113717	2553.848538
803.434538	2562.670558
803.755314	2576.197654
804.076045	2554.352654
804.396731	2560.906154
804.717372	2578.466173
805.037967	2557.209308
805.358518	2558.889692
805.679024	2562.754577
805.999485	2543.766231
806.319901	2563.678788
806.640272	2565.191135
806.960598	2575.609519
807.280879	2562.166442
807.601115	2566.955538
807.921306	2541.413692
808.241453	2564.014865
808.561554	2562.250462
808.881611	2564.939077
809.201623	2559.141750
809.521590	2576.365692
809.841513	2563.930846
810.161390	2560.990173
810.481223	2571.072481
810.801011	2563.846827
811.120755	2557.881462
811.440453	2574.601288
811.760107	2562.838596
812.079716	2557.545385
812.399281	2568.803962
812.718801	2568.887981
813.038276	2561.242231
813.357707	2565.191135
813.677093	2549.395519
813.996434	2560.149981
814.315731	2567.291615
814.634983	2553.092365
814.954191	2561.998404
815.273354	2570.484346
815.592473	2548.975423
815.911547	2566.955538
816.230577	2560.570077
816.549562	2558.889692
816.868502	2561.914385
817.187399	2574.181192
817.506250	2551.411981
817.825058	2559.813904
818.143821	2556.789212
818.462539	2564.603000
818.781213	2547.295038
819.099843	2578.886269
819.418429	2565.527212
819.736970	2566.619462
820.055466	2567.291615
820.373919	2565.695250
820.692327	2547.967192
821.010691	2564.687019
821.329011	2566.871519
821.647286	2570.484346
821.965517	2564.098885
822.283704	2565.107115
822.601847	2565.695250
822.919945	2551.075904
823.237999	2571.660615
823.556010	2557.713423
823.873976	2574.517269
824.191897	2564.939077
824.509775	2559.645865
824.827609	2565.191135
825.145398	2560.654096
825.463144	2563.174673
825.780845	2555.949019
826.098502	2568.383865
826.416116	2571.240519
826.733685	2557.209308
827.051210	2559.225769
827.368692	2560.065962
827.686129	2564.939077
828.003522	2557.797442
828.320872	2560.570077
828.638177	2546.286808
828.955439	2563.006635
829.272656	2562.334481
829.589830	2551.411981
829.906960	2544.690442
830.224046	2548.975423
830.541088	2573.256981
830.858086	2549.395519
831.175041	2538.389000
831.491952	2562.838596
831.808819	2565.527212
832.125642	2568.047788
832.442421	2564.603000
832.759157	2569.812192
833.075849	2562.082423
833.392497	2558.721654
833.709101	2565.863288
834.025662	2562.670558
834.342179	2559.141750
834.658653	2564.266923
834.975083	2551.075904
835.291469	2592.329346
835.607811	2567.123577
835.924110	2565.779269
836.240366	2573.761096
836.556578	2555.612942
836.872746	2574.349231
837.188871	2558.805673
837.504952	2546.790923
837.820990	2571.492577
838.136984	2567.291615
838.452935	2560.738115
838.768842	2559.897923
839.084706	2556.117058
839.400526	2553.764519
839.716303	2565.863288
840.032037	2551.411981
840.347727	2562.922615
840.663373	2554.604712
840.978977	2553.932558
841.294537	2563.006635
841.610054	2555.612942
841.925527	2561.242231
842.240957	2560.486058
842.556344	2549.647577
842.871687	2559.309788
843.186987	2563.510750
843.502244	2550.907865
843.817458	2554.016577
844.132629	2559.729885
844.447756	2560.822135
844.762840	2552.504231
845.077881	2565.527212
845.392879	2560.065962
845.707833	2562.418500
846.022745	2566.367404
846.337613	2560.486058
846.652438	2556.621173
846.967221	2554.016577
847.281960	2540.321442
847.596656	2560.570077
847.911309	2563.594769
848.225919	2567.207596
848.540485	2562.418500
848.855009	2566.199365
849.169490	2570.652385
849.483928	2572.920904
849.798323	2568.047788
850.112675	2552.672269
850.426984	2561.158212
850.741251	2557.965481
851.055474	2557.293327
851.369654	2567.459654
851.683792	2567.795731
851.997887	2568.215827
852.311938	2558.469596
852.625947	2561.914385
852.939914	2547.799154
853.253837	2568.383865
853.567718	2566.367404
853.881555	2568.215827
854.195350	2577.710000
854.509103	2574.265212
854.822812	2558.889692
855.136479	2578.214115
855.450103	2561.410269
855.763685	2560.654096
856.077224	2553.596481
856.390720	2563.678788
856.704173	2564.771038
857.017584	2554.688731
857.330953	2554.856769
857.644278	2562.250462
857.957561	2569.392096
858.270802	2568.383865
858.584000	2560.822135
858.897155	2557.881462
859.210268	2550.739827
859.523339	2556.033038
859.836367	2566.535442
860.149352	2561.746346
860.462295	2556.789212
860.775195	2560.149981
861.088054	2558.133519
861.400869	2564.266923
861.713642	2555.949019
862.026373	2551.664038
862.339062	2563.678788
862.651708	2566.031327
862.964312	2564.182904
863.276873	2551.243942
863.589392	2555.108827
863.901869	2570.400327
864.214303	2561.830365
864.526696	2570.652385
864.839045	2553.428442
865.151353	2553.764519
865.463619	2562.838596
865.775842	2549.395519
866.088023	2558.553615
866.400162	2550.235712
866.712258	2546.538865
867.024313	2550.571788
867.336325	2563.510750
867.648296	2575.021385
867.960224	2561.662327
868.272110	2564.518981
868.583954	2559.897923
868.895755	2569.224058
869.207515	2559.813904
869.519233	2573.677077
869.830909	2561.158212
870.142542	2546.790923
870.454134	2561.746346
870.765684	2559.729885
871.077191	2560.738115
871.388657	2572.416788
871.700081	2569.812192
872.011463	2561.410269
872.322803	2558.301558
872.634101	2559.561846
872.945357	2557.125288
873.256571	2578.382154
873.567744	2538.725077
873.878874	2559.309788
874.189963	2564.266923
874.501010	2561.158212
874.812015	2563.762808
875.122979	2560.402038
875.433900	2547.799154
875.744780	2552.840308
876.055618	2564.771038
876.366415	2558.721654
876.677169	2550.823846
876.987882	2561.494288
877.298554	2554.184615
877.609183	2557.965481
877.919771	2561.074192
878.230317	2567.039558
878.540822	2555.696962
878.851285	2565.779269
879.161707	2564.771038
879.472087	2563.426731
879.782425	2555.108827
880.092722	2560.990173
880.402977	2558.721654
880.713191	2561.746346
881.023363	2561.242231
881.333494	2566.031327
881.643583	2552.420212
881.953631	2563.930846
882.263637	2563.174673
882.573602	2573.845115
882.883526	2558.889692
883.193408	2561.578308
883.503248	2551.832077
883.813048	2560.318019
884.122806	2567.459654
884.432522	2563.846827
884.742197	2574.433250
885.051831	2557.629404
885.361424	2576.617750
885.670975	2549.143462
885.980485	2569.224058
886.289954	2574.853346
886.599382	2554.940788
886.908768	2572.080712
887.218113	2551.327962
887.527417	2565.863288
887.836680	2564.182904
888.145901	2564.687019
888.455082	2571.912673
888.764221	2567.963769
889.073319	2557.545385
889.382376	2562.502519
889.691392	2574.853346
890.000366	2557.293327
890.309300	2568.803962
890.618193	2554.436673
890.927044	2537.212731
891.235855	2558.301558
891.544625	2556.873231
891.853353	2573.256981
892.162041	2543.094077
892.470687	2554.268635
892.779293	2573.341000
893.087858	2554.100596
893.396381	2574.769327
893.704864	2567.459654
894.013306	2574.013154
894.321707	2564.603000
894.630068	2564.603000
894.938387	2547.211019
895.246665	2559.225769
895.554903	2562.502519
895.863100	2566.703481
896.171256	2557.545385
896.479371	2565.107115
896.787446	2549.731596
897.095480	2554.604712
897.403473	2570.568365
897.711425	2556.621173
898.019336	2552.084135
898.327207	2551.748058
898.635038	2544.354365
898.942827	2552.924327
899.250576	2554.436673
899.558284	2569.560135
899.865952	2556.789212
900.173579	2571.492577
900.481165	2556.873231
900.788711	2543.010058
901.096216	2567.879750
901.403681	2557.209308
901.711105	2568.551904
902.018489	2554.520692
902.325832	2572.584827
902.633135	2559.897923
902.940397	2567.123577
903.247619	2561.326250
903.554800	2554.856769
903.861941	2569.728173
904.169041	2565.359173
904.476101	2554.184615
904.783121	2546.454846
905.090100	2557.881462
905.397039	2554.352654
905.703938	2558.049500
906.010796	2566.451423
906.317614	2558.721654
906.624391	2568.299846
906.931129	2545.530635
907.237826	2565.527212
907.544483	2554.856769
907.851099	2552.420212
908.157675	2568.803962
908.464211	2561.914385
908.770707	2559.141750
909.077163	2554.436673
909.383578	2560.149981
909.689954	2549.311500
909.996289	2559.057731
910.302584	2547.463077
910.608839	2556.621173
910.915054	2552.000115
911.221229	2563.594769
911.527363	2556.621173
911.833458	2555.108827
912.139513	2547.967192
912.445527	2552.672269
912.751502	2551.832077
913.057436	2534.692154
913.363331	2546.118769
913.669186	2549.059442
913.975000	2556.117058
914.280775	2548.639346
914.586510	2537.380769
914.892205	2554.940788
915.197859	2568.803962
915.503475	2560.402038
915.809050	2572.080712
916.114585	2567.207596
916.420081	2552.924327
916.725536	2555.612942
917.030952	2550.403750
917.336328	2558.805673
917.641665	2573.509038
917.946961	2570.652385
918.252218	2560.570077
918.557435	2558.133519
918.862612	2551.496000
919.167750	2557.293327
919.472848	2568.551904
919.777906	2560.906154
920.082925	2563.426731
920.387904	2560.822135
920.692843	2558.301558
920.997743	2562.586538
921.302603	2547.379058
921.607423	2563.762808
921.912204	2561.914385
922.216946	2552.840308
922.521647	2562.082423
922.826310	2557.293327
923.130932	2557.797442
923.435516	2566.955538
923.740059	2566.619462
924.044564	2570.652385
924.349028	2561.830365
924.653454	2558.637635
924.957840	2568.719942
925.262186	2558.973712
925.566493	2546.790923
925.870761	2544.018288
926.174989	2550.487769
926.479178	2561.242231
926.783328	2571.912673
927.087438	2557.209308
927.391509	2555.612942
927.695541	2559.225769
927.999533	2556.873231
928.303486	2550.403750
928.607400	2553.176385
928.911275	2560.654096
929.215110	2553.008346
929.518906	2565.527212
929.822663	2554.268635
930.126381	2550.991885
930.430060	2549.899635
930.733699	2539.481250
931.037299	2572.920904
931.340861	2566.199365
931.644383	2544.522404
931.947866	2570.148269
932.251309	2550.067673
932.554714	2546.958962
932.858080	2565.863288
933.161407	2551.664038
933.464694	2559.057731
933.767943	2559.897923
934.071153	2556.285096
934.374323	2537.128712
934.677455	2557.041269
934.980548	2544.270346
935.283602	2563.930846
935.586617	2564.182904
935.889593	2554.940788
936.192530	2556.285096
936.495428	2549.647577
936.798287	2551.327962
937.101108	2554.016577
937.403890	2567.963769
937.706632	2564.350942
938.009336	2564.603000
938.312002	2562.586538
938.614628	2552.924327
938.917216	2560.234000
939.219765	2563.510750
939.522275	2555.949019
939.824747	2560.654096
940.127179	2557.377346
940.429573	2559.141750
940.731929	2548.387288
941.034246	2540.657519
941.336524	2546.286808
941.638763	2553.428442
941.940964	2561.326250
942.243126	2551.411981
942.545250	2555.949019
942.847335	2554.772750
943.149381	2547.042981
943.451389	2551.411981
943.753359	2563.006635
944.055290	2557.041269
944.357182	2561.326250
944.659036	2565.779269
944.960851	2551.664038
945.262628	2557.545385
945.564367	2543.598192
945.866067	2542.842019
946.167729	2561.746346
946.469352	2565.527212
946.770937	2539.985365
947.072484	2565.611231
947.373992	2572.500808
947.675462	2563.342712
947.976893	2566.703481
948.278286	2569.980231
948.579641	2549.311500
948.880958	2564.687019
949.182236	2574.685308
949.483476	2553.008346
949.784678	2553.344423
950.085841	2565.107115
950.386967	2572.332769
950.688054	2557.125288
950.989103	2552.672269
951.290114	2564.350942
951.591087	2558.721654
951.892021	2545.698673
952.192917	2562.922615
952.493776	2560.654096
952.794596	2546.958962
953.095378	2550.907865
953.396122	2557.713423
953.696828	2575.357462
953.997496	2549.899635
954.298126	2560.065962
954.598718	2558.805673
954.899272	2554.352654
955.199788	2567.711712
955.500266	2548.639346
955.800706	2553.680500
956.101108	2556.201077
956.401472	2560.654096
956.701798	2548.303269
957.002087	2554.352654
957.302337	2552.420212
957.602550	2551.496000
957.902724	2555.780981
958.202861	2582.499096
958.502960	2556.453135
958.803022	2559.141750
959.103045	2561.662327
959.403031	2556.789212
959.702979	2550.907865
960.002889	2557.125288
960.302762	2559.225769
960.602596	2562.250462
960.902393	2569.308077
961.202153	2575.441481
961.501875	2563.846827
961.801559	2553.932558
962.101205	2544.354365
962.400814	2565.443192
962.700385	2558.805673
962.999918	2563.006635
963.299414	2559.225769
963.598873	2556.201077
963.898293	2563.426731
964.197677	2562.418500
964.497022	2550.907865
964.796331	2544.606423
965.095601	2550.739827
965.394835	2571.828654
965.694030	2560.234000
965.993189	2547.631115
966.292309	2554.688731
966.591393	2563.930846
966.890439	2565.023096
967.189447	2552.924327
967.488419	2561.158212
967.787353	2545.866712
968.086249	2549.731596
968.385108	2552.084135
968.683930	2552.168154
968.982714	2566.199365
969.281462	2565.611231
969.580172	2553.512462
969.878844	2551.159923
970.177480	2548.555327
970.476078	2551.916096
970.774639	2564.771038
971.073162	2555.108827
971.371649	2558.385577
971.670098	2563.510750
971.968510	2557.461365
972.266885	2557.881462
972.565223	2546.538865
972.863524	2563.258692
973.161788	2557.041269
973.460014	2560.486058
973.758204	2557.461365
974.056356	2562.838596
974.354471	2574.013154
974.652550	2569.476115
974.950591	2565.443192
975.248595	2545.194558
975.546563	2563.258692
975.844493	2568.047788
976.142386	2551.327962
976.440243	2561.494288
976.738062	2544.858481
977.035845	2559.645865
977.333590	2544.774462
977.631299	2561.242231
977.928971	2559.645865
978.226606	2555.949019
978.524204	2560.570077
978.821765	2562.754577
979.119290	2553.344423
979.416777	2563.678788
979.714228	2565.107115
980.011642	2548.975423
980.309020	2554.100596
980.606360	2557.125288
980.903664	2567.207596
981.200931	2550.907865
981.498162	2559.477827
981.795356	2554.268635
982.092513	2548.135231
982.389633	2559.141750
982.686717	2543.850250
982.983764	2550.067673
983.280775	2571.660615
983.577749	2550.571788
983.874686	2550.907865
984.171587	2548.723365
984.468451	2547.631115
984.765279	2554.772750
985.062070	2555.360885
985.358824	2552.924327
985.655543	2549.059442
985.952224	2563.342712
986.248869	2556.369115
986.545478	2549.815615
986.842050	2561.914385
987.138586	2556.621173
987.435086	2567.543673
987.731549	2560.738115
988.027975	2561.074192
988.324366	2564.266923
988.620719	2565.863288
988.917037	2564.603000
989.213318	2550.823846
989.509563	2562.838596
989.805772	2571.072481
990.101944	2555.696962
990.398080	2540.069385
990.694180	2543.850250
990.990244	2563.510750
991.286271	2575.525500
991.582262	2541.833788
991.878217	2550.067673
992.174136	2548.471308
992.470019	2556.957250
992.765865	2562.670558
993.061676	2567.207596
993.357450	2560.990173
993.653188	2560.149981
993.948890	2557.629404
994.244556	2555.024808
994.540186	2545.698673
994.835780	2562.166442
995.131337	2563.006635
995.426859	2556.537154
995.722345	2563.762808
996.017795	2568.467885
996.313208	2561.662327
996.608586	2564.266923
996.903928	2567.879750
997.199234	2552.504231
997.494504	2550.235712
997.789738	2556.537154
998.084936	2568.803962
998.380099	2548.303269
998.675225	2547.463077
998.970316	2556.537154
999.265371	2565.779269
999.560390	2556.957250
999.855373	2550.487769
1000.150320	2542.589962
1000.445232	2562.754577
1000.740108	2551.243942
1001.034948	2573.677077
1001.329752	2550.991885
1001.624521	2547.883173
1001.919254	2560.654096
1002.213951	2542.673981
1002.508613	2555.108827
1002.803239	2554.940788
1003.097829	2574.685308
1003.392384	2545.026519
1003.686903	2546.370827
1003.981386	2557.125288
1004.275834	2553.428442
1004.570246	2545.950731
1004.864623	2565.527212
1005.158964	2569.140038
1005.453270	2557.881462
1005.747540	2548.975423
1006.041775	2555.276865
1006.335974	2556.369115
1006.630138	2547.295038
1006.924266	2571.240519
1007.218359	2568.551904
1007.512416	2542.758000
1007.806438	2560.234000
1008.100425	2551.496000
1008.394376	2553.764519
1008.688292	2569.896212
1008.982172	2544.102308
1009.276017	2553.848538
1009.569827	2560.822135
1009.863602	2548.303269
1010.157341	2549.143462
1010.451045	2563.678788
1010.744714	2543.262115
1011.038347	2545.194558
1011.331945	2568.803962
1011.625508	2547.379058
1011.919036	2549.311500
1012.212528	2557.125288
1012.505986	2557.125288
1012.799408	2555.192846
1013.092795	2562.082423
1013.386147	2559.393808
1013.679464	2553.764519
1013.972745	2543.262115
1014.265992	2568.887981
1014.559204	2554.772750
1014.852380	2558.469596
1015.145521	2547.211019
1015.438628	2553.680500
1015.731699	2542.842019
1016.024736	2557.377346
1016.317737	2564.434962
1016.610703	2546.622885
1016.903635	2565.611231
1017.196531	2554.184615
1017.489393	2553.764519
1017.782219	2555.780981
1018.075011	2565.191135
1018.367768	2545.026519
1018.660490	2554.436673
1018.953177	2554.436673
1019.245829	2554.436673
