Dividing Wavelength (nm)	Counts (n)	Slit_number_0_of_a_total_of_40	
326.493990	2055.278423
326.888308	2055.278423
327.282561	2055.278423
327.676750	2017.721827
328.070874	2026.039731
328.464933	2027.047962
328.858929	2043.683769
329.252859	2055.278423
329.646726	2084.013000
330.040528	2101.657038
330.434265	2092.330904
330.827938	2127.114865
331.221547	2160.638538
331.615091	2160.638538
332.008571	2185.340192
332.401986	2222.140615
332.795338	2213.066538
333.188625	2238.020250
333.581847	2264.486308
333.975006	2280.870058
334.368100	2282.130346
334.761129	2310.864923
335.154095	2333.550115
335.546996	2339.599500
335.939833	2367.325846
336.332606	2400.849519
336.725315	2402.613923
337.117960	2415.720923
337.510540	2407.907135
337.903056	2413.200346
338.295508	2439.414346
338.687896	2419.249731
339.080220	2408.915365
339.472480	2428.071750
339.864676	2438.406115
340.256807	2444.707558
340.648875	2453.277519
341.040879	2461.091308
341.432818	2439.918462
341.824694	2452.269288
342.216506	2468.653038
342.608253	2438.154058
342.999937	2467.896865
343.391557	2465.628346
343.783113	2432.608788
344.174605	2440.422577
344.566033	2413.200346
344.957397	2438.154058
345.348697	2424.290885
345.739934	2449.496654
346.131106	2419.753846
346.522215	2428.827923
346.913260	2443.951385
347.304241	2432.104673
347.695159	2421.518250
348.086012	2437.649942
348.476802	2417.233269
348.867528	2443.951385
349.258191	2423.786769
349.648789	2451.513115
350.039324	2425.047058
350.429796	2429.836154
350.820203	2392.027500
351.210548	2435.633481
351.600828	2435.381423
351.991045	2443.447269
352.381198	2423.282654
352.771288	2407.403019
353.161314	2412.192115
353.551276	2443.447269
353.941175	2408.159192
354.331010	2435.885538
354.720782	2405.890673
355.110490	2433.364962
355.500135	2412.192115
355.889717	2410.931827
356.279235	2408.915365
356.668689	2425.551173
357.058080	2420.005904
357.447408	2423.534712
357.836672	2430.088212
358.225873	2451.513115
358.615010	2423.534712
359.004084	2408.663308
359.393095	2407.150962
359.782043	2411.688000
360.170927	2435.381423
360.559748	2415.720923
360.948505	2422.022365
361.337199	2415.972981
361.725830	2431.852615
362.114398	2421.770308
362.502903	2451.765173
362.891344	2418.745615
363.279722	2426.055288
363.668037	2426.811462
364.056289	2426.307346
364.444478	2433.364962
364.832603	2432.608788
365.220665	2438.154058
365.608665	2423.282654
365.996601	2418.745615
366.384474	2442.439038
366.772284	2438.154058
367.160031	2442.439038
367.547715	2409.923596
367.935336	2428.323808
368.322893	2422.022365
368.710388	2416.729154
369.097820	2427.315577
369.485189	2444.203442
369.872495	2422.022365
370.259738	2427.315577
370.646918	2449.748712
371.034035	2438.910231
371.421090	2453.025462
371.808081	2401.353635
372.195010	2465.376288
372.581875	2440.926692
372.968678	2449.244596
373.355418	2427.567635
373.742096	2422.022365
374.128710	2406.646846
374.515262	2427.063519
374.901751	2435.129365
375.288177	2453.781635
375.674540	2444.959615
376.060841	2440.170519
376.447079	2487.053250
376.833254	2434.121135
377.219367	2423.534712
377.605417	2420.257962
377.991404	2448.488423
378.377329	2424.542942
378.763191	2418.241500
379.148991	2426.307346
379.534727	2446.724019
379.920402	2453.025462
380.306013	2455.546038
380.691563	2452.773404
381.077049	2438.910231
381.462474	2448.992538
381.847835	2417.233269
382.233134	2466.384519
382.618371	2458.318673
383.003545	2454.537808
383.388657	2433.869077
383.773706	2442.691096
384.158693	2442.186981
384.543618	2459.578962
384.928480	2434.373192
385.313280	2449.748712
385.698017	2455.041923
386.082692	2426.055288
386.467305	2430.592327
386.851856	2435.381423
387.236344	2441.430808
387.620770	2424.795000
388.005133	2429.332038
388.389435	2437.902000
388.773674	2407.150962
389.157851	2450.504885
389.541965	2441.430808
389.926018	2437.902000
390.310008	2458.822788
390.693936	2433.617019
391.077802	2435.129365
391.461606	2428.827923
391.845348	2439.666404
392.229027	2413.704462
392.612645	2469.409212
392.996200	2456.554269
393.379694	2447.228135
393.763125	2462.603654
394.146494	2417.233269
394.529801	2473.442135
394.913047	2444.455500
395.296230	2413.704462
395.679351	2440.674635
396.062410	2433.617019
396.445408	2442.439038
396.828343	2443.951385
397.211217	2454.537808
397.594028	2428.827923
397.976778	2435.381423
398.359466	2466.636577
398.742092	2447.228135
399.124656	2440.170519
399.507158	2427.063519
399.889598	2468.905096
400.271977	2432.860846
400.654294	2441.178750
401.036549	2426.055288
401.418742	2473.442135
401.800874	2452.773404
402.182944	2460.839250
402.564952	2442.943154
402.946898	2448.488423
403.328783	2445.463731
403.710606	2427.315577
404.092367	2459.074846
404.474067	2452.773404
404.855705	2459.074846
405.237282	2451.261058
405.618797	2468.905096
406.000250	2461.595423
406.381642	2474.198308
406.762972	2436.893769
407.144240	2452.773404
407.525447	2445.211673
407.906593	2446.219904
408.287677	2479.239462
408.668700	2448.740481
409.049661	2450.504885
409.430560	2459.074846
409.811399	2451.765173
410.192176	2429.332038
410.572891	2458.570731
410.953545	2445.715788
411.334138	2471.929788
411.714669	2428.071750
412.095139	2493.354692
412.475547	2454.537808
412.855894	2449.244596
413.236180	2456.050154
413.616405	2449.748712
413.996568	2455.546038
414.376670	2439.918462
414.756711	2438.658173
415.136691	2460.839250
415.516609	2481.507981
415.896466	2445.715788
416.276262	2461.847481
416.655997	2476.970942
417.035670	2421.266192
417.415283	2476.970942
417.794834	2419.249731
418.174324	2456.554269
418.553753	2463.107769
418.933121	2458.066615
419.312428	2443.951385
419.691674	2473.946250
420.070859	2467.896865
420.449983	2463.863942
420.829045	2464.368058
421.208047	2467.140692
421.586988	2468.653038
421.965867	2429.079981
422.344686	2462.855712
422.723444	2451.513115
423.102141	2454.537808
423.480777	2464.872173
423.859352	2468.905096
424.237866	2463.107769
424.616319	2455.546038
424.994712	2445.463731
425.373044	2463.863942
425.751314	2444.455500
426.129524	2459.831019
426.507673	2435.381423
426.885762	2468.905096
427.263789	2466.132462
427.641756	2460.587192
428.019662	2481.507981
428.397508	2453.277519
428.775292	2473.946250
429.153016	2454.033692
429.530679	2465.376288
429.908282	2478.987404
430.285824	2484.280615
430.663305	2444.203442
431.040726	2485.792962
431.418086	2455.293981
431.795385	2440.422577
432.172624	2440.170519
432.549802	2461.091308
432.926920	2466.888635
433.303977	2452.773404
433.680974	2434.625250
434.057910	2475.710654
434.434786	2450.756942
434.811601	2476.466827
435.188355	2438.154058
435.565050	2451.765173
435.941683	2484.280615
436.318257	2466.636577
436.694770	2464.368058
437.071222	2475.962712
437.447614	2459.326904
437.823946	2439.414346
438.200218	2453.025462
438.576429	2479.239462
438.952580	2457.562500
439.328670	2428.071750
439.704700	2453.277519
440.080670	2459.831019
440.456580	2463.359827
440.832429	2462.351596
441.208218	2472.938019
441.583947	2477.223000
441.959616	2447.732250
442.335224	2492.598519
442.710773	2476.214769
443.086261	2490.330000
443.461689	2475.458596
443.837057	2484.784731
444.212365	2460.335135
444.587612	2472.433904
444.962800	2468.653038
445.337927	2447.228135
445.712995	2441.178750
446.088002	2474.954481
446.462949	2461.847481
446.837837	2449.244596
447.212664	2465.628346
447.587431	2469.913327
447.962139	2466.384519
448.336786	2460.839250
448.711374	2474.702423
449.085901	2447.480192
449.460369	2446.471962
449.834776	2465.880404
450.209124	2448.992538
450.583412	2461.091308
450.957640	2461.595423
451.331808	2492.598519
451.705917	2451.513115
452.079965	2454.537808
452.453954	2430.088212
452.827883	2461.595423
453.201752	2462.099538
453.575562	2476.214769
453.949311	2469.661269
454.323001	2461.343365
454.696632	2468.148923
455.070202	2489.321769
455.443713	2482.516212
455.817164	2485.288846
456.190556	2466.636577
456.563888	2458.318673
456.937160	2463.359827
457.310373	2463.863942
457.683526	2484.532673
458.056619	2481.003865
458.429653	2472.685962
458.802628	2487.305308
459.175542	2491.086173
459.548398	2490.077942
459.921194	2469.157154
460.293930	2457.058385
460.666607	2448.488423
461.039224	2478.735346
461.411782	2464.116000
461.784280	2475.962712
462.156719	2478.231231
462.529099	2479.491519
462.901419	2472.181846
463.273680	2493.858808
463.645882	2441.934923
464.018024	2493.354692
464.390106	2479.743577
464.762130	2486.297077
465.134094	2481.507981
465.505999	2486.045019
465.877845	2472.181846
466.249631	2469.157154
466.621358	2468.905096
466.993026	2459.831019
467.364634	2496.379385
467.736184	2446.724019
468.107674	2463.611885
468.479105	2486.549135
468.850477	2462.855712
469.221790	2442.943154
469.593043	2466.132462
469.964238	2477.475058
470.335373	2480.751808
470.706449	2472.938019
471.077467	2475.458596
471.448425	2476.718885
471.819324	2464.872173
472.190164	2479.743577
472.560945	2464.116000
472.931667	2443.447269
473.302330	2454.285750
473.672934	2466.888635
474.043479	2463.107769
474.413965	2450.756942
474.784393	2454.537808
475.154761	2482.012096
475.525070	2468.653038
475.895321	2465.124231
476.265513	2455.798096
476.635645	2445.715788
477.005719	2467.644808
477.375734	2484.280615
477.745691	2453.277519
478.115588	2479.743577
478.485427	2470.165385
478.855207	2464.872173
479.224928	2469.661269
479.594591	2464.620115
479.964194	2464.116000
480.333739	2472.938019
480.703226	2481.760038
481.072653	2459.831019
481.442022	2450.756942
481.811333	2495.119096
482.180584	2463.611885
482.549777	2460.587192
482.918912	2463.863942
483.287988	2487.053250
483.657005	2469.913327
484.025964	2486.801192
484.394864	2472.685962
484.763706	2477.475058
485.132489	2457.562500
485.501213	2465.880404
485.869879	2438.910231
486.238487	2459.578962
486.607036	2472.181846
486.975527	2452.521346
487.343959	2476.214769
487.712333	2429.836154
488.080648	2455.293981
488.448905	2488.565596
488.817104	2455.041923
489.185244	2457.310442
489.553326	2475.206538
489.921350	2472.938019
490.289315	2482.012096
490.657222	2451.765173
491.025070	2478.735346
491.392861	2484.028558
491.760593	2487.053250
492.128267	2476.466827
492.495883	2505.201404
492.863440	2465.628346
493.230939	2438.910231
493.598380	2472.433904
493.965763	2486.549135
494.333088	2457.562500
494.700354	2460.335135
495.067563	2463.107769
495.434713	2452.521346
495.801805	2474.702423
496.168839	2479.995635
496.535815	2443.699327
496.902733	2464.620115
497.269593	2474.702423
497.636395	2458.318673
498.003139	2445.715788
498.369825	2485.288846
498.736453	2457.814558
499.103023	2487.557365
499.469535	2478.735346
499.835989	2472.685962
500.202385	2444.707558
500.568723	2489.321769
500.935003	2450.252827
501.301226	2476.466827
501.667390	2458.066615
502.033497	2501.168481
502.399546	2479.743577
502.765537	2467.140692
503.131470	2490.077942
503.497345	2465.628346
503.863163	2483.524442
504.228923	2473.946250
504.594625	2472.433904
504.960269	2475.710654
505.325856	2488.565596
505.691385	2472.181846
506.056856	2497.135558
506.422270	2482.768269
506.787625	2476.718885
507.152924	2458.570731
507.518164	2484.784731
507.883347	2441.682865
508.248472	2465.124231
508.613540	2461.595423
508.978550	2478.987404
509.343503	2485.288846
509.708398	2447.984308
510.073236	2482.768269
510.438016	2468.400981
510.802738	2481.760038
511.167403	2485.792962
511.532010	2476.718885
511.896561	2488.565596
512.261053	2471.677731
512.625488	2472.433904
512.989866	2472.433904
513.354186	2475.206538
513.718449	2471.425673
514.082655	2463.863942
514.446803	2452.773404
514.810894	2472.685962
515.174927	2482.012096
515.538904	2479.743577
515.902822	2495.623212
516.266684	2481.255923
516.630488	2492.346462
516.994235	2462.603654
517.357925	2478.231231
517.721558	2442.943154
518.085133	2495.119096
518.448651	2466.384519
518.812112	2457.562500
519.175516	2470.165385
519.538863	2469.409212
519.902152	2495.119096
520.265385	2463.611885
520.628560	2481.003865
520.991678	2453.529577
521.354739	2482.264154
521.717743	2486.297077
522.080690	2480.247692
522.443580	2478.987404
522.806413	2495.623212
523.169189	2495.371154
523.531908	2491.086173
523.894569	2490.582058
524.257174	2446.219904
524.619722	2485.792962
524.982213	2480.499750
525.344647	2490.330000
525.707025	2455.041923
526.069345	2502.680827
526.431608	2476.466827
526.793815	2489.321769
527.155964	2489.069712
527.518057	2483.776500
527.880093	2468.400981
528.242072	2464.620115
528.603995	2492.346462
528.965860	2478.987404
529.327669	2523.601615
529.689421	2500.664365
530.051117	2467.140692
530.412755	2478.483288
530.774337	2464.368058
531.135862	2486.297077
531.497331	2483.272385
531.858743	2496.379385
532.220098	2481.507981
532.581396	2489.069712
532.942638	2482.768269
533.303824	2476.466827
533.664953	2504.445231
534.026025	2455.546038
534.387040	2465.376288
534.747999	2456.050154
535.108902	2468.653038
535.469748	2481.003865
535.830537	2463.863942
536.191270	2472.938019
536.551947	2476.214769
536.912567	2452.521346
537.273131	2454.537808
537.633638	2482.516212
537.994089	2463.359827
538.354483	2471.929788
538.714821	2488.817654
539.075103	2484.784731
539.435328	2468.400981
539.795497	2459.831019
540.155609	2491.086173
540.515665	2497.135558
540.875665	2469.661269
541.235609	2467.140692
541.595496	2494.614981
541.955328	2480.247692
542.315102	2482.264154
542.674821	2477.727115
543.034483	2463.611885
543.394090	2486.297077
543.753640	2486.549135
544.113134	2491.590288
544.472571	2504.193173
544.831953	2473.946250
545.191278	2481.507981
545.550548	2490.582058
545.909761	2475.962712
546.268918	2498.647904
546.628019	2490.582058
546.987064	2504.697288
547.346053	2467.644808
547.704986	2469.409212
548.063863	2474.954481
548.422684	2472.685962
548.781449	2502.176712
549.140158	2476.970942
549.498811	2476.718885
549.857408	2474.198308
550.215949	2477.223000
550.574434	2467.896865
550.932864	2455.041923
551.291237	2477.223000
551.649555	2505.705519
552.007817	2486.549135
552.366022	2477.475058
552.724173	2467.644808
553.082267	2487.809423
553.440305	2472.685962
553.798288	2492.346462
554.156215	2464.620115
554.514086	2479.239462
554.871902	2472.181846
555.229661	2494.110865
555.587365	2458.066615
555.945014	2456.050154
556.302606	2492.346462
556.660143	2490.834115
557.017625	2491.338231
557.375050	2461.091308
557.732421	2486.045019
558.089735	2471.929788
558.446994	2450.252827
558.804197	2478.735346
559.161345	2462.603654
559.518437	2463.611885
559.875474	2488.061481
560.232455	2495.623212
560.589381	2467.392750
560.946251	2477.475058
561.303065	2490.077942
561.659825	2487.305308
562.016528	2480.751808
562.373177	2493.354692
562.729770	2507.469923
563.086307	2500.160250
563.442789	2486.801192
563.799216	2472.685962
564.155587	2488.565596
564.511904	2497.387615
564.868164	2473.190077
565.224370	2501.420538
565.580520	2464.368058
565.936615	2480.499750
566.292654	2484.532673
566.648638	2470.417442
567.004567	2480.499750
567.360441	2497.135558
567.716260	2473.442135
568.072023	2472.433904
568.427732	2495.623212
568.783385	2480.751808
569.138982	2475.710654
569.494525	2508.730212
569.850013	2485.540904
570.205445	2470.921558
570.560823	2472.181846
570.916145	2499.152019
571.271412	2455.041923
571.626625	2477.727115
571.981782	2463.107769
572.336884	2507.974038
572.691931	2460.587192
573.046923	2468.400981
573.401860	2479.491519
573.756743	2458.318673
574.111570	2496.631442
574.466342	2480.751808
574.821059	2493.858808
575.175722	2501.420538
575.530330	2471.173615
575.884882	2475.710654
576.239380	2470.165385
576.593823	2481.003865
576.948211	2480.499750
577.302544	2495.875269
577.656823	2506.209635
578.011047	2504.193173
578.365216	2462.351596
578.719330	2470.165385
579.073389	2459.831019
579.427394	2479.239462
579.781344	2470.921558
580.135239	2494.867038
580.489080	2484.784731
580.842866	2477.979173
581.196597	2499.656135
581.550273	2465.880404
581.903895	2462.099538
582.257463	2481.507981
582.610975	2484.028558
582.964434	2490.582058
583.317837	2484.784731
583.671186	2474.702423
584.024481	2468.148923
584.377721	2462.855712
584.730906	2481.003865
585.084037	2479.743577
585.437113	2473.190077
585.790135	2475.710654
586.143103	2482.516212
586.496016	2486.549135
586.848874	2474.198308
587.201679	2485.036788
587.554428	2475.458596
587.907124	2477.979173
588.259765	2452.017231
588.612352	2455.546038
588.964884	2473.946250
589.317362	2479.995635
589.669786	2487.557365
590.022155	2478.231231
590.374470	2472.685962
590.726731	2498.647904
591.078937	2449.244596
591.431090	2482.516212
591.783188	2499.152019
592.135232	2474.450365
592.487222	2472.433904
592.839157	2476.718885
593.191038	2471.929788
593.542866	2459.831019
593.894639	2474.954481
594.246358	2496.631442
594.598022	2470.669500
594.949633	2477.727115
595.301190	2464.116000
595.652692	2487.053250
596.004141	2484.028558
596.355535	2467.392750
596.706876	2474.198308
597.058162	2464.872173
597.409395	2485.036788
597.760573	2472.938019
598.111698	2476.466827
598.462768	2487.809423
598.813785	2452.269288
599.164748	2475.962712
599.515657	2483.272385
599.866511	2436.389654
600.217312	2477.727115
600.568060	2481.507981
600.918753	2479.743577
601.269392	2481.255923
601.619978	2497.639673
601.970510	2491.338231
602.320988	2457.814558
602.671412	2492.598519
603.021783	2506.713750
603.372100	2480.499750
603.722363	2505.201404
604.072572	2468.400981
604.422728	2476.970942
604.772830	2487.305308
605.122878	2482.768269
605.472872	2470.417442
605.822813	2472.685962
606.172701	2465.880404
606.522534	2471.173615
606.872314	2473.694192
607.222041	2474.198308
607.571714	2500.160250
607.921333	2467.392750
608.270899	2470.417442
608.620411	2468.148923
608.969870	2499.404077
609.319276	2491.338231
609.668627	2477.223000
610.017926	2500.160250
610.367171	2490.834115
610.716362	2475.962712
611.065500	2475.206538
611.414585	2478.735346
611.763616	2461.595423
612.112594	2487.809423
612.461518	2483.020327
612.810389	2463.863942
613.159207	2443.447269
613.507971	2482.264154
613.856682	2475.458596
614.205340	2471.425673
614.553945	2463.611885
614.902496	2475.962712
615.250994	2495.623212
615.599439	2492.094404
615.947830	2463.863942
616.296169	2488.061481
616.644454	2484.028558
616.992686	2462.855712
617.340864	2497.387615
617.688990	2488.061481
618.037063	2481.255923
618.385082	2495.623212
618.733048	2465.880404
619.080961	2468.653038
619.428821	2472.938019
619.776628	2470.165385
620.124382	2476.970942
620.472083	2490.077942
620.819731	2504.445231
621.167326	2471.425673
621.514868	2467.140692
621.862357	2482.012096
622.209793	2478.231231
622.557176	2476.718885
622.904506	2494.362923
623.251783	2478.987404
623.599007	2491.338231
623.946179	2509.990500
624.293297	2471.677731
624.640363	2476.718885
624.987376	2476.970942
625.334336	2482.768269
625.681243	2474.954481
626.028097	2494.614981
626.374899	2473.694192
626.721647	2500.412308
627.068343	2510.494615
627.414987	2460.839250
627.761577	2461.847481
628.108115	2470.669500
628.454600	2498.899962
628.801032	2500.916423
629.147412	2493.606750
629.493739	2476.466827
629.840014	2490.582058
630.186236	2461.595423
630.532405	2460.335135
630.878521	2457.814558
631.224585	2480.751808
631.570597	2479.743577
631.916556	2450.252827
632.262462	2494.867038
632.608316	2492.094404
632.954117	2484.280615
633.299866	2493.102635
633.645562	2496.883500
633.991206	2460.587192
634.336797	2478.987404
634.682336	2489.573827
635.027823	2476.970942
635.373257	2445.715788
635.718639	2484.280615
636.063968	2464.368058
636.409245	2455.798096
636.754470	2513.267250
637.099642	2512.763135
637.444762	2462.351596
637.789829	2486.045019
638.134845	2470.165385
638.479808	2468.653038
638.824719	2480.751808
639.169577	2478.483288
639.514383	2478.231231
639.859137	2463.611885
640.203839	2488.565596
640.548489	2481.507981
640.893086	2487.557365
641.237632	2457.814558
641.582125	2489.825885
641.926566	2493.858808
642.270955	2465.880404
642.615292	2483.020327
642.959576	2480.751808
643.303809	2457.310442
643.647990	2464.116000
643.992118	2462.603654
644.336195	2455.798096
644.680219	2470.669500
645.024192	2484.784731
645.368112	2471.677731
645.711981	2485.036788
646.055797	2474.450365
646.399562	2481.003865
646.743274	2472.433904
647.086935	2480.247692
647.430544	2482.768269
647.774101	2491.842346
648.117606	2493.606750
648.461059	2474.954481
648.804460	2485.288846
649.147810	2451.261058
649.491108	2473.946250
649.834354	2487.305308
650.177548	2483.020327
650.520690	2466.636577
650.863781	2487.809423
651.206820	2476.970942
651.549807	2485.288846
651.892742	2479.239462
652.235626	2466.636577
652.578458	2465.124231
652.921238	2456.806327
653.263967	2500.160250
653.606644	2463.359827
653.949269	2464.872173
654.291843	2486.297077
654.634365	2473.442135
654.976836	2459.831019
655.319255	2479.491519
655.661622	2489.573827
656.003938	2494.614981
656.346203	2467.140692
656.688416	2474.198308
657.030577	2481.760038
657.372687	2484.784731
657.714746	2473.190077
658.056753	2479.491519
658.398708	2496.379385
658.740612	2466.132462
659.082465	2494.362923
659.424266	2482.264154
659.766016	2465.880404
660.107715	2474.702423
660.449362	2484.028558
660.790958	2481.507981
661.132503	2488.061481
661.473996	2465.124231
661.815438	2469.913327
662.156829	2468.653038
662.498168	2473.190077
662.839456	2459.326904
663.180693	2473.190077
663.521879	2500.916423
663.863013	2483.020327
664.204097	2488.565596
664.545129	2460.335135
664.886110	2488.313538
665.227040	2462.603654
665.567918	2461.343365
665.908746	2482.264154
666.249522	2467.140692
666.590248	2479.491519
666.930922	2484.784731
667.271545	2462.351596
667.612118	2469.661269
667.952639	2491.590288
668.293109	2487.809423
668.633528	2475.458596
668.973896	2509.234327
669.314213	2469.157154
669.654480	2497.639673
669.994695	2472.685962
670.334859	2479.743577
670.674973	2434.373192
671.015035	2496.883500
671.355047	2483.272385
671.695008	2484.028558
672.034918	2460.839250
672.374777	2509.738442
672.714585	2463.863942
673.054342	2499.404077
673.394049	2479.239462
673.733705	2468.653038
674.073310	2483.272385
674.412864	2466.636577
674.752368	2469.913327
675.091820	2485.540904
675.431223	2469.409212
675.770574	2476.466827
676.109875	2488.565596
676.449125	2467.140692
676.788324	2490.330000
677.127473	2459.578962
677.466571	2456.302212
677.805619	2493.354692
678.144616	2497.639673
678.483562	2468.653038
678.822458	2487.305308
679.161303	2469.409212
679.500098	2494.614981
679.838842	2499.656135
680.177535	2462.603654
680.516179	2460.839250
680.854771	2471.425673
681.193314	2461.343365
681.531805	2453.025462
681.870247	2496.883500
682.208638	2463.359827
682.546978	2470.921558
682.885268	2477.979173
683.223508	2480.247692
683.561697	2461.091308
683.899836	2491.086173
684.237925	2474.450365
684.575963	2489.573827
684.913951	2494.614981
685.251889	2448.488423
685.589776	2467.896865
685.927614	2462.351596
686.265401	2467.140692
686.603137	2462.099538
686.940824	2477.979173
687.278460	2472.938019
687.616046	2489.573827
687.953582	2466.636577
688.291068	2474.702423
688.628504	2483.524442
688.965889	2485.036788
689.303224	2462.855712
689.640510	2490.330000
689.977745	2482.012096
690.314930	2486.549135
690.652065	2499.152019
690.989150	2481.003865
691.326185	2461.091308
691.663170	2467.896865
692.000105	2498.647904
692.336990	2472.181846
692.673825	2472.938019
693.010610	2520.072808
693.347345	2482.768269
693.684030	2461.091308
694.020665	2490.077942
694.357251	2443.447269
694.693786	2477.979173
695.030272	2454.789865
695.366707	2479.995635
695.703093	2466.384519
696.039429	2468.148923
696.375716	2468.400981
696.711952	2482.012096
697.048139	2473.946250
697.384276	2481.760038
697.720363	2479.239462
698.056400	2473.442135
698.392388	2455.546038
698.728326	2470.921558
699.064214	2464.116000
699.400053	2462.603654
699.735842	2483.272385
700.071581	2466.636577
700.407270	2460.335135
700.742910	2474.702423
701.078501	2478.987404
701.414042	2485.540904
701.749533	2446.471962
702.084974	2492.094404
702.420366	2462.603654
702.755709	2505.705519
703.091002	2475.710654
703.426246	2491.086173
703.761440	2467.644808
704.096584	2488.313538
704.431679	2494.110865
704.766725	2484.028558
705.101721	2470.921558
705.436668	2442.439038
705.771565	2462.099538
706.106413	2484.532673
706.441212	2478.483288
706.775961	2495.371154
707.110661	2474.954481
707.445311	2465.124231
707.779913	2497.639673
708.114465	2501.420538
708.448967	2469.913327
708.783421	2491.842346
709.117825	2484.784731
709.452180	2467.644808
709.786485	2482.516212
710.120742	2463.863942
710.454949	2484.028558
710.789107	2494.614981
711.123216	2475.458596
711.457275	2471.677731
711.791286	2445.967846
712.125247	2458.318673
712.459159	2487.557365
712.793023	2478.483288
713.126837	2487.557365
713.460602	2497.387615
713.794318	2478.987404
714.127985	2473.694192
714.461602	2476.214769
714.795171	2466.384519
715.128691	2469.913327
715.462162	2456.302212
715.795584	2455.798096
716.128957	2481.507981
716.462281	2478.231231
716.795556	2453.277519
717.128782	2475.458596
717.461960	2447.732250
717.795088	2459.831019
718.128167	2492.346462
718.461198	2477.727115
718.794180	2464.368058
719.127113	2448.740481
719.459997	2445.967846
719.792833	2449.244596
720.125619	2506.713750
720.458357	2472.685962
720.791046	2499.152019
721.123686	2466.636577
721.456278	2459.831019
721.788821	2490.834115
722.121315	2459.578962
722.453761	2457.310442
722.786158	2473.946250
723.118506	2460.083077
723.450805	2480.751808
723.783056	2471.929788
724.115259	2490.330000
724.447412	2466.636577
724.779518	2449.244596
725.111574	2495.371154
725.443582	2488.565596
725.775542	2485.036788
726.107453	2484.280615
726.439315	2467.896865
726.771129	2490.834115
727.102895	2469.661269
727.434612	2463.107769
727.766281	2467.140692
728.097901	2477.727115
728.429473	2509.234327
728.760996	2453.277519
729.092471	2469.913327
729.423897	2495.371154
729.755276	2477.223000
730.086606	2463.863942
730.417887	2466.132462
730.749120	2474.954481
731.080305	2465.124231
731.411442	2476.718885
731.742530	2471.677731
732.073570	2483.776500
732.404562	2499.908192
732.735506	2454.789865
733.066401	2469.661269
733.397249	2485.288846
733.728048	2489.321769
734.058798	2457.310442
734.389501	2483.272385
734.720156	2470.417442
735.050762	2471.173615
735.381320	2465.628346
735.711831	2474.450365
736.042293	2473.442135
736.372707	2466.384519
736.703073	2481.507981
737.033391	2476.970942
737.363661	2469.157154
737.693883	2490.330000
738.024056	2478.987404
738.354182	2478.987404
738.684260	2465.124231
739.014290	2482.012096
739.344272	2445.967846
739.674207	2479.743577
740.004093	2478.483288
740.333931	2441.430808
740.663722	2490.330000
740.993464	2520.828981
741.323159	2477.475058
741.652806	2471.677731
741.982405	2477.475058
742.311956	2481.507981
742.641460	2483.776500
742.970915	2481.255923
743.300323	2466.888635
743.629683	2451.765173
743.958996	2510.998731
744.288260	2463.611885
744.617477	2483.020327
744.946647	2468.905096
745.275768	2463.107769
745.604842	2452.773404
745.933869	2419.753846
746.262847	2493.354692
746.591778	2443.195212
746.920662	2466.132462
747.249498	2466.636577
747.578286	2485.288846
747.907027	2470.669500
748.235720	2500.916423
748.564365	2481.003865
748.892963	2464.620115
749.221514	2464.116000
749.550017	2465.124231
749.878473	2448.488423
750.206881	2481.507981
750.535242	2472.181846
750.863555	2469.409212
751.191821	2485.288846
751.520039	2490.077942
751.848210	2478.231231
752.176334	2467.896865
752.504411	2456.050154
752.832440	2488.313538
753.160421	2484.532673
753.488356	2473.190077
753.816243	2465.124231
754.144082	2463.107769
754.471875	2451.513115
754.799620	2481.003865
755.127318	2474.198308
755.454969	2475.206538
755.782572	2473.946250
756.110129	2473.694192
756.437638	2495.875269
756.765100	2444.203442
757.092515	2462.099538
757.419882	2484.532673
757.747203	2474.702423
758.074477	2469.913327
758.401703	2452.269288
758.728882	2487.053250
759.056014	2481.003865
759.383099	2472.433904
759.710138	2474.450365
760.037129	2480.247692
760.364073	2464.620115
760.690970	2471.173615
761.017820	2477.727115
761.344623	2492.094404
761.671379	2490.834115
761.998088	2461.343365
762.324751	2469.157154
762.651366	2475.710654
762.977935	2465.628346
763.304456	2457.562500
763.630931	2458.066615
763.957359	2455.546038
764.283740	2462.603654
764.610074	2502.680827
764.936362	2474.450365
765.262602	2464.872173
765.588796	2511.502846
765.914943	2487.053250
766.241044	2482.768269
766.567097	2492.346462
766.893104	2483.776500
767.219064	2474.450365
767.544978	2468.400981
767.870845	2484.028558
768.196665	2491.338231
768.522438	2462.855712
768.848165	2478.735346
769.173846	2477.979173
769.499479	2464.872173
769.825066	2458.066615
770.150607	2478.483288
770.476101	2448.488423
770.801548	2463.107769
771.126949	2462.603654
771.452303	2470.165385
771.777611	2464.368058
772.102872	2458.318673
772.428087	2468.400981
772.753256	2500.160250
773.078378	2493.858808
773.403453	2455.293981
773.728482	2482.264154
774.053465	2482.516212
774.378401	2471.425673
774.703291	2466.888635
775.028135	2486.045019
775.352932	2499.656135
775.677683	2486.297077
776.002388	2469.913327
776.327046	2464.368058
776.651658	2483.776500
776.976224	2461.595423
777.300743	2459.578962
777.625216	2460.839250
777.949643	2468.653038
778.274024	2478.987404
778.598359	2460.083077
778.922647	2468.905096
779.246889	2456.302212
779.571086	2485.540904
779.895236	2463.107769
780.219339	2465.880404
780.543397	2494.867038
780.867409	2457.310442
781.191374	2460.839250
781.515294	2455.041923
781.839167	2468.905096
782.162995	2479.239462
782.486776	2459.074846
782.810511	2482.516212
783.134201	2464.116000
783.457844	2469.157154
783.781441	2490.834115
784.104993	2474.954481
784.428498	2460.839250
784.751958	2482.012096
785.075372	2469.661269
785.398739	2468.400981
785.722061	2484.028558
786.045337	2454.789865
786.368568	2452.017231
786.691752	2470.417442
787.014891	2474.954481
787.337983	2472.181846
787.661030	2460.335135
787.984031	2489.069712
788.306987	2490.834115
788.629897	2455.546038
788.952760	2462.603654
789.275579	2468.905096
789.598351	2472.181846
789.921078	2474.198308
790.243759	2462.603654
790.566395	2501.420538
790.888984	2469.409212
791.211529	2482.012096
791.534027	2485.540904
791.856480	2482.012096
792.178888	2461.343365
792.501249	2466.132462
792.823566	2469.157154
793.145836	2446.724019
793.468062	2465.880404
793.790241	2465.124231
794.112375	2448.992538
794.434464	2495.371154
794.756507	2486.297077
795.078505	2483.272385
795.400457	2458.066615
795.722364	2463.863942
796.044226	2475.962712
796.366042	2469.913327
796.687812	2465.628346
797.009538	2471.677731
797.331218	2467.392750
797.652852	2458.570731
797.974442	2471.929788
798.295986	2465.376288
798.617484	2474.954481
798.938938	2494.867038
799.260346	2462.603654
799.581709	2476.466827
799.903026	2492.094404
800.224299	2456.554269
800.545526	2466.384519
800.866708	2497.891731
801.187845	2492.598519
801.508936	2461.847481
801.829983	2480.751808
802.150984	2450.504885
802.471940	2484.280615
802.792851	2488.061481
803.113717	2478.987404
803.434538	2483.020327
803.755314	2510.746673
804.076045	2460.335135
804.396731	2454.537808
804.717372	2463.107769
805.037967	2489.069712
805.358518	2458.066615
805.679024	2485.036788
805.999485	2466.384519
806.319901	2465.880404
806.640272	2496.883500
806.960598	2473.946250
807.280879	2481.760038
807.601115	2468.653038
807.921306	2480.499750
808.241453	2448.236365
808.561554	2495.875269
808.881611	2501.420538
809.201623	2470.417442
809.521590	2453.277519
809.841513	2476.970942
810.161390	2467.896865
810.481223	2484.028558
810.801011	2448.992538
811.120755	2480.751808
811.440453	2480.499750
811.760107	2491.590288
812.079716	2490.834115
812.399281	2476.214769
812.718801	2479.491519
813.038276	2450.000769
813.357707	2503.184942
813.677093	2470.417442
813.996434	2479.239462
814.315731	2481.003865
814.634983	2486.801192
814.954191	2469.157154
815.273354	2471.425673
815.592473	2452.521346
815.911547	2456.302212
816.230577	2475.206538
816.549562	2445.211673
816.868502	2483.524442
817.187399	2486.297077
817.506250	2452.521346
817.825058	2442.691096
818.143821	2470.921558
818.462539	2487.305308
818.781213	2484.532673
819.099843	2469.661269
819.418429	2491.590288
819.736970	2463.107769
820.055466	2469.157154
820.373919	2483.524442
820.692327	2481.760038
821.010691	2474.702423
821.329011	2490.834115
821.647286	2469.409212
821.965517	2455.546038
822.283704	2468.148923
822.601847	2443.447269
822.919945	2468.905096
823.237999	2477.979173
823.556010	2489.573827
823.873976	2475.710654
824.191897	2465.628346
824.509775	2463.863942
824.827609	2481.760038
825.145398	2493.102635
825.463144	2463.107769
825.780845	2465.628346
826.098502	2475.458596
826.416116	2458.822788
826.733685	2458.822788
827.051210	2494.362923
827.368692	2501.924654
827.686129	2483.272385
828.003522	2476.214769
828.320872	2474.954481
828.638177	2492.598519
828.955439	2440.926692
829.272656	2495.371154
829.589830	2469.409212
829.906960	2487.557365
830.224046	2478.987404
830.541088	2481.003865
830.858086	2475.458596
831.175041	2485.036788
831.491952	2484.280615
831.808819	2496.379385
832.125642	2471.425673
832.442421	2489.573827
832.759157	2475.206538
833.075849	2455.041923
833.392497	2471.929788
833.709101	2483.524442
834.025662	2482.516212
834.342179	2488.061481
834.658653	2460.335135
834.975083	2506.461692
835.291469	2460.335135
835.607811	2484.028558
835.924110	2448.488423
836.240366	2478.483288
836.556578	2456.050154
836.872746	2482.012096
837.188871	2452.773404
837.504952	2469.661269
837.820990	2467.140692
838.136984	2470.165385
838.452935	2481.507981
838.768842	2438.154058
839.084706	2494.362923
839.400526	2483.020327
839.716303	2457.562500
840.032037	2449.244596
840.347727	2468.148923
840.663373	2487.557365
840.978977	2448.236365
841.294537	2452.017231
841.610054	2486.801192
841.925527	2483.524442
842.240957	2474.702423
842.556344	2447.984308
842.871687	2468.148923
843.186987	2470.669500
843.502244	2470.921558
843.817458	2476.970942
844.132629	2481.255923
844.447756	2461.091308
844.762840	2452.269288
845.077881	2461.847481
845.392879	2468.400981
845.707833	2482.012096
846.022745	2464.116000
846.337613	2480.247692
846.652438	2458.822788
846.967221	2490.582058
847.281960	2487.053250
847.596656	2478.483288
847.911309	2474.198308
848.225919	2476.214769
848.540485	2490.582058
848.855009	2446.976077
849.169490	2464.620115
849.483928	2478.735346
849.798323	2468.400981
850.112675	2445.463731
850.426984	2478.987404
850.741251	2477.979173
851.055474	2461.091308
851.369654	2454.285750
851.683792	2435.885538
851.997887	2477.979173
852.311938	2473.442135
852.625947	2477.727115
852.939914	2477.475058
853.253837	2454.285750
853.567718	2470.669500
853.881555	2454.285750
854.195350	2473.946250
854.509103	2475.710654
854.822812	2455.798096
855.136479	2482.012096
855.450103	2466.132462
855.763685	2473.694192
856.077224	2454.537808
856.390720	2476.970942
856.704173	2458.822788
857.017584	2484.280615
857.330953	2468.905096
857.644278	2469.157154
857.957561	2468.653038
858.270802	2469.661269
858.584000	2471.929788
858.897155	2458.318673
859.210268	2482.768269
859.523339	2484.784731
859.836367	2477.223000
860.149352	2493.354692
860.462295	2467.644808
860.775195	2480.247692
861.088054	2460.587192
861.400869	2461.091308
861.713642	2491.338231
862.026373	2466.132462
862.339062	2489.321769
862.651708	2476.970942
862.964312	2462.855712
863.276873	2485.540904
863.589392	2461.847481
863.901869	2470.165385
864.214303	2494.362923
864.526696	2443.699327
864.839045	2483.272385
865.151353	2477.979173
865.463619	2494.110865
865.775842	2462.351596
866.088023	2454.537808
866.400162	2472.433904
866.712258	2476.466827
867.024313	2457.058385
867.336325	2484.280615
867.648296	2500.916423
867.960224	2484.784731
868.272110	2456.050154
868.583954	2448.992538
868.895755	2447.984308
869.207515	2445.463731
869.519233	2495.119096
869.830909	2478.483288
870.142542	2474.450365
870.454134	2457.058385
870.765684	2479.491519
871.077191	2494.110865
871.388657	2467.644808
871.700081	2465.124231
872.011463	2465.376288
872.322803	2468.148923
872.634101	2478.483288
872.945357	2467.896865
873.256571	2460.587192
873.567744	2463.611885
873.878874	2457.058385
874.189963	2467.896865
874.501010	2447.732250
874.812015	2472.685962
875.122979	2441.430808
875.433900	2460.587192
875.744780	2478.735346
876.055618	2468.148923
876.366415	2463.359827
876.677169	2472.433904
876.987882	2438.154058
877.298554	2466.888635
877.609183	2478.231231
877.919771	2470.669500
878.230317	2451.513115
878.540822	2471.929788
878.851285	2501.420538
879.161707	2460.083077
879.472087	2494.614981
879.782425	2483.776500
880.092722	2470.165385
880.402977	2469.409212
880.713191	2472.433904
881.023363	2475.458596
881.333494	2463.863942
881.643583	2470.165385
881.953631	2467.896865
882.263637	2445.211673
882.573602	2470.165385
882.883526	2490.834115
883.193408	2482.516212
883.503248	2488.061481
883.813048	2470.921558
884.122806	2473.694192
884.432522	2456.302212
884.742197	2465.880404
885.051831	2464.368058
885.361424	2456.302212
885.670975	2493.858808
885.980485	2465.628346
886.289954	2441.934923
886.599382	2462.603654
886.908768	2450.000769
887.218113	2413.200346
887.527417	2464.872173
887.836680	2461.847481
888.145901	2498.395846
888.455082	2472.938019
888.764221	2487.809423
889.073319	2494.362923
889.382376	2462.099538
889.691392	2472.433904
890.000366	2439.918462
890.309300	2465.376288
890.618193	2466.888635
890.927044	2473.442135
891.235855	2481.255923
891.544625	2494.867038
891.853353	2484.028558
892.162041	2465.628346
892.470687	2479.995635
892.779293	2470.417442
893.087858	2486.045019
893.396381	2457.562500
893.704864	2456.554269
894.013306	2478.231231
894.321707	2477.979173
894.630068	2503.184942
894.938387	2448.488423
895.246665	2461.595423
895.554903	2471.929788
895.863100	2463.107769
896.171256	2485.036788
896.479371	2478.987404
896.787446	2448.488423
897.095480	2484.028558
897.403473	2458.570731
897.711425	2484.532673
898.019336	2476.970942
898.327207	2457.814558
898.635038	2471.173615
898.942827	2480.247692
899.250576	2465.376288
899.558284	2432.860846
899.865952	2467.896865
900.173579	2458.318673
900.481165	2479.995635
900.788711	2473.946250
901.096216	2480.499750
901.403681	2477.979173
901.711105	2471.173615
902.018489	2446.219904
902.325832	2470.669500
902.633135	2458.570731
902.940397	2466.384519
903.247619	2439.414346
903.554800	2473.190077
903.861941	2470.165385
904.169041	2459.831019
904.476101	2486.045019
904.783121	2477.223000
905.090100	2478.483288
905.397039	2447.732250
905.703938	2472.938019
906.010796	2466.132462
906.317614	2482.768269
906.624391	2472.938019
906.931129	2474.702423
907.237826	2466.384519
907.544483	2487.305308
907.851099	2478.735346
908.157675	2440.926692
908.464211	2490.077942
908.770707	2487.809423
909.077163	2454.789865
909.383578	2470.165385
909.689954	2456.050154
909.996289	2468.653038
910.302584	2460.587192
910.608839	2472.433904
910.915054	2486.549135
911.221229	2457.310442
911.527363	2458.570731
911.833458	2464.620115
912.139513	2443.951385
912.445527	2476.970942
912.751502	2449.748712
913.057436	2509.738442
913.363331	2455.546038
913.669186	2475.206538
913.975000	2473.442135
914.280775	2475.458596
914.586510	2475.710654
914.892205	2465.376288
915.197859	2444.707558
915.503475	2479.743577
915.809050	2478.483288
916.114585	2458.318673
916.420081	2496.883500
916.725536	2450.756942
917.030952	2467.644808
917.336328	2469.913327
917.641665	2445.211673
917.946961	2471.425673
918.252218	2454.789865
918.557435	2457.310442
918.862612	2472.433904
919.167750	2483.020327
919.472848	2471.929788
919.777906	2451.261058
920.082925	2501.168481
920.387904	2464.872173
920.692843	2458.570731
920.997743	2457.814558
921.302603	2464.620115
921.607423	2474.702423
921.912204	2480.247692
922.216946	2478.231231
922.521647	2487.305308
922.826310	2463.611885
923.130932	2476.214769
923.435516	2463.107769
923.740059	2462.351596
924.044564	2461.847481
924.349028	2463.611885
924.653454	2473.946250
924.957840	2483.776500
925.262186	2433.364962
925.566493	2475.710654
925.870761	2458.570731
926.174989	2493.354692
926.479178	2465.124231
926.783328	2462.099538
927.087438	2451.513115
927.391509	2452.269288
927.695541	2482.768269
927.999533	2449.244596
928.303486	2472.685962
928.607400	2451.261058
928.911275	2467.644808
929.215110	2455.546038
929.518906	2471.677731
929.822663	2476.718885
930.126381	2484.280615
930.430060	2474.450365
930.733699	2475.458596
931.037299	2448.488423
931.340861	2474.702423
931.644383	2457.310442
931.947866	2485.288846
932.251309	2454.285750
932.554714	2453.529577
932.858080	2476.718885
933.161407	2461.091308
933.464694	2463.611885
933.767943	2460.083077
934.071153	2472.938019
934.374323	2474.702423
934.677455	2473.442135
934.980548	2434.625250
935.283602	2464.872173
935.586617	2482.516212
935.889593	2491.842346
936.192530	2470.417442
936.495428	2461.091308
936.798287	2435.885538
937.101108	2466.384519
937.403890	2443.195212
937.706632	2475.710654
938.009336	2474.954481
938.312002	2464.116000
938.614628	2455.041923
938.917216	2473.946250
939.219765	2459.831019
939.522275	2498.899962
939.824747	2445.211673
940.127179	2470.165385
940.429573	2494.362923
940.731929	2459.831019
941.034246	2467.140692
941.336524	2459.831019
941.638763	2474.702423
941.940964	2459.831019
942.243126	2458.066615
942.545250	2486.045019
942.847335	2454.033692
943.149381	2493.102635
943.451389	2468.653038
943.753359	2463.107769
944.055290	2465.376288
944.357182	2467.644808
944.659036	2470.165385
944.960851	2471.425673
945.262628	2461.091308
945.564367	2469.661269
945.866067	2468.400981
946.167729	2438.910231
946.469352	2467.140692
946.770937	2456.302212
947.072484	2442.943154
947.373992	2463.107769
947.675462	2460.587192
947.976893	2453.781635
948.278286	2451.765173
948.579641	2471.425673
948.880958	2481.507981
949.182236	2451.261058
949.483476	2473.442135
949.784678	2481.003865
950.085841	2479.995635
950.386967	2484.280615
950.688054	2466.132462
950.989103	2473.694192
951.290114	2474.198308
951.591087	2479.743577
951.892021	2463.611885
952.192917	2475.206538
952.493776	2482.264154
952.794596	2468.653038
953.095378	2469.157154
953.396122	2477.223000
953.696828	2460.083077
953.997496	2486.297077
954.298126	2461.847481
954.598718	2455.293981
954.899272	2492.094404
955.199788	2475.962712
955.500266	2469.157154
955.800706	2497.891731
956.101108	2467.140692
956.401472	2463.107769
956.701798	2477.727115
957.002087	2458.822788
957.302337	2454.789865
957.602550	2494.614981
957.902724	2462.099538
958.202861	2489.825885
958.502960	2462.099538
958.803022	2450.504885
959.103045	2458.066615
959.403031	2487.305308
959.702979	2491.842346
960.002889	2451.513115
960.302762	2469.157154
960.602596	2463.611885
960.902393	2474.954481
961.202153	2455.798096
961.501875	2467.392750
961.801559	2486.801192
962.101205	2483.524442
962.400814	2470.417442
962.700385	2491.590288
962.999918	2470.165385
963.299414	2443.951385
963.598873	2471.929788
963.898293	2453.277519
964.197677	2444.707558
964.497022	2438.154058
964.796331	2467.392750
965.095601	2487.557365
965.394835	2462.099538
965.694030	2489.321769
965.993189	2470.669500
966.292309	2442.439038
966.591393	2456.554269
966.890439	2454.537808
967.189447	2480.247692
967.488419	2487.557365
967.787353	2455.293981
968.086249	2468.905096
968.385108	2472.433904
968.683930	2463.107769
968.982714	2437.397885
969.281462	2463.359827
969.580172	2445.211673
969.878844	2463.359827
970.177480	2464.620115
970.476078	2454.789865
970.774639	2473.442135
971.073162	2447.480192
971.371649	2478.735346
971.670098	2468.653038
971.968510	2464.368058
972.266885	2465.880404
972.565223	2476.466827
972.863524	2475.710654
973.161788	2462.099538
973.460014	2456.050154
973.758204	2484.784731
974.056356	2454.789865
974.354471	2467.392750
974.652550	2493.606750
974.950591	2452.521346
975.248595	2471.929788
975.546563	2467.392750
975.844493	2470.669500
976.142386	2467.896865
976.440243	2473.442135
976.738062	2464.368058
977.035845	2440.422577
977.333590	2460.587192
977.631299	2468.148923
977.928971	2464.872173
978.226606	2458.318673
978.524204	2471.425673
978.821765	2464.368058
979.119290	2474.954481
979.416777	2446.724019
979.714228	2464.872173
980.011642	2471.425673
980.309020	2451.513115
980.606360	2461.343365
980.903664	2458.318673
981.200931	2470.417442
981.498162	2471.929788
981.795356	2477.223000
982.092513	2452.521346
982.389633	2464.620115
982.686717	2484.784731
982.983764	2477.727115
983.280775	2509.738442
983.577749	2460.839250
983.874686	2474.954481
984.171587	2475.962712
984.468451	2442.186981
984.765279	2442.186981
985.062070	2458.318673
985.358824	2473.190077
985.655543	2485.792962
985.952224	2460.083077
986.248869	2469.661269
986.545478	2476.214769
986.842050	2447.228135
987.138586	2442.439038
987.435086	2443.951385
987.731549	2446.219904
988.027975	2465.124231
988.324366	2476.466827
988.620719	2477.979173
988.917037	2450.756942
989.213318	2468.653038
989.509563	2486.297077
989.805772	2466.384519
990.101944	2455.293981
990.398080	2455.798096
990.694180	2434.373192
990.990244	2472.181846
991.286271	2468.653038
991.582262	2476.718885
991.878217	2455.798096
992.174136	2475.962712
992.470019	2484.532673
992.765865	2446.471962
993.061676	2475.206538
993.357450	2491.086173
993.653188	2479.239462
993.948890	2436.389654
994.244556	2504.949346
994.540186	2458.066615
994.835780	2492.094404
995.131337	2472.181846
995.426859	2471.425673
995.722345	2478.987404
996.017795	2468.905096
996.313208	2454.033692
996.608586	2474.450365
996.903928	2476.970942
997.199234	2477.979173
997.494504	2473.946250
997.789738	2464.872173
998.084936	2458.066615
998.380099	2470.417442
998.675225	2508.226096
998.970316	2470.921558
999.265371	2461.343365
999.560390	2434.625250
999.855373	2478.735346
1000.150320	2465.124231
1000.445232	2444.959615
1000.740108	2468.905096
1001.034948	2462.099538
1001.329752	2463.359827
1001.624521	2451.513115
1001.919254	2438.154058
1002.213951	2466.636577
1002.508613	2491.590288
1002.803239	2444.203442
1003.097829	2470.669500
1003.392384	2482.264154
1003.686903	2469.409212
1003.981386	2463.611885
1004.275834	2479.239462
1004.570246	2456.302212
1004.864623	2458.066615
1005.158964	2462.603654
1005.453270	2470.417442
1005.747540	2456.050154
1006.041775	2465.628346
1006.335974	2454.285750
1006.630138	2459.831019
1006.924266	2469.409212
1007.218359	2471.425673
1007.512416	2478.735346
1007.806438	2457.310442
1008.100425	2443.195212
1008.394376	2461.847481
1008.688292	2474.450365
1008.982172	2463.863942
1009.276017	2486.297077
1009.569827	2456.050154
1009.863602	2455.798096
1010.157341	2466.636577
1010.451045	2490.834115
1010.744714	2425.299115
1011.038347	2439.414346
1011.331945	2476.214769
1011.625508	2453.529577
1011.919036	2456.050154
1012.212528	2470.669500
1012.505986	2471.677731
1012.799408	2452.521346
1013.092795	2463.359827
1013.386147	2440.170519
1013.679464	2487.305308
1013.972745	2441.682865
1014.265992	2444.455500
1014.559204	2455.041923
1014.852380	2450.252827
1015.145521	2472.181846
1015.438628	2465.628346
1015.731699	2472.938019
1016.024736	2482.516212
1016.317737	2470.165385
1016.610703	2449.496654
1016.903635	2448.488423
1017.196531	2455.293981
1017.489393	2471.173615
1017.782219	2451.513115
1018.075011	2478.735346
1018.367768	2464.620115
1018.660490	2472.181846
1018.953177	2472.181846
1019.245829	2472.181846
