Dividing Wavelength (nm)	Counts (n)	Slit_number_29_of_a_total_of_40	
326.493990	2036.626154
326.888308	2036.626154
327.282561	2036.626154
327.676750	2027.552077
328.070874	2010.160096
328.464933	2035.113808
328.858929	2034.861750
329.252859	2047.968750
329.646726	2071.410115
330.040528	2074.182750
330.434265	2108.462596
330.827938	2119.301077
331.221547	2140.221865
331.615091	2183.071673
332.008571	2174.753769
332.401986	2200.211596
332.795338	2221.636500
333.188625	2246.590212
333.581847	2275.576846
333.975006	2272.300096
334.368100	2270.283635
334.761129	2306.327885
335.154095	2326.996615
335.546996	2325.232212
335.939833	2343.380365
336.332606	2372.871115
336.725315	2374.383462
337.117960	2370.350538
337.510540	2399.841288
337.903056	2384.969885
338.295508	2416.225038
338.687896	2435.885538
339.080220	2440.422577
339.472480	2421.770308
339.864676	2463.611885
340.256807	2425.803231
340.648875	2435.381423
341.040879	2448.992538
341.432818	2429.079981
341.824694	2421.014135
342.216506	2433.112904
342.608253	2431.096442
342.999937	2441.430808
343.391557	2427.315577
343.783113	2391.775442
344.174605	2437.902000
344.566033	2430.088212
344.957397	2443.447269
345.348697	2418.493558
345.739934	2437.145827
346.131106	2432.608788
346.522215	2411.688000
346.913260	2422.778538
347.304241	2413.452404
347.695159	2439.414346
348.086012	2445.463731
348.476802	2421.770308
348.867528	2410.679769
349.258191	2415.720923
349.648789	2406.142731
350.039324	2405.386558
350.429796	2423.534712
350.820203	2405.890673
351.210548	2426.811462
351.600828	2400.849519
351.991045	2414.964750
352.381198	2425.299115
352.771288	2418.745615
353.161314	2397.824827
353.551276	2415.468865
353.941175	2411.940058
354.331010	2413.200346
354.720782	2421.014135
355.110490	2412.948288
355.500135	2400.849519
355.889717	2411.688000
356.279235	2428.323808
356.668689	2405.134500
357.058080	2423.030596
357.447408	2426.811462
357.836672	2407.150962
358.225873	2409.167423
358.615010	2427.567635
359.004084	2389.254865
359.393095	2412.948288
359.782043	2415.468865
360.170927	2439.918462
360.559748	2412.192115
360.948505	2411.183885
361.337199	2427.567635
361.725830	2424.290885
362.114398	2413.452404
362.502903	2388.750750
362.891344	2417.989442
363.279722	2406.142731
363.668037	2413.200346
364.056289	2420.510019
364.444478	2407.403019
364.832603	2415.972981
365.220665	2413.452404
365.608665	2421.014135
365.996601	2435.381423
366.384474	2422.778538
366.772284	2417.485327
367.160031	2433.617019
367.547715	2432.104673
367.935336	2427.063519
368.322893	2426.307346
368.710388	2400.849519
369.097820	2417.989442
369.485189	2442.186981
369.872495	2414.460635
370.259738	2447.984308
370.646918	2427.063519
371.034035	2438.910231
371.421090	2429.584096
371.808081	2435.633481
372.195010	2440.170519
372.581875	2430.844385
372.968678	2445.715788
373.355418	2404.378327
373.742096	2445.463731
374.128710	2424.290885
374.515262	2428.071750
374.901751	2447.732250
375.288177	2447.480192
375.674540	2475.962712
376.060841	2486.549135
376.447079	2472.181846
376.833254	2453.781635
377.219367	2489.825885
377.605417	2475.710654
377.991404	2485.540904
378.377329	2494.362923
378.763191	2547.042981
379.148991	2496.883500
379.534727	2537.968904
379.920402	2519.820750
380.306013	2557.377346
380.691563	2547.547096
381.077049	2569.224058
381.462474	2571.996692
381.847835	2590.144846
382.233134	2612.325923
382.618371	2615.602673
383.003545	2634.002885
383.388657	2642.320788
383.773706	2665.762154
384.158693	2667.274500
384.543618	2689.455577
384.928480	2690.967923
385.313280	2698.529654
385.698017	2719.954558
386.082692	2732.809500
386.467305	2716.173692
386.851856	2732.305385
387.236344	2766.333173
387.620770	2743.647981
388.005133	2772.886673
388.389435	2761.544077
388.773674	2771.122269
389.157851	2811.955615
389.541965	2798.344500
389.926018	2794.815692
390.310008	2796.580096
390.693936	2795.067750
391.077802	2810.695327
391.461606	2808.930923
391.845348	2814.728250
392.229027	2827.331135
392.612645	2765.072885
392.996200	2789.522481
393.379694	2785.237500
393.763125	2792.799231
394.146494	2796.580096
394.529801	2785.237500
394.913047	2768.097577
395.296230	2753.226173
395.679351	2770.870212
396.062410	2752.217942
396.445408	2741.631519
396.828343	2725.499827
397.211217	2693.740558
397.594028	2662.989519
397.976778	2668.786846
398.359466	2672.315654
398.742092	2637.279635
399.124656	2630.726135
399.507158	2617.115019
399.889598	2601.991558
400.271977	2603.755962
400.654294	2584.095462
401.036549	2559.897923
401.418742	2552.840308
401.800874	2577.289904
402.182944	2532.675692
402.564952	2552.336192
402.946898	2522.089269
403.328783	2515.031654
403.710606	2509.486385
404.092367	2518.308404
404.474067	2502.176712
404.855705	2503.437000
405.237282	2469.661269
405.618797	2479.743577
406.000250	2475.710654
406.381642	2476.466827
406.762972	2481.003865
407.144240	2472.685962
407.525447	2472.938019
407.906593	2462.855712
408.287677	2452.017231
408.668700	2433.617019
409.049661	2461.847481
409.430560	2472.938019
409.811399	2453.025462
410.192176	2451.261058
410.572891	2474.702423
410.953545	2482.264154
411.334138	2467.896865
411.714669	2445.967846
412.095139	2467.140692
412.475547	2462.855712
412.855894	2436.641712
413.236180	2442.439038
413.616405	2467.392750
413.996568	2471.425673
414.376670	2447.480192
414.756711	2471.929788
415.136691	2440.170519
415.516609	2441.934923
415.896466	2454.537808
416.276262	2442.943154
416.655997	2463.611885
417.035670	2458.570731
417.415283	2466.636577
417.794834	2459.326904
418.174324	2444.203442
418.553753	2454.033692
418.933121	2455.293981
419.312428	2454.537808
419.691674	2445.463731
420.070859	2455.041923
420.449983	2449.496654
420.829045	2446.471962
421.208047	2434.121135
421.586988	2461.091308
421.965867	2464.116000
422.344686	2441.430808
422.723444	2439.414346
423.102141	2456.050154
423.480777	2448.992538
423.859352	2464.116000
424.237866	2452.773404
424.616319	2465.376288
424.994712	2468.653038
425.373044	2428.323808
425.751314	2448.488423
426.129524	2443.699327
426.507673	2462.855712
426.885762	2447.480192
427.263789	2480.751808
427.641756	2448.740481
428.019662	2452.521346
428.397508	2454.285750
428.775292	2462.603654
429.153016	2476.718885
429.530679	2452.269288
429.908282	2455.041923
430.285824	2465.628346
430.663305	2418.997673
431.040726	2433.869077
431.418086	2460.587192
431.795385	2441.430808
432.172624	2456.050154
432.549802	2462.351596
432.926920	2458.822788
433.303977	2454.537808
433.680974	2448.740481
434.057910	2448.236365
434.434786	2449.244596
434.811601	2459.831019
435.188355	2460.083077
435.565050	2439.162288
435.941683	2460.083077
436.318257	2432.860846
436.694770	2475.458596
437.071222	2438.154058
437.447614	2450.504885
437.823946	2490.834115
438.200218	2457.058385
438.576429	2472.181846
438.952580	2473.190077
439.328670	2458.570731
439.704700	2451.009000
440.080670	2447.732250
440.456580	2454.033692
440.832429	2443.699327
441.208218	2471.929788
441.583947	2450.504885
441.959616	2477.727115
442.335224	2437.397885
442.710773	2446.724019
443.086261	2457.562500
443.461689	2461.847481
443.837057	2465.628346
444.212365	2439.162288
444.587612	2446.976077
444.962800	2464.620115
445.337927	2459.326904
445.712995	2454.033692
446.088002	2479.995635
446.462949	2459.326904
446.837837	2474.702423
447.212664	2456.554269
447.587431	2481.255923
447.962139	2457.562500
448.336786	2465.880404
448.711374	2487.305308
449.085901	2435.633481
449.460369	2481.760038
449.834776	2480.751808
450.209124	2475.962712
450.583412	2464.368058
450.957640	2456.806327
451.331808	2487.305308
451.705917	2461.847481
452.079965	2442.186981
452.453954	2433.112904
452.827883	2478.987404
453.201752	2476.214769
453.575562	2471.677731
453.949311	2493.354692
454.323001	2463.359827
454.696632	2481.760038
455.070202	2467.644808
455.443713	2481.507981
455.817164	2469.913327
456.190556	2473.190077
456.563888	2459.326904
456.937160	2493.354692
457.310373	2473.442135
457.683526	2483.020327
458.056619	2461.091308
458.429653	2490.330000
458.802628	2465.880404
459.175542	2481.003865
459.548398	2438.154058
459.921194	2456.050154
460.293930	2467.140692
460.666607	2461.343365
461.039224	2475.206538
461.411782	2462.351596
461.784280	2452.269288
462.156719	2453.781635
462.529099	2456.302212
462.901419	2472.181846
463.273680	2446.471962
463.645882	2442.439038
464.018024	2458.318673
464.390106	2469.661269
464.762130	2477.223000
465.134094	2473.442135
465.505999	2473.946250
465.877845	2499.908192
466.249631	2462.603654
466.621358	2476.466827
466.993026	2474.198308
467.364634	2483.020327
467.736184	2476.466827
468.107674	2476.466827
468.479105	2471.929788
468.850477	2476.718885
469.221790	2462.099538
469.593043	2458.318673
469.964238	2463.611885
470.335373	2470.921558
470.706449	2446.471962
471.077467	2469.913327
471.448425	2475.458596
471.819324	2452.773404
472.190164	2460.335135
472.560945	2452.017231
472.931667	2501.924654
473.302330	2468.148923
473.672934	2472.938019
474.043479	2471.677731
474.413965	2470.417442
474.784393	2470.669500
475.154761	2471.173615
475.525070	2460.839250
475.895321	2474.198308
476.265513	2480.499750
476.635645	2469.157154
477.005719	2457.814558
477.375734	2476.970942
477.745691	2453.529577
478.115588	2465.628346
478.485427	2452.269288
478.855207	2477.979173
479.224928	2475.458596
479.594591	2487.305308
479.964194	2514.275481
480.333739	2462.603654
480.703226	2497.639673
481.072653	2470.417442
481.442022	2492.094404
481.811333	2471.425673
482.180584	2479.239462
482.549777	2483.020327
482.918912	2471.929788
483.287988	2453.025462
483.657005	2478.735346
484.025964	2481.760038
484.394864	2481.003865
484.763706	2488.061481
485.132489	2481.003865
485.501213	2475.710654
485.869879	2478.231231
486.238487	2462.351596
486.607036	2466.636577
486.975527	2475.458596
487.343959	2455.798096
487.712333	2488.061481
488.080648	2487.809423
488.448905	2512.763135
488.817104	2466.888635
489.185244	2480.247692
489.553326	2462.351596
489.921350	2466.132462
490.289315	2492.598519
490.657222	2462.603654
491.025070	2478.735346
491.392861	2471.173615
491.760593	2477.475058
492.128267	2459.326904
492.495883	2491.590288
492.863440	2479.491519
493.230939	2507.217865
493.598380	2472.938019
493.965763	2475.458596
494.333088	2469.661269
494.700354	2464.116000
495.067563	2459.831019
495.434713	2488.313538
495.801805	2480.499750
496.168839	2469.913327
496.535815	2471.173615
496.902733	2453.529577
497.269593	2450.504885
497.636395	2496.883500
498.003139	2493.606750
498.369825	2484.028558
498.736453	2462.351596
499.103023	2488.817654
499.469535	2470.417442
499.835989	2483.020327
500.202385	2474.450365
500.568723	2509.738442
500.935003	2464.620115
501.301226	2474.198308
501.667390	2463.107769
502.033497	2464.620115
502.399546	2476.466827
502.765537	2482.516212
503.131470	2471.677731
503.497345	2461.595423
503.863163	2502.680827
504.228923	2471.677731
504.594625	2470.669500
504.960269	2460.839250
505.325856	2459.831019
505.691385	2467.140692
506.056856	2477.475058
506.422270	2476.466827
506.787625	2478.987404
507.152924	2459.326904
507.518164	2465.124231
507.883347	2478.231231
508.248472	2464.368058
508.613540	2461.091308
508.978550	2471.929788
509.343503	2466.888635
509.708398	2470.921558
510.073236	2465.628346
510.438016	2483.524442
510.802738	2486.549135
511.167403	2456.554269
511.532010	2494.614981
511.896561	2481.255923
512.261053	2476.214769
512.625488	2508.478154
512.989866	2484.280615
513.354186	2471.929788
513.718449	2472.685962
514.082655	2490.834115
514.446803	2461.091308
514.810894	2483.524442
515.174927	2472.181846
515.538904	2464.872173
515.902822	2474.450365
516.266684	2468.148923
516.630488	2496.379385
516.994235	2487.053250
517.357925	2489.321769
517.721558	2485.036788
518.085133	2499.152019
518.448651	2452.017231
518.812112	2459.074846
519.175516	2442.439038
519.538863	2501.420538
519.902152	2470.417442
520.265385	2465.628346
520.628560	2471.929788
520.991678	2472.685962
521.354739	2476.970942
521.717743	2480.751808
522.080690	2478.231231
522.443580	2477.979173
522.806413	2470.417442
523.169189	2475.710654
523.531908	2476.466827
523.894569	2474.702423
524.257174	2487.305308
524.619722	2462.351596
524.982213	2486.801192
525.344647	2460.083077
525.707025	2479.491519
526.069345	2472.685962
526.431608	2500.412308
526.793815	2473.946250
527.155964	2488.565596
527.518057	2464.620115
527.880093	2461.343365
528.242072	2461.595423
528.603995	2496.631442
528.965860	2475.962712
529.327669	2467.896865
529.689421	2477.475058
530.051117	2477.223000
530.412755	2468.653038
530.774337	2468.400981
531.135862	2478.735346
531.497331	2484.784731
531.858743	2476.970942
532.220098	2462.099538
532.581396	2467.140692
532.942638	2444.959615
533.303824	2473.694192
533.664953	2446.471962
534.026025	2465.628346
534.387040	2458.570731
534.747999	2467.140692
535.108902	2487.053250
535.469748	2457.058385
535.830537	2458.066615
536.191270	2468.905096
536.551947	2502.680827
536.912567	2455.546038
537.273131	2481.507981
537.633638	2462.603654
537.994089	2482.516212
538.354483	2467.392750
538.714821	2468.148923
539.075103	2483.272385
539.435328	2504.949346
539.795497	2495.875269
540.155609	2467.644808
540.515665	2476.718885
540.875665	2463.359827
541.235609	2483.776500
541.595496	2453.025462
541.955328	2460.587192
542.315102	2466.636577
542.674821	2476.718885
543.034483	2501.672596
543.394090	2481.760038
543.753640	2473.190077
544.113134	2479.743577
544.472571	2456.806327
544.831953	2460.083077
545.191278	2480.751808
545.550548	2476.466827
545.909761	2475.962712
546.268918	2488.817654
546.628019	2475.710654
546.987064	2463.863942
547.346053	2471.425673
547.704986	2481.760038
548.063863	2484.784731
548.422684	2457.058385
548.781449	2488.061481
549.140158	2467.644808
549.498811	2512.511077
549.857408	2492.598519
550.215949	2462.603654
550.574434	2480.751808
550.932864	2478.483288
551.291237	2476.718885
551.649555	2494.867038
552.007817	2466.384519
552.366022	2485.036788
552.724173	2480.247692
553.082267	2470.165385
553.440305	2469.661269
553.798288	2483.020327
554.156215	2472.685962
554.514086	2494.614981
554.871902	2477.727115
555.229661	2494.110865
555.587365	2476.718885
555.945014	2457.814558
556.302606	2477.979173
556.660143	2492.094404
557.017625	2472.685962
557.375050	2475.710654
557.732421	2456.050154
558.089735	2488.817654
558.446994	2461.595423
558.804197	2455.041923
559.161345	2485.288846
559.518437	2465.124231
559.875474	2493.354692
560.232455	2491.086173
560.589381	2455.546038
560.946251	2485.036788
561.303065	2484.028558
561.659825	2474.954481
562.016528	2474.198308
562.373177	2445.211673
562.729770	2460.335135
563.086307	2471.425673
563.442789	2503.689058
563.799216	2473.442135
564.155587	2489.321769
564.511904	2472.433904
564.868164	2488.565596
565.224370	2452.269288
565.580520	2475.458596
565.936615	2467.140692
566.292654	2482.768269
566.648638	2491.842346
567.004567	2478.231231
567.360441	2478.231231
567.716260	2492.850577
568.072023	2466.888635
568.427732	2476.214769
568.783385	2492.598519
569.138982	2457.058385
569.494525	2467.896865
569.850013	2485.540904
570.205445	2497.891731
570.560823	2465.628346
570.916145	2489.573827
571.271412	2489.321769
571.626625	2473.190077
571.981782	2463.863942
572.336884	2459.074846
572.691931	2466.132462
573.046923	2473.442135
573.401860	2479.743577
573.756743	2496.631442
574.111570	2466.888635
574.466342	2489.573827
574.821059	2495.371154
575.175722	2466.636577
575.530330	2489.825885
575.884882	2458.822788
576.239380	2481.760038
576.593823	2481.507981
576.948211	2459.326904
577.302544	2478.483288
577.656823	2481.760038
578.011047	2467.644808
578.365216	2463.359827
578.719330	2481.760038
579.073389	2493.354692
579.427394	2473.694192
579.781344	2469.157154
580.135239	2493.354692
580.489080	2455.041923
580.842866	2488.313538
581.196597	2442.439038
581.550273	2478.987404
581.903895	2455.546038
582.257463	2517.300173
582.610975	2469.913327
582.964434	2479.995635
583.317837	2471.425673
583.671186	2484.532673
584.024481	2478.735346
584.377721	2466.384519
584.730906	2483.272385
585.084037	2453.277519
585.437113	2469.913327
585.790135	2490.077942
586.143103	2451.513115
586.496016	2466.132462
586.848874	2482.768269
587.201679	2486.549135
587.554428	2475.206538
587.907124	2475.710654
588.259765	2478.735346
588.612352	2492.346462
588.964884	2455.041923
589.317362	2468.905096
589.669786	2465.628346
590.022155	2482.012096
590.374470	2480.751808
590.726731	2503.184942
591.078937	2493.858808
591.431090	2477.727115
591.783188	2478.483288
592.135232	2462.099538
592.487222	2495.623212
592.839157	2486.549135
593.191038	2483.272385
593.542866	2442.186981
593.894639	2469.913327
594.246358	2482.516212
594.598022	2466.384519
594.949633	2450.252827
595.301190	2473.694192
595.652692	2475.710654
596.004141	2457.310442
596.355535	2493.858808
596.706876	2483.272385
597.058162	2459.326904
597.409395	2486.801192
597.760573	2467.896865
598.111698	2473.946250
598.462768	2472.938019
598.813785	2464.872173
599.164748	2451.513115
599.515657	2486.801192
599.866511	2473.694192
600.217312	2485.036788
600.568060	2484.280615
600.918753	2471.173615
601.269392	2481.760038
601.619978	2464.116000
601.970510	2475.458596
602.320988	2465.124231
602.671412	2487.305308
603.021783	2491.086173
603.372100	2468.400981
603.722363	2459.578962
604.072572	2441.430808
604.422728	2473.694192
604.772830	2463.107769
605.122878	2455.546038
605.472872	2519.820750
605.822813	2490.834115
606.172701	2459.326904
606.522534	2452.017231
606.872314	2467.896865
607.222041	2462.351596
607.571714	2488.061481
607.921333	2478.483288
608.270899	2460.587192
608.620411	2457.058385
608.969870	2512.259019
609.319276	2474.702423
609.668627	2474.450365
610.017926	2474.702423
610.367171	2484.784731
610.716362	2467.140692
611.065500	2460.335135
611.414585	2488.817654
611.763616	2473.946250
612.112594	2476.466827
612.461518	2465.628346
612.810389	2453.025462
613.159207	2457.310442
613.507971	2475.206538
613.856682	2478.483288
614.205340	2492.094404
614.553945	2496.631442
614.902496	2459.578962
615.250994	2482.516212
615.599439	2483.272385
615.947830	2472.433904
616.296169	2505.705519
616.644454	2471.173615
616.992686	2480.247692
617.340864	2460.839250
617.688990	2507.721981
618.037063	2472.181846
618.385082	2482.012096
618.733048	2473.946250
619.080961	2485.792962
619.428821	2490.582058
619.776628	2460.587192
620.124382	2476.214769
620.472083	2469.409212
620.819731	2478.735346
621.167326	2487.305308
621.514868	2481.003865
621.862357	2515.535769
622.209793	2469.913327
622.557176	2463.359827
622.904506	2461.595423
623.251783	2460.839250
623.599007	2471.929788
623.946179	2443.447269
624.293297	2478.231231
624.640363	2465.880404
624.987376	2461.091308
625.334336	2459.326904
625.681243	2464.116000
626.028097	2473.694192
626.374899	2485.288846
626.721647	2494.362923
627.068343	2495.875269
627.414987	2452.269288
627.761577	2465.628346
628.108115	2486.801192
628.454600	2463.611885
628.801032	2443.951385
629.147412	2483.272385
629.493739	2461.091308
629.840014	2504.193173
630.186236	2468.148923
630.532405	2479.743577
630.878521	2483.272385
631.224585	2491.338231
631.570597	2458.066615
631.916556	2507.217865
632.262462	2455.041923
632.608316	2476.718885
632.954117	2448.236365
633.299866	2493.606750
633.645562	2456.554269
633.991206	2451.765173
634.336797	2478.231231
634.682336	2470.165385
635.027823	2473.946250
635.373257	2477.223000
635.718639	2466.132462
636.063968	2475.458596
636.409245	2475.710654
636.754470	2450.504885
637.099642	2460.587192
637.444762	2463.863942
637.789829	2459.074846
638.134845	2490.834115
638.479808	2460.335135
638.824719	2472.685962
639.169577	2482.264154
639.514383	2479.995635
639.859137	2469.661269
640.203839	2503.437000
640.548489	2469.661269
640.893086	2466.384519
641.237632	2496.883500
641.582125	2474.198308
641.926566	2471.425673
642.270955	2461.091308
642.615292	2457.562500
642.959576	2469.661269
643.303809	2458.570731
643.647990	2466.636577
643.992118	2481.760038
644.336195	2464.620115
644.680219	2449.748712
645.024192	2463.359827
645.368112	2468.148923
645.711981	2480.247692
646.055797	2495.371154
646.399562	2470.165385
646.743274	2488.313538
647.086935	2464.620115
647.430544	2479.239462
647.774101	2492.346462
648.117606	2481.003865
648.461059	2490.077942
648.804460	2484.784731
649.147810	2465.124231
649.491108	2494.867038
649.834354	2456.050154
650.177548	2475.710654
650.520690	2458.822788
650.863781	2479.743577
651.206820	2473.694192
651.549807	2483.776500
651.892742	2443.447269
652.235626	2476.466827
652.578458	2446.219904
652.921238	2468.653038
653.263967	2466.384519
653.606644	2495.623212
653.949269	2453.529577
654.291843	2452.017231
654.634365	2457.058385
654.976836	2487.305308
655.319255	2488.817654
655.661622	2469.409212
656.003938	2440.674635
656.346203	2486.297077
656.688416	2493.606750
657.030577	2467.392750
657.372687	2475.206538
657.714746	2469.661269
658.056753	2466.888635
658.398708	2503.437000
658.740612	2486.801192
659.082465	2470.417442
659.424266	2442.439038
659.766016	2477.475058
660.107715	2462.351596
660.449362	2485.792962
660.790958	2459.578962
661.132503	2493.858808
661.473996	2472.181846
661.815438	2463.863942
662.156829	2463.359827
662.498168	2468.653038
662.839456	2448.488423
663.180693	2481.003865
663.521879	2462.855712
663.863013	2476.718885
664.204097	2466.132462
664.545129	2461.091308
664.886110	2477.223000
665.227040	2455.798096
665.567918	2488.817654
665.908746	2479.239462
666.249522	2475.710654
666.590248	2473.190077
666.930922	2460.083077
667.271545	2487.557365
667.612118	2475.710654
667.952639	2462.099538
668.293109	2480.499750
668.633528	2462.855712
668.973896	2469.661269
669.314213	2486.549135
669.654480	2458.318673
669.994695	2473.190077
670.334859	2485.036788
670.674973	2459.578962
671.015035	2454.285750
671.355047	2469.157154
671.695008	2479.491519
672.034918	2476.466827
672.374777	2453.529577
672.714585	2472.433904
673.054342	2473.190077
673.394049	2500.412308
673.733705	2449.244596
674.073310	2485.288846
674.412864	2453.529577
674.752368	2482.516212
675.091820	2436.893769
675.431223	2450.504885
675.770574	2465.124231
676.109875	2497.135558
676.449125	2483.776500
676.788324	2473.190077
677.127473	2472.181846
677.466571	2497.891731
677.805619	2481.760038
678.144616	2468.905096
678.483562	2486.549135
678.822458	2487.053250
679.161303	2450.252827
679.500098	2457.562500
679.838842	2487.809423
680.177535	2458.066615
680.516179	2487.053250
680.854771	2450.000769
681.193314	2442.943154
681.531805	2465.124231
681.870247	2461.091308
682.208638	2468.148923
682.546978	2461.595423
682.885268	2469.157154
683.223508	2481.003865
683.561697	2478.483288
683.899836	2455.041923
684.237925	2484.280615
684.575963	2451.765173
684.913951	2468.653038
685.251889	2447.984308
685.589776	2472.938019
685.927614	2451.261058
686.265401	2479.995635
686.603137	2473.190077
686.940824	2474.954481
687.278460	2466.888635
687.616046	2452.773404
687.953582	2483.524442
688.291068	2479.239462
688.628504	2478.231231
688.965889	2462.855712
689.303224	2491.842346
689.640510	2438.406115
689.977745	2464.116000
690.314930	2464.620115
690.652065	2500.664365
690.989150	2469.913327
691.326185	2461.595423
691.663170	2470.417442
692.000105	2465.124231
692.336990	2471.677731
692.673825	2469.157154
693.010610	2477.223000
693.347345	2471.425673
693.684030	2464.872173
694.020665	2466.888635
694.357251	2476.718885
694.693786	2483.776500
695.030272	2455.293981
695.366707	2497.387615
695.703093	2479.491519
696.039429	2464.368058
696.375716	2476.718885
696.711952	2469.157154
697.048139	2454.033692
697.384276	2489.069712
697.720363	2446.471962
698.056400	2447.732250
698.392388	2457.310442
698.728326	2490.330000
699.064214	2457.562500
699.400053	2456.806327
699.735842	2454.033692
700.071581	2469.913327
700.407270	2475.710654
700.742910	2465.376288
701.078501	2470.921558
701.414042	2498.647904
701.749533	2473.442135
702.084974	2445.715788
702.420366	2487.305308
702.755709	2487.305308
703.091002	2458.318673
703.426246	2460.083077
703.761440	2447.480192
704.096584	2473.946250
704.431679	2450.756942
704.766725	2453.781635
705.101721	2451.513115
705.436668	2485.036788
705.771565	2491.842346
706.106413	2473.190077
706.441212	2450.252827
706.775961	2450.000769
707.110661	2471.173615
707.445311	2463.359827
707.779913	2462.855712
708.114465	2450.252827
708.448967	2459.578962
708.783421	2493.102635
709.117825	2462.099538
709.452180	2458.570731
709.786485	2469.409212
710.120742	2475.962712
710.454949	2433.364962
710.789107	2458.570731
711.123216	2446.471962
711.457275	2480.247692
711.791286	2473.442135
712.125247	2454.789865
712.459159	2483.524442
712.793023	2478.231231
713.126837	2452.773404
713.460602	2471.173615
713.794318	2495.875269
714.127985	2473.190077
714.461602	2447.984308
714.795171	2487.809423
715.128691	2452.269288
715.462162	2463.863942
715.795584	2455.293981
716.128957	2492.346462
716.462281	2454.285750
716.795556	2497.891731
717.128782	2473.190077
717.461960	2483.524442
717.795088	2466.132462
718.128167	2443.195212
718.461198	2449.244596
718.794180	2462.603654
719.127113	2494.110865
719.459997	2467.392750
719.792833	2477.475058
720.125619	2455.293981
720.458357	2475.710654
720.791046	2479.995635
721.123686	2467.140692
721.456278	2477.475058
721.788821	2440.422577
722.121315	2478.735346
722.453761	2431.600558
722.786158	2484.532673
723.118506	2473.442135
723.450805	2502.176712
723.783056	2458.066615
724.115259	2470.921558
724.447412	2459.578962
724.779518	2477.223000
725.111574	2433.364962
725.443582	2425.047058
725.775542	2487.305308
726.107453	2464.620115
726.439315	2489.825885
726.771129	2455.546038
727.102895	2477.979173
727.434612	2466.636577
727.766281	2423.534712
728.097901	2465.628346
728.429473	2472.938019
728.760996	2469.409212
729.092471	2464.368058
729.423897	2469.157154
729.755276	2451.009000
730.086606	2474.450365
730.417887	2452.773404
730.749120	2460.587192
731.080305	2474.954481
731.411442	2454.537808
731.742530	2451.765173
732.073570	2467.140692
732.404562	2462.855712
732.735506	2467.392750
733.066401	2466.636577
733.397249	2474.198308
733.728048	2465.880404
734.058798	2482.264154
734.389501	2465.880404
734.720156	2465.124231
735.050762	2481.507981
735.381320	2455.798096
735.711831	2442.186981
736.042293	2489.825885
736.372707	2467.896865
736.703073	2455.293981
737.033391	2456.806327
737.363661	2498.899962
737.693883	2474.954481
738.024056	2453.529577
738.354182	2465.628346
738.684260	2468.905096
739.014290	2449.244596
739.344272	2461.847481
739.674207	2458.822788
740.004093	2453.025462
740.333931	2451.009000
740.663722	2465.376288
740.993464	2449.496654
741.323159	2455.546038
741.652806	2452.773404
741.982405	2455.798096
742.311956	2445.211673
742.641460	2465.124231
742.970915	2463.863942
743.300323	2462.351596
743.629683	2456.554269
743.958996	2479.743577
744.288260	2459.326904
744.617477	2491.086173
744.946647	2479.743577
745.275768	2456.302212
745.604842	2468.148923
745.933869	2483.776500
746.262847	2490.077942
746.591778	2492.598519
746.920662	2472.181846
747.249498	2478.483288
747.578286	2482.012096
747.907027	2458.570731
748.235720	2471.173615
748.564365	2434.877308
748.892963	2465.628346
749.221514	2459.326904
749.550017	2459.326904
749.878473	2473.946250
750.206881	2431.348500
750.535242	2485.288846
750.863555	2451.513115
751.191821	2476.466827
751.520039	2477.727115
751.848210	2484.028558
752.176334	2456.050154
752.504411	2442.439038
752.832440	2482.012096
753.160421	2472.685962
753.488356	2462.603654
753.816243	2449.748712
754.144082	2465.124231
754.471875	2463.611885
754.799620	2457.058385
755.127318	2445.967846
755.454969	2473.442135
755.782572	2462.855712
756.110129	2459.074846
756.437638	2442.691096
756.765100	2482.516212
757.092515	2480.499750
757.419882	2461.343365
757.747203	2444.707558
758.074477	2472.938019
758.401703	2462.351596
758.728882	2460.083077
759.056014	2453.277519
759.383099	2452.773404
759.710138	2460.083077
760.037129	2433.869077
760.364073	2472.685962
760.690970	2469.661269
761.017820	2438.406115
761.344623	2469.157154
761.671379	2438.406115
761.998088	2483.524442
762.324751	2439.414346
762.651366	2481.003865
762.977935	2456.806327
763.304456	2465.124231
763.630931	2452.521346
763.957359	2466.636577
764.283740	2464.872173
764.610074	2465.628346
764.936362	2491.338231
765.262602	2477.727115
765.588796	2463.107769
765.914943	2465.880404
766.241044	2474.198308
766.567097	2480.247692
766.893104	2484.280615
767.219064	2446.724019
767.544978	2463.863942
767.870845	2478.231231
768.196665	2487.809423
768.522438	2451.009000
768.848165	2475.206538
769.173846	2485.036788
769.499479	2452.521346
769.825066	2459.831019
770.150607	2446.976077
770.476101	2472.181846
770.801548	2450.756942
771.126949	2473.442135
771.452303	2454.285750
771.777611	2460.083077
772.102872	2480.751808
772.428087	2477.475058
772.753256	2446.471962
773.078378	2446.724019
773.403453	2477.727115
773.728482	2476.214769
774.053465	2467.896865
774.378401	2478.987404
774.703291	2455.293981
775.028135	2475.206538
775.352932	2463.359827
775.677683	2453.781635
776.002388	2476.214769
776.327046	2462.855712
776.651658	2464.116000
776.976224	2453.277519
777.300743	2472.433904
777.625216	2454.033692
777.949643	2479.239462
778.274024	2444.203442
778.598359	2460.335135
778.922647	2466.384519
779.246889	2455.293981
779.571086	2460.587192
779.895236	2455.546038
780.219339	2471.425673
780.543397	2459.326904
780.867409	2444.959615
781.191374	2427.315577
781.515294	2455.798096
781.839167	2450.252827
782.162995	2470.921558
782.486776	2456.554269
782.810511	2457.058385
783.134201	2456.554269
783.457844	2476.718885
783.781441	2471.425673
784.104993	2475.458596
784.428498	2473.694192
784.751958	2467.644808
785.075372	2462.351596
785.398739	2473.190077
785.722061	2482.516212
786.045337	2488.565596
786.368568	2468.653038
786.691752	2471.929788
787.014891	2466.384519
787.337983	2461.595423
787.661030	2438.658173
787.984031	2496.883500
788.306987	2448.236365
788.629897	2463.611885
788.952760	2446.724019
789.275579	2475.458596
789.598351	2484.532673
789.921078	2459.326904
790.243759	2477.979173
790.566395	2474.702423
790.888984	2460.335135
791.211529	2455.798096
791.534027	2467.140692
791.856480	2458.318673
792.178888	2468.148923
792.501249	2441.430808
792.823566	2467.392750
793.145836	2453.529577
793.468062	2468.653038
793.790241	2473.694192
794.112375	2469.661269
794.434464	2459.074846
794.756507	2456.554269
795.078505	2468.905096
795.400457	2443.195212
795.722364	2479.995635
796.044226	2468.905096
796.366042	2490.834115
796.687812	2442.186981
797.009538	2465.628346
797.331218	2456.050154
797.652852	2465.880404
797.974442	2465.124231
798.295986	2461.091308
798.617484	2476.718885
798.938938	2415.720923
799.260346	2464.368058
799.581709	2470.165385
799.903026	2476.718885
800.224299	2466.636577
800.545526	2463.107769
800.866708	2444.707558
801.187845	2482.768269
801.508936	2440.422577
801.829983	2461.091308
802.150984	2465.880404
802.471940	2432.608788
802.792851	2442.691096
803.113717	2463.611885
803.434538	2463.863942
803.755314	2475.710654
804.076045	2451.765173
804.396731	2467.644808
804.717372	2466.636577
805.037967	2453.529577
805.358518	2455.041923
805.679024	2467.896865
805.999485	2457.562500
806.319901	2472.938019
806.640272	2465.628346
806.960598	2458.570731
807.280879	2454.285750
807.601115	2466.132462
807.921306	2490.077942
808.241453	2461.091308
808.561554	2468.653038
808.881611	2459.831019
809.201623	2469.409212
809.521590	2455.798096
809.841513	2468.905096
810.161390	2465.880404
810.481223	2455.546038
810.801011	2464.872173
811.120755	2472.938019
811.440453	2473.946250
811.760107	2474.198308
812.079716	2448.740481
812.399281	2467.644808
812.718801	2453.277519
813.038276	2464.116000
813.357707	2460.839250
813.677093	2450.756942
813.996434	2454.537808
814.315731	2466.132462
814.634983	2450.000769
814.954191	2474.954481
815.273354	2452.773404
815.592473	2460.083077
815.911547	2467.644808
816.230577	2487.557365
816.549562	2472.433904
816.868502	2466.636577
817.187399	2478.735346
817.506250	2460.839250
817.825058	2456.050154
818.143821	2452.521346
818.462539	2456.806327
818.781213	2473.442135
819.099843	2464.116000
819.418429	2451.765173
819.736970	2437.649942
820.055466	2462.855712
820.373919	2470.417442
820.692327	2502.428769
821.010691	2462.099538
821.329011	2482.012096
821.647286	2463.863942
821.965517	2482.516212
822.283704	2479.491519
822.601847	2467.140692
822.919945	2470.417442
823.237999	2470.669500
823.556010	2462.351596
823.873976	2468.148923
824.191897	2454.285750
824.509775	2469.661269
824.827609	2473.190077
825.145398	2446.471962
825.463144	2475.710654
825.780845	2462.351596
826.098502	2506.965808
826.416116	2456.050154
826.733685	2462.099538
827.051210	2454.789865
827.368692	2490.330000
827.686129	2489.069712
828.003522	2456.806327
828.320872	2486.801192
828.638177	2461.847481
828.955439	2459.831019
829.272656	2450.000769
829.589830	2487.557365
829.906960	2435.885538
830.224046	2488.061481
830.541088	2460.335135
830.858086	2464.368058
831.175041	2482.012096
831.491952	2460.839250
831.808819	2462.603654
832.125642	2487.053250
832.442421	2463.107769
832.759157	2472.433904
833.075849	2464.116000
833.392497	2451.009000
833.709101	2443.195212
834.025662	2456.302212
834.342179	2478.735346
834.658653	2484.532673
834.975083	2439.414346
835.291469	2485.288846
835.607811	2461.091308
835.924110	2454.537808
836.240366	2442.439038
836.556578	2463.611885
836.872746	2455.293981
837.188871	2468.905096
837.504952	2481.255923
837.820990	2494.110865
838.136984	2463.611885
838.452935	2433.869077
838.768842	2476.466827
839.084706	2459.074846
839.400526	2467.896865
839.716303	2471.929788
840.032037	2448.236365
840.347727	2456.050154
840.663373	2461.595423
840.978977	2484.028558
841.294537	2438.910231
841.610054	2471.173615
841.925527	2458.822788
842.240957	2455.546038
842.556344	2474.954481
842.871687	2462.603654
843.186987	2464.116000
843.502244	2431.348500
843.817458	2462.855712
844.132629	2460.839250
844.447756	2472.181846
844.762840	2448.992538
845.077881	2459.831019
845.392879	2462.099538
845.707833	2453.025462
846.022745	2443.447269
846.337613	2488.061481
846.652438	2436.893769
846.967221	2453.277519
847.281960	2458.822788
847.596656	2454.285750
847.911309	2447.480192
848.225919	2441.934923
848.540485	2429.836154
848.855009	2466.132462
849.169490	2471.677731
849.483928	2453.277519
849.798323	2463.863942
850.112675	2463.611885
850.426984	2455.293981
850.741251	2441.178750
851.055474	2462.855712
851.369654	2474.702423
851.683792	2465.880404
851.997887	2457.058385
852.311938	2457.058385
852.625947	2465.124231
852.939914	2480.499750
853.253837	2470.921558
853.567718	2459.578962
853.881555	2462.351596
854.195350	2490.330000
854.509103	2484.028558
854.822812	2467.896865
855.136479	2490.077942
855.450103	2464.872173
855.763685	2455.546038
856.077224	2503.437000
856.390720	2463.863942
856.704173	2454.285750
857.017584	2471.677731
857.330953	2463.611885
857.644278	2460.587192
857.957561	2443.195212
858.270802	2475.962712
858.584000	2443.447269
858.897155	2472.938019
859.210268	2494.867038
859.523339	2446.219904
859.836367	2453.277519
860.149352	2456.806327
860.462295	2458.570731
860.775195	2446.976077
861.088054	2433.617019
861.400869	2422.022365
861.713642	2458.570731
862.026373	2448.236365
862.339062	2466.132462
862.651708	2475.458596
862.964312	2456.302212
863.276873	2460.587192
863.589392	2456.302212
863.901869	2469.661269
864.214303	2468.905096
864.526696	2433.112904
864.839045	2468.905096
865.151353	2455.293981
865.463619	2457.058385
865.775842	2470.165385
866.088023	2470.921558
866.400162	2443.699327
866.712258	2458.570731
867.024313	2465.376288
867.336325	2468.400981
867.648296	2448.740481
867.960224	2458.066615
868.272110	2451.261058
868.583954	2464.116000
868.895755	2473.694192
869.207515	2466.384519
869.519233	2460.839250
869.830909	2458.570731
870.142542	2474.198308
870.454134	2435.885538
870.765684	2470.921558
871.077191	2452.773404
871.388657	2451.513115
871.700081	2456.806327
872.011463	2477.727115
872.322803	2463.359827
872.634101	2449.748712
872.945357	2442.439038
873.256571	2438.154058
873.567744	2433.869077
873.878874	2459.074846
874.189963	2461.595423
874.501010	2464.872173
874.812015	2461.847481
875.122979	2447.480192
875.433900	2454.285750
875.744780	2482.264154
876.055618	2436.893769
876.366415	2453.277519
876.677169	2466.132462
876.987882	2457.310442
877.298554	2422.526481
877.609183	2472.433904
877.919771	2467.896865
878.230317	2447.480192
878.540822	2443.447269
878.851285	2477.475058
879.161707	2469.409212
879.472087	2466.132462
879.782425	2477.223000
880.092722	2455.546038
880.402977	2472.938019
880.713191	2465.124231
881.023363	2477.475058
881.333494	2471.425673
881.643583	2493.606750
881.953631	2453.025462
882.263637	2476.214769
882.573602	2448.740481
882.883526	2478.231231
883.193408	2442.439038
883.503248	2469.661269
883.813048	2479.491519
884.122806	2475.206538
884.432522	2473.946250
884.742197	2465.628346
885.051831	2476.466827
885.361424	2452.269288
885.670975	2465.628346
885.980485	2484.028558
886.289954	2461.091308
886.599382	2435.129365
886.908768	2453.277519
887.218113	2462.351596
887.527417	2447.984308
887.836680	2446.219904
888.145901	2455.041923
888.455082	2465.376288
888.764221	2464.872173
889.073319	2461.847481
889.382376	2462.603654
889.691392	2438.910231
890.000366	2466.132462
890.309300	2458.822788
890.618193	2442.691096
890.927044	2447.480192
891.235855	2422.526481
891.544625	2466.888635
891.853353	2464.368058
892.162041	2471.677731
892.470687	2454.033692
892.779293	2439.414346
893.087858	2439.666404
893.396381	2457.814558
893.704864	2449.496654
894.013306	2450.252827
894.321707	2432.608788
894.630068	2446.471962
894.938387	2476.466827
895.246665	2462.351596
895.554903	2462.099538
895.863100	2456.806327
896.171256	2468.400981
896.479371	2455.293981
896.787446	2473.442135
897.095480	2439.162288
897.403473	2440.674635
897.711425	2471.677731
898.019336	2464.116000
898.327207	2442.439038
898.635038	2466.888635
898.942827	2453.781635
899.250576	2454.789865
899.558284	2451.261058
899.865952	2476.466827
900.173579	2460.335135
900.481165	2470.669500
900.788711	2465.628346
901.096216	2439.918462
901.403681	2452.521346
901.711105	2451.513115
902.018489	2474.198308
902.325832	2448.992538
902.633135	2450.504885
902.940397	2441.430808
903.247619	2462.351596
903.554800	2454.537808
903.861941	2471.677731
904.169041	2448.488423
904.476101	2470.417442
904.783121	2462.855712
905.090100	2442.186981
905.397039	2428.071750
905.703938	2471.425673
906.010796	2462.855712
906.317614	2432.356731
906.624391	2477.727115
906.931129	2441.934923
907.237826	2484.028558
907.544483	2455.293981
907.851099	2460.335135
908.157675	2441.430808
908.464211	2452.521346
908.770707	2468.148923
909.077163	2464.620115
909.383578	2446.471962
909.689954	2453.529577
909.996289	2455.798096
910.302584	2453.025462
910.608839	2478.735346
910.915054	2426.055288
911.221229	2431.600558
911.527363	2441.682865
911.833458	2471.425673
912.139513	2471.677731
912.445527	2461.595423
912.751502	2475.206538
913.057436	2444.203442
913.363331	2471.929788
913.669186	2465.376288
913.975000	2439.162288
914.280775	2461.343365
914.586510	2435.129365
914.892205	2441.178750
915.197859	2466.384519
915.503475	2449.244596
915.809050	2456.050154
916.114585	2471.173615
916.420081	2438.406115
916.725536	2453.781635
917.030952	2468.148923
917.336328	2479.743577
917.641665	2476.718885
917.946961	2469.409212
918.252218	2441.178750
918.557435	2454.033692
918.862612	2449.244596
919.167750	2475.458596
919.472848	2454.789865
919.777906	2458.318673
920.082925	2472.938019
920.387904	2450.252827
920.692843	2497.891731
920.997743	2469.157154
921.302603	2435.381423
921.607423	2467.644808
921.912204	2468.148923
922.216946	2457.562500
922.521647	2459.326904
922.826310	2474.954481
923.130932	2451.261058
923.435516	2443.699327
923.740059	2451.009000
924.044564	2487.305308
924.349028	2456.302212
924.653454	2470.921558
924.957840	2455.293981
925.262186	2441.430808
925.566493	2472.685962
925.870761	2460.587192
926.174989	2436.641712
926.479178	2435.885538
926.783328	2475.206538
927.087438	2465.628346
927.391509	2467.896865
927.695541	2446.724019
927.999533	2455.798096
928.303486	2480.751808
928.607400	2458.066615
928.911275	2462.099538
929.215110	2442.691096
929.518906	2465.880404
929.822663	2450.252827
930.126381	2453.529577
930.430060	2490.077942
930.733699	2445.715788
931.037299	2451.009000
931.340861	2453.781635
931.644383	2473.442135
931.947866	2444.707558
932.251309	2469.913327
932.554714	2437.145827
932.858080	2436.137596
933.161407	2470.669500
933.464694	2470.165385
933.767943	2458.822788
934.071153	2465.376288
934.374323	2498.143788
934.677455	2468.905096
934.980548	2457.310442
935.283602	2446.724019
935.586617	2465.880404
935.889593	2469.409212
936.192530	2466.888635
936.495428	2475.962712
936.798287	2488.565596
937.101108	2458.066615
937.403890	2457.058385
937.706632	2463.107769
938.009336	2447.984308
938.312002	2456.554269
938.614628	2458.822788
938.917216	2452.017231
939.219765	2447.984308
939.522275	2438.910231
939.824747	2450.252827
940.127179	2451.765173
940.429573	2469.157154
940.731929	2459.326904
941.034246	2458.318673
941.336524	2464.620115
941.638763	2445.463731
941.940964	2454.033692
942.243126	2446.471962
942.545250	2451.513115
942.847335	2457.058385
943.149381	2467.140692
943.451389	2445.967846
943.753359	2443.699327
944.055290	2446.219904
944.357182	2477.475058
944.659036	2462.099538
944.960851	2433.869077
945.262628	2432.608788
945.564367	2469.661269
945.866067	2482.768269
946.167729	2473.442135
946.469352	2456.806327
946.770937	2455.293981
947.072484	2458.066615
947.373992	2457.562500
947.675462	2440.422577
947.976893	2499.908192
948.278286	2455.293981
948.579641	2465.376288
948.880958	2448.992538
949.182236	2443.447269
949.483476	2472.685962
949.784678	2460.587192
950.085841	2453.025462
950.386967	2470.417442
950.688054	2428.071750
950.989103	2462.351596
951.290114	2467.392750
951.591087	2482.012096
951.892021	2474.198308
952.192917	2463.107769
952.493776	2458.570731
952.794596	2441.430808
953.095378	2423.030596
953.396122	2464.368058
953.696828	2463.863942
953.997496	2444.203442
954.298126	2439.666404
954.598718	2455.041923
954.899272	2461.343365
955.199788	2470.921558
955.500266	2453.529577
955.800706	2465.880404
956.101108	2470.921558
956.401472	2473.694192
956.701798	2430.844385
957.002087	2462.351596
957.302337	2456.806327
957.602550	2431.096442
957.902724	2461.091308
958.202861	2444.455500
958.502960	2443.195212
958.803022	2446.724019
959.103045	2464.368058
959.403031	2460.083077
959.702979	2448.740481
960.002889	2450.252827
960.302762	2454.285750
960.602596	2464.620115
960.902393	2465.628346
961.202153	2467.392750
961.501875	2461.595423
961.801559	2456.050154
962.101205	2456.050154
962.400814	2444.959615
962.700385	2470.669500
962.999918	2459.074846
963.299414	2445.211673
963.598873	2491.842346
963.898293	2467.896865
964.197677	2447.228135
964.497022	2447.228135
964.796331	2449.244596
965.095601	2456.050154
965.394835	2457.814558
965.694030	2446.219904
965.993189	2439.162288
966.292309	2476.718885
966.591393	2445.463731
966.890439	2485.540904
967.189447	2469.409212
967.488419	2451.261058
967.787353	2464.620115
968.086249	2467.644808
968.385108	2442.943154
968.683930	2457.310442
968.982714	2469.661269
969.281462	2431.852615
969.580172	2441.934923
969.878844	2447.732250
970.177480	2450.000769
970.476078	2426.055288
970.774639	2451.513115
971.073162	2460.839250
971.371649	2471.677731
971.670098	2455.798096
971.968510	2443.951385
972.266885	2469.157154
972.565223	2429.584096
972.863524	2485.540904
973.161788	2464.872173
973.460014	2478.735346
973.758204	2450.252827
974.056356	2453.781635
974.354471	2448.740481
974.652550	2462.351596
974.950591	2451.261058
975.248595	2446.724019
975.546563	2443.951385
975.844493	2443.447269
976.142386	2478.987404
976.440243	2443.195212
976.738062	2470.165385
977.035845	2435.129365
977.333590	2452.269288
977.631299	2464.368058
977.928971	2455.293981
978.226606	2458.822788
978.524204	2444.707558
978.821765	2455.041923
979.119290	2478.735346
979.416777	2421.014135
979.714228	2455.798096
980.011642	2445.715788
980.309020	2465.124231
980.606360	2433.364962
980.903664	2459.326904
981.200931	2415.216808
981.498162	2464.116000
981.795356	2477.727115
982.092513	2444.707558
982.389633	2435.129365
982.686717	2464.116000
982.983764	2455.293981
983.280775	2456.050154
983.577749	2449.496654
983.874686	2445.967846
984.171587	2463.863942
984.468451	2452.521346
984.765279	2454.537808
985.062070	2441.430808
985.358824	2447.732250
985.655543	2446.724019
985.952224	2423.786769
986.248869	2469.913327
986.545478	2462.855712
986.842050	2455.293981
987.138586	2441.682865
987.435086	2467.140692
987.731549	2455.546038
988.027975	2484.280615
988.324366	2447.228135
988.620719	2437.649942
988.917037	2444.203442
989.213318	2461.091308
989.509563	2469.157154
989.805772	2444.707558
990.101944	2460.587192
990.398080	2481.507981
990.694180	2455.798096
990.990244	2467.644808
991.286271	2454.537808
991.582262	2456.302212
991.878217	2443.699327
992.174136	2456.302212
992.470019	2449.496654
992.765865	2454.033692
993.061676	2460.587192
993.357450	2458.318673
993.653188	2431.348500
993.948890	2435.633481
994.244556	2433.112904
994.540186	2431.600558
994.835780	2440.674635
995.131337	2458.822788
995.426859	2443.195212
995.722345	2435.633481
996.017795	2457.814558
996.313208	2455.041923
996.608586	2466.132462
996.903928	2448.236365
997.199234	2460.587192
997.494504	2437.902000
997.789738	2463.863942
998.084936	2448.992538
998.380099	2424.542942
998.675225	2454.789865
998.970316	2474.450365
999.265371	2471.425673
999.560390	2442.186981
999.855373	2451.765173
1000.150320	2446.471962
1000.445232	2444.707558
1000.740108	2459.074846
1001.034948	2468.905096
1001.329752	2451.513115
1001.624521	2460.587192
1001.919254	2476.718885
1002.213951	2464.116000
1002.508613	2457.562500
1002.803239	2442.186981
1003.097829	2462.351596
1003.392384	2446.471962
1003.686903	2459.578962
1003.981386	2455.041923
1004.275834	2465.124231
1004.570246	2472.685962
1004.864623	2461.847481
1005.158964	2467.140692
1005.453270	2452.269288
1005.747540	2473.190077
1006.041775	2444.959615
1006.335974	2455.041923
1006.630138	2449.748712
1006.924266	2475.206538
1007.218359	2448.740481
1007.512416	2452.269288
1007.806438	2460.335135
1008.100425	2445.967846
1008.394376	2455.293981
1008.688292	2463.611885
1008.982172	2457.058385
1009.276017	2477.475058
1009.569827	2462.855712
1009.863602	2460.083077
1010.157341	2461.847481
1010.451045	2470.921558
1010.744714	2450.504885
1011.038347	2475.710654
1011.331945	2438.658173
1011.625508	2463.611885
1011.919036	2469.913327
1012.212528	2450.252827
1012.505986	2450.504885
1012.799408	2459.326904
1013.092795	2433.617019
1013.386147	2454.033692
1013.679464	2424.542942
1013.972745	2461.091308
1014.265992	2482.516212
1014.559204	2465.880404
1014.852380	2487.305308
1015.145521	2444.707558
1015.438628	2453.025462
1015.731699	2440.926692
1016.024736	2444.203442
1016.317737	2448.992538
1016.610703	2436.389654
1016.903635	2463.611885
1017.196531	2423.786769
1017.489393	2475.458596
1017.782219	2438.910231
1018.075011	2451.513115
1018.367768	2452.773404
1018.660490	2459.578962
1018.953177	2459.578962
1019.245829	2459.578962
