Dividing Wavelength (nm)	Counts (n)	Slit_number_11_of_a_total_of_40	
326.493990	2038.894673
326.888308	2038.894673
327.282561	2038.894673
327.676750	2022.737775
328.070874	2016.713596
328.464933	2029.921419
328.858929	2041.944571
329.252859	2051.270706
329.646726	2056.614329
330.040528	2080.862279
330.434265	2091.070615
330.827938	2113.201281
331.221547	2137.171967
331.615091	2157.386994
332.008571	2174.400888
332.401986	2197.842254
332.795338	2212.864892
333.188625	2237.390106
333.581847	2255.185379
333.975006	2268.897317
334.368100	2292.288271
334.761129	2309.705458
335.154095	2322.333548
335.546996	2343.002279
335.939833	2362.536750
336.332606	2370.627802
336.725315	2385.524412
337.117960	2389.607746
337.510540	2406.546023
337.903056	2412.771848
338.295508	2420.182344
338.687896	2430.239446
339.080220	2442.111363
339.472480	2436.263625
339.864676	2431.197265
340.256807	2441.556837
340.648875	2448.942127
341.040879	2442.464244
341.432818	2442.363421
341.824694	2453.504371
342.216506	2444.531117
342.608253	2444.833587
342.999937	2447.429781
343.391557	2449.219390
343.783113	2442.640685
344.174605	2437.246650
344.566033	2441.531631
344.957397	2443.749738
345.348697	2440.195725
345.739934	2433.919488
346.131106	2429.357244
346.522215	2439.187494
346.913260	2430.163829
347.304241	2431.903027
347.695159	2417.939031
348.086012	2436.137596
348.476802	2425.450350
348.867528	2426.660227
349.258191	2422.400452
349.648789	2422.450863
350.039324	2417.233269
350.429796	2426.534198
350.820203	2439.464758
351.210548	2422.173600
351.600828	2430.264652
351.991045	2415.821746
352.381198	2425.576379
352.771288	2412.393762
353.161314	2418.417940
353.551276	2406.999727
353.941175	2418.770821
354.331010	2412.393762
354.720782	2419.829463
355.110490	2420.862900
355.500135	2422.551687
355.889717	2416.099010
356.279235	2421.392221
356.668689	2415.090779
357.058080	2415.368042
357.447408	2416.981212
357.836672	2421.946748
358.225873	2422.148394
358.615010	2423.786769
359.004084	2420.157138
359.393095	2426.433375
359.782043	2417.888619
360.170927	2418.241500
360.559748	2420.005904
360.948505	2428.449837
361.337199	2425.626790
361.725830	2423.307860
362.114398	2417.560944
362.502903	2420.585637
362.891344	2423.005390
363.279722	2435.356217
363.668037	2425.072263
364.056289	2431.272883
364.444478	2428.878335
364.832603	2424.568148
365.220665	2424.996646
365.608665	2430.466298
365.996601	2431.121648
366.384474	2428.827923
366.772284	2424.316090
367.160031	2429.584096
367.547715	2435.860333
367.935336	2431.146854
368.322893	2430.894796
368.710388	2427.466812
369.097820	2423.509506
369.485189	2427.239960
369.872495	2434.095929
370.259738	2442.464244
370.646918	2429.886565
371.034035	2431.398912
371.421090	2430.541915
371.808081	2431.650969
372.195010	2434.121135
372.581875	2435.331012
372.968678	2435.759510
373.355418	2429.231215
373.742096	2434.499221
374.128710	2435.003337
374.515262	2442.439038
374.901751	2434.272369
375.288177	2440.725046
375.674540	2439.994079
376.060841	2429.206010
376.447079	2440.951898
376.833254	2435.935950
377.219367	2432.029056
377.605417	2432.129879
377.991404	2431.524940
378.377329	2434.600044
378.763191	2443.094388
379.148991	2438.431321
379.534727	2444.127825
379.920402	2440.044490
380.306013	2438.355704
380.691563	2433.919488
381.077049	2440.120108
381.462474	2438.179263
381.847835	2442.892742
382.233134	2446.850048
382.618371	2434.574838
383.003545	2444.606735
383.388657	2441.506425
383.773706	2436.868563
384.158693	2442.464244
384.543618	2441.254367
384.928480	2439.086671
385.313280	2440.397371
385.698017	2432.104673
386.082692	2430.844385
386.467305	2436.314037
386.851856	2446.724019
387.236344	2437.624737
387.620770	2430.844385
388.005133	2437.750765
388.389435	2444.430294
388.773674	2444.883998
389.157851	2437.775971
389.541965	2443.875767
389.926018	2444.279060
390.310008	2440.977104
390.693936	2441.153544
391.077802	2443.119594
391.461606	2441.783688
391.845348	2450.756942
392.229027	2453.554783
392.612645	2444.883998
392.996200	2448.236365
393.379694	2441.985335
393.763125	2449.143773
394.146494	2449.975563
394.529801	2446.446756
394.913047	2458.167438
395.296230	2452.823815
395.679351	2454.058898
396.062410	2449.925152
396.445408	2460.688015
396.828343	2456.554269
397.211217	2454.915894
397.594028	2439.691610
397.976778	2446.471962
398.359466	2446.068669
398.742092	2448.311983
399.124656	2457.108796
399.507158	2452.017231
399.889598	2450.504885
400.271977	2448.765687
400.654294	2447.732250
401.036549	2448.463217
401.418742	2446.119081
401.800874	2450.832560
402.182944	2449.219390
402.564952	2455.319187
402.946898	2450.227621
403.328783	2458.268262
403.710606	2444.581529
404.092367	2459.528550
404.474067	2449.824329
404.855705	2456.050154
405.237282	2452.647375
405.618797	2458.621142
406.000250	2455.420010
406.381642	2454.184927
406.762972	2451.639144
407.144240	2444.253854
407.525447	2455.092335
407.906593	2447.732250
408.287677	2458.747171
408.668700	2452.244083
409.049661	2452.722992
409.430560	2451.739967
409.811399	2453.504371
410.192176	2457.537294
410.572891	2453.579988
410.953545	2458.948817
411.334138	2449.849535
411.714669	2464.090794
412.095139	2455.344392
412.475547	2458.444702
412.855894	2456.881944
413.236180	2465.502317
413.616405	2455.873713
413.996568	2455.974537
414.376670	2455.924125
414.756711	2460.814044
415.136691	2453.252313
415.516609	2463.032152
415.896466	2452.067642
416.276262	2455.420010
416.655997	2451.639144
417.035670	2465.552729
417.415283	2460.183900
417.794834	2459.730196
418.174324	2463.460650
418.553753	2458.999229
418.933121	2461.822275
419.312428	2464.368058
419.691674	2461.923098
420.070859	2469.636063
420.449983	2463.435444
420.829045	2460.108283
421.208047	2470.417442
421.586988	2465.855198
421.965867	2467.695219
422.344686	2459.831019
422.723444	2458.066615
423.102141	2460.839250
423.480777	2467.644808
423.859352	2462.906123
424.237866	2467.670013
424.616319	2469.207565
424.994712	2465.930815
425.373044	2464.897379
425.751314	2466.460137
426.129524	2466.006433
426.507673	2457.990998
426.885762	2466.006433
427.263789	2459.100052
427.641756	2461.040896
428.019662	2472.030612
428.397508	2462.603654
428.775292	2467.367544
429.153016	2468.098512
429.530679	2479.365490
429.908282	2471.022381
430.285824	2465.351083
430.663305	2474.198308
431.040726	2464.494087
431.418086	2479.037815
431.795385	2477.878350
432.172624	2474.904069
432.549802	2472.559933
432.926920	2467.745631
433.303977	2476.366004
433.680974	2468.552215
434.057910	2468.123717
434.434786	2472.307875
434.811601	2469.610858
435.188355	2463.561473
435.565050	2474.299131
435.941683	2468.678244
436.318257	2470.694706
436.694770	2470.644294
437.071222	2474.929275
437.447614	2468.602627
437.823946	2471.904583
438.200218	2473.013637
438.576429	2473.820221
438.952580	2477.147383
439.328670	2470.795529
439.704700	2466.157667
440.080670	2480.852631
440.456580	2482.743063
440.832429	2475.987917
441.208218	2478.886581
441.583947	2482.717858
441.959616	2471.753348
442.335224	2468.325363
442.710773	2472.912813
443.086261	2473.946250
443.461689	2466.460137
443.837057	2478.609317
444.212365	2473.316106
444.587612	2479.768783
444.962800	2476.945737
445.337927	2473.089254
445.712995	2467.972483
446.088002	2479.390696
446.462949	2480.398927
446.837837	2467.821248
447.212664	2486.902015
447.587431	2480.701396
447.962139	2483.020327
448.336786	2487.481748
448.711374	2489.271358
449.085901	2482.566623
449.460369	2479.289873
449.834776	2475.231744
450.209124	2486.196254
450.583412	2483.196767
450.957640	2481.835656
451.331808	2489.246152
451.705917	2478.785758
452.079965	2485.238435
452.453954	2483.801706
452.827883	2480.650985
453.201752	2477.979173
453.575562	2479.113433
453.949311	2491.287819
454.323001	2489.246152
454.696632	2502.126300
455.070202	2487.355719
455.443713	2491.691112
455.817164	2496.026504
456.190556	2499.782163
456.563888	2497.916937
456.937160	2495.219919
457.310373	2500.966835
457.683526	2494.942656
458.056619	2499.782163
458.429653	2498.849550
458.802628	2494.236894
459.175542	2500.613954
459.548398	2497.211175
459.921194	2502.857267
460.293930	2501.596979
460.666607	2507.016219
461.039224	2515.031654
461.411782	2508.024450
461.784280	2510.595438
462.156719	2509.587208
462.529099	2524.332583
462.901419	2514.199863
463.273680	2513.670542
463.645882	2511.023937
464.018024	2515.434946
464.390106	2515.712210
464.762130	2521.106244
465.134094	2528.340300
465.505999	2535.826413
465.877845	2546.639688
466.249631	2551.000287
466.621358	2544.320758
466.993026	2548.504915
467.364634	2545.707075
467.736184	2541.875798
468.107674	2542.455531
468.479105	2542.833617
468.850477	2531.692667
469.221790	2538.346990
469.593043	2537.641229
469.964238	2536.708615
470.335373	2543.514173
470.706449	2547.723537
471.077467	2542.178267
471.448425	2552.941131
471.819324	2561.006977
472.190164	2563.855229
472.560945	2553.319217
472.931667	2549.916438
473.302330	2554.856769
473.672934	2559.242573
474.043479	2559.066133
474.413965	2559.066133
474.784393	2564.208110
475.154761	2568.316650
475.525070	2564.989488
475.895321	2565.720456
476.265513	2567.963769
476.635645	2575.374265
477.005719	2586.767273
477.375734	2591.682398
477.745691	2598.613985
478.115588	2605.696806
478.485427	2615.325410
478.855207	2638.640746
479.224928	2654.293529
479.594591	2666.972031
479.964194	2671.130983
480.333739	2681.893846
480.703226	2685.094979
481.072653	2706.998792
481.442022	2717.812067
481.811333	2730.616598
482.180584	2735.052813
482.549777	2751.184506
482.918912	2758.141298
483.287988	2775.230810
483.657005	2805.074440
484.025964	2802.629481
484.394864	2828.188131
484.763706	2840.639781
485.132489	2853.267871
485.501213	2879.481871
485.869879	2904.259142
486.238487	2924.600198
486.607036	2953.057512
486.975527	2976.246819
487.343959	3003.166581
487.712333	3039.488094
488.080648	3073.163002
488.448905	3103.712394
488.817104	3152.914056
489.185244	3208.467571
489.553326	3283.530352
489.921350	3405.400246
490.289315	3538.915206
490.657222	3625.345788
491.025070	3690.981612
491.392861	3734.486769
491.760593	3764.532046
492.128267	3772.774333
492.495883	3803.323725
492.863440	3812.599448
493.230939	3852.878267
493.598380	3895.425606
493.965763	3961.741985
494.333088	4014.321219
494.700354	4075.142740
495.067563	4159.203981
495.434713	4238.274479
495.801805	4334.610929
496.168839	4416.630502
496.535815	4501.876413
496.902733	4610.135192
497.269593	4678.039535
497.636395	4792.120846
498.003139	4939.498979
498.369825	5024.870919
498.736453	5173.963044
499.103023	5270.022231
499.469535	5393.152413
499.835989	5542.143715
500.202385	5637.446729
500.568723	5781.371671
500.935003	5950.552794
501.301226	6082.051292
501.667390	6315.708773
502.033497	6505.785479
502.399546	6621.933663
502.765537	6713.859104
503.131470	6925.033038
503.497345	7157.657083
503.863163	7157.732700
504.228923	7417.528563
504.594625	7670.418046
504.960269	7769.098633
505.325856	8065.972183
505.691385	8173.701640
506.056856	8411.492867
506.422270	8666.953338
506.787625	8838.478598
507.152924	9072.136079
507.518164	9330.142333
507.883347	9393.560048
508.248472	9658.623917
508.613540	9980.224327
508.978550	10279.391602
509.343503	10464.502771
509.708398	10719.333098
510.073236	11083.178377
510.438016	11336.471152
510.802738	11462.474792
511.167403	11811.196610
511.532010	12119.034669
511.896561	12480.031696
512.261053	12953.824540
512.625488	13108.335906
512.989866	13336.397706
513.354186	13540.942523
513.718449	13805.678717
514.082655	14257.744188
514.446803	14422.615125
514.810894	14838.182642
515.174927	15070.983127
515.538904	15304.262521
515.902822	15802.857842
516.266684	15889.061573
516.630488	16304.175387
516.994235	16504.485635
517.357925	16967.465204
517.721558	17294.862940
518.085133	17691.148044
518.448651	18054.842088
518.812112	18247.086490
519.175516	18500.454883
519.538863	18952.343913
519.902152	19206.947388
520.265385	19670.985600
520.628560	19984.973867
520.991678	20129.302102
521.354739	20511.421563
521.717743	20926.484965
522.080690	21145.901187
522.443580	21672.096825
522.806413	21983.488898
523.169189	22234.714800
523.531908	22558.709758
523.894569	22773.513323
524.257174	23125.032981
524.619722	23543.801631
524.982213	23799.085662
525.344647	24041.262692
525.707025	24329.162988
526.069345	24798.570029
526.431608	24962.029442
526.793815	25401.063531
527.155964	25370.867019
527.518057	25725.839867
527.880093	25852.725710
528.242072	26398.934729
528.603995	26470.796377
528.965860	26693.590171
529.327669	26983.204460
529.689421	27146.386610
530.051117	27273.953008
530.412755	27602.737062
530.774337	27823.716040
531.135862	27922.220187
531.497331	28256.650333
531.858743	28359.439460
532.220098	28784.081054
532.581396	28810.547112
532.942638	28741.080012
533.303824	29109.638769
533.664953	29213.335304
534.026025	29151.505552
534.387040	29673.441415
534.747999	29767.358112
535.108902	30049.335052
535.469748	29830.548975
535.830537	30043.235256
536.191270	30306.685956
536.551947	30182.421513
536.912567	30517.179335
537.273131	30634.386162
537.633638	30398.939071
537.994089	30691.729287
538.354483	30499.459679
538.714821	30987.569400
539.075103	31237.686248
539.435328	31148.609060
539.795497	31081.334862
540.155609	31146.088483
540.515665	31530.274817
540.875665	31172.957833
541.235609	31396.961504
541.595496	31403.212535
541.955328	31890.767729
542.315102	31475.855562
542.674821	31350.784535
543.034483	31335.560250
543.394090	31337.702740
543.753640	31290.769598
544.113134	31974.728146
544.472571	31217.849308
544.831953	32058.688563
545.191278	31487.727479
545.550548	31271.739242
545.909761	31512.328310
546.268918	31594.801587
546.628019	31737.970356
546.987064	31376.141538
547.346053	30764.649577
547.704986	31313.933700
548.063863	30898.845092
548.422684	30935.796750
548.781449	30786.855860
549.140158	30902.903221
549.498811	30721.774563
549.857408	30215.869569
550.215949	30647.997277
550.574434	30473.472531
550.932864	30218.667410
551.291237	30562.726160
551.649555	30144.411213
552.007817	30143.982715
552.366022	29777.011921
552.724173	29732.271681
553.082267	29845.773260
553.440305	29885.321112
553.798288	29281.592527
554.156215	29342.892958
554.514086	29258.277190
554.871902	28888.357321
555.229661	28775.788356
555.587365	28456.532083
555.945014	28333.502723
556.302606	28078.722808
556.660143	28047.644094
557.017625	27894.493840
557.375050	27612.592517
557.732421	27565.558552
558.089735	27369.155198
558.446994	27079.843379
558.804197	27187.068721
559.161345	26939.144775
559.518437	26294.784490
559.875474	26266.503617
560.232455	26172.914596
560.589381	26017.319383
560.946251	25632.679344
561.303065	25780.586798
561.659825	25431.713746
562.016528	25035.957963
562.373177	24658.829244
562.729770	24679.750033
563.086307	24212.939187
563.442789	24189.069323
563.799216	23967.939110
564.155587	23619.847437
564.511904	23344.827288
564.868164	23213.984140
565.224370	23064.312283
565.580520	22700.719062
565.936615	22545.703581
566.292654	22160.912308
566.648638	22026.666381
567.004567	21783.884412
567.360441	21560.107592
567.716260	21274.627050
568.072023	21158.151190
568.427732	20873.149558
568.783385	20453.826381
569.138982	20378.788806
569.494525	20128.193048
569.850013	19773.522669
570.205445	19539.310662
570.560823	19267.163971
570.916145	18994.311519
571.271412	18780.390156
571.626625	18426.879242
571.981782	18215.856542
572.336884	17871.898615
572.691931	17699.289508
573.046923	17366.422119
573.401860	17078.370588
573.756743	16862.331940
574.111570	16687.101433
574.466342	16431.943431
574.821059	16236.195427
575.175722	15851.152096
575.530330	15656.261088
575.884882	15355.329410
576.239380	15120.991373
576.593823	14926.503658
576.948211	14705.600296
577.302544	14350.778683
577.656823	14183.437581
578.011047	14075.884563
578.365216	13806.661742
578.719330	13548.554665
579.073389	13334.784537
579.427394	13188.439840
579.781344	12986.012308
580.135239	12692.743183
580.489080	12563.059500
580.842866	12251.566604
581.196597	12222.579969
581.550273	12025.697706
581.903895	11854.096829
582.257463	11783.344235
582.610975	11494.259267
582.964434	11413.449571
583.317837	11189.395488
583.671186	11008.745740
584.024481	10901.596015
584.377721	10664.056846
584.730906	10607.974010
585.084037	10461.074787
585.437113	10292.170927
585.790135	10132.290733
586.143103	9927.317417
586.496016	9842.298358
586.848874	9696.407365
587.201679	9600.701060
587.554428	9411.935054
587.907124	9287.973081
588.259765	9154.861413
588.612352	9075.337212
588.964884	8867.918937
589.317362	8806.769740
589.669786	8696.116413
590.022155	8540.168319
590.374470	8509.870985
590.726731	8327.431627
591.078937	8160.720669
591.431090	8085.859535
591.783188	7916.552383
592.135232	7775.979808
592.487222	7705.454065
592.839157	7629.609906
593.191038	7501.892273
593.542866	7371.830504
593.894639	7209.253292
594.246358	7155.413769
594.598022	7073.217756
594.949633	6935.014523
595.301190	6827.133831
595.652692	6753.381750
596.004141	6699.592638
596.355535	6524.261308
596.706876	6449.223733
597.058162	6342.174831
597.409395	6305.954140
597.760573	6245.913998
598.111698	6136.672194
598.462768	6059.592952
598.813785	5983.496735
599.164748	5861.198342
599.515657	5835.009548
599.866511	5725.944185
600.217312	5718.382454
600.568060	5574.104631
600.918753	5566.946192
601.269392	5511.543912
601.619978	5420.021763
601.970510	5354.713615
602.320988	5328.474410
602.671412	5275.517088
603.021783	5214.619950
603.372100	5132.575171
603.722363	5067.216612
604.072572	5015.242315
604.422728	4969.090552
604.772830	4903.883227
605.122878	4852.337429
605.472872	4811.680523
605.822813	4775.510244
606.172701	4707.177404
606.522534	4673.678937
606.872314	4646.154237
607.222041	4576.056992
607.571714	4551.506573
607.921333	4474.477742
608.270899	4454.741625
608.620411	4420.537396
608.969870	4378.040469
609.319276	4331.636648
609.668627	4286.644350
610.017926	4270.638687
610.367171	4246.945263
610.716362	4203.919015
611.065500	4169.336700
611.414585	4144.231754
611.763616	4121.697796
612.112594	4076.277000
612.461518	4056.515677
612.810389	4020.496633
613.159207	3983.192094
613.507971	3952.188998
613.856682	3938.829940
614.205340	3909.540837
614.553945	3901.449785
614.902496	3847.660673
615.250994	3837.301102
615.599439	3800.803148
615.947830	3780.537710
616.296169	3760.499123
616.644454	3727.983681
616.992686	3713.666804
617.340864	3701.719269
617.688990	3676.437883
618.037063	3679.689427
618.385082	3645.863285
618.733048	3641.149806
619.080961	3613.171402
619.428821	3586.125612
619.776628	3565.154412
620.124382	3541.208931
620.472083	3507.508817
620.819731	3499.543794
621.167326	3460.525263
621.514868	3433.630708
621.862357	3404.845719
622.209793	3389.697052
622.557176	3352.090044
622.904506	3327.968123
623.251783	3299.914102
623.599007	3266.995367
623.946179	3245.015937
624.293297	3217.592060
624.640363	3212.802963
624.987376	3182.077131
625.334336	3160.324552
625.681243	3140.538023
626.028097	3121.532873
626.374899	3115.634723
626.721647	3103.762806
627.068343	3088.110023
627.414987	3071.449010
627.761577	3058.442833
628.108115	3049.620813
628.454600	3022.852287
628.801032	3013.626975
629.147412	3011.055987
629.493739	3002.687671
629.840014	2979.674804
630.186236	2983.934579
630.532405	2957.695373
630.878521	2968.735500
631.224585	2956.485496
631.570597	2939.320367
631.916556	2940.051335
632.262462	2926.742688
632.608316	2922.482913
632.954117	2907.989596
633.299866	2914.215421
633.645562	2888.026627
633.991206	2880.490102
634.336797	2868.441744
634.682336	2848.352746
635.027823	2851.200998
635.373257	2835.497804
635.718639	2826.751402
636.063968	2823.701504
636.409245	2801.117135
636.754470	2802.679892
637.099642	2800.461785
637.444762	2778.860440
637.789829	2774.247785
638.134845	2774.474637
638.479808	2759.174735
638.824719	2759.149529
639.169577	2741.404667
639.514383	2742.992631
639.859137	2734.825962
640.203839	2729.381515
640.548489	2726.911350
640.893086	2716.904660
641.237632	2720.231821
641.582125	2709.494163
641.926566	2704.730273
642.270955	2694.194262
642.615292	2698.075950
642.959576	2689.531194
643.303809	2692.455063
643.647990	2691.598067
643.992118	2680.583146
644.336195	2677.835717
644.680219	2670.047135
645.024192	2677.079544
645.368112	2667.425735
645.711981	2668.106290
646.055797	2678.239010
646.399562	2673.752383
646.743274	2665.157215
647.086935	2661.729231
647.430544	2661.300733
647.774101	2669.669048
648.117606	2667.375323
648.461059	2659.082625
648.804460	2648.042498
649.147810	2653.940648
649.491108	2643.858340
649.834354	2636.347021
650.177548	2638.615540
650.520690	2625.004425
650.863781	2631.406690
651.206820	2619.358333
651.549807	2624.147429
651.892742	2617.619135
652.235626	2609.427260
652.578458	2612.754421
652.921238	2607.864502
653.263967	2604.890221
653.606644	2593.875300
653.949269	2597.630960
654.291843	2590.825402
654.634365	2597.328490
654.976836	2601.689088
655.319255	2594.707090
655.661622	2575.575912
656.003938	2584.549165
656.346203	2586.565627
656.688416	2577.365521
657.030577	2575.021385
657.372687	2573.256981
657.714746	2574.769327
658.056753	2580.465831
658.398708	2563.628377
658.740612	2568.165415
659.082465	2566.905127
659.424266	2564.813048
659.766016	2557.125288
660.107715	2553.646892
660.449362	2558.511606
660.790958	2555.260062
661.132503	2559.267779
661.473996	2560.754919
661.815438	2566.451423
662.156829	2558.108313
662.498168	2550.092879
662.839456	2545.278577
663.180693	2553.571275
663.521879	2557.377346
663.863013	2551.000287
664.204097	2547.572302
664.545129	2545.933927
664.886110	2540.691127
665.227040	2546.261602
665.567918	2544.471992
665.908746	2546.841335
666.249522	2550.521377
666.590248	2544.522404
666.930922	2547.370656
667.271545	2542.657177
667.612118	2542.253885
667.952639	2536.607792
668.293109	2546.690100
668.633528	2531.591844
668.973896	2542.682383
669.314213	2534.389685
669.654480	2545.026519
669.994695	2536.128883
670.334859	2537.716846
670.674973	2530.961700
671.015035	2529.020856
671.355047	2524.584640
671.695008	2531.415404
672.034918	2535.045035
672.374777	2527.357275
672.714585	2533.280631
673.054342	2531.969931
673.394049	2528.239477
673.733705	2529.726617
674.073310	2520.728158
674.412864	2533.053779
674.752368	2516.544000
675.091820	2528.945238
675.431223	2521.156656
675.770574	2524.105731
676.109875	2522.316121
676.449125	2526.349044
676.788324	2516.896881
677.127473	2522.316121
677.466571	2514.779596
677.805619	2526.525485
678.144616	2516.796058
678.483562	2515.939062
678.822458	2521.257479
679.161303	2516.997704
679.500098	2514.149452
679.838842	2516.796058
680.177535	2513.065604
680.516179	2520.224042
680.854771	2513.342867
681.193314	2516.115502
681.531805	2518.409227
681.870247	2522.064063
682.208638	2517.980729
682.546978	2521.685977
682.885268	2519.568692
683.223508	2520.879392
683.561697	2517.123733
683.899836	2521.383508
684.237925	2511.402023
684.575963	2519.114988
684.913951	2509.108298
685.251889	2516.493588
685.589776	2522.820237
685.927614	2518.207581
686.265401	2513.998217
686.603137	2519.114988
686.940824	2516.922087
687.278460	2517.779083
687.616046	2512.359842
687.953582	2510.318175
688.291068	2518.787313
688.628504	2512.889163
688.965889	2520.173631
689.303224	2512.964781
689.640510	2506.562515
689.977745	2501.521362
690.314930	2512.536283
690.652065	2514.149452
690.989150	2498.572287
691.326185	2505.806342
691.663170	2515.485358
692.000105	2499.933398
692.336990	2513.242044
692.673825	2498.748727
693.010610	2507.293483
693.347345	2502.958090
693.684030	2498.975579
694.020665	2499.832575
694.357251	2494.287306
694.693786	2500.361896
695.030272	2495.572800
695.366707	2495.774446
695.703093	2497.236381
696.039429	2500.588748
696.375716	2497.967348
696.711952	2491.413848
697.048139	2496.152533
697.384276	2508.074862
697.720363	2496.908706
698.056400	2501.294510
698.392388	2498.471463
698.728326	2495.598006
699.064214	2495.497183
699.400053	2498.194200
699.735842	2498.622698
700.071581	2498.395846
700.407270	2494.867038
700.742910	2491.439054
701.078501	2494.892244
701.414042	2495.572800
701.749533	2487.305308
702.084974	2492.875783
702.420366	2492.472490
702.755709	2491.161790
703.091002	2501.420538
703.426246	2492.422079
703.761440	2491.766729
704.096584	2489.548621
704.431679	2493.707573
704.766725	2490.103148
705.101721	2491.489465
705.436668	2498.899962
705.771565	2492.825371
706.106413	2493.707573
706.441212	2490.632469
706.775961	2486.675163
707.110661	2491.439054
707.445311	2496.757471
707.779913	2489.019300
708.114465	2493.027017
708.448967	2489.447798
708.783421	2488.868065
709.117825	2496.480208
709.452180	2488.716831
709.786485	2490.607263
710.120742	2494.589775
710.454949	2489.548621
710.789107	2494.917450
711.123216	2491.943169
711.457275	2500.840806
711.791286	2497.513644
712.125247	2496.127327
712.459159	2507.041425
712.793023	2505.403050
713.126837	2503.789881
713.460602	2504.394819
713.794318	2496.933912
714.127985	2491.640700
714.461602	2491.539877
714.795171	2492.170021
715.128691	2485.515698
715.462162	2488.036275
715.795584	2490.178765
716.128957	2496.732265
716.462281	2484.406644
716.795556	2488.943683
717.128782	2493.279075
717.461960	2490.859321
717.795088	2483.801706
718.128167	2493.934425
718.461198	2496.757471
718.794180	2494.060454
719.127113	2488.439567
719.459997	2489.422592
719.792833	2486.851604
720.125619	2485.666933
720.458357	2481.457569
720.791046	2492.674137
721.123686	2488.666419
721.456278	2485.238435
721.788821	2487.305308
722.121315	2483.348002
722.453761	2498.320229
722.786158	2484.154587
723.118506	2489.649444
723.450805	2485.465287
723.783056	2491.791935
724.115259	2493.077429
724.447412	2493.833602
724.779518	2480.701396
725.111574	2490.481235
725.443582	2490.279588
725.775542	2482.768269
726.107453	2483.952940
726.439315	2490.783704
726.771129	2492.472490
727.102895	2489.825885
727.434612	2490.027531
727.766281	2485.288846
728.097901	2487.028044
728.429473	2488.943683
728.760996	2490.682881
729.092471	2489.951913
729.423897	2476.239975
729.755276	2488.237921
730.086606	2484.305821
730.417887	2495.320742
730.749120	2486.045019
731.080305	2489.750267
731.411442	2487.960658
731.742530	2485.137612
732.073570	2486.246665
732.404562	2483.549648
732.735506	2484.860348
733.066401	2483.877323
733.397249	2485.868579
733.728048	2493.606750
734.058798	2492.774960
734.389501	2489.649444
734.720156	2482.516212
735.050762	2487.229690
735.381320	2486.019813
735.711831	2481.533187
736.042293	2479.340285
736.372707	2484.230204
736.703073	2492.951400
737.033391	2484.104175
737.363661	2489.069712
737.693883	2491.514671
738.024056	2480.172075
738.354182	2487.254896
738.684260	2490.682881
739.014290	2489.170535
739.344272	2480.121663
739.674207	2487.733806
740.004093	2484.507467
740.333931	2479.541931
740.663722	2495.925681
740.993464	2481.684421
741.323159	2486.927221
741.652806	2485.137612
741.982405	2487.960658
742.311956	2476.970942
742.641460	2488.716831
742.970915	2478.810963
743.300323	2481.230717
743.629683	2480.726602
743.958996	2484.255410
744.288260	2479.819194
744.617477	2488.061481
744.946647	2492.170021
745.275768	2486.801192
745.604842	2485.036788
745.933869	2482.843887
746.262847	2483.499237
746.591778	2488.439567
746.920662	2480.222487
747.249498	2482.491006
747.578286	2484.759525
747.907027	2481.734833
748.235720	2483.121150
748.564365	2486.725575
748.892963	2479.995635
749.221514	2484.658702
749.550017	2494.186483
749.878473	2488.968888
750.206881	2487.935452
750.535242	2485.616521
750.863555	2482.743063
751.191821	2479.592342
751.520039	2479.088227
751.848210	2490.859321
752.176334	2476.214769
752.504411	2479.466313
752.832440	2477.928762
753.160421	2483.171562
753.488356	2476.441621
753.816243	2477.349029
754.144082	2485.692138
754.471875	2490.783704
754.799620	2480.247692
755.127318	2489.271358
755.454969	2480.827425
755.782572	2483.625265
756.110129	2487.582571
756.437638	2481.230717
756.765100	2486.952427
757.092515	2483.776500
757.419882	2483.524442
757.747203	2479.592342
758.074477	2479.012610
758.401703	2486.423106
758.728882	2478.407671
759.056014	2479.289873
759.383099	2482.364977
759.710138	2479.012610
760.037129	2487.078456
760.364073	2480.852631
760.690970	2475.962712
761.017820	2478.861375
761.344623	2484.633496
761.671379	2480.172075
761.998088	2482.289360
762.324751	2488.363950
762.651366	2493.027017
762.977935	2487.960658
763.304456	2497.866525
763.630931	2497.085146
763.957359	2496.631442
764.283740	2490.859321
764.610074	2487.935452
764.936362	2497.992554
765.262602	2484.507467
765.588796	2485.162817
765.914943	2490.456029
766.241044	2491.262613
766.567097	2478.256437
766.893104	2483.121150
767.219064	2480.575367
767.544978	2483.373208
767.870845	2476.038329
768.196665	2485.036788
768.522438	2476.214769
768.848165	2481.533187
769.173846	2480.600573
769.499479	2485.843373
769.825066	2480.550162
770.150607	2470.845940
770.476101	2481.583598
770.801548	2476.592856
771.126949	2477.122177
771.452303	2475.660242
771.777611	2478.054790
772.102872	2473.795015
772.428087	2470.568677
772.753256	2473.996662
773.078378	2476.189563
773.403453	2479.390696
773.728482	2478.584112
774.053465	2472.660756
774.378401	2468.703450
774.703291	2477.399440
775.028135	2477.449852
775.352932	2476.290387
775.677683	2472.685962
776.002388	2466.485342
776.327046	2469.409212
776.651658	2472.736373
776.976224	2467.518779
777.300743	2466.308902
777.625216	2475.231744
777.949643	2465.956021
778.274024	2469.333594
778.598359	2474.979687
778.922647	2472.938019
779.246889	2474.147896
779.571086	2468.854685
779.895236	2473.366517
780.219339	2478.508494
780.543397	2471.828965
780.867409	2482.264154
781.191374	2468.199335
781.515294	2472.736373
781.839167	2476.441621
782.162995	2479.239462
782.486776	2474.173102
782.810511	2476.643267
783.134201	2469.434417
783.457844	2475.382979
783.781441	2469.610858
784.104993	2474.173102
784.428498	2480.625779
784.751958	2463.586679
785.075372	2466.434931
785.398739	2464.771350
785.722061	2466.132462
786.045337	2479.819194
786.368568	2476.844913
786.691752	2474.223513
787.014891	2468.073306
787.337983	2482.944710
787.661030	2475.660242
787.984031	2483.398413
788.306987	2483.448825
788.629897	2478.684935
788.952760	2477.298617
789.275579	2473.190077
789.598351	2472.055817
789.921078	2469.560446
790.243759	2470.341825
790.566395	2482.919504
790.888984	2475.987917
791.211529	2477.071765
791.534027	2476.920531
791.856480	2474.576394
792.178888	2468.123717
792.501249	2471.501290
792.823566	2466.107256
793.145836	2463.838737
793.468062	2466.258490
793.790241	2473.971456
794.112375	2480.096458
794.434464	2475.811477
794.756507	2470.896352
795.078505	2466.989458
795.400457	2474.248719
795.722364	2472.081023
796.044226	2472.081023
796.366042	2475.030098
796.687812	2473.013637
797.009538	2469.484829
797.331218	2485.918990
797.652852	2466.813017
797.974442	2470.190590
798.295986	2483.348002
798.617484	2482.717858
798.938938	2474.299131
799.260346	2480.222487
799.581709	2468.375775
799.903026	2478.785758
800.224299	2469.963738
800.545526	2476.819708
800.866708	2469.812504
801.187845	2473.366517
801.508936	2466.510548
801.829983	2472.534727
802.150984	2465.225054
802.471940	2482.415388
802.792851	2468.728656
803.113717	2479.138638
803.434538	2472.912813
803.755314	2474.727629
804.076045	2465.250260
804.396731	2471.677731
804.717372	2471.274438
805.037967	2475.609831
805.358518	2468.249746
805.679024	2478.004379
805.999485	2474.223513
806.319901	2475.156127
806.640272	2476.693679
806.960598	2468.501804
807.280879	2470.341825
807.601115	2475.887094
807.921306	2466.989458
808.241453	2465.804787
808.561554	2469.232771
808.881611	2463.914354
809.201623	2467.014663
809.521590	2470.997175
809.841513	2473.013637
810.161390	2473.694192
810.481223	2470.190590
810.801011	2472.635550
811.120755	2472.257463
811.440453	2462.729683
811.760107	2477.248206
812.079716	2476.189563
812.399281	2473.341312
812.718801	2473.467340
813.038276	2458.898406
813.357707	2480.398927
813.677093	2474.702423
813.996434	2466.712194
814.315731	2470.341825
814.634983	2470.114973
814.954191	2476.164358
815.273354	2469.661269
815.592473	2469.056331
815.911547	2476.920531
816.230577	2469.005919
816.549562	2475.559419
816.868502	2476.290387
817.187399	2465.603140
817.506250	2467.896865
817.825058	2475.231744
818.143821	2483.045533
818.462539	2478.987404
818.781213	2480.877837
819.099843	2467.191104
819.418429	2477.752321
819.736970	2481.104688
820.055466	2480.903042
820.373919	2488.313538
820.692327	2481.129894
821.010691	2483.877323
821.329011	2492.119610
821.647286	2513.216838
821.965517	2533.205013
822.283704	2545.858310
822.601847	2562.922615
822.919945	2551.781665
823.237999	2541.447300
823.556010	2527.584127
823.873976	2517.728671
824.191897	2508.049656
824.509775	2503.638646
824.827609	2484.331027
825.145398	2497.135558
825.463144	2494.110865
825.780845	2496.076915
826.098502	2496.555825
826.416116	2504.016733
826.733685	2500.992040
827.051210	2514.981242
827.368692	2510.570233
827.686129	2496.757471
828.003522	2496.883500
828.320872	2483.600060
828.638177	2482.037302
828.955439	2478.861375
829.272656	2484.230204
829.589830	2480.650985
829.906960	2476.290387
830.224046	2482.440594
830.541088	2472.837196
830.858086	2468.224540
831.175041	2479.315079
831.491952	2469.762092
831.808819	2482.541417
832.125642	2473.416929
832.442421	2476.920531
832.759157	2477.475058
833.075849	2482.289360
833.392497	2477.651498
833.709101	2492.069198
834.025662	2487.834629
834.342179	2493.657162
834.658653	2483.625265
834.975083	2482.163331
835.291469	2483.020327
835.607811	2477.878350
835.924110	2479.113433
836.240366	2478.004379
836.556578	2471.954994
836.872746	2470.014150
837.188871	2472.408698
837.504952	2468.148923
837.820990	2468.854685
838.136984	2474.702423
838.452935	2469.913327
838.768842	2474.702423
839.084706	2471.828965
839.400526	2481.507981
839.716303	2479.920017
840.032037	2480.449338
840.347727	2470.140179
840.663373	2476.290387
840.978977	2466.082050
841.294537	2476.139152
841.610054	2459.251287
841.925527	2468.224540
842.240957	2463.158181
842.556344	2476.063535
842.871687	2467.014663
843.186987	2465.855198
843.502244	2463.334621
843.817458	2467.266721
844.132629	2463.006946
844.447756	2471.551702
844.762840	2462.754888
845.077881	2466.258490
845.392879	2467.443162
845.707833	2470.114973
846.022745	2472.081023
846.337613	2469.157154
846.652438	2472.307875
846.967221	2469.157154
847.281960	2468.375775
847.596656	2468.300158
847.911309	2469.257977
848.225919	2467.695219
848.540485	2473.744604
848.855009	2467.115487
849.169490	2460.259517
849.483928	2462.578448
849.798323	2457.007973
850.112675	2471.350056
850.426984	2465.754375
850.741251	2471.576908
851.055474	2470.392237
851.369654	2467.443162
851.683792	2464.292440
851.997887	2461.872687
852.311938	2469.131948
852.625947	2471.324850
852.939914	2469.131948
853.253837	2469.257977
853.567718	2465.552729
853.881555	2465.527523
854.195350	2466.409725
854.509103	2465.754375
854.822812	2473.290900
855.136479	2470.341825
855.450103	2466.132462
855.763685	2470.341825
856.077224	2467.972483
856.390720	2467.317133
856.704173	2462.477625
857.017584	2467.947277
857.330953	2464.620115
857.644278	2467.039869
857.957561	2470.316619
858.270802	2468.224540
858.584000	2468.577421
858.897155	2464.116000
859.210268	2467.518779
859.523339	2475.181333
859.836367	2467.997688
860.149352	2464.846967
860.462295	2472.055817
860.775195	2465.502317
861.088054	2456.327417
861.400869	2466.535754
861.713642	2469.308388
862.026373	2466.636577
862.339062	2459.805813
862.651708	2468.274952
862.964312	2467.392750
863.276873	2473.517752
863.589392	2462.351596
863.901869	2464.242029
864.214303	2459.704990
864.526696	2472.156640
864.839045	2462.704477
865.151353	2470.442648
865.463619	2462.427213
865.775842	2474.047073
866.088023	2470.064562
866.400162	2465.779581
866.712258	2463.359827
867.024313	2462.351596
867.336325	2471.576908
867.648296	2473.013637
867.960224	2467.039869
868.272110	2461.166925
868.583954	2473.366517
868.895755	2469.888121
869.207515	2471.350056
869.519233	2475.635037
869.830909	2464.468881
870.142542	2466.082050
870.454134	2467.065075
870.765684	2461.872687
871.077191	2463.964765
871.388657	2466.762606
871.700081	2461.267748
872.011463	2458.469908
872.322803	2459.931842
872.634101	2470.064562
872.945357	2464.695733
873.256571	2473.618575
873.567744	2461.091308
873.878874	2473.694192
874.189963	2470.417442
874.501010	2470.493060
874.812015	2460.486369
875.122979	2465.048613
875.433900	2470.518265
875.744780	2464.141206
876.055618	2467.846454
876.366415	2462.805300
876.677169	2468.274952
876.987882	2466.409725
877.298554	2468.552215
877.609183	2471.501290
877.919771	2463.611885
878.230317	2460.990485
878.540822	2471.879377
878.851285	2462.754888
879.161707	2475.181333
879.472087	2468.980713
879.782425	2468.174129
880.092722	2481.986890
880.402977	2487.910246
880.713191	2489.346975
881.023363	2494.589775
881.333494	2497.362410
881.643583	2493.808396
881.953631	2497.059940
882.263637	2504.420025
882.573602	2493.732779
882.883526	2492.472490
883.193408	2487.809423
883.503248	2487.607777
883.813048	2486.271871
884.122806	2483.272385
884.432522	2477.374235
884.742197	2481.734833
885.051831	2480.751808
885.361424	2471.702937
885.670975	2467.443162
885.980485	2471.803760
886.289954	2477.248206
886.599382	2473.820221
886.908768	2460.587192
887.218113	2469.988944
887.527417	2470.871146
887.836680	2462.099538
888.145901	2465.956021
888.455082	2465.552729
888.764221	2463.158181
889.073319	2470.014150
889.382376	2457.940587
889.691392	2465.073819
890.000366	2469.333594
890.309300	2462.175156
890.618193	2478.533700
890.927044	2467.796042
891.235855	2476.769296
891.544625	2469.963738
891.853353	2464.065588
892.162041	2467.065075
892.470687	2463.132975
892.779293	2462.477625
893.087858	2468.703450
893.396381	2469.434417
893.704864	2469.081537
894.013306	2472.181846
894.321707	2480.020840
894.630068	2477.273412
894.938387	2485.288846
895.246665	2468.527010
895.554903	2476.366004
895.863100	2464.645321
896.171256	2471.022381
896.479371	2476.164358
896.787446	2472.358287
897.095480	2467.997688
897.403473	2468.400981
897.711425	2468.274952
898.019336	2469.182360
898.327207	2461.343365
898.635038	2467.291927
898.942827	2473.769810
899.250576	2468.476598
899.558284	2467.266721
899.865952	2472.761579
900.173579	2465.628346
900.481165	2465.275465
900.788711	2463.006946
901.096216	2467.644808
901.403681	2464.292440
901.711105	2460.688015
902.018489	2465.829992
902.325832	2464.872173
902.633135	2463.284210
902.940397	2471.450879
903.247619	2463.158181
903.554800	2476.013123
903.861941	2460.587192
904.169041	2477.626292
904.476101	2475.912300
904.783121	2480.222487
905.090100	2474.803246
905.397039	2475.382979
905.703938	2477.122177
906.010796	2478.911787
906.317614	2466.208079
906.624391	2467.191104
906.931129	2466.611371
907.237826	2473.064048
907.544483	2466.712194
907.851099	2464.620115
908.157675	2469.283183
908.464211	2462.704477
908.770707	2463.309415
909.077163	2465.401494
909.383578	2472.307875
909.689954	2457.738940
909.996289	2467.291927
910.302584	2468.627833
910.608839	2461.217337
910.915054	2465.426700
911.221229	2453.932869
911.527363	2478.810963
911.833458	2470.316619
912.139513	2465.199848
912.445527	2461.318160
912.751502	2469.787298
913.057436	2466.888635
913.363331	2467.846454
913.669186	2466.182873
913.975000	2467.140692
914.280775	2462.528037
914.586510	2464.947790
914.892205	2466.737400
915.197859	2471.097998
915.503475	2464.922585
915.809050	2482.364977
916.114585	2478.810963
916.420081	2479.012610
916.725536	2471.602113
917.030952	2481.054277
917.336328	2477.172588
917.641665	2481.659215
917.946961	2468.728656
918.252218	2475.912300
918.557435	2462.402008
918.862612	2472.711167
919.167750	2463.359827
919.472848	2471.198821
919.777906	2468.980713
920.082925	2466.006433
920.387904	2463.385033
920.692843	2464.519292
920.997743	2464.443675
921.302603	2473.921044
921.607423	2477.071765
921.912204	2470.316619
922.216946	2463.939560
922.521647	2468.098512
922.826310	2453.932869
923.130932	2463.586679
923.435516	2462.578448
923.740059	2467.720425
924.044564	2471.299644
924.349028	2470.190590
924.653454	2464.645321
924.957840	2466.334108
925.262186	2466.384519
925.566493	2459.226081
925.870761	2458.974023
926.174989	2458.091821
926.479178	2463.057358
926.783328	2467.014663
927.087438	2466.082050
927.391509	2468.123717
927.695541	2463.259004
927.999533	2462.049127
928.303486	2461.292954
928.607400	2469.787298
928.911275	2468.249746
929.215110	2465.225054
929.518906	2467.543985
929.822663	2465.930815
930.126381	2465.804787
930.430060	2462.780094
930.733699	2453.579988
931.037299	2456.856738
931.340861	2469.560446
931.644383	2465.956021
931.947866	2462.477625
932.251309	2459.251287
932.554714	2463.964765
932.858080	2462.931329
933.161407	2462.149950
933.464694	2454.310956
933.767943	2460.309929
934.071153	2460.662810
934.374323	2461.368571
934.677455	2463.057358
934.980548	2467.165898
935.283602	2457.285237
935.586617	2460.940073
935.889593	2450.454473
936.192530	2469.938533
936.495428	2461.545012
936.798287	2463.637090
937.101108	2462.880917
937.403890	2463.813531
937.706632	2463.435444
938.009336	2458.243056
938.312002	2458.444702
938.614628	2466.863429
938.917216	2463.989971
939.219765	2461.418983
939.522275	2461.040896
939.824747	2465.502317
940.127179	2462.023921
940.429573	2461.040896
940.731929	2459.100052
941.034246	2453.932869
941.336524	2471.299644
941.638763	2467.443162
941.940964	2468.905096
942.243126	2466.283696
942.545250	2463.385033
942.847335	2460.234312
943.149381	2467.644808
943.451389	2467.065075
943.753359	2470.215796
944.055290	2467.191104
944.357182	2470.770323
944.659036	2458.570731
944.960851	2460.259517
945.262628	2467.846454
945.564367	2465.577935
945.866067	2461.595423
946.167729	2460.360340
946.469352	2462.402008
946.770937	2458.369085
947.072484	2465.477112
947.373992	2463.914354
947.675462	2461.368571
947.976893	2464.191617
948.278286	2457.890175
948.579641	2456.201388
948.880958	2452.496140
949.182236	2455.016717
949.483476	2466.082050
949.784678	2455.848508
950.085841	2469.358800
950.386967	2467.140692
950.688054	2462.906123
950.989103	2458.646348
951.290114	2467.644808
951.591087	2464.796556
951.892021	2459.982254
952.192917	2460.183900
952.493776	2467.417956
952.794596	2466.308902
953.095378	2460.385546
953.396122	2474.904069
953.696828	2457.134002
953.997496	2461.040896
954.298126	2456.277006
954.598718	2455.016717
954.899272	2465.855198
955.199788	2461.771863
955.500266	2461.242542
955.800706	2459.730196
956.101108	2459.578962
956.401472	2453.554783
956.701798	2463.737913
957.002087	2464.368058
957.302337	2461.645835
957.602550	2467.871660
957.902724	2454.134515
958.202861	2461.620629
958.502960	2463.788325
958.803022	2464.267235
959.103045	2453.277519
959.403031	2467.922071
959.702979	2457.915381
960.002889	2470.291413
960.302762	2460.990485
960.602596	2462.200362
960.902393	2462.981740
961.202153	2457.260031
961.501875	2463.637090
961.801559	2463.662296
962.101205	2460.864456
962.400814	2461.923098
962.700385	2459.049640
962.999918	2460.662810
963.299414	2458.595937
963.598873	2456.251800
963.898293	2446.597990
964.197677	2459.326904
964.497022	2460.990485
964.796331	2466.409725
965.095601	2461.393777
965.394835	2462.099538
965.694030	2454.210133
965.993189	2463.410238
966.292309	2461.797069
966.591393	2459.402521
966.890439	2460.209106
967.189447	2457.864969
967.488419	2462.805300
967.787353	2460.536781
968.086249	2460.763633
968.385108	2457.688529
968.683930	2460.713221
968.982714	2469.409212
969.281462	2465.855198
969.580172	2461.343365
969.878844	2456.503858
970.177480	2464.645321
970.476078	2461.696246
970.774639	2460.108283
971.073162	2455.546038
971.371649	2453.882458
971.670098	2460.587192
971.968510	2457.360854
972.266885	2459.831019
972.565223	2458.822788
972.863524	2456.806327
973.161788	2454.184927
973.460014	2461.217337
973.758204	2462.704477
974.056356	2461.469394
974.354471	2463.334621
974.652550	2458.999229
974.950591	2459.402521
975.248595	2456.377829
975.546563	2458.696760
975.844493	2466.686988
976.142386	2457.587706
976.440243	2458.721965
976.738062	2461.292954
977.035845	2465.275465
977.333590	2465.653552
977.631299	2460.511575
977.928971	2462.200362
978.226606	2454.411779
978.524204	2457.058385
978.821765	2459.175669
979.119290	2464.821762
979.416777	2458.822788
979.714228	2459.024435
980.011642	2460.662810
980.309020	2464.821762
980.606360	2464.695733
980.903664	2456.554269
981.200931	2458.041410
981.498162	2456.806327
981.795356	2457.915381
982.092513	2454.991512
982.389633	2463.082563
982.686717	2457.965792
982.983764	2455.672067
983.280775	2461.595423
983.577749	2451.739967
983.874686	2469.787298
984.171587	2461.166925
984.468451	2462.603654
984.765279	2465.023408
985.062070	2458.646348
985.358824	2468.098512
985.655543	2461.418983
985.952224	2457.310442
986.248869	2455.747685
986.545478	2468.224540
986.842050	2455.041923
987.138586	2466.611371
987.435086	2456.277006
987.731549	2461.973510
988.027975	2463.737913
988.324366	2454.134515
988.620719	2457.184413
988.917037	2458.999229
989.213318	2467.695219
989.509563	2457.688529
989.805772	2457.486883
990.101944	2457.335648
990.398080	2460.688015
990.694180	2461.116513
990.990244	2452.697787
991.286271	2461.620629
991.582262	2459.629373
991.878217	2450.706531
992.174136	2463.939560
992.470019	2456.226594
992.765865	2454.941100
993.061676	2461.292954
993.357450	2453.227108
993.653188	2456.680298
993.948890	2460.435958
994.244556	2458.847994
994.540186	2466.939046
994.835780	2459.049640
995.131337	2459.125258
995.426859	2454.588219
995.722345	2456.403035
996.017795	2459.175669
996.313208	2452.823815
996.608586	2457.386060
996.903928	2461.519806
997.199234	2458.570731
997.494504	2463.712708
997.789738	2457.537294
998.084936	2460.007460
998.380099	2457.890175
998.675225	2467.241515
998.970316	2466.006433
999.265371	2456.806327
999.560390	2458.898406
999.855373	2461.721452
1000.150320	2460.461163
1000.445232	2456.251800
1000.740108	2455.924125
1001.034948	2452.445729
1001.329752	2456.075360
1001.624521	2460.965279
1001.919254	2449.496654
1002.213951	2466.913840
1002.508613	2466.989458
1002.803239	2455.949331
1003.097829	2464.695733
1003.392384	2451.739967
1003.686903	2466.132462
1003.981386	2464.897379
1004.275834	2463.309415
1004.570246	2456.428240
1004.864623	2465.855198
1005.158964	2454.159721
1005.453270	2460.940073
1005.747540	2456.579475
1006.041775	2459.654579
1006.335974	2466.535754
1006.630138	2459.402521
1006.924266	2456.982767
1007.218359	2452.975050
1007.512416	2460.889662
1007.806438	2449.521860
1008.100425	2447.530604
1008.394376	2452.798610
1008.688292	2451.109823
1008.982172	2455.167952
1009.276017	2456.100565
1009.569827	2454.487396
1009.863602	2463.082563
1010.157341	2464.166412
1010.451045	2452.924638
1010.744714	2455.772890
1011.038347	2452.949844
1011.331945	2461.897892
1011.625508	2457.940587
1011.919036	2464.947790
1012.212528	2461.444188
1012.505986	2462.351596
1012.799408	2452.874227
1013.092795	2457.411265
1013.386147	2463.611885
1013.679464	2459.578962
1013.972745	2458.797583
1014.265992	2463.511062
1014.559204	2459.226081
1014.852380	2463.183387
1015.145521	2458.797583
1015.438628	2453.958075
1015.731699	2456.377829
1016.024736	2451.815585
1016.317737	2452.521346
1016.610703	2459.931842
1016.903635	2458.923612
1017.196531	2454.638631
1017.489393	2454.310956
1017.782219	2450.857765
1018.075011	2458.873200
1018.367768	2454.941100
1018.660490	2464.065588
1018.953177	2464.065588
1019.245829	2464.065588
