Dividing Wavelength (nm)	Counts (n)	Slit_number_22_of_a_total_of_40	
326.493990	2021.250635
326.888308	2021.250635
327.282561	2021.250635
327.676750	2039.146731
328.070874	2036.626154
328.464933	2013.688904
328.858929	2021.250635
329.252859	2028.056192
329.646726	2079.980077
330.040528	2080.988308
330.434265	2075.695096
330.827938	2112.999635
331.221547	2127.114865
331.615091	2154.337096
332.008571	2191.641635
332.401986	2224.157077
332.795338	2212.814481
333.188625	2226.677654
333.581847	2253.647827
333.975006	2267.763058
334.368100	2309.352577
334.761129	2320.695173
335.154095	2308.092288
335.546996	2333.550115
335.939833	2355.227077
336.332606	2369.090250
336.725315	2363.797038
337.117960	2389.254865
337.510540	2386.230173
337.903056	2397.572769
338.295508	2380.180788
338.687896	2414.964750
339.080220	2405.386558
339.472480	2441.178750
339.864676	2442.691096
340.256807	2430.340269
340.648875	2450.000769
341.040879	2391.271327
341.432818	2410.679769
341.824694	2456.806327
342.216506	2436.137596
342.608253	2420.257962
342.999937	2429.332038
343.391557	2422.778538
343.783113	2442.439038
344.174605	2423.786769
344.566033	2420.005904
344.957397	2444.959615
345.348697	2441.934923
345.739934	2451.261058
346.131106	2436.389654
346.522215	2431.348500
346.913260	2444.959615
347.304241	2435.381423
347.695159	2429.079981
348.086012	2408.663308
348.476802	2429.836154
348.867528	2413.452404
349.258191	2420.005904
349.648789	2432.860846
350.039324	2420.257962
350.429796	2408.915365
350.820203	2419.753846
351.210548	2417.233269
351.600828	2388.246635
351.991045	2396.816596
352.381198	2426.811462
352.771288	2408.663308
353.161314	2416.981212
353.551276	2408.159192
353.941175	2401.605692
354.331010	2401.605692
354.720782	2409.671538
355.110490	2408.663308
355.500135	2403.874212
355.889717	2403.622154
356.279235	2434.121135
356.668689	2406.646846
357.058080	2425.803231
357.447408	2417.233269
357.836672	2408.915365
358.225873	2411.183885
358.615010	2390.767212
359.004084	2440.422577
359.393095	2415.720923
359.782043	2402.613923
360.170927	2409.671538
360.559748	2407.403019
360.948505	2414.208577
361.337199	2401.353635
361.725830	2393.035731
362.114398	2425.299115
362.502903	2432.860846
362.891344	2411.435942
363.279722	2442.943154
363.668037	2420.257962
364.056289	2401.353635
364.444478	2414.712692
364.832603	2425.551173
365.220665	2416.981212
365.608665	2439.414346
365.996601	2404.882442
366.384474	2402.361865
366.772284	2420.762077
367.160031	2438.658173
367.547715	2434.625250
367.935336	2398.076885
368.322893	2423.030596
368.710388	2418.241500
369.097820	2398.328942
369.485189	2413.704462
369.872495	2445.211673
370.259738	2426.559404
370.646918	2441.934923
371.034035	2436.137596
371.421090	2436.137596
371.808081	2458.066615
372.195010	2441.430808
372.581875	2411.688000
372.968678	2425.803231
373.355418	2438.658173
373.742096	2430.844385
374.128710	2409.671538
374.515262	2449.496654
374.901751	2406.142731
375.288177	2421.266192
375.674540	2432.860846
376.060841	2444.455500
376.447079	2446.471962
376.833254	2444.455500
377.219367	2424.542942
377.605417	2432.104673
377.991404	2421.518250
378.377329	2434.121135
378.763191	2433.869077
379.148991	2419.249731
379.534727	2410.175654
379.920402	2458.066615
380.306013	2432.860846
380.691563	2435.129365
381.077049	2433.112904
381.462474	2444.959615
381.847835	2434.121135
382.233134	2423.786769
382.618371	2431.348500
383.003545	2442.691096
383.388657	2468.653038
383.773706	2431.348500
384.158693	2450.504885
384.543618	2437.902000
384.928480	2444.455500
385.313280	2435.381423
385.698017	2449.244596
386.082692	2425.047058
386.467305	2443.195212
386.851856	2411.688000
387.236344	2451.765173
387.620770	2418.997673
388.005133	2469.409212
388.389435	2419.753846
388.773674	2418.241500
389.157851	2439.666404
389.541965	2412.948288
389.926018	2440.422577
390.310008	2427.819692
390.693936	2430.088212
391.077802	2450.504885
391.461606	2461.091308
391.845348	2441.934923
392.229027	2432.860846
392.612645	2441.682865
392.996200	2444.455500
393.379694	2451.009000
393.763125	2460.083077
394.146494	2432.608788
394.529801	2485.036788
394.913047	2456.806327
395.296230	2449.244596
395.679351	2446.976077
396.062410	2451.513115
396.445408	2478.483288
396.828343	2455.293981
397.211217	2470.921558
397.594028	2469.661269
397.976778	2449.244596
398.359466	2485.288846
398.742092	2475.458596
399.124656	2468.148923
399.507158	2492.346462
399.889598	2510.998731
400.271977	2495.119096
400.654294	2539.229192
401.036549	2529.398942
401.418742	2543.262115
401.800874	2593.169538
402.182944	2589.892788
402.564952	2618.123250
402.946898	2634.254942
403.328783	2665.510096
403.710606	2688.447346
404.092367	2715.417519
404.474067	2787.506019
404.855705	2796.328038
405.237282	2816.744712
405.618797	2880.263250
406.000250	2925.129519
406.381642	3020.155269
406.762972	3053.678942
407.144240	3068.802404
407.525447	3132.825058
407.906593	3179.455731
408.287677	3262.382712
408.668700	3320.355981
409.049661	3384.126577
409.430560	3419.162596
409.811399	3480.664673
410.192176	3555.525808
410.572891	3613.499077
410.953545	3716.590673
411.334138	3728.689442
411.714669	3856.986808
412.095139	3812.876712
412.475547	3913.951846
412.855894	3914.455962
413.236180	3983.519769
413.616405	4052.583577
413.996568	4152.398423
414.376670	4180.880942
414.756711	4191.467365
415.136691	4293.550731
415.516609	4339.425231
415.896466	4407.732865
416.276262	4522.167058
416.655997	4576.359462
417.035670	4638.365654
417.415283	4830.937731
417.794834	4914.116769
418.174324	4916.133231
418.553753	4966.040654
418.933121	5047.959404
419.312428	5024.518038
419.691674	5030.315365
420.070859	5104.672385
420.449983	5069.888423
420.829045	5179.533519
421.208047	5168.695038
421.586988	5257.167288
421.965867	5372.861769
422.344686	5358.746538
422.723444	5412.434827
423.102141	5226.416250
423.480777	5427.306231
423.859352	5322.198173
424.237866	5584.086115
424.616319	5487.043904
424.994712	5618.365962
425.373044	5569.718827
425.751314	5654.410212
426.129524	5471.668385
426.507673	5627.944154
426.885762	5535.186923
427.263789	5510.737327
427.641756	5471.668385
428.019662	5467.383404
428.397508	5421.508904
428.775292	5441.421462
429.153016	5378.911154
429.530679	5361.771231
429.908282	5256.159058
430.285824	5152.815404
430.663305	5244.312346
431.040726	5021.997462
431.418086	4977.383250
431.795385	4942.347231
432.172624	4951.421308
432.549802	4842.784442
432.926920	4757.588942
433.303977	4682.979865
433.680974	4684.492212
434.057910	4584.929423
434.434786	4529.980846
434.811601	4367.403635
435.188355	4442.516827
435.565050	4342.701981
435.941683	4192.223538
436.318257	4222.722519
436.694770	4162.984846
437.071222	4127.192654
437.447614	3960.582519
437.823946	3903.113365
438.200218	3808.339673
438.576429	3737.763519
438.952580	3668.951769
439.328670	3602.156481
439.704700	3543.427038
440.080670	3468.313846
440.456580	3418.910538
440.832429	3411.852923
441.208218	3259.862135
441.583947	3258.853904
441.959616	3189.033923
442.335224	3157.526712
442.710773	3128.288019
443.086261	3107.871346
443.461689	3025.448481
443.837057	2996.713904
444.212365	2941.765327
444.587612	2908.745769
444.962800	2880.263250
445.337927	2857.830115
445.712995	2792.799231
446.088002	2829.851712
446.462949	2818.257058
446.837837	2788.262192
447.212664	2760.787904
447.587431	2752.470000
447.962139	2731.045096
448.336786	2753.478231
448.711374	2749.697365
449.085901	2716.173692
449.460369	2678.112981
449.834776	2658.956596
450.209124	2637.027577
450.583412	2649.630462
450.957640	2659.208654
451.331808	2634.507000
451.705917	2587.120154
452.079965	2576.533731
452.453954	2609.553288
452.827883	2569.728173
453.201752	2572.500808
453.575562	2567.207596
453.949311	2559.897923
454.323001	2573.509038
454.696632	2549.563558
455.070202	2580.566654
455.443713	2557.881462
455.817164	2562.670558
456.190556	2536.960673
456.563888	2557.125288
456.937160	2530.407173
457.310373	2528.894827
457.683526	2506.713750
458.056619	2543.262115
458.429653	2508.478154
458.802628	2534.440096
459.175542	2542.001827
459.548398	2514.023423
459.921194	2507.469923
460.293930	2524.609846
460.666607	2527.886596
461.039224	2507.721981
461.411782	2528.138654
461.784280	2497.387615
462.156719	2521.333096
462.529099	2531.163346
462.901419	2512.006962
463.273680	2485.288846
463.645882	2494.362923
464.018024	2501.924654
464.390106	2508.730212
464.762130	2501.168481
465.134094	2520.072808
465.505999	2487.305308
465.877845	2525.113962
466.249631	2520.828981
466.621358	2519.820750
466.993026	2518.056346
467.364634	2508.226096
467.736184	2507.974038
468.107674	2499.656135
468.479105	2504.697288
468.850477	2517.804288
469.221790	2512.259019
469.593043	2481.255923
469.964238	2470.417442
470.335373	2498.395846
470.706449	2478.735346
471.077467	2501.420538
471.448425	2490.077942
471.819324	2519.568692
472.190164	2516.544000
472.560945	2505.705519
472.931667	2508.226096
473.302330	2504.949346
473.672934	2494.110865
474.043479	2499.152019
474.413965	2478.987404
474.784393	2495.119096
475.154761	2480.751808
475.525070	2481.255923
475.895321	2491.086173
476.265513	2479.491519
476.635645	2499.404077
477.005719	2503.184942
477.375734	2499.404077
477.745691	2471.929788
478.115588	2495.875269
478.485427	2479.491519
478.855207	2470.165385
479.224928	2493.102635
479.594591	2503.184942
479.964194	2474.198308
480.333739	2498.899962
480.703226	2510.998731
481.072653	2497.135558
481.442022	2486.297077
481.811333	2475.206538
482.180584	2491.842346
482.549777	2494.614981
482.918912	2496.379385
483.287988	2475.962712
483.657005	2518.812519
484.025964	2487.305308
484.394864	2502.680827
484.763706	2497.387615
485.132489	2500.412308
485.501213	2484.532673
485.869879	2509.234327
486.238487	2509.234327
486.607036	2500.664365
486.975527	2491.086173
487.343959	2498.143788
487.712333	2483.776500
488.080648	2471.677731
488.448905	2504.697288
488.817104	2478.987404
489.185244	2494.614981
489.553326	2482.264154
489.921350	2485.288846
490.289315	2525.870135
490.657222	2494.110865
491.025070	2497.891731
491.392861	2507.217865
491.760593	2514.023423
492.128267	2487.809423
492.495883	2485.792962
492.863440	2527.382481
493.230939	2515.535769
493.598380	2490.834115
493.965763	2495.119096
494.333088	2489.573827
494.700354	2500.916423
495.067563	2469.157154
495.434713	2507.469923
495.801805	2478.483288
496.168839	2478.483288
496.535815	2510.494615
496.902733	2497.135558
497.269593	2481.003865
497.636395	2512.259019
498.003139	2511.754904
498.369825	2494.867038
498.736453	2515.787827
499.103023	2467.644808
499.469535	2504.949346
499.835989	2484.532673
500.202385	2479.239462
500.568723	2473.442135
500.935003	2487.557365
501.301226	2493.858808
501.667390	2478.735346
502.033497	2489.825885
502.399546	2513.771365
502.765537	2502.428769
503.131470	2499.152019
503.497345	2490.077942
503.863163	2487.053250
504.228923	2493.606750
504.594625	2509.486385
504.960269	2517.048115
505.325856	2506.461692
505.691385	2512.763135
506.056856	2492.346462
506.422270	2508.226096
506.787625	2514.023423
507.152924	2517.804288
507.518164	2502.932885
507.883347	2488.817654
508.248472	2489.321769
508.613540	2507.721981
508.978550	2482.768269
509.343503	2489.825885
509.708398	2477.475058
510.073236	2516.796058
510.438016	2487.053250
510.802738	2504.445231
511.167403	2498.143788
511.532010	2510.998731
511.896561	2520.324865
512.261053	2496.883500
512.625488	2515.283712
512.989866	2489.069712
513.354186	2493.102635
513.718449	2519.316635
514.082655	2517.048115
514.446803	2500.664365
514.810894	2496.127327
515.174927	2528.390712
515.538904	2485.036788
515.902822	2503.437000
516.266684	2504.697288
516.630488	2504.193173
516.994235	2495.875269
517.357925	2508.478154
517.721558	2489.825885
518.085133	2515.283712
518.448651	2496.631442
518.812112	2506.209635
519.175516	2485.288846
519.538863	2477.475058
519.902152	2501.672596
520.265385	2489.069712
520.628560	2513.267250
520.991678	2484.280615
521.354739	2477.979173
521.717743	2506.461692
522.080690	2522.341327
522.443580	2498.395846
522.806413	2497.387615
523.169189	2506.713750
523.531908	2515.535769
523.894569	2494.110865
524.257174	2515.031654
524.619722	2497.387615
524.982213	2505.957577
525.344647	2484.532673
525.707025	2493.606750
526.069345	2495.623212
526.431608	2512.763135
526.793815	2482.516212
527.155964	2475.962712
527.518057	2498.899962
527.880093	2488.313538
528.242072	2499.656135
528.603995	2506.461692
528.965860	2498.143788
529.327669	2512.511077
529.689421	2512.763135
530.051117	2510.242558
530.412755	2481.507981
530.774337	2511.502846
531.135862	2503.437000
531.497331	2505.957577
531.858743	2494.614981
532.220098	2498.143788
532.581396	2500.412308
532.942638	2497.135558
533.303824	2513.267250
533.664953	2490.077942
534.026025	2535.448327
534.387040	2464.620115
534.747999	2495.875269
535.108902	2514.527538
535.469748	2505.705519
535.830537	2495.623212
536.191270	2515.031654
536.551947	2489.825885
536.912567	2496.127327
537.273131	2503.689058
537.633638	2477.475058
537.994089	2505.453462
538.354483	2482.012096
538.714821	2477.475058
539.075103	2514.779596
539.435328	2515.283712
539.795497	2487.557365
540.155609	2473.946250
540.515665	2486.801192
540.875665	2499.908192
541.235609	2486.801192
541.595496	2488.565596
541.955328	2520.576923
542.315102	2500.664365
542.674821	2493.102635
543.034483	2496.631442
543.394090	2487.053250
543.753640	2483.524442
544.113134	2506.461692
544.472571	2510.242558
544.831953	2492.850577
545.191278	2519.820750
545.550548	2504.697288
545.909761	2504.697288
546.268918	2486.801192
546.628019	2505.957577
546.987064	2513.267250
547.346053	2482.264154
547.704986	2517.552231
548.063863	2482.264154
548.422684	2491.590288
548.781449	2515.283712
549.140158	2494.110865
549.498811	2470.921558
549.857408	2489.825885
550.215949	2502.176712
550.574434	2498.395846
550.932864	2493.606750
551.291237	2478.735346
551.649555	2497.387615
552.007817	2502.176712
552.366022	2508.982269
552.724173	2489.069712
553.082267	2509.234327
553.440305	2504.445231
553.798288	2526.374250
554.156215	2503.184942
554.514086	2472.433904
554.871902	2481.760038
555.229661	2496.379385
555.587365	2484.280615
555.945014	2502.680827
556.302606	2530.911288
556.660143	2525.870135
557.017625	2481.003865
557.375050	2511.502846
557.732421	2497.135558
558.089735	2506.965808
558.446994	2507.217865
558.804197	2482.012096
559.161345	2508.730212
559.518437	2488.817654
559.875474	2496.379385
560.232455	2491.338231
560.589381	2499.656135
560.946251	2494.867038
561.303065	2503.941115
561.659825	2493.858808
562.016528	2513.015192
562.373177	2505.201404
562.729770	2502.680827
563.086307	2510.242558
563.442789	2490.077942
563.799216	2498.143788
564.155587	2495.119096
564.511904	2492.094404
564.868164	2523.601615
565.224370	2504.193173
565.580520	2489.825885
565.936615	2490.582058
566.292654	2511.754904
566.648638	2484.784731
567.004567	2512.259019
567.360441	2479.491519
567.716260	2487.557365
568.072023	2491.590288
568.427732	2503.184942
568.783385	2496.883500
569.138982	2496.379385
569.494525	2496.631442
569.850013	2502.428769
570.205445	2485.540904
570.560823	2514.779596
570.916145	2489.069712
571.271412	2510.998731
571.626625	2485.792962
571.981782	2482.264154
572.336884	2477.727115
572.691931	2494.110865
573.046923	2520.072808
573.401860	2502.680827
573.756743	2509.234327
574.111570	2489.321769
574.466342	2489.825885
574.821059	2510.494615
575.175722	2483.272385
575.530330	2508.226096
575.884882	2481.255923
576.239380	2462.603654
576.593823	2493.102635
576.948211	2494.110865
577.302544	2526.626308
577.656823	2479.239462
578.011047	2509.234327
578.365216	2493.858808
578.719330	2509.234327
579.073389	2473.442135
579.427394	2486.045019
579.781344	2482.516212
580.135239	2509.486385
580.489080	2474.450365
580.842866	2491.842346
581.196597	2508.226096
581.550273	2496.379385
581.903895	2498.899962
582.257463	2481.003865
582.610975	2486.549135
582.964434	2493.858808
583.317837	2490.077942
583.671186	2499.908192
584.024481	2501.420538
584.377721	2491.842346
584.730906	2501.672596
585.084037	2492.346462
585.437113	2502.176712
585.790135	2462.603654
586.143103	2498.395846
586.496016	2516.291942
586.848874	2509.486385
587.201679	2486.045019
587.554428	2501.924654
587.907124	2504.193173
588.259765	2475.206538
588.612352	2504.697288
588.964884	2512.259019
589.317362	2509.234327
589.669786	2498.899962
590.022155	2471.677731
590.374470	2486.045019
590.726731	2472.685962
591.078937	2472.181846
591.431090	2477.979173
591.783188	2500.412308
592.135232	2516.291942
592.487222	2482.012096
592.839157	2462.099538
593.191038	2457.814558
593.542866	2497.135558
593.894639	2480.751808
594.246358	2510.998731
594.598022	2498.899962
594.949633	2484.028558
595.301190	2457.814558
595.652692	2484.028558
596.004141	2496.631442
596.355535	2494.110865
596.706876	2512.006962
597.058162	2467.392750
597.409395	2476.970942
597.760573	2489.573827
598.111698	2473.190077
598.462768	2483.776500
598.813785	2517.552231
599.164748	2501.420538
599.515657	2467.644808
599.866511	2458.822788
600.217312	2489.825885
600.568060	2493.354692
600.918753	2480.751808
601.269392	2474.198308
601.619978	2526.626308
601.970510	2462.855712
602.320988	2486.549135
602.671412	2487.557365
603.021783	2489.069712
603.372100	2487.053250
603.722363	2475.710654
604.072572	2479.239462
604.422728	2521.837212
604.772830	2501.924654
605.122878	2516.544000
605.472872	2488.565596
605.822813	2501.168481
606.172701	2504.697288
606.522534	2485.540904
606.872314	2487.809423
607.222041	2464.116000
607.571714	2464.872173
607.921333	2470.669500
608.270899	2461.595423
608.620411	2502.680827
608.969870	2477.223000
609.319276	2481.255923
609.668627	2506.209635
610.017926	2506.713750
610.367171	2522.341327
610.716362	2489.825885
611.065500	2464.620115
611.414585	2505.201404
611.763616	2504.193173
612.112594	2487.809423
612.461518	2483.272385
612.810389	2509.486385
613.159207	2463.611885
613.507971	2461.847481
613.856682	2481.507981
614.205340	2463.107769
614.553945	2484.028558
614.902496	2490.582058
615.250994	2483.272385
615.599439	2486.297077
615.947830	2492.850577
616.296169	2491.842346
616.644454	2465.124231
616.992686	2492.850577
617.340864	2509.990500
617.688990	2490.077942
618.037063	2457.310442
618.385082	2488.061481
618.733048	2464.368058
619.080961	2517.048115
619.428821	2505.705519
619.776628	2495.875269
620.124382	2489.069712
620.472083	2494.110865
620.819731	2482.768269
621.167326	2500.664365
621.514868	2489.573827
621.862357	2495.875269
622.209793	2456.554269
622.557176	2480.751808
622.904506	2490.330000
623.251783	2477.979173
623.599007	2488.061481
623.946179	2493.354692
624.293297	2488.313538
624.640363	2477.727115
624.987376	2476.718885
625.334336	2459.326904
625.681243	2481.003865
626.028097	2485.036788
626.374899	2495.371154
626.721647	2474.450365
627.068343	2473.694192
627.414987	2459.831019
627.761577	2479.995635
628.108115	2474.702423
628.454600	2497.891731
628.801032	2462.603654
629.147412	2471.677731
629.493739	2480.751808
629.840014	2498.647904
630.186236	2505.201404
630.532405	2494.867038
630.878521	2482.012096
631.224585	2471.929788
631.570597	2494.362923
631.916556	2487.053250
632.262462	2465.376288
632.608316	2468.148923
632.954117	2477.475058
633.299866	2488.061481
633.645562	2489.069712
633.991206	2459.831019
634.336797	2497.387615
634.682336	2477.979173
635.027823	2468.400981
635.373257	2533.179808
635.718639	2484.784731
636.063968	2488.061481
636.409245	2518.812519
636.754470	2484.784731
637.099642	2484.280615
637.444762	2499.152019
637.789829	2471.929788
638.134845	2495.371154
638.479808	2472.685962
638.824719	2483.776500
639.169577	2474.198308
639.514383	2509.486385
639.859137	2500.412308
640.203839	2462.099538
640.548489	2452.017231
640.893086	2463.107769
641.237632	2476.466827
641.582125	2492.346462
641.926566	2468.400981
642.270955	2473.190077
642.615292	2488.817654
642.959576	2495.371154
643.303809	2467.896865
643.647990	2482.768269
643.992118	2456.302212
644.336195	2512.006962
644.680219	2491.590288
645.024192	2473.694192
645.368112	2487.557365
645.711981	2459.074846
646.055797	2463.863942
646.399562	2463.359827
646.743274	2480.247692
647.086935	2448.992538
647.430544	2490.330000
647.774101	2461.091308
648.117606	2481.760038
648.461059	2508.982269
648.804460	2491.590288
649.147810	2470.669500
649.491108	2498.143788
649.834354	2473.442135
650.177548	2475.206538
650.520690	2472.433904
650.863781	2490.582058
651.206820	2479.239462
651.549807	2465.880404
651.892742	2472.938019
652.235626	2475.962712
652.578458	2468.400981
652.921238	2474.954481
653.263967	2483.020327
653.606644	2486.045019
653.949269	2452.017231
654.291843	2460.083077
654.634365	2460.839250
654.976836	2493.102635
655.319255	2492.346462
655.661622	2480.751808
656.003938	2495.371154
656.346203	2499.656135
656.688416	2456.050154
657.030577	2480.499750
657.372687	2485.792962
657.714746	2470.165385
658.056753	2483.776500
658.398708	2472.685962
658.740612	2486.297077
659.082465	2468.148923
659.424266	2468.148923
659.766016	2486.549135
660.107715	2447.984308
660.449362	2481.255923
660.790958	2464.620115
661.132503	2471.677731
661.473996	2485.540904
661.815438	2509.234327
662.156829	2461.091308
662.498168	2486.045019
662.839456	2471.677731
663.180693	2447.228135
663.521879	2475.458596
663.863013	2488.061481
664.204097	2493.354692
664.545129	2469.913327
664.886110	2466.888635
665.227040	2459.578962
665.567918	2477.475058
665.908746	2483.776500
666.249522	2473.694192
666.590248	2482.768269
666.930922	2453.529577
667.271545	2465.880404
667.612118	2456.554269
667.952639	2458.066615
668.293109	2487.053250
668.633528	2480.751808
668.973896	2486.549135
669.314213	2470.417442
669.654480	2465.124231
669.994695	2474.198308
670.334859	2490.582058
670.674973	2502.680827
671.015035	2470.165385
671.355047	2503.184942
671.695008	2485.036788
672.034918	2507.469923
672.374777	2450.504885
672.714585	2486.297077
673.054342	2477.223000
673.394049	2476.970942
673.733705	2498.899962
674.073310	2496.127327
674.412864	2494.362923
674.752368	2487.557365
675.091820	2467.140692
675.431223	2482.768269
675.770574	2488.313538
676.109875	2479.743577
676.449125	2485.036788
676.788324	2457.058385
677.127473	2456.050154
677.466571	2452.269288
677.805619	2465.628346
678.144616	2504.193173
678.483562	2464.116000
678.822458	2472.685962
679.161303	2479.743577
679.500098	2462.603654
679.838842	2507.721981
680.177535	2512.763135
680.516179	2485.792962
680.854771	2481.003865
681.193314	2463.107769
681.531805	2481.003865
681.870247	2489.069712
682.208638	2479.491519
682.546978	2481.507981
682.885268	2466.636577
683.223508	2493.606750
683.561697	2464.116000
683.899836	2480.499750
684.237925	2509.486385
684.575963	2459.074846
684.913951	2466.132462
685.251889	2480.751808
685.589776	2473.946250
685.927614	2478.483288
686.265401	2497.387615
686.603137	2479.491519
686.940824	2480.247692
687.278460	2471.929788
687.616046	2492.094404
687.953582	2492.346462
688.291068	2492.850577
688.628504	2465.880404
688.965889	2455.798096
689.303224	2477.727115
689.640510	2481.507981
689.977745	2474.702423
690.314930	2474.450365
690.652065	2487.809423
690.989150	2460.335135
691.326185	2443.699327
691.663170	2468.905096
692.000105	2477.727115
692.336990	2473.946250
692.673825	2468.148923
693.010610	2481.003865
693.347345	2486.045019
693.684030	2474.702423
694.020665	2460.083077
694.357251	2451.261058
694.693786	2446.219904
695.030272	2466.636577
695.366707	2476.214769
695.703093	2467.392750
696.039429	2472.181846
696.375716	2475.962712
696.711952	2491.338231
697.048139	2505.957577
697.384276	2456.302212
697.720363	2466.888635
698.056400	2491.590288
698.392388	2472.938019
698.728326	2484.784731
699.064214	2478.987404
699.400053	2440.674635
699.735842	2464.620115
700.071581	2476.466827
700.407270	2470.417442
700.742910	2476.214769
701.078501	2443.447269
701.414042	2473.442135
701.749533	2461.091308
702.084974	2478.987404
702.420366	2469.661269
702.755709	2482.012096
703.091002	2467.140692
703.426246	2462.099538
703.761440	2438.154058
704.096584	2471.929788
704.431679	2474.702423
704.766725	2457.058385
705.101721	2452.773404
705.436668	2472.433904
705.771565	2452.521346
706.106413	2482.516212
706.441212	2463.611885
706.775961	2478.231231
707.110661	2454.033692
707.445311	2441.430808
707.779913	2496.883500
708.114465	2474.702423
708.448967	2475.962712
708.783421	2478.231231
709.117825	2478.231231
709.452180	2467.392750
709.786485	2475.458596
710.120742	2500.160250
710.454949	2481.507981
710.789107	2493.858808
711.123216	2468.653038
711.457275	2456.806327
711.791286	2482.768269
712.125247	2502.680827
712.459159	2481.255923
712.793023	2490.077942
713.126837	2475.206538
713.460602	2514.023423
713.794318	2469.409212
714.127985	2481.255923
714.461602	2466.384519
714.795171	2447.480192
715.128691	2446.976077
715.462162	2465.628346
715.795584	2444.203442
716.128957	2475.206538
716.462281	2467.644808
716.795556	2464.116000
717.128782	2440.674635
717.461960	2473.946250
717.795088	2459.074846
718.128167	2468.400981
718.461198	2442.186981
718.794180	2486.297077
719.127113	2477.727115
719.459997	2471.425673
719.792833	2481.507981
720.125619	2469.409212
720.458357	2464.872173
720.791046	2451.513115
721.123686	2455.041923
721.456278	2465.124231
721.788821	2482.012096
722.121315	2479.491519
722.453761	2485.288846
722.786158	2483.524442
723.118506	2503.184942
723.450805	2444.455500
723.783056	2466.132462
724.115259	2452.773404
724.447412	2470.921558
724.779518	2473.442135
725.111574	2475.206538
725.443582	2478.735346
725.775542	2450.504885
726.107453	2449.496654
726.439315	2453.781635
726.771129	2485.792962
727.102895	2456.806327
727.434612	2462.351596
727.766281	2473.190077
728.097901	2484.532673
728.429473	2466.384519
728.760996	2476.970942
729.092471	2469.409212
729.423897	2476.466827
729.755276	2492.850577
730.086606	2446.976077
730.417887	2479.743577
730.749120	2486.297077
731.080305	2467.392750
731.411442	2469.661269
731.742530	2477.475058
732.073570	2460.335135
732.404562	2481.003865
732.735506	2450.756942
733.066401	2448.740481
733.397249	2475.206538
733.728048	2471.425673
734.058798	2470.669500
734.389501	2497.135558
734.720156	2478.231231
735.050762	2485.792962
735.381320	2472.685962
735.711831	2454.537808
736.042293	2465.376288
736.372707	2480.751808
736.703073	2458.570731
737.033391	2483.524442
737.363661	2448.236365
737.693883	2466.384519
738.024056	2469.157154
738.354182	2462.855712
738.684260	2471.677731
739.014290	2490.077942
739.344272	2469.157154
739.674207	2475.458596
740.004093	2467.644808
740.333931	2469.661269
740.663722	2468.400981
740.993464	2470.669500
741.323159	2477.475058
741.652806	2441.178750
741.982405	2467.392750
742.311956	2492.346462
742.641460	2477.475058
742.970915	2474.702423
743.300323	2479.491519
743.629683	2479.239462
743.958996	2484.784731
744.288260	2482.264154
744.617477	2485.540904
744.946647	2481.507981
745.275768	2463.863942
745.604842	2490.834115
745.933869	2485.540904
746.262847	2484.532673
746.591778	2494.614981
746.920662	2472.938019
747.249498	2467.392750
747.578286	2447.480192
747.907027	2467.140692
748.235720	2467.644808
748.564365	2477.979173
748.892963	2473.190077
749.221514	2477.979173
749.550017	2468.400981
749.878473	2481.255923
750.206881	2473.946250
750.535242	2469.409212
750.863555	2499.152019
751.191821	2440.422577
751.520039	2459.326904
751.848210	2457.814558
752.176334	2481.003865
752.504411	2457.814558
752.832440	2461.343365
753.160421	2454.033692
753.488356	2475.710654
753.816243	2458.822788
754.144082	2443.951385
754.471875	2457.562500
754.799620	2451.261058
755.127318	2459.326904
755.454969	2479.491519
755.782572	2460.839250
756.110129	2475.206538
756.437638	2437.145827
756.765100	2476.214769
757.092515	2470.669500
757.419882	2460.587192
757.747203	2482.768269
758.074477	2460.335135
758.401703	2450.252827
758.728882	2455.041923
759.056014	2458.066615
759.383099	2466.888635
759.710138	2456.554269
760.037129	2492.850577
760.364073	2466.888635
760.690970	2467.392750
761.017820	2463.107769
761.344623	2471.677731
761.671379	2470.165385
761.998088	2471.173615
762.324751	2463.863942
762.651366	2484.028558
762.977935	2472.685962
763.304456	2486.549135
763.630931	2469.157154
763.957359	2495.623212
764.283740	2487.305308
764.610074	2483.524442
764.936362	2485.288846
765.262602	2479.995635
765.588796	2458.822788
765.914943	2458.066615
766.241044	2497.135558
766.567097	2490.834115
766.893104	2472.685962
767.219064	2454.033692
767.544978	2482.768269
767.870845	2455.798096
768.196665	2467.644808
768.522438	2460.335135
768.848165	2457.310442
769.173846	2465.628346
769.499479	2479.995635
769.825066	2454.285750
770.150607	2466.132462
770.476101	2470.669500
770.801548	2462.855712
771.126949	2480.499750
771.452303	2457.814558
771.777611	2488.565596
772.102872	2449.244596
772.428087	2437.145827
772.753256	2488.817654
773.078378	2475.206538
773.403453	2462.099538
773.728482	2441.178750
774.053465	2481.255923
774.378401	2489.069712
774.703291	2464.116000
775.028135	2462.351596
775.352932	2474.702423
775.677683	2475.962712
776.002388	2470.165385
776.327046	2460.587192
776.651658	2477.223000
776.976224	2451.009000
777.300743	2472.181846
777.625216	2455.293981
777.949643	2461.595423
778.274024	2462.855712
778.598359	2434.625250
778.922647	2457.562500
779.246889	2440.926692
779.571086	2457.058385
779.895236	2474.954481
780.219339	2459.831019
780.543397	2481.507981
780.867409	2460.335135
781.191374	2453.529577
781.515294	2482.516212
781.839167	2493.606750
782.162995	2468.400981
782.486776	2467.392750
782.810511	2450.756942
783.134201	2486.045019
783.457844	2477.727115
783.781441	2498.143788
784.104993	2455.546038
784.428498	2501.924654
784.751958	2458.822788
785.075372	2457.562500
785.398739	2465.376288
785.722061	2456.554269
786.045337	2456.554269
786.368568	2469.913327
786.691752	2446.219904
787.014891	2471.425673
787.337983	2454.285750
787.661030	2461.343365
787.984031	2463.611885
788.306987	2428.575865
788.629897	2468.653038
788.952760	2466.636577
789.275579	2496.631442
789.598351	2453.025462
789.921078	2482.768269
790.243759	2448.488423
790.566395	2441.682865
790.888984	2469.661269
791.211529	2481.003865
791.534027	2451.009000
791.856480	2459.074846
792.178888	2450.000769
792.501249	2470.417442
792.823566	2485.036788
793.145836	2483.272385
793.468062	2454.033692
793.790241	2488.061481
794.112375	2475.458596
794.434464	2471.173615
794.756507	2461.091308
795.078505	2452.773404
795.400457	2480.751808
795.722364	2465.376288
796.044226	2465.628346
796.366042	2468.653038
796.687812	2472.685962
797.009538	2459.074846
797.331218	2455.293981
797.652852	2463.359827
797.974442	2463.611885
798.295986	2471.929788
798.617484	2461.343365
798.938938	2474.702423
799.260346	2434.625250
799.581709	2473.442135
799.903026	2469.409212
800.224299	2470.165385
800.545526	2443.699327
800.866708	2466.636577
801.187845	2496.631442
801.508936	2468.653038
801.829983	2474.450365
802.150984	2462.099538
802.471940	2453.025462
802.792851	2447.228135
803.113717	2460.335135
803.434538	2469.661269
803.755314	2478.987404
804.076045	2472.685962
804.396731	2468.400981
804.717372	2448.236365
805.037967	2455.041923
805.358518	2469.157154
805.679024	2468.148923
805.999485	2458.570731
806.319901	2443.951385
806.640272	2489.825885
806.960598	2463.863942
807.280879	2478.987404
807.601115	2456.050154
807.921306	2466.384519
808.241453	2448.236365
808.561554	2465.880404
808.881611	2466.384519
809.201623	2467.896865
809.521590	2457.562500
809.841513	2435.885538
810.161390	2482.516212
810.481223	2477.727115
810.801011	2457.058385
811.120755	2475.458596
811.440453	2479.995635
811.760107	2474.702423
812.079716	2457.562500
812.399281	2473.442135
812.718801	2448.236365
813.038276	2458.066615
813.357707	2464.116000
813.677093	2443.951385
813.996434	2463.863942
814.315731	2453.781635
814.634983	2451.009000
814.954191	2478.231231
815.273354	2477.223000
815.592473	2446.219904
815.911547	2465.124231
816.230577	2446.976077
816.549562	2470.921558
816.868502	2466.888635
817.187399	2489.825885
817.506250	2465.124231
817.825058	2467.644808
818.143821	2461.091308
818.462539	2467.896865
818.781213	2470.165385
819.099843	2462.351596
819.418429	2475.710654
819.736970	2454.789865
820.055466	2470.165385
820.373919	2462.855712
820.692327	2471.929788
821.010691	2499.656135
821.329011	2472.433904
821.647286	2507.469923
821.965517	2478.483288
822.283704	2505.201404
822.601847	2505.705519
822.919945	2535.196269
823.237999	2489.321769
823.556010	2477.727115
823.873976	2475.458596
824.191897	2493.858808
824.509775	2453.781635
824.827609	2479.491519
825.145398	2468.148923
825.463144	2485.036788
825.780845	2478.231231
826.098502	2466.384519
826.416116	2479.491519
826.733685	2513.771365
827.051210	2485.036788
827.368692	2470.921558
827.686129	2474.198308
828.003522	2475.458596
828.320872	2459.578962
828.638177	2484.028558
828.955439	2456.050154
829.272656	2491.842346
829.589830	2465.880404
829.906960	2472.938019
830.224046	2464.872173
830.541088	2496.631442
830.858086	2475.458596
831.175041	2478.735346
831.491952	2473.946250
831.808819	2458.066615
832.125642	2455.041923
832.442421	2457.058385
832.759157	2462.351596
833.075849	2449.244596
833.392497	2456.554269
833.709101	2474.450365
834.025662	2469.157154
834.342179	2490.330000
834.658653	2452.773404
834.975083	2476.718885
835.291469	2453.781635
835.607811	2464.872173
835.924110	2477.979173
836.240366	2471.677731
836.556578	2460.083077
836.872746	2451.261058
837.188871	2445.715788
837.504952	2432.356731
837.820990	2461.595423
838.136984	2462.855712
838.452935	2491.842346
838.768842	2452.269288
839.084706	2456.050154
839.400526	2475.962712
839.716303	2472.433904
840.032037	2462.855712
840.347727	2477.223000
840.663373	2465.628346
840.978977	2454.789865
841.294537	2476.718885
841.610054	2458.570731
841.925527	2464.116000
842.240957	2466.384519
842.556344	2445.967846
842.871687	2458.822788
843.186987	2476.466827
843.502244	2472.938019
843.817458	2457.058385
844.132629	2453.277519
844.447756	2460.587192
844.762840	2455.798096
845.077881	2455.041923
845.392879	2440.926692
845.707833	2451.765173
846.022745	2435.129365
846.337613	2471.425673
846.652438	2446.976077
846.967221	2442.691096
847.281960	2467.896865
847.596656	2454.285750
847.911309	2479.239462
848.225919	2436.893769
848.540485	2452.017231
848.855009	2453.277519
849.169490	2438.154058
849.483928	2469.157154
849.798323	2474.954481
850.112675	2464.620115
850.426984	2478.987404
850.741251	2478.483288
851.055474	2461.595423
851.369654	2464.368058
851.683792	2469.409212
851.997887	2448.236365
852.311938	2475.206538
852.625947	2466.636577
852.939914	2469.913327
853.253837	2457.310442
853.567718	2453.781635
853.881555	2429.836154
854.195350	2453.529577
854.509103	2459.326904
854.822812	2472.938019
855.136479	2463.863942
855.450103	2458.318673
855.763685	2425.551173
856.077224	2464.368058
856.390720	2465.628346
856.704173	2469.157154
857.017584	2452.773404
857.330953	2449.748712
857.644278	2458.066615
857.957561	2481.760038
858.270802	2462.099538
858.584000	2465.124231
858.897155	2458.822788
859.210268	2461.847481
859.523339	2470.921558
859.836367	2445.967846
860.149352	2478.987404
860.462295	2457.814558
860.775195	2483.020327
861.088054	2461.847481
861.400869	2428.323808
861.713642	2481.003865
862.026373	2476.970942
862.339062	2459.074846
862.651708	2496.883500
862.964312	2445.463731
863.276873	2477.979173
863.589392	2480.499750
863.901869	2463.107769
864.214303	2490.582058
864.526696	2446.471962
864.839045	2433.617019
865.151353	2441.682865
865.463619	2481.760038
865.775842	2445.715788
866.088023	2445.715788
866.400162	2462.855712
866.712258	2431.600558
867.024313	2475.206538
867.336325	2452.017231
867.648296	2459.326904
867.960224	2459.578962
868.272110	2468.905096
868.583954	2484.280615
868.895755	2473.694192
869.207515	2450.000769
869.519233	2446.724019
869.830909	2476.970942
870.142542	2460.839250
870.454134	2465.880404
870.765684	2470.165385
871.077191	2454.537808
871.388657	2452.269288
871.700081	2467.392750
872.011463	2443.447269
872.322803	2448.488423
872.634101	2473.190077
872.945357	2478.735346
873.256571	2450.252827
873.567744	2489.321769
873.878874	2472.938019
874.189963	2459.326904
874.501010	2452.017231
874.812015	2429.836154
875.122979	2467.896865
875.433900	2443.195212
875.744780	2467.140692
876.055618	2453.277519
876.366415	2459.326904
876.677169	2465.376288
876.987882	2451.765173
877.298554	2474.702423
877.609183	2457.310442
877.919771	2460.839250
878.230317	2456.554269
878.540822	2485.036788
878.851285	2447.480192
879.161707	2482.516212
879.472087	2469.913327
879.782425	2450.504885
880.092722	2459.326904
880.402977	2476.718885
880.713191	2463.359827
881.023363	2466.132462
881.333494	2507.469923
881.643583	2465.880404
881.953631	2465.124231
882.263637	2471.425673
882.573602	2492.850577
882.883526	2470.165385
883.193408	2488.313538
883.503248	2443.195212
883.813048	2473.694192
884.122806	2471.425673
884.432522	2461.091308
884.742197	2471.173615
885.051831	2471.677731
885.361424	2446.976077
885.670975	2469.913327
885.980485	2449.748712
886.289954	2429.332038
886.599382	2455.041923
886.908768	2488.313538
887.218113	2426.559404
887.527417	2461.847481
887.836680	2441.178750
888.145901	2453.529577
888.455082	2436.893769
888.764221	2482.264154
889.073319	2445.715788
889.382376	2465.880404
889.691392	2472.181846
890.000366	2482.516212
890.309300	2443.699327
890.618193	2475.710654
890.927044	2447.732250
891.235855	2480.499750
891.544625	2470.165385
891.853353	2463.359827
892.162041	2488.313538
892.470687	2478.483288
892.779293	2452.269288
893.087858	2456.554269
893.396381	2478.987404
893.704864	2470.921558
894.013306	2452.773404
894.321707	2478.987404
894.630068	2450.756942
894.938387	2464.872173
895.246665	2483.020327
895.554903	2469.409212
895.863100	2443.195212
896.171256	2458.318673
896.479371	2463.107769
896.787446	2465.124231
897.095480	2458.066615
897.403473	2475.710654
897.711425	2464.620115
898.019336	2467.644808
898.327207	2446.471962
898.635038	2465.124231
898.942827	2437.145827
899.250576	2451.765173
899.558284	2446.976077
899.865952	2492.850577
900.173579	2474.702423
900.481165	2480.247692
900.788711	2431.096442
901.096216	2453.529577
901.403681	2461.091308
901.711105	2463.611885
902.018489	2441.430808
902.325832	2461.595423
902.633135	2457.058385
902.940397	2488.313538
903.247619	2429.584096
903.554800	2493.606750
903.861941	2452.269288
904.169041	2481.255923
904.476101	2454.537808
904.783121	2477.727115
905.090100	2446.976077
905.397039	2486.297077
905.703938	2464.872173
906.010796	2474.954481
906.317614	2467.140692
906.624391	2487.053250
906.931129	2465.880404
907.237826	2470.669500
907.544483	2445.211673
907.851099	2489.825885
908.157675	2468.653038
908.464211	2454.285750
908.770707	2467.644808
909.077163	2427.315577
909.383578	2454.033692
909.689954	2444.959615
909.996289	2488.061481
910.302584	2482.012096
910.608839	2457.814558
910.915054	2461.847481
911.221229	2492.598519
911.527363	2425.047058
911.833458	2460.587192
912.139513	2429.836154
912.445527	2455.293981
912.751502	2443.195212
913.057436	2460.083077
913.363331	2456.554269
913.669186	2472.181846
913.975000	2473.190077
914.280775	2450.000769
914.586510	2447.228135
914.892205	2460.083077
915.197859	2451.009000
915.503475	2469.157154
915.809050	2505.453462
916.114585	2447.228135
916.420081	2468.653038
916.725536	2469.409212
917.030952	2458.822788
917.336328	2454.285750
917.641665	2472.685962
917.946961	2455.546038
918.252218	2431.852615
918.557435	2427.567635
918.862612	2468.905096
919.167750	2448.992538
919.472848	2470.417442
919.777906	2465.628346
920.082925	2458.822788
920.387904	2480.499750
920.692843	2452.017231
920.997743	2453.025462
921.302603	2473.946250
921.607423	2455.546038
921.912204	2475.710654
922.216946	2468.905096
922.521647	2479.239462
922.826310	2478.483288
923.130932	2451.513115
923.435516	2453.781635
923.740059	2463.107769
924.044564	2479.491519
924.349028	2444.203442
924.653454	2462.855712
924.957840	2447.228135
925.262186	2453.781635
925.566493	2452.773404
925.870761	2458.066615
926.174989	2452.521346
926.479178	2471.929788
926.783328	2462.351596
927.087438	2443.951385
927.391509	2481.760038
927.695541	2441.178750
927.999533	2474.198308
928.303486	2457.562500
928.607400	2461.595423
928.911275	2454.537808
929.215110	2466.636577
929.518906	2448.236365
929.822663	2472.433904
930.126381	2453.277519
930.430060	2433.617019
930.733699	2458.822788
931.037299	2478.735346
931.340861	2428.071750
931.644383	2457.058385
931.947866	2452.017231
932.251309	2460.587192
932.554714	2469.409212
932.858080	2463.359827
933.161407	2442.943154
933.464694	2459.326904
933.767943	2457.562500
934.071153	2474.450365
934.374323	2456.554269
934.677455	2460.587192
934.980548	2437.397885
935.283602	2445.211673
935.586617	2449.496654
935.889593	2445.463731
936.192530	2469.913327
936.495428	2467.392750
936.798287	2469.913327
937.101108	2457.058385
937.403890	2462.603654
937.706632	2477.979173
938.009336	2465.124231
938.312002	2465.376288
938.614628	2467.140692
938.917216	2469.409212
939.219765	2489.573827
939.522275	2473.946250
939.824747	2484.784731
940.127179	2473.694192
940.429573	2477.475058
940.731929	2463.863942
941.034246	2449.748712
941.336524	2446.976077
941.638763	2481.003865
941.940964	2453.277519
942.243126	2474.198308
942.545250	2451.513115
942.847335	2453.025462
943.149381	2490.582058
943.451389	2451.261058
943.753359	2445.715788
944.055290	2442.691096
944.357182	2434.877308
944.659036	2473.190077
944.960851	2489.069712
945.262628	2483.524442
945.564367	2458.822788
945.866067	2457.562500
946.167729	2477.979173
946.469352	2447.228135
946.770937	2446.219904
947.072484	2451.513115
947.373992	2463.359827
947.675462	2439.666404
947.976893	2455.798096
948.278286	2461.595423
948.579641	2461.595423
948.880958	2464.116000
949.182236	2422.526481
949.483476	2437.649942
949.784678	2469.913327
950.085841	2449.244596
950.386967	2441.682865
950.688054	2409.671538
950.989103	2478.987404
951.290114	2451.765173
951.591087	2440.926692
951.892021	2469.409212
952.192917	2427.063519
952.493776	2436.641712
952.794596	2432.356731
953.095378	2470.165385
953.396122	2439.162288
953.696828	2463.359827
953.997496	2479.743577
954.298126	2461.595423
954.598718	2447.732250
954.899272	2455.293981
955.199788	2479.491519
955.500266	2446.724019
955.800706	2467.392750
956.101108	2456.806327
956.401472	2461.847481
956.701798	2452.017231
957.002087	2451.009000
957.302337	2444.707558
957.602550	2462.099538
957.902724	2460.083077
958.202861	2463.107769
958.502960	2440.926692
958.803022	2444.455500
959.103045	2464.368058
959.403031	2458.318673
959.702979	2455.293981
960.002889	2439.414346
960.302762	2458.822788
960.602596	2440.926692
960.902393	2461.847481
961.202153	2438.910231
961.501875	2455.798096
961.801559	2445.211673
962.101205	2465.124231
962.400814	2473.190077
962.700385	2456.554269
962.999918	2429.836154
963.299414	2428.071750
963.598873	2429.584096
963.898293	2452.017231
964.197677	2441.934923
964.497022	2445.463731
964.796331	2450.252827
965.095601	2458.066615
965.394835	2448.992538
965.694030	2462.351596
965.993189	2465.376288
966.292309	2433.617019
966.591393	2486.045019
966.890439	2451.009000
967.189447	2481.003865
967.488419	2449.244596
967.787353	2460.839250
968.086249	2444.707558
968.385108	2452.521346
968.683930	2442.439038
968.982714	2442.691096
969.281462	2481.507981
969.580172	2441.934923
969.878844	2454.285750
970.177480	2470.921558
970.476078	2461.091308
970.774639	2476.466827
971.073162	2450.756942
971.371649	2451.765173
971.670098	2453.025462
971.968510	2478.735346
972.266885	2477.223000
972.565223	2462.855712
972.863524	2454.285750
973.161788	2465.628346
973.460014	2458.318673
973.758204	2473.190077
974.056356	2479.239462
974.354471	2446.724019
974.652550	2478.735346
974.950591	2446.724019
975.248595	2477.979173
975.546563	2456.050154
975.844493	2463.863942
976.142386	2446.976077
976.440243	2447.480192
976.738062	2475.206538
977.035845	2450.000769
977.333590	2464.116000
977.631299	2444.959615
977.928971	2470.417442
978.226606	2450.252827
978.524204	2439.666404
978.821765	2473.442135
979.119290	2449.748712
979.416777	2445.211673
979.714228	2450.504885
980.011642	2435.381423
980.309020	2442.691096
980.606360	2476.718885
980.903664	2462.099538
981.200931	2448.488423
981.498162	2470.417442
981.795356	2449.496654
982.092513	2466.636577
982.389633	2474.198308
982.686717	2454.789865
982.983764	2446.976077
983.280775	2489.573827
983.577749	2468.148923
983.874686	2465.628346
984.171587	2459.578962
984.468451	2441.178750
984.765279	2439.162288
985.062070	2467.392750
985.358824	2436.893769
985.655543	2453.529577
985.952224	2474.198308
986.248869	2452.269288
986.545478	2449.748712
986.842050	2478.735346
987.138586	2480.751808
987.435086	2461.091308
987.731549	2485.540904
988.027975	2456.302212
988.324366	2459.074846
988.620719	2452.521346
988.917037	2475.458596
989.213318	2458.318673
989.509563	2475.710654
989.805772	2464.368058
990.101944	2494.614981
990.398080	2458.570731
990.694180	2468.400981
990.990244	2448.236365
991.286271	2464.872173
991.582262	2438.658173
991.878217	2455.293981
992.174136	2457.814558
992.470019	2443.195212
992.765865	2418.997673
993.061676	2438.154058
993.357450	2461.595423
993.653188	2447.732250
993.948890	2418.493558
994.244556	2470.417442
994.540186	2448.236365
994.835780	2444.959615
995.131337	2430.592327
995.426859	2457.058385
995.722345	2462.855712
996.017795	2443.951385
996.313208	2451.009000
996.608586	2457.058385
996.903928	2450.504885
997.199234	2433.869077
997.494504	2460.083077
997.789738	2463.863942
998.084936	2441.934923
998.380099	2436.893769
998.675225	2460.587192
998.970316	2466.132462
999.265371	2468.148923
999.560390	2466.132462
999.855373	2464.368058
1000.150320	2454.537808
1000.445232	2472.685962
1000.740108	2437.649942
1001.034948	2451.009000
1001.329752	2464.368058
1001.624521	2462.099538
1001.919254	2444.203442
1002.213951	2456.806327
1002.508613	2468.400981
1002.803239	2447.480192
1003.097829	2472.938019
1003.392384	2469.661269
1003.686903	2452.017231
1003.981386	2459.074846
1004.275834	2446.219904
1004.570246	2458.066615
1004.864623	2452.521346
1005.158964	2441.178750
1005.453270	2485.288846
1005.747540	2465.124231
1006.041775	2474.198308
1006.335974	2461.343365
1006.630138	2462.603654
1006.924266	2440.422577
1007.218359	2467.140692
1007.512416	2444.455500
1007.806438	2487.557365
1008.100425	2454.285750
1008.394376	2433.112904
1008.688292	2488.313538
1008.982172	2449.244596
1009.276017	2460.839250
1009.569827	2467.644808
1009.863602	2473.946250
1010.157341	2444.455500
1010.451045	2463.359827
1010.744714	2463.359827
1011.038347	2462.099538
1011.331945	2458.066615
1011.625508	2456.554269
1011.919036	2467.644808
1012.212528	2427.819692
1012.505986	2473.442135
1012.799408	2457.310442
1013.092795	2458.066615
1013.386147	2450.000769
1013.679464	2466.384519
1013.972745	2454.537808
1014.265992	2468.400981
1014.559204	2446.219904
1014.852380	2446.219904
1015.145521	2428.575865
1015.438628	2451.009000
1015.731699	2472.181846
1016.024736	2451.513115
1016.317737	2465.628346
1016.610703	2464.872173
1016.903635	2474.954481
1017.196531	2472.685962
1017.489393	2461.595423
1017.782219	2440.170519
1018.075011	2483.524442
1018.367768	2471.677731
1018.660490	2483.272385
1018.953177	2483.272385
1019.245829	2483.272385
