Dividing Wavelength (nm)	Counts (n)	Slit_number_24_of_a_total_of_40	
326.493990	2036.122038
326.888308	2036.122038
327.282561	2036.122038
327.676750	1998.313385
328.070874	2014.697135
328.464933	2034.609692
328.858929	2017.973885
329.252859	2048.220808
329.646726	2058.555173
330.040528	2069.645712
330.434265	2096.615885
330.827938	2134.676596
331.221547	2119.049019
331.615091	2158.874135
332.008571	2169.964673
332.401986	2213.822712
332.795338	2216.343288
333.188625	2231.466750
333.581847	2265.746596
333.975006	2284.146808
334.368100	2297.253808
334.761129	2315.149904
335.154095	2339.095385
335.546996	2312.377269
335.939833	2350.690038
336.332606	2359.764115
336.725315	2403.874212
337.117960	2379.928731
337.510540	2410.175654
337.903056	2402.361865
338.295508	2409.419481
338.687896	2411.940058
339.080220	2426.811462
339.472480	2429.836154
339.864676	2435.381423
340.256807	2429.079981
340.648875	2457.562500
341.040879	2424.290885
341.432818	2443.951385
341.824694	2440.926692
342.216506	2427.819692
342.608253	2428.575865
342.999937	2405.890673
343.391557	2458.570731
343.783113	2425.803231
344.174605	2441.934923
344.566033	2417.485327
344.957397	2411.183885
345.348697	2451.261058
345.739934	2443.951385
346.131106	2450.504885
346.522215	2427.315577
346.913260	2409.419481
347.304241	2421.014135
347.695159	2427.063519
348.086012	2402.361865
348.476802	2430.088212
348.867528	2421.518250
349.258191	2406.142731
349.648789	2403.622154
350.039324	2411.940058
350.429796	2399.085115
350.820203	2421.770308
351.210548	2427.567635
351.600828	2422.022365
351.991045	2416.729154
352.381198	2395.304250
352.771288	2408.411250
353.161314	2404.882442
353.551276	2406.646846
353.941175	2401.353635
354.331010	2404.378327
354.720782	2420.762077
355.110490	2408.411250
355.500135	2403.874212
355.889717	2395.304250
356.279235	2421.014135
356.668689	2412.192115
357.058080	2397.068654
357.447408	2420.257962
357.836672	2409.923596
358.225873	2401.353635
358.615010	2406.142731
359.004084	2374.887577
359.393095	2415.216808
359.782043	2388.498692
360.170927	2413.452404
360.559748	2411.183885
360.948505	2430.340269
361.337199	2425.803231
361.725830	2420.005904
362.114398	2409.923596
362.502903	2420.762077
362.891344	2424.795000
363.279722	2417.233269
363.668037	2426.307346
364.056289	2438.910231
364.444478	2408.411250
364.832603	2426.811462
365.220665	2434.121135
365.608665	2407.907135
365.996601	2420.005904
366.384474	2444.707558
366.772284	2408.411250
367.160031	2416.729154
367.547715	2411.435942
367.935336	2405.386558
368.322893	2436.893769
368.710388	2404.882442
369.097820	2448.488423
369.485189	2414.208577
369.872495	2423.030596
370.259738	2417.485327
370.646918	2433.112904
371.034035	2422.778538
371.421090	2424.542942
371.808081	2437.145827
372.195010	2436.893769
372.581875	2414.712692
372.968678	2432.608788
373.355418	2447.984308
373.742096	2431.096442
374.128710	2415.216808
374.515262	2443.195212
374.901751	2411.183885
375.288177	2415.720923
375.674540	2434.121135
376.060841	2426.307346
376.447079	2415.216808
376.833254	2431.852615
377.219367	2430.340269
377.605417	2430.088212
377.991404	2429.332038
378.377329	2440.926692
378.763191	2415.468865
379.148991	2444.707558
379.534727	2397.320712
379.920402	2467.644808
380.306013	2415.720923
380.691563	2441.430808
381.077049	2422.526481
381.462474	2415.720923
381.847835	2412.696231
382.233134	2410.931827
382.618371	2419.501788
383.003545	2437.145827
383.388657	2417.485327
383.773706	2420.762077
384.158693	2466.132462
384.543618	2457.562500
384.928480	2425.299115
385.313280	2462.855712
385.698017	2438.406115
386.082692	2464.872173
386.467305	2418.241500
386.851856	2443.951385
387.236344	2456.050154
387.620770	2414.460635
388.005133	2456.302212
388.389435	2457.310442
388.773674	2465.376288
389.157851	2431.600558
389.541965	2459.831019
389.926018	2481.255923
390.310008	2491.338231
390.693936	2471.173615
391.077802	2480.499750
391.461606	2507.217865
391.845348	2532.675692
392.229027	2579.810481
392.612645	2565.695250
392.996200	2570.736404
393.379694	2598.714808
393.763125	2597.958635
394.146494	2645.093423
394.529801	2670.551250
394.913047	2715.921635
395.296230	2728.272462
395.679351	2785.489558
396.062410	2850.520442
396.445408	2844.471058
396.828343	2926.137750
397.211217	2913.786923
397.594028	2949.579115
397.976778	2994.445385
398.359466	3050.150135
398.742092	3068.802404
399.124656	3120.222173
399.507158	3149.460865
399.889598	3219.532904
400.271977	3254.064808
400.654294	3289.857000
401.036549	3348.334385
401.418742	3365.726365
401.800874	3428.740788
402.182944	3477.892038
402.564952	3543.679096
402.946898	3561.827250
403.328783	3606.441462
403.710606	3665.927077
404.092367	3741.040269
404.474067	3806.071154
404.855705	3796.745019
405.237282	3863.036192
405.618797	3939.409673
406.000250	4014.018750
406.381642	4117.362404
406.762972	4148.113442
407.144240	4086.107250
407.525447	4158.195750
407.906593	4162.984846
408.287677	4189.702962
408.668700	4258.514712
409.049661	4286.745173
409.430560	4286.241058
409.811399	4292.794558
410.192176	4357.321327
410.572891	4310.186538
410.953545	4398.910846
411.334138	4335.896423
411.714669	4434.703038
412.095139	4286.241058
412.475547	4383.031212
412.855894	4309.178308
413.236180	4355.808981
413.616405	4293.046615
413.996568	4294.811019
414.376670	4260.279115
414.756711	4196.004404
415.136691	4248.180346
415.516609	4206.842885
415.896466	4150.886077
416.276262	4216.673135
416.655997	4142.064058
417.035670	4116.102115
417.415283	4225.747212
417.794834	4161.220442
418.174324	4113.581538
418.553753	4031.914846
418.933121	4033.679250
419.312428	3954.029019
419.691674	3858.751212
420.070859	3875.639077
420.449983	3798.257365
420.829045	3812.876712
421.208047	3675.505269
421.586988	3701.215154
421.965867	3639.965135
422.344686	3587.033019
422.723444	3557.794327
423.102141	3420.674942
423.480777	3457.475365
423.859352	3378.581308
424.237866	3377.321019
424.616319	3337.495904
424.994712	3288.596712
425.373044	3266.163577
425.751314	3233.396077
426.129524	3109.383692
426.507673	3142.151192
426.885762	3062.248904
427.263789	3037.799308
427.641756	3000.746827
428.019662	2980.582212
428.397508	2928.658327
428.775292	2915.803385
429.153016	2887.068808
429.530679	2836.153154
429.908282	2813.720019
430.285824	2787.758077
430.663305	2740.623288
431.040726	2723.987481
431.418086	2690.463808
431.795385	2678.365038
432.172624	2702.814635
432.549802	2672.819769
432.926920	2625.937038
433.303977	2631.734365
433.680974	2615.602673
434.057910	2606.024481
434.434786	2569.224058
434.811601	2582.079000
435.188355	2569.224058
435.565050	2568.972000
435.941683	2551.580019
436.318257	2527.634538
436.694770	2524.357788
437.071222	2524.861904
437.447614	2525.870135
437.823946	2529.903058
438.200218	2507.721981
438.576429	2521.585154
438.952580	2520.828981
439.328670	2513.015192
439.704700	2505.453462
440.080670	2511.250788
440.456580	2520.072808
440.832429	2483.272385
441.208218	2463.611885
441.583947	2496.883500
441.959616	2492.094404
442.335224	2510.242558
442.710773	2495.371154
443.086261	2479.491519
443.461689	2493.354692
443.837057	2513.771365
444.212365	2482.012096
444.587612	2495.623212
444.962800	2489.069712
445.337927	2479.743577
445.712995	2484.532673
446.088002	2464.620115
446.462949	2478.231231
446.837837	2468.905096
447.212664	2473.694192
447.587431	2481.507981
447.962139	2469.157154
448.336786	2518.560462
448.711374	2475.710654
449.085901	2463.107769
449.460369	2483.020327
449.834776	2488.313538
450.209124	2472.433904
450.583412	2468.400981
450.957640	2473.190077
451.331808	2486.801192
451.705917	2486.045019
452.079965	2480.499750
452.453954	2478.231231
452.827883	2480.499750
453.201752	2457.562500
453.575562	2489.069712
453.949311	2491.842346
454.323001	2479.995635
454.696632	2448.992538
455.070202	2485.288846
455.443713	2488.313538
455.817164	2465.880404
456.190556	2472.433904
456.563888	2456.554269
456.937160	2462.351596
457.310373	2482.264154
457.683526	2478.987404
458.056619	2486.297077
458.429653	2460.335135
458.802628	2483.272385
459.175542	2475.206538
459.548398	2472.433904
459.921194	2454.033692
460.293930	2486.045019
460.666607	2474.702423
461.039224	2478.231231
461.411782	2464.368058
461.784280	2475.962712
462.156719	2466.384519
462.529099	2463.863942
462.901419	2460.839250
463.273680	2466.132462
463.645882	2468.400981
464.018024	2477.475058
464.390106	2486.045019
464.762130	2491.338231
465.134094	2482.768269
465.505999	2493.102635
465.877845	2485.540904
466.249631	2493.606750
466.621358	2514.779596
466.993026	2484.532673
467.364634	2483.776500
467.736184	2483.272385
468.107674	2485.792962
468.479105	2464.368058
468.850477	2468.905096
469.221790	2479.239462
469.593043	2513.519308
469.964238	2507.721981
470.335373	2478.987404
470.706449	2474.702423
471.077467	2476.214769
471.448425	2478.987404
471.819324	2493.354692
472.190164	2472.685962
472.560945	2496.127327
472.931667	2471.425673
473.302330	2470.417442
473.672934	2483.272385
474.043479	2473.946250
474.413965	2479.995635
474.784393	2479.743577
475.154761	2487.305308
475.525070	2508.730212
475.895321	2501.672596
476.265513	2514.275481
476.635645	2493.606750
477.005719	2477.475058
477.375734	2466.636577
477.745691	2500.160250
478.115588	2465.628346
478.485427	2477.475058
478.855207	2480.751808
479.224928	2475.458596
479.594591	2467.140692
479.964194	2498.395846
480.333739	2484.280615
480.703226	2504.949346
481.072653	2470.921558
481.442022	2481.003865
481.811333	2513.267250
482.180584	2474.198308
482.549777	2451.009000
482.918912	2506.461692
483.287988	2489.573827
483.657005	2486.801192
484.025964	2500.160250
484.394864	2487.557365
484.763706	2500.916423
485.132489	2459.074846
485.501213	2489.573827
485.869879	2514.527538
486.238487	2462.351596
486.607036	2475.458596
486.975527	2478.987404
487.343959	2483.524442
487.712333	2474.954481
488.080648	2498.899962
488.448905	2492.598519
488.817104	2519.568692
489.185244	2474.954481
489.553326	2451.765173
489.921350	2521.837212
490.289315	2474.450365
490.657222	2500.160250
491.025070	2490.582058
491.392861	2494.110865
491.760593	2521.585154
492.128267	2519.820750
492.495883	2503.437000
492.863440	2488.313538
493.230939	2482.516212
493.598380	2502.932885
493.965763	2506.965808
494.333088	2489.573827
494.700354	2489.825885
495.067563	2473.442135
495.434713	2482.768269
495.801805	2494.362923
496.168839	2481.003865
496.535815	2496.883500
496.902733	2521.837212
497.269593	2454.285750
497.636395	2516.544000
498.003139	2487.557365
498.369825	2493.858808
498.736453	2474.702423
499.103023	2504.949346
499.469535	2514.023423
499.835989	2491.086173
500.202385	2477.223000
500.568723	2478.483288
500.935003	2502.932885
501.301226	2477.727115
501.667390	2486.801192
502.033497	2523.097500
502.399546	2502.428769
502.765537	2490.330000
503.131470	2512.763135
503.497345	2483.524442
503.863163	2502.428769
504.228923	2507.974038
504.594625	2467.140692
504.960269	2495.623212
505.325856	2500.412308
505.691385	2485.792962
506.056856	2499.404077
506.422270	2509.738442
506.787625	2501.924654
507.152924	2491.590288
507.518164	2501.924654
507.883347	2475.458596
508.248472	2472.181846
508.613540	2491.590288
508.978550	2504.193173
509.343503	2509.990500
509.708398	2506.713750
510.073236	2522.593385
510.438016	2498.395846
510.802738	2500.412308
511.167403	2507.217865
511.532010	2463.863942
511.896561	2481.255923
512.261053	2466.384519
512.625488	2509.234327
512.989866	2495.119096
513.354186	2502.932885
513.718449	2506.461692
514.082655	2499.152019
514.446803	2504.193173
514.810894	2488.817654
515.174927	2498.647904
515.538904	2507.721981
515.902822	2479.491519
516.266684	2499.656135
516.630488	2483.524442
516.994235	2491.842346
517.357925	2482.264154
517.721558	2490.330000
518.085133	2502.176712
518.448651	2496.379385
518.812112	2496.127327
519.175516	2504.697288
519.538863	2476.466827
519.902152	2493.354692
520.265385	2495.371154
520.628560	2504.445231
520.991678	2477.979173
521.354739	2489.069712
521.717743	2479.995635
522.080690	2476.718885
522.443580	2515.283712
522.806413	2477.727115
523.169189	2507.469923
523.531908	2486.801192
523.894569	2499.656135
524.257174	2506.965808
524.619722	2498.899962
524.982213	2518.308404
525.344647	2520.828981
525.707025	2515.283712
526.069345	2478.987404
526.431608	2523.601615
526.793815	2494.110865
527.155964	2464.116000
527.518057	2500.160250
527.880093	2495.119096
528.242072	2495.119096
528.603995	2479.491519
528.965860	2500.664365
529.327669	2490.077942
529.689421	2487.053250
530.051117	2516.796058
530.412755	2490.834115
530.774337	2474.954481
531.135862	2521.081038
531.497331	2481.507981
531.858743	2508.226096
532.220098	2489.825885
532.581396	2495.875269
532.942638	2505.957577
533.303824	2478.987404
533.664953	2529.903058
534.026025	2497.891731
534.387040	2506.209635
534.747999	2485.792962
535.108902	2478.987404
535.469748	2497.639673
535.830537	2471.677731
536.191270	2501.168481
536.551947	2486.297077
536.912567	2504.445231
537.273131	2479.239462
537.633638	2499.404077
537.994089	2471.173615
538.354483	2484.532673
538.714821	2488.817654
539.075103	2494.614981
539.435328	2473.442135
539.795497	2487.305308
540.155609	2503.941115
540.515665	2513.267250
540.875665	2497.135558
541.235609	2514.779596
541.595496	2479.995635
541.955328	2498.899962
542.315102	2499.908192
542.674821	2485.036788
543.034483	2506.713750
543.394090	2492.850577
543.753640	2488.817654
544.113134	2467.140692
544.472571	2498.143788
544.831953	2513.519308
545.191278	2497.639673
545.550548	2482.768269
545.909761	2484.784731
546.268918	2510.242558
546.628019	2494.867038
546.987064	2476.466827
547.346053	2497.891731
547.704986	2507.469923
548.063863	2473.442135
548.422684	2500.412308
548.781449	2512.763135
549.140158	2502.176712
549.498811	2481.255923
549.857408	2491.590288
550.215949	2479.995635
550.574434	2489.321769
550.932864	2499.656135
551.291237	2487.809423
551.649555	2480.499750
552.007817	2463.863942
552.366022	2516.796058
552.724173	2480.247692
553.082267	2496.631442
553.440305	2501.168481
553.798288	2457.058385
554.156215	2487.305308
554.514086	2467.140692
554.871902	2476.970942
555.229661	2491.086173
555.587365	2485.288846
555.945014	2488.817654
556.302606	2496.379385
556.660143	2455.293981
557.017625	2488.313538
557.375050	2485.288846
557.732421	2476.718885
558.089735	2516.544000
558.446994	2510.494615
558.804197	2481.255923
559.161345	2475.962712
559.518437	2469.409212
559.875474	2467.644808
560.232455	2466.384519
560.589381	2470.921558
560.946251	2489.321769
561.303065	2494.867038
561.659825	2490.834115
562.016528	2498.143788
562.373177	2489.573827
562.729770	2500.664365
563.086307	2495.623212
563.442789	2486.297077
563.799216	2497.639673
564.155587	2471.929788
564.511904	2483.020327
564.868164	2505.453462
565.224370	2475.206538
565.580520	2490.077942
565.936615	2495.875269
566.292654	2487.305308
566.648638	2498.395846
567.004567	2480.499750
567.360441	2463.863942
567.716260	2477.223000
568.072023	2477.727115
568.427732	2475.710654
568.783385	2491.842346
569.138982	2482.516212
569.494525	2474.954481
569.850013	2486.045019
570.205445	2516.291942
570.560823	2474.954481
570.916145	2474.702423
571.271412	2503.184942
571.626625	2488.313538
571.981782	2489.825885
572.336884	2491.086173
572.691931	2475.962712
573.046923	2488.565596
573.401860	2488.313538
573.756743	2499.908192
574.111570	2482.768269
574.466342	2496.631442
574.821059	2492.598519
575.175722	2460.335135
575.530330	2492.850577
575.884882	2515.283712
576.239380	2493.606750
576.593823	2495.875269
576.948211	2469.913327
577.302544	2494.110865
577.656823	2471.425673
578.011047	2493.354692
578.365216	2496.883500
578.719330	2508.730212
579.073389	2450.000769
579.427394	2499.656135
579.781344	2474.198308
580.135239	2491.842346
580.489080	2514.779596
580.842866	2481.507981
581.196597	2487.053250
581.550273	2472.433904
581.903895	2488.565596
582.257463	2486.549135
582.610975	2459.326904
582.964434	2481.003865
583.317837	2479.491519
583.671186	2492.850577
584.024481	2471.173615
584.377721	2492.850577
584.730906	2501.420538
585.084037	2484.784731
585.437113	2476.970942
585.790135	2478.987404
586.143103	2479.491519
586.496016	2518.560462
586.848874	2475.206538
587.201679	2465.376288
587.554428	2493.102635
587.907124	2482.768269
588.259765	2475.206538
588.612352	2488.565596
588.964884	2456.806327
589.317362	2488.817654
589.669786	2494.362923
590.022155	2482.264154
590.374470	2453.025462
590.726731	2461.091308
591.078937	2452.017231
591.431090	2471.929788
591.783188	2472.938019
592.135232	2479.995635
592.487222	2472.181846
592.839157	2501.420538
593.191038	2467.392750
593.542866	2498.143788
593.894639	2494.110865
594.246358	2484.028558
594.598022	2476.970942
594.949633	2457.562500
595.301190	2450.252827
595.652692	2476.718885
596.004141	2492.598519
596.355535	2503.941115
596.706876	2477.979173
597.058162	2459.578962
597.409395	2470.921558
597.760573	2468.400981
598.111698	2498.899962
598.462768	2465.124231
598.813785	2476.214769
599.164748	2469.409212
599.515657	2480.499750
599.866511	2469.913327
600.217312	2500.664365
600.568060	2474.954481
600.918753	2480.751808
601.269392	2502.680827
601.619978	2485.540904
601.970510	2484.280615
602.320988	2476.718885
602.671412	2464.368058
603.021783	2496.883500
603.372100	2501.168481
603.722363	2479.995635
604.072572	2489.069712
604.422728	2495.623212
604.772830	2512.763135
605.122878	2489.573827
605.472872	2503.941115
605.822813	2453.529577
606.172701	2490.077942
606.522534	2508.226096
606.872314	2497.639673
607.222041	2462.855712
607.571714	2505.201404
607.921333	2475.206538
608.270899	2489.321769
608.620411	2473.442135
608.969870	2469.157154
609.319276	2489.321769
609.668627	2494.362923
610.017926	2459.831019
610.367171	2481.760038
610.716362	2496.883500
611.065500	2511.754904
611.414585	2473.694192
611.763616	2499.656135
612.112594	2473.694192
612.461518	2454.033692
612.810389	2476.214769
613.159207	2494.614981
613.507971	2466.888635
613.856682	2496.883500
614.205340	2501.672596
614.553945	2474.450365
614.902496	2460.083077
615.250994	2476.214769
615.599439	2504.697288
615.947830	2459.326904
616.296169	2498.899962
616.644454	2504.949346
616.992686	2475.206538
617.340864	2463.863942
617.688990	2501.168481
618.037063	2490.834115
618.385082	2491.842346
618.733048	2468.148923
619.080961	2481.255923
619.428821	2496.631442
619.776628	2454.789865
620.124382	2502.428769
620.472083	2475.458596
620.819731	2487.053250
621.167326	2504.697288
621.514868	2462.603654
621.862357	2473.694192
622.209793	2456.050154
622.557176	2475.710654
622.904506	2469.913327
623.251783	2466.636577
623.599007	2493.102635
623.946179	2472.685962
624.293297	2489.069712
624.640363	2483.020327
624.987376	2478.987404
625.334336	2475.962712
625.681243	2472.181846
626.028097	2457.310442
626.374899	2491.086173
626.721647	2484.280615
627.068343	2473.946250
627.414987	2464.368058
627.761577	2480.247692
628.108115	2481.255923
628.454600	2482.768269
628.801032	2477.979173
629.147412	2510.746673
629.493739	2495.623212
629.840014	2480.499750
630.186236	2483.272385
630.532405	2475.962712
630.878521	2468.653038
631.224585	2462.351596
631.570597	2475.962712
631.916556	2452.269288
632.262462	2496.883500
632.608316	2455.798096
632.954117	2476.718885
633.299866	2495.119096
633.645562	2462.099538
633.991206	2483.776500
634.336797	2463.611885
634.682336	2480.751808
635.027823	2486.801192
635.373257	2455.546038
635.718639	2478.987404
636.063968	2482.012096
636.409245	2487.053250
636.754470	2494.614981
637.099642	2478.483288
637.444762	2473.190077
637.789829	2518.812519
638.134845	2490.330000
638.479808	2483.020327
638.824719	2472.938019
639.169577	2485.792962
639.514383	2456.806327
639.859137	2490.077942
640.203839	2471.677731
640.548489	2468.400981
640.893086	2473.442135
641.237632	2488.565596
641.582125	2462.099538
641.926566	2481.507981
642.270955	2465.124231
642.615292	2480.751808
642.959576	2481.255923
643.303809	2465.880404
643.647990	2489.069712
643.992118	2504.697288
644.336195	2464.620115
644.680219	2475.206538
645.024192	2478.987404
645.368112	2477.223000
645.711981	2482.516212
646.055797	2434.121135
646.399562	2466.636577
646.743274	2481.760038
647.086935	2480.751808
647.430544	2466.636577
647.774101	2475.710654
648.117606	2484.784731
648.461059	2496.379385
648.804460	2487.557365
649.147810	2463.863942
649.491108	2454.033692
649.834354	2490.582058
650.177548	2463.611885
650.520690	2463.863942
650.863781	2488.061481
651.206820	2482.012096
651.549807	2470.417442
651.892742	2472.433904
652.235626	2483.524442
652.578458	2507.469923
652.921238	2466.636577
653.263967	2477.979173
653.606644	2473.190077
653.949269	2459.074846
654.291843	2474.450365
654.634365	2496.127327
654.976836	2463.107769
655.319255	2462.099538
655.661622	2499.404077
656.003938	2461.091308
656.346203	2476.466827
656.688416	2471.425673
657.030577	2485.288846
657.372687	2465.124231
657.714746	2481.003865
658.056753	2481.507981
658.398708	2474.198308
658.740612	2479.491519
659.082465	2482.768269
659.424266	2466.636577
659.766016	2472.181846
660.107715	2467.896865
660.449362	2462.351596
660.790958	2482.264154
661.132503	2460.083077
661.473996	2486.801192
661.815438	2496.379385
662.156829	2480.499750
662.498168	2477.727115
662.839456	2473.442135
663.180693	2442.186981
663.521879	2478.735346
663.863013	2479.995635
664.204097	2472.938019
664.545129	2485.792962
664.886110	2457.814558
665.227040	2476.718885
665.567918	2456.806327
665.908746	2464.116000
666.249522	2479.239462
666.590248	2505.705519
666.930922	2479.743577
667.271545	2452.269288
667.612118	2485.036788
667.952639	2463.359827
668.293109	2491.842346
668.633528	2445.715788
668.973896	2476.466827
669.314213	2471.173615
669.654480	2467.392750
669.994695	2461.091308
670.334859	2485.540904
670.674973	2481.255923
671.015035	2466.636577
671.355047	2470.165385
671.695008	2457.562500
672.034918	2468.653038
672.374777	2472.685962
672.714585	2449.748712
673.054342	2487.053250
673.394049	2478.483288
673.733705	2472.685962
674.073310	2498.395846
674.412864	2486.297077
674.752368	2479.995635
675.091820	2480.247692
675.431223	2456.302212
675.770574	2457.310442
676.109875	2455.546038
676.449125	2470.669500
676.788324	2460.083077
677.127473	2474.702423
677.466571	2475.962712
677.805619	2461.343365
678.144616	2485.036788
678.483562	2469.157154
678.822458	2485.036788
679.161303	2481.255923
679.500098	2464.620115
679.838842	2504.949346
680.177535	2478.987404
680.516179	2461.847481
680.854771	2473.442135
681.193314	2443.195212
681.531805	2484.028558
681.870247	2493.606750
682.208638	2442.691096
682.546978	2475.206538
682.885268	2471.929788
683.223508	2454.537808
683.561697	2477.727115
683.899836	2477.979173
684.237925	2488.565596
684.575963	2440.926692
684.913951	2470.921558
685.251889	2465.376288
685.589776	2479.491519
685.927614	2468.905096
686.265401	2463.107769
686.603137	2468.400981
686.940824	2469.157154
687.278460	2474.954481
687.616046	2460.335135
687.953582	2469.913327
688.291068	2475.458596
688.628504	2454.537808
688.965889	2478.231231
689.303224	2479.743577
689.640510	2464.116000
689.977745	2471.425673
690.314930	2500.412308
690.652065	2477.979173
690.989150	2511.502846
691.326185	2462.099538
691.663170	2480.499750
692.000105	2467.140692
692.336990	2471.173615
692.673825	2460.587192
693.010610	2476.466827
693.347345	2466.636577
693.684030	2468.400981
694.020665	2470.165385
694.357251	2467.392750
694.693786	2478.987404
695.030272	2484.280615
695.366707	2475.458596
695.703093	2478.735346
696.039429	2482.012096
696.375716	2476.970942
696.711952	2478.987404
697.048139	2461.091308
697.384276	2445.715788
697.720363	2472.685962
698.056400	2482.012096
698.392388	2462.855712
698.728326	2474.198308
699.064214	2470.165385
699.400053	2466.132462
699.735842	2449.496654
700.071581	2486.549135
700.407270	2458.318673
700.742910	2476.214769
701.078501	2474.954481
701.414042	2475.458596
701.749533	2458.318673
702.084974	2481.760038
702.420366	2456.554269
702.755709	2487.305308
703.091002	2454.285750
703.426246	2490.582058
703.761440	2484.784731
704.096584	2467.896865
704.431679	2463.359827
704.766725	2471.173615
705.101721	2472.938019
705.436668	2455.798096
705.771565	2477.727115
706.106413	2448.992538
706.441212	2459.326904
706.775961	2488.061481
707.110661	2476.214769
707.445311	2433.112904
707.779913	2469.409212
708.114465	2441.430808
708.448967	2471.173615
708.783421	2491.842346
709.117825	2479.995635
709.452180	2478.483288
709.786485	2443.195212
710.120742	2468.905096
710.454949	2476.970942
710.789107	2453.781635
711.123216	2455.041923
711.457275	2454.033692
711.791286	2470.165385
712.125247	2462.099538
712.459159	2469.661269
712.793023	2474.198308
713.126837	2473.694192
713.460602	2472.938019
713.794318	2464.116000
714.127985	2484.028558
714.461602	2456.050154
714.795171	2467.140692
715.128691	2487.305308
715.462162	2454.033692
715.795584	2459.831019
716.128957	2451.765173
716.462281	2471.425673
716.795556	2457.814558
717.128782	2461.343365
717.461960	2480.751808
717.795088	2459.578962
718.128167	2437.397885
718.461198	2492.094404
718.794180	2454.285750
719.127113	2461.343365
719.459997	2452.521346
719.792833	2472.685962
720.125619	2476.214769
720.458357	2463.611885
720.791046	2471.929788
721.123686	2455.546038
721.456278	2476.970942
721.788821	2483.524442
722.121315	2479.743577
722.453761	2477.979173
722.786158	2485.288846
723.118506	2458.822788
723.450805	2470.417442
723.783056	2500.664365
724.115259	2450.000769
724.447412	2463.611885
724.779518	2472.938019
725.111574	2494.614981
725.443582	2468.905096
725.775542	2484.028558
726.107453	2486.045019
726.439315	2452.773404
726.771129	2479.995635
727.102895	2451.765173
727.434612	2473.946250
727.766281	2465.628346
728.097901	2471.425673
728.429473	2457.562500
728.760996	2471.929788
729.092471	2451.513115
729.423897	2495.371154
729.755276	2468.148923
730.086606	2457.310442
730.417887	2460.839250
730.749120	2469.661269
731.080305	2459.831019
731.411442	2438.154058
731.742530	2438.658173
732.073570	2456.554269
732.404562	2466.888635
732.735506	2475.962712
733.066401	2469.661269
733.397249	2479.743577
733.728048	2466.636577
734.058798	2463.107769
734.389501	2449.496654
734.720156	2471.677731
735.050762	2484.532673
735.381320	2458.570731
735.711831	2463.863942
736.042293	2467.392750
736.372707	2498.143788
736.703073	2457.562500
737.033391	2455.798096
737.363661	2475.962712
737.693883	2471.425673
738.024056	2469.661269
738.354182	2455.041923
738.684260	2456.050154
739.014290	2450.756942
739.344272	2475.962712
739.674207	2491.842346
740.004093	2468.653038
740.333931	2458.570731
740.663722	2483.524442
740.993464	2465.376288
741.323159	2472.181846
741.652806	2490.834115
741.982405	2467.140692
742.311956	2464.872173
742.641460	2474.198308
742.970915	2497.639673
743.300323	2473.694192
743.629683	2457.814558
743.958996	2447.732250
744.288260	2471.173615
744.617477	2487.305308
744.946647	2472.938019
745.275768	2467.392750
745.604842	2484.028558
745.933869	2486.045019
746.262847	2457.310442
746.591778	2485.540904
746.920662	2452.017231
747.249498	2464.872173
747.578286	2445.715788
747.907027	2454.789865
748.235720	2457.310442
748.564365	2489.825885
748.892963	2470.417442
749.221514	2485.036788
749.550017	2453.781635
749.878473	2475.710654
750.206881	2487.557365
750.535242	2471.425673
750.863555	2463.359827
751.191821	2482.768269
751.520039	2462.603654
751.848210	2472.433904
752.176334	2454.033692
752.504411	2470.921558
752.832440	2452.269288
753.160421	2472.685962
753.488356	2456.554269
753.816243	2489.825885
754.144082	2455.798096
754.471875	2458.570731
754.799620	2461.091308
755.127318	2473.946250
755.454969	2454.537808
755.782572	2481.003865
756.110129	2476.718885
756.437638	2476.718885
756.765100	2465.376288
757.092515	2453.781635
757.419882	2473.190077
757.747203	2486.801192
758.074477	2473.442135
758.401703	2483.020327
758.728882	2491.086173
759.056014	2476.718885
759.383099	2481.760038
759.710138	2473.946250
760.037129	2450.000769
760.364073	2457.058385
760.690970	2477.979173
761.017820	2464.368058
761.344623	2478.483288
761.671379	2489.825885
761.998088	2486.801192
762.324751	2437.902000
762.651366	2459.074846
762.977935	2473.442135
763.304456	2481.003865
763.630931	2476.718885
763.957359	2458.066615
764.283740	2473.946250
764.610074	2488.817654
764.936362	2465.880404
765.262602	2466.132462
765.588796	2467.896865
765.914943	2447.228135
766.241044	2478.483288
766.567097	2480.499750
766.893104	2444.959615
767.219064	2452.017231
767.544978	2479.239462
767.870845	2512.511077
768.196665	2480.499750
768.522438	2451.765173
768.848165	2465.376288
769.173846	2502.680827
769.499479	2467.896865
769.825066	2471.173615
770.150607	2480.499750
770.476101	2471.425673
770.801548	2463.107769
771.126949	2464.368058
771.452303	2475.206538
771.777611	2459.578962
772.102872	2483.020327
772.428087	2464.368058
772.753256	2469.409212
773.078378	2448.992538
773.403453	2474.450365
773.728482	2441.934923
774.053465	2453.277519
774.378401	2451.261058
774.703291	2454.789865
775.028135	2468.148923
775.352932	2461.847481
775.677683	2449.244596
776.002388	2475.962712
776.327046	2426.811462
776.651658	2473.190077
776.976224	2483.020327
777.300743	2446.471962
777.625216	2460.083077
777.949643	2477.223000
778.274024	2486.297077
778.598359	2454.789865
778.922647	2465.124231
779.246889	2462.099538
779.571086	2480.499750
779.895236	2470.921558
780.219339	2450.756942
780.543397	2455.041923
780.867409	2483.020327
781.191374	2464.368058
781.515294	2472.181846
781.839167	2451.261058
782.162995	2453.781635
782.486776	2462.603654
782.810511	2471.173615
783.134201	2452.773404
783.457844	2445.715788
783.781441	2478.987404
784.104993	2486.297077
784.428498	2490.834115
784.751958	2466.132462
785.075372	2463.863942
785.398739	2456.050154
785.722061	2465.376288
786.045337	2467.140692
786.368568	2465.628346
786.691752	2447.984308
787.014891	2498.647904
787.337983	2464.872173
787.661030	2449.244596
787.984031	2493.354692
788.306987	2455.041923
788.629897	2468.148923
788.952760	2487.809423
789.275579	2450.000769
789.598351	2460.083077
789.921078	2476.970942
790.243759	2473.694192
790.566395	2470.921558
790.888984	2460.335135
791.211529	2458.822788
791.534027	2472.433904
791.856480	2464.872173
792.178888	2445.211673
792.501249	2475.206538
792.823566	2454.789865
793.145836	2475.962712
793.468062	2483.272385
793.790241	2462.351596
794.112375	2436.137596
794.434464	2475.962712
794.756507	2468.400981
795.078505	2465.376288
795.400457	2463.359827
795.722364	2440.674635
796.044226	2473.694192
796.366042	2473.694192
796.687812	2454.033692
797.009538	2487.557365
797.331218	2469.661269
797.652852	2488.565596
797.974442	2479.239462
798.295986	2471.425673
798.617484	2446.976077
798.938938	2463.107769
799.260346	2447.984308
799.581709	2457.814558
799.903026	2463.611885
800.224299	2442.943154
800.545526	2469.157154
800.866708	2461.091308
801.187845	2462.603654
801.508936	2475.458596
801.829983	2455.041923
802.150984	2487.809423
802.471940	2455.041923
802.792851	2470.165385
803.113717	2454.285750
803.434538	2441.682865
803.755314	2472.938019
804.076045	2469.409212
804.396731	2454.537808
804.717372	2473.946250
805.037967	2443.195212
805.358518	2450.252827
805.679024	2446.219904
805.999485	2444.455500
806.319901	2466.888635
806.640272	2472.433904
806.960598	2434.877308
807.280879	2443.447269
807.601115	2483.524442
807.921306	2486.801192
808.241453	2453.529577
808.561554	2469.409212
808.881611	2430.340269
809.201623	2465.124231
809.521590	2481.507981
809.841513	2465.628346
810.161390	2454.285750
810.481223	2456.806327
810.801011	2473.946250
811.120755	2484.280615
811.440453	2466.384519
811.760107	2486.801192
812.079716	2486.297077
812.399281	2456.806327
812.718801	2450.504885
813.038276	2455.293981
813.357707	2465.124231
813.677093	2476.718885
813.996434	2461.595423
814.315731	2470.417442
814.634983	2468.148923
814.954191	2499.404077
815.273354	2465.628346
815.592473	2468.653038
815.911547	2478.231231
816.230577	2484.784731
816.549562	2457.562500
816.868502	2476.214769
817.187399	2447.228135
817.506250	2468.653038
817.825058	2463.359827
818.143821	2478.483288
818.462539	2478.231231
818.781213	2472.938019
819.099843	2472.685962
819.418429	2467.644808
819.736970	2484.280615
820.055466	2484.532673
820.373919	2458.318673
820.692327	2464.620115
821.010691	2485.540904
821.329011	2503.184942
821.647286	2491.338231
821.965517	2522.593385
822.283704	2565.191135
822.601847	2548.807385
822.919945	2523.601615
823.237999	2528.642769
823.556010	2538.220962
823.873976	2507.974038
824.191897	2502.680827
824.509775	2491.842346
824.827609	2473.946250
825.145398	2482.264154
825.463144	2469.661269
825.780845	2484.280615
826.098502	2449.244596
826.416116	2509.486385
826.733685	2477.979173
827.051210	2494.614981
827.368692	2472.938019
827.686129	2497.387615
828.003522	2484.280615
828.320872	2501.420538
828.638177	2501.420538
828.955439	2471.425673
829.272656	2482.768269
829.589830	2465.628346
829.906960	2490.330000
830.224046	2457.814558
830.541088	2486.297077
830.858086	2493.354692
831.175041	2465.880404
831.491952	2472.685962
831.808819	2457.814558
832.125642	2491.590288
832.442421	2459.074846
832.759157	2483.020327
833.075849	2500.160250
833.392497	2475.206538
833.709101	2472.938019
834.025662	2461.595423
834.342179	2484.028558
834.658653	2490.582058
834.975083	2453.781635
835.291469	2481.507981
835.607811	2462.603654
835.924110	2461.847481
836.240366	2475.206538
836.556578	2469.661269
836.872746	2487.557365
837.188871	2467.896865
837.504952	2478.735346
837.820990	2444.455500
838.136984	2471.173615
838.452935	2480.751808
838.768842	2476.466827
839.084706	2464.116000
839.400526	2468.653038
839.716303	2475.206538
840.032037	2467.644808
840.347727	2482.768269
840.663373	2481.255923
840.978977	2448.740481
841.294537	2460.335135
841.610054	2434.373192
841.925527	2500.160250
842.240957	2445.463731
842.556344	2458.318673
842.871687	2440.422577
843.186987	2458.318673
843.502244	2454.033692
843.817458	2437.397885
844.132629	2469.409212
844.447756	2479.743577
844.762840	2454.789865
845.077881	2493.102635
845.392879	2469.157154
845.707833	2493.102635
846.022745	2441.430808
846.337613	2441.430808
846.652438	2454.285750
846.967221	2442.439038
847.281960	2446.976077
847.596656	2464.116000
847.911309	2455.798096
848.225919	2469.913327
848.540485	2450.504885
848.855009	2465.124231
849.169490	2465.880404
849.483928	2485.540904
849.798323	2442.186981
850.112675	2456.806327
850.426984	2469.913327
850.741251	2461.595423
851.055474	2457.058385
851.369654	2446.976077
851.683792	2438.154058
851.997887	2469.157154
852.311938	2447.984308
852.625947	2436.389654
852.939914	2460.839250
853.253837	2453.025462
853.567718	2438.406115
853.881555	2470.165385
854.195350	2475.206538
854.509103	2458.318673
854.822812	2467.392750
855.136479	2441.178750
855.450103	2468.148923
855.763685	2474.450365
856.077224	2449.496654
856.390720	2449.748712
856.704173	2477.475058
857.017584	2475.206538
857.330953	2456.050154
857.644278	2472.433904
857.957561	2459.326904
858.270802	2459.831019
858.584000	2431.600558
858.897155	2442.439038
859.210268	2465.124231
859.523339	2436.641712
859.836367	2449.244596
860.149352	2464.116000
860.462295	2450.000769
860.775195	2461.847481
861.088054	2481.760038
861.400869	2468.400981
861.713642	2453.277519
862.026373	2464.368058
862.339062	2467.392750
862.651708	2474.702423
862.964312	2450.756942
863.276873	2475.962712
863.589392	2481.760038
863.901869	2457.058385
864.214303	2472.938019
864.526696	2474.702423
864.839045	2446.724019
865.151353	2464.872173
865.463619	2461.091308
865.775842	2456.806327
866.088023	2453.781635
866.400162	2472.685962
866.712258	2443.699327
867.024313	2439.918462
867.336325	2472.433904
867.648296	2466.132462
867.960224	2451.009000
868.272110	2466.888635
868.583954	2469.661269
868.895755	2457.310442
869.207515	2458.570731
869.519233	2454.789865
869.830909	2448.992538
870.142542	2476.214769
870.454134	2452.017231
870.765684	2450.252827
871.077191	2464.620115
871.388657	2483.776500
871.700081	2456.806327
872.011463	2470.669500
872.322803	2471.677731
872.634101	2469.157154
872.945357	2470.165385
873.256571	2456.050154
873.567744	2451.513115
873.878874	2474.450365
874.189963	2468.905096
874.501010	2487.053250
874.812015	2461.595423
875.122979	2450.504885
875.433900	2461.091308
875.744780	2474.954481
876.055618	2456.806327
876.366415	2459.831019
876.677169	2462.351596
876.987882	2456.050154
877.298554	2456.806327
877.609183	2500.664365
877.919771	2463.611885
878.230317	2449.496654
878.540822	2466.132462
878.851285	2446.976077
879.161707	2451.513115
879.472087	2460.335135
879.782425	2455.546038
880.092722	2463.611885
880.402977	2457.562500
880.713191	2467.896865
881.023363	2462.855712
881.333494	2482.516212
881.643583	2498.647904
881.953631	2496.127327
882.263637	2467.392750
882.573602	2512.763135
882.883526	2497.639673
883.193408	2502.680827
883.503248	2508.982269
883.813048	2473.442135
884.122806	2467.644808
884.432522	2503.437000
884.742197	2484.784731
885.051831	2474.450365
885.361424	2474.954481
885.670975	2461.091308
885.980485	2463.611885
886.289954	2467.392750
886.599382	2452.017231
886.908768	2464.116000
887.218113	2473.946250
887.527417	2491.086173
887.836680	2440.674635
888.145901	2463.359827
888.455082	2453.025462
888.764221	2498.899962
889.073319	2446.471962
889.382376	2460.083077
889.691392	2439.918462
890.000366	2441.934923
890.309300	2467.392750
890.618193	2429.836154
890.927044	2478.483288
891.235855	2437.902000
891.544625	2478.483288
891.853353	2472.938019
892.162041	2454.285750
892.470687	2477.223000
892.779293	2441.178750
893.087858	2482.264154
893.396381	2467.140692
893.704864	2470.669500
894.013306	2481.255923
894.321707	2489.069712
894.630068	2472.938019
894.938387	2467.140692
895.246665	2497.639673
895.554903	2489.069712
895.863100	2465.880404
896.171256	2484.784731
896.479371	2460.083077
896.787446	2458.066615
897.095480	2457.814558
897.403473	2482.264154
897.711425	2477.475058
898.019336	2444.707558
898.327207	2480.499750
898.635038	2434.373192
898.942827	2468.400981
899.250576	2480.499750
899.558284	2472.685962
899.865952	2438.658173
900.173579	2445.463731
900.481165	2463.359827
900.788711	2451.513115
901.096216	2466.888635
901.403681	2475.962712
901.711105	2456.050154
902.018489	2470.165385
902.325832	2455.041923
902.633135	2463.359827
902.940397	2461.343365
903.247619	2466.888635
903.554800	2481.003865
903.861941	2468.905096
904.169041	2468.653038
904.476101	2479.995635
904.783121	2462.099538
905.090100	2482.516212
905.397039	2477.979173
905.703938	2459.074846
906.010796	2478.735346
906.317614	2469.661269
906.624391	2493.858808
906.931129	2476.970942
907.237826	2460.839250
907.544483	2472.938019
907.851099	2455.798096
908.157675	2441.934923
908.464211	2453.529577
908.770707	2474.954481
909.077163	2484.028558
909.383578	2456.302212
909.689954	2461.847481
909.996289	2475.458596
910.302584	2451.009000
910.608839	2446.976077
910.915054	2487.557365
911.221229	2457.562500
911.527363	2459.326904
911.833458	2481.003865
912.139513	2456.050154
912.445527	2463.107769
912.751502	2445.715788
913.057436	2480.499750
913.363331	2451.009000
913.669186	2462.855712
913.975000	2470.921558
914.280775	2460.839250
914.586510	2457.562500
914.892205	2469.913327
915.197859	2452.773404
915.503475	2492.346462
915.809050	2448.740481
916.114585	2475.458596
916.420081	2461.091308
916.725536	2474.198308
917.030952	2450.252827
917.336328	2473.442135
917.641665	2484.784731
917.946961	2455.546038
918.252218	2482.516212
918.557435	2436.893769
918.862612	2455.041923
919.167750	2455.798096
919.472848	2452.017231
919.777906	2456.302212
920.082925	2487.305308
920.387904	2475.206538
920.692843	2476.718885
920.997743	2455.293981
921.302603	2467.392750
921.607423	2477.727115
921.912204	2475.206538
922.216946	2459.578962
922.521647	2453.529577
922.826310	2458.570731
923.130932	2485.792962
923.435516	2438.658173
923.740059	2467.140692
924.044564	2442.186981
924.349028	2457.562500
924.653454	2468.400981
924.957840	2457.562500
925.262186	2481.255923
925.566493	2467.140692
925.870761	2458.066615
926.174989	2454.537808
926.479178	2471.425673
926.783328	2481.507981
927.087438	2467.140692
927.391509	2460.335135
927.695541	2469.913327
927.999533	2461.343365
928.303486	2431.852615
928.607400	2481.003865
928.911275	2476.466827
929.215110	2459.074846
929.518906	2468.653038
929.822663	2489.321769
930.126381	2466.384519
930.430060	2458.570731
930.733699	2463.359827
931.037299	2461.847481
931.340861	2441.178750
931.644383	2457.814558
931.947866	2473.190077
932.251309	2458.822788
932.554714	2481.255923
932.858080	2431.348500
933.161407	2441.178750
933.464694	2456.806327
933.767943	2440.926692
934.071153	2461.595423
934.374323	2473.190077
934.677455	2452.773404
934.980548	2461.847481
935.283602	2443.447269
935.586617	2440.926692
935.889593	2463.611885
936.192530	2435.633481
936.495428	2451.765173
936.798287	2468.905096
937.101108	2470.669500
937.403890	2457.310442
937.706632	2470.669500
938.009336	2448.236365
938.312002	2475.206538
938.614628	2468.905096
938.917216	2442.943154
939.219765	2469.913327
939.522275	2466.132462
939.824747	2464.620115
940.127179	2453.781635
940.429573	2462.603654
940.731929	2464.368058
941.034246	2453.781635
941.336524	2451.261058
941.638763	2459.326904
941.940964	2480.751808
942.243126	2442.186981
942.545250	2485.540904
942.847335	2449.748712
943.149381	2475.962712
943.451389	2474.954481
943.753359	2459.326904
944.055290	2491.842346
944.357182	2480.499750
944.659036	2456.302212
944.960851	2445.211673
945.262628	2479.995635
945.564367	2456.302212
945.866067	2457.310442
946.167729	2449.748712
946.469352	2464.116000
946.770937	2475.206538
947.072484	2460.587192
947.373992	2470.417442
947.675462	2463.107769
947.976893	2465.880404
948.278286	2461.595423
948.579641	2453.781635
948.880958	2426.307346
949.182236	2457.562500
949.483476	2478.483288
949.784678	2471.677731
950.085841	2433.869077
950.386967	2461.091308
950.688054	2435.129365
950.989103	2461.091308
951.290114	2435.381423
951.591087	2435.633481
951.892021	2459.074846
952.192917	2448.992538
952.493776	2445.967846
952.794596	2461.595423
953.095378	2491.590288
953.396122	2447.228135
953.696828	2471.425673
953.997496	2450.756942
954.298126	2461.091308
954.598718	2459.831019
954.899272	2457.310442
955.199788	2446.724019
955.500266	2469.409212
955.800706	2465.124231
956.101108	2441.934923
956.401472	2457.562500
956.701798	2467.140692
957.002087	2475.458596
957.302337	2443.195212
957.602550	2460.587192
957.902724	2419.753846
958.202861	2457.058385
958.502960	2475.206538
958.803022	2463.107769
959.103045	2449.748712
959.403031	2441.430808
959.702979	2429.079981
960.002889	2450.756942
960.302762	2467.392750
960.602596	2447.480192
960.902393	2468.400981
961.202153	2471.677731
961.501875	2493.354692
961.801559	2473.442135
962.101205	2440.926692
962.400814	2433.617019
962.700385	2461.343365
962.999918	2440.674635
963.299414	2421.770308
963.598873	2435.129365
963.898293	2438.154058
964.197677	2459.074846
964.497022	2459.326904
964.796331	2454.789865
965.095601	2457.058385
965.394835	2475.206538
965.694030	2469.409212
965.993189	2441.934923
966.292309	2444.203442
966.591393	2441.934923
966.890439	2445.715788
967.189447	2473.946250
967.488419	2443.951385
967.787353	2458.318673
968.086249	2455.546038
968.385108	2460.587192
968.683930	2454.033692
968.982714	2426.559404
969.281462	2439.414346
969.580172	2448.236365
969.878844	2450.756942
970.177480	2446.471962
970.476078	2490.834115
970.774639	2465.124231
971.073162	2434.373192
971.371649	2449.496654
971.670098	2429.332038
971.968510	2483.524442
972.266885	2453.529577
972.565223	2468.653038
972.863524	2456.806327
973.161788	2456.302212
973.460014	2477.979173
973.758204	2438.406115
974.056356	2456.050154
974.354471	2461.595423
974.652550	2482.012096
974.950591	2458.570731
975.248595	2448.740481
975.546563	2455.798096
975.844493	2447.984308
976.142386	2430.088212
976.440243	2455.041923
976.738062	2472.181846
977.035845	2468.400981
977.333590	2433.617019
977.631299	2453.529577
977.928971	2453.025462
978.226606	2455.041923
978.524204	2457.310442
978.821765	2451.513115
979.119290	2438.910231
979.416777	2435.381423
979.714228	2467.392750
980.011642	2467.392750
980.309020	2467.896865
980.606360	2459.831019
980.903664	2476.466827
981.200931	2451.261058
981.498162	2462.603654
981.795356	2442.186981
982.092513	2461.091308
982.389633	2424.795000
982.686717	2461.595423
982.983764	2449.748712
983.280775	2485.792962
983.577749	2438.910231
983.874686	2447.228135
984.171587	2463.107769
984.468451	2463.359827
984.765279	2458.318673
985.062070	2457.310442
985.358824	2466.132462
985.655543	2472.181846
985.952224	2459.326904
986.248869	2465.880404
986.545478	2453.781635
986.842050	2459.326904
987.138586	2457.562500
987.435086	2483.272385
987.731549	2447.480192
988.027975	2439.666404
988.324366	2444.959615
988.620719	2467.896865
988.917037	2453.025462
989.213318	2450.756942
989.509563	2453.781635
989.805772	2459.578962
990.101944	2466.636577
990.398080	2444.455500
990.694180	2458.570731
990.990244	2440.170519
991.286271	2452.017231
991.582262	2473.442135
991.878217	2456.302212
992.174136	2448.740481
992.470019	2465.628346
992.765865	2470.417442
993.061676	2448.740481
993.357450	2444.959615
993.653188	2438.658173
993.948890	2478.483288
994.244556	2447.732250
994.540186	2464.872173
994.835780	2474.198308
995.131337	2472.938019
995.426859	2476.466827
995.722345	2461.343365
996.017795	2474.198308
996.313208	2440.926692
996.608586	2455.293981
996.903928	2467.896865
997.199234	2473.694192
997.494504	2456.806327
997.789738	2464.116000
998.084936	2424.038827
998.380099	2455.546038
998.675225	2452.269288
998.970316	2486.549135
999.265371	2458.066615
999.560390	2457.562500
999.855373	2453.529577
1000.150320	2455.041923
1000.445232	2445.967846
1000.740108	2457.310442
1001.034948	2425.803231
1001.329752	2471.929788
1001.624521	2445.967846
1001.919254	2465.124231
1002.213951	2441.178750
1002.508613	2445.211673
1002.803239	2459.831019
1003.097829	2453.025462
1003.392384	2447.732250
1003.686903	2469.157154
1003.981386	2452.017231
1004.275834	2460.839250
1004.570246	2460.839250
1004.864623	2426.559404
1005.158964	2467.392750
1005.453270	2480.247692
1005.747540	2442.439038
1006.041775	2441.682865
1006.335974	2473.946250
1006.630138	2483.776500
1006.924266	2447.480192
1007.218359	2461.343365
1007.512416	2435.381423
1007.806438	2461.343365
1008.100425	2468.905096
1008.394376	2448.992538
1008.688292	2442.439038
1008.982172	2451.765173
1009.276017	2452.269288
1009.569827	2432.104673
1009.863602	2453.025462
1010.157341	2468.400981
1010.451045	2462.099538
1010.744714	2480.247692
1011.038347	2448.236365
1011.331945	2463.863942
1011.625508	2479.239462
1011.919036	2450.252827
1012.212528	2460.839250
1012.505986	2451.009000
1012.799408	2434.121135
1013.092795	2448.992538
1013.386147	2455.798096
1013.679464	2444.959615
1013.972745	2444.959615
1014.265992	2423.534712
1014.559204	2454.537808
1014.852380	2437.397885
1015.145521	2457.310442
1015.438628	2438.910231
1015.731699	2444.707558
1016.024736	2439.666404
1016.317737	2490.077942
1016.610703	2460.083077
1016.903635	2438.154058
1017.196531	2461.595423
1017.489393	2460.083077
1017.782219	2458.318673
1018.075011	2456.554269
1018.367768	2440.422577
1018.660490	2445.967846
1018.953177	2445.967846
1019.245829	2445.967846
