Dividing Wavelength (nm)	Counts (n)	Slit_number_29_of_a_total_of_40	
326.493990	2032.820083
326.888308	2032.820083
327.282561	2032.820083
327.676750	2011.823677
328.070874	2011.697648
328.464933	2026.569052
328.858929	2024.048475
329.252859	2036.172450
329.646726	2054.950748
330.040528	2072.872050
330.434265	2095.002715
330.827938	2106.068048
331.221547	2135.457975
331.615091	2152.194606
332.008571	2178.837104
332.401986	2190.078877
332.795338	2215.713144
333.188625	2237.541340
333.581847	2247.724471
333.975006	2276.080962
334.368100	2285.810388
334.761129	2304.714715
335.154095	2319.964206
335.546996	2329.214723
335.939833	2340.809377
336.332606	2359.990967
336.725315	2368.258460
337.117960	2379.953937
337.510540	2388.826367
337.903056	2401.126783
338.295508	2413.250758
338.687896	2412.570202
339.080220	2416.779565
339.472480	2420.913312
339.864676	2426.483787
340.256807	2430.214240
340.648875	2432.482760
341.040879	2436.717329
341.432818	2438.305292
341.824694	2432.432348
342.216506	2435.658687
342.608253	2432.835640
342.999937	2427.643252
343.391557	2431.323294
343.783113	2439.288317
344.174605	2432.457554
344.566033	2431.550146
344.957397	2424.492531
345.348697	2424.517737
345.739934	2429.206010
346.131106	2421.467838
346.522215	2417.686973
346.913260	2430.264652
347.304241	2421.921542
347.695159	2416.199833
348.086012	2406.646846
348.476802	2416.981212
348.867528	2408.234810
349.258191	2400.773902
349.648789	2409.217835
350.039324	2396.186452
350.429796	2401.504869
350.820203	2406.092319
351.210548	2413.830490
351.600828	2409.873185
351.991045	2403.975035
352.381198	2406.999727
352.771288	2409.747156
353.161314	2395.127810
353.551276	2396.993037
353.941175	2399.513613
354.331010	2402.286248
354.720782	2403.470919
355.110490	2406.369583
355.500135	2397.421535
355.889717	2412.746642
356.279235	2405.159706
356.668689	2406.571229
357.058080	2397.371123
357.447408	2408.108781
357.836672	2405.411763
358.225873	2409.923596
358.615010	2399.387585
359.004084	2406.571229
359.393095	2405.033677
359.782043	2406.293965
360.170927	2402.160219
360.559748	2406.747669
360.948505	2414.032137
361.337199	2408.839748
361.725830	2414.132960
362.114398	2411.561971
362.502903	2405.235323
362.891344	2408.310427
363.279722	2423.459094
363.668037	2409.066600
364.056289	2423.459094
364.444478	2417.334092
364.832603	2411.738412
365.220665	2416.048598
365.608665	2406.445200
365.996601	2414.889133
366.384474	2418.947262
366.772284	2424.593354
367.160031	2418.896850
367.547715	2423.030596
367.935336	2426.105700
368.322893	2412.847465
368.710388	2419.174113
369.097820	2416.124215
369.485189	2415.998187
369.872495	2421.543456
370.259738	2422.097983
370.646918	2421.770308
371.034035	2434.549633
371.421090	2424.820206
371.808081	2430.138623
372.195010	2437.599531
372.581875	2446.144287
372.968678	2451.437498
373.355418	2448.034719
373.742096	2456.806327
374.128710	2463.359827
374.515262	2487.784217
374.901751	2493.783190
375.288177	2511.099554
375.674540	2525.895340
376.060841	2539.430838
376.447079	2561.460681
376.833254	2577.592373
377.219367	2609.477671
377.605417	2631.331073
377.991404	2648.597025
378.377329	2677.961746
378.763191	2704.402598
379.148991	2735.052813
379.534727	2765.224119
379.920402	2792.950465
380.306013	2817.904177
380.691563	2857.401617
381.077049	2892.059550
381.462474	2909.880029
381.847835	2951.948458
382.233134	2999.007629
382.618371	3013.828621
383.003545	3064.088925
383.388657	3093.277206
383.773706	3146.133704
384.158693	3162.114162
384.543618	3206.551933
384.928480	3233.194431
385.313280	3276.674383
385.698017	3302.636325
386.082692	3345.410515
386.467305	3362.928525
386.851856	3400.081829
387.236344	3446.460444
387.620770	3445.779888
388.005133	3468.414669
388.389435	3503.576717
388.773674	3501.308198
389.157851	3525.757794
389.541965	3549.325188
389.926018	3517.490302
390.310008	3544.410063
390.693936	3532.462529
391.077802	3532.487735
391.461606	3541.234137
391.845348	3518.372504
392.229027	3508.617871
392.612645	3514.163140
392.996200	3500.224350
393.379694	3493.317969
393.763125	3499.241325
394.146494	3453.139973
394.529801	3435.092642
394.913047	3423.850869
395.296230	3374.598796
395.679351	3319.776248
396.062410	3317.154848
396.445408	3239.773137
396.828343	3203.199565
397.211217	3174.540606
397.594028	3101.645521
397.976778	3074.876994
398.359466	3034.169677
398.742092	2983.657315
399.124656	2946.428394
399.507158	2910.132087
399.889598	2872.600696
400.271977	2855.385156
400.654294	2811.073413
401.036549	2779.188115
401.418742	2754.587285
401.800874	2734.649521
402.182944	2700.546115
402.564952	2684.263188
402.946898	2646.555358
403.328783	2638.161837
403.710606	2614.644854
404.092367	2606.352156
404.474067	2580.390213
404.855705	2565.014694
405.237282	2537.489994
405.618797	2544.119112
406.000250	2531.617050
406.381642	2519.997190
406.762972	2511.023937
407.144240	2500.891217
407.525447	2495.925681
407.906593	2487.330513
408.287677	2488.767242
408.668700	2483.322796
409.049661	2479.894812
409.430560	2468.048100
409.811399	2473.971456
410.192176	2473.542958
410.572891	2466.737400
410.953545	2472.635550
411.334138	2458.999229
411.714669	2466.056844
412.095139	2469.560446
412.475547	2454.310956
412.855894	2465.124231
413.236180	2463.536267
413.616405	2458.721965
413.996568	2457.940587
414.376670	2452.596963
414.756711	2456.503858
415.136691	2448.614452
415.516609	2467.619602
415.896466	2453.302725
416.276262	2456.755915
416.655997	2457.839763
417.035670	2456.150977
417.415283	2458.847994
417.794834	2445.816612
418.174324	2451.538321
418.553753	2454.840277
418.933121	2447.883485
419.312428	2456.932356
419.691674	2449.017744
420.070859	2459.352110
420.449983	2455.646862
420.829045	2458.419496
421.208047	2449.017744
421.586988	2454.764660
421.965867	2458.595937
422.344686	2451.790379
422.723444	2459.528550
423.102141	2451.916408
423.480777	2451.815585
423.859352	2453.832046
424.237866	2453.907663
424.616319	2445.589760
424.994712	2447.228135
425.373044	2464.645321
425.751314	2452.697787
426.129524	2444.027002
426.507673	2456.932356
426.885762	2451.891202
427.263789	2455.898919
427.641756	2451.613938
428.019662	2457.386060
428.397508	2458.041410
428.775292	2460.057871
429.153016	2450.126798
429.530679	2455.293981
429.908282	2460.814044
430.285824	2453.706017
430.663305	2452.773404
431.040726	2461.620629
431.418086	2456.680298
431.795385	2460.561987
432.172624	2457.108796
432.549802	2449.773917
432.926920	2457.940587
433.303977	2460.183900
433.680974	2456.705504
434.057910	2452.874227
434.434786	2458.243056
434.811601	2456.251800
435.188355	2458.066615
435.565050	2453.252313
435.941683	2460.662810
436.318257	2454.537808
436.694770	2459.402521
437.071222	2460.612398
437.447614	2462.553242
437.823946	2458.243056
438.200218	2463.208592
438.576429	2458.671554
438.952580	2460.385546
439.328670	2458.822788
439.704700	2462.502831
440.080670	2465.552729
440.456580	2455.117540
440.832429	2455.041923
441.208218	2469.862915
441.583947	2464.872173
441.959616	2448.816098
442.335224	2467.518779
442.710773	2456.881944
443.086261	2460.032665
443.461689	2454.588219
443.837057	2447.883485
444.212365	2463.989971
444.587612	2457.007973
444.962800	2462.402008
445.337927	2457.209619
445.712995	2461.746658
446.088002	2457.814558
446.462949	2457.083590
446.837837	2467.342338
447.212664	2461.822275
447.587431	2471.173615
447.962139	2459.427727
448.336786	2469.081537
448.711374	2463.989971
449.085901	2462.553242
449.460369	2458.797583
449.834776	2461.015690
450.209124	2461.217337
450.583412	2464.544498
450.957640	2473.618575
451.331808	2474.979687
451.705917	2465.653552
452.079965	2470.392237
452.453954	2468.577421
452.827883	2466.233285
453.201752	2460.788838
453.575562	2458.595937
453.949311	2462.704477
454.323001	2462.402008
454.696632	2458.646348
455.070202	2462.250773
455.443713	2470.795529
455.817164	2463.687502
456.190556	2472.282669
456.563888	2459.831019
456.937160	2467.165898
457.310373	2464.468881
457.683526	2464.468881
458.056619	2467.644808
458.429653	2467.720425
458.802628	2468.148923
459.175542	2460.688015
459.548398	2469.560446
459.921194	2464.166412
460.293930	2472.585138
460.666607	2475.962712
461.039224	2469.988944
461.411782	2470.593883
461.784280	2471.476085
462.156719	2470.770323
462.529099	2476.618062
462.901419	2466.838223
463.273680	2459.730196
463.645882	2458.243056
464.018024	2468.552215
464.390106	2468.552215
464.762130	2471.249233
465.134094	2472.383492
465.505999	2478.432877
465.877845	2486.196254
466.249631	2471.954994
466.621358	2473.668987
466.993026	2480.953454
467.364634	2488.666419
467.736184	2482.138125
468.107674	2469.913327
468.479105	2473.845427
468.850477	2477.021354
469.221790	2470.039356
469.593043	2480.978660
469.964238	2471.677731
470.335373	2470.291413
470.706449	2473.971456
471.077467	2474.752835
471.448425	2483.070738
471.819324	2471.753348
472.190164	2476.063535
472.560945	2466.535754
472.931667	2472.383492
473.302330	2464.670527
473.672934	2473.442135
474.043479	2469.837710
474.413965	2474.727629
474.784393	2467.115487
475.154761	2468.804273
475.525070	2471.702937
475.895321	2473.038842
476.265513	2469.005919
476.635645	2474.500777
477.005719	2464.292440
477.375734	2477.903556
477.745691	2478.105202
478.115588	2482.213742
478.485427	2468.905096
478.855207	2479.642754
479.224928	2481.255923
479.594591	2479.617548
479.964194	2469.409212
480.333739	2482.869092
480.703226	2470.417442
481.072653	2478.760552
481.442022	2480.550162
481.811333	2465.930815
482.180584	2473.114460
482.549777	2478.810963
482.918912	2472.156640
483.287988	2479.516725
483.657005	2479.743577
484.025964	2477.248206
484.394864	2467.796042
484.763706	2477.601087
485.132489	2471.047587
485.501213	2476.643267
485.869879	2473.517752
486.238487	2469.484829
486.607036	2475.382979
486.975527	2479.567137
487.343959	2483.322796
487.712333	2470.795529
488.080648	2480.802219
488.448905	2472.081023
488.817104	2477.298617
489.185244	2481.835656
489.553326	2473.996662
489.921350	2478.735346
490.289315	2478.785758
490.657222	2475.987917
491.025070	2486.876810
491.392861	2483.877323
491.760593	2484.457056
492.128267	2473.341312
492.495883	2473.568163
492.863440	2478.458083
493.230939	2466.182873
493.598380	2481.684421
493.965763	2473.190077
494.333088	2466.082050
494.700354	2470.568677
495.067563	2468.048100
495.434713	2476.643267
495.801805	2479.088227
496.168839	2469.888121
496.535815	2475.811477
496.902733	2478.029585
497.269593	2464.645321
497.636395	2480.650985
498.003139	2464.947790
498.369825	2474.778040
498.736453	2466.460137
499.103023	2468.627833
499.469535	2479.945223
499.835989	2476.517238
500.202385	2470.997175
500.568723	2466.611371
500.935003	2475.004892
501.301226	2463.662296
501.667390	2476.668473
502.033497	2475.181333
502.399546	2472.282669
502.765537	2477.349029
503.131470	2471.526496
503.497345	2484.507467
503.863163	2480.398927
504.228923	2467.720425
504.594625	2469.131948
504.960269	2471.072792
505.325856	2470.619088
505.691385	2470.669500
506.056856	2472.811990
506.422270	2472.534727
506.787625	2475.987917
507.152924	2467.342338
507.518164	2476.088740
507.883347	2479.819194
508.248472	2474.551188
508.613540	2477.802733
508.978550	2467.594396
509.343503	2464.242029
509.708398	2465.099025
510.073236	2476.592856
510.438016	2479.592342
510.802738	2475.735860
511.167403	2467.216310
511.532010	2478.256437
511.896561	2467.670013
512.261053	2476.542444
512.625488	2470.619088
512.989866	2476.618062
513.354186	2478.609317
513.718449	2472.408698
514.082655	2482.339771
514.446803	2468.249746
514.810894	2466.913840
515.174927	2467.165898
515.538904	2474.979687
515.902822	2471.778554
516.266684	2478.079996
516.630488	2470.719912
516.994235	2467.266721
517.357925	2470.593883
517.721558	2474.147896
518.085133	2478.357260
518.448651	2469.283183
518.812112	2466.737400
519.175516	2472.837196
519.538863	2465.804787
519.902152	2474.702423
520.265385	2465.275465
520.628560	2480.272898
520.991678	2468.476598
521.354739	2472.232258
521.717743	2474.021867
522.080690	2467.417956
522.443580	2475.332567
522.806413	2482.314565
523.169189	2477.172588
523.531908	2474.979687
523.894569	2463.082563
524.257174	2470.190590
524.619722	2477.601087
524.982213	2476.139152
525.344647	2476.038329
525.707025	2470.669500
526.069345	2478.483288
526.431608	2465.779581
526.793815	2471.778554
527.155964	2466.712194
527.518057	2473.492546
527.880093	2473.845427
528.242072	2471.425673
528.603995	2474.047073
528.965860	2475.181333
529.327669	2468.350569
529.689421	2467.543985
530.051117	2470.669500
530.412755	2472.408698
530.774337	2475.786271
531.135862	2469.131948
531.497331	2467.140692
531.858743	2472.761579
532.220098	2474.677217
532.581396	2466.384519
532.942638	2478.483288
533.303824	2473.895838
533.664953	2478.508494
534.026025	2474.626806
534.387040	2463.183387
534.747999	2470.367031
535.108902	2470.946763
535.469748	2466.686988
535.830537	2480.449338
536.191270	2472.307875
536.551947	2465.275465
536.912567	2475.685448
537.273131	2465.527523
537.633638	2474.551188
537.994089	2467.266721
538.354483	2472.761579
538.714821	2471.400467
539.075103	2474.828452
539.435328	2470.745117
539.795497	2465.930815
540.155609	2471.324850
540.515665	2465.729169
540.875665	2476.290387
541.235609	2463.536267
541.595496	2470.694706
541.955328	2477.651498
542.315102	2474.778040
542.674821	2470.946763
543.034483	2469.106742
543.394090	2467.720425
543.753640	2470.971969
544.113134	2479.037815
544.472571	2475.307362
544.831953	2474.576394
545.191278	2472.257463
545.550548	2474.097485
545.909761	2468.804273
546.268918	2469.787298
546.628019	2469.535240
546.987064	2469.358800
547.346053	2474.399954
547.704986	2473.820221
548.063863	2476.744090
548.422684	2466.964252
548.781449	2466.510548
549.140158	2475.534213
549.498811	2468.123717
549.857408	2465.779581
550.215949	2464.216823
550.574434	2463.208592
550.932864	2467.317133
551.291237	2474.500777
551.649555	2468.930302
552.007817	2476.265181
552.366022	2471.198821
552.724173	2474.374748
553.082267	2471.904583
553.440305	2468.955508
553.798288	2464.242029
554.156215	2465.275465
554.514086	2464.393263
554.871902	2459.175669
555.229661	2464.645321
555.587365	2462.704477
555.945014	2481.331540
556.302606	2479.163844
556.660143	2465.829992
557.017625	2481.911273
557.375050	2469.409212
557.732421	2472.912813
558.089735	2472.055817
558.446994	2475.887094
558.804197	2467.367544
559.161345	2465.174642
559.518437	2476.139152
559.875474	2474.929275
560.232455	2475.584625
560.589381	2477.122177
560.946251	2475.382979
561.303065	2467.065075
561.659825	2477.525469
562.016528	2472.307875
562.373177	2469.736887
562.729770	2477.449852
563.086307	2472.106229
563.442789	2470.593883
563.799216	2474.727629
564.155587	2464.267235
564.511904	2459.982254
564.868164	2475.282156
565.224370	2467.014663
565.580520	2468.577421
565.936615	2474.626806
566.292654	2469.988944
566.648638	2478.785758
567.004567	2468.980713
567.360441	2459.629373
567.716260	2469.610858
568.072023	2472.207052
568.427732	2474.374748
568.783385	2471.072792
569.138982	2472.383492
569.494525	2463.158181
569.850013	2471.123204
570.205445	2475.055304
570.560823	2467.216310
570.916145	2464.922585
571.271412	2466.838223
571.626625	2465.073819
571.981782	2461.822275
572.336884	2465.552729
572.691931	2467.594396
573.046923	2467.165898
573.401860	2465.502317
573.756743	2471.476085
574.111570	2469.005919
574.466342	2463.334621
574.821059	2465.376288
575.175722	2476.391210
575.530330	2463.914354
575.884882	2475.962712
576.239380	2474.525983
576.593823	2469.812504
576.948211	2468.527010
577.302544	2462.729683
577.656823	2480.650985
578.011047	2475.811477
578.365216	2469.232771
578.719330	2470.619088
579.073389	2467.896865
579.427394	2465.099025
579.781344	2461.822275
580.135239	2476.592856
580.489080	2470.014150
580.842866	2472.232258
581.196597	2477.172588
581.550273	2472.383492
581.903895	2471.854171
582.257463	2477.273412
582.610975	2465.527523
582.964434	2473.215283
583.317837	2469.283183
583.671186	2466.384519
584.024481	2470.165385
584.377721	2477.475058
584.730906	2463.334621
585.084037	2472.585138
585.437113	2471.476085
585.790135	2477.197794
586.143103	2469.510035
586.496016	2473.996662
586.848874	2468.451392
587.201679	2470.820735
587.554428	2464.090794
587.907124	2473.971456
588.259765	2477.701910
588.612352	2470.745117
588.964884	2468.980713
589.317362	2471.425673
589.669786	2469.585652
590.022155	2470.165385
590.374470	2464.015177
590.726731	2471.526496
591.078937	2462.578448
591.431090	2473.290900
591.783188	2461.822275
592.135232	2468.174129
592.487222	2476.189563
592.839157	2470.719912
593.191038	2467.543985
593.542866	2466.838223
593.894639	2471.274438
594.246358	2468.148923
594.598022	2469.131948
594.949633	2471.123204
595.301190	2466.409725
595.652692	2471.249233
596.004141	2467.115487
596.355535	2473.038842
596.706876	2466.636577
597.058162	2472.862402
597.409395	2460.284723
597.760573	2466.813017
598.111698	2475.861888
598.462768	2471.148410
598.813785	2473.064048
599.164748	2463.309415
599.515657	2468.426187
599.866511	2483.574854
600.217312	2469.837710
600.568060	2481.482775
600.918753	2468.274952
601.269392	2470.997175
601.619978	2469.812504
601.970510	2464.166412
602.320988	2462.225567
602.671412	2472.282669
603.021783	2465.451906
603.372100	2468.703450
603.722363	2465.603140
604.072572	2467.619602
604.422728	2475.836683
604.772830	2463.561473
605.122878	2468.703450
605.472872	2465.099025
605.822813	2464.494087
606.172701	2461.318160
606.522534	2464.368058
606.872314	2459.226081
607.222041	2470.367031
607.571714	2461.872687
607.921333	2469.081537
608.270899	2468.148923
608.620411	2454.109310
608.969870	2470.921558
609.319276	2468.779067
609.668627	2460.511575
610.017926	2470.316619
610.367171	2468.098512
610.716362	2459.100052
611.065500	2464.242029
611.414585	2470.089767
611.763616	2473.744604
612.112594	2467.720425
612.461518	2469.787298
612.810389	2468.073306
613.159207	2473.593369
613.507971	2465.149437
613.856682	2475.282156
614.205340	2466.409725
614.553945	2467.468367
614.902496	2470.896352
615.250994	2468.779067
615.599439	2468.930302
615.947830	2468.148923
616.296169	2469.207565
616.644454	2473.013637
616.992686	2466.460137
617.340864	2465.023408
617.688990	2458.974023
618.037063	2471.501290
618.385082	2461.595423
618.733048	2468.426187
619.080961	2457.083590
619.428821	2469.081537
619.776628	2468.501804
620.124382	2469.560446
620.472083	2471.450879
620.819731	2467.065075
621.167326	2472.837196
621.514868	2470.518265
621.862357	2467.720425
622.209793	2469.056331
622.557176	2461.595423
622.904506	2472.635550
623.251783	2469.409212
623.599007	2470.039356
623.946179	2472.005406
624.293297	2470.619088
624.640363	2475.181333
624.987376	2463.611885
625.334336	2461.166925
625.681243	2467.493573
626.028097	2468.048100
626.374899	2467.518779
626.721647	2467.796042
627.068343	2466.157667
627.414987	2463.889148
627.761577	2458.797583
628.108115	2464.922585
628.454600	2464.393263
628.801032	2466.283696
629.147412	2468.728656
629.493739	2467.594396
629.840014	2467.896865
630.186236	2463.057358
630.532405	2478.004379
630.878521	2469.560446
631.224585	2470.190590
631.570597	2462.880917
631.916556	2471.324850
632.262462	2469.358800
632.608316	2461.015690
632.954117	2469.182360
633.299866	2464.342852
633.645562	2455.193158
633.991206	2466.283696
634.336797	2468.098512
634.682336	2463.183387
635.027823	2463.359827
635.373257	2464.544498
635.718639	2468.073306
636.063968	2473.341312
636.409245	2470.896352
636.754470	2463.889148
637.099642	2470.140179
637.444762	2464.116000
637.789829	2467.165898
638.134845	2468.375775
638.479808	2461.746658
638.824719	2466.258490
639.169577	2461.494600
639.514383	2469.409212
639.859137	2470.543471
640.203839	2468.199335
640.548489	2466.308902
640.893086	2461.217337
641.237632	2471.602113
641.582125	2467.367544
641.926566	2470.493060
642.270955	2462.729683
642.615292	2469.409212
642.959576	2467.569190
643.303809	2461.192131
643.647990	2470.367031
643.992118	2459.629373
644.336195	2462.956535
644.680219	2461.015690
645.024192	2466.964252
645.368112	2466.283696
645.711981	2469.358800
646.055797	2456.705504
646.399562	2468.300158
646.743274	2463.586679
647.086935	2461.242542
647.430544	2463.309415
647.774101	2469.610858
648.117606	2463.233798
648.461059	2461.595423
648.804460	2468.930302
649.147810	2464.468881
649.491108	2462.855712
649.834354	2472.484315
650.177548	2469.434417
650.520690	2463.863942
650.863781	2469.636063
651.206820	2472.181846
651.549807	2469.736887
651.892742	2454.840277
652.235626	2463.132975
652.578458	2463.032152
652.921238	2469.913327
653.263967	2461.822275
653.606644	2466.409725
653.949269	2467.695219
654.291843	2468.980713
654.634365	2459.629373
654.976836	2461.444188
655.319255	2463.032152
655.661622	2467.871660
656.003938	2454.991512
656.346203	2465.703963
656.688416	2462.830506
657.030577	2465.678758
657.372687	2467.317133
657.714746	2470.745117
658.056753	2466.434931
658.398708	2462.830506
658.740612	2464.998202
659.082465	2461.166925
659.424266	2461.166925
659.766016	2468.274952
660.107715	2458.016204
660.449362	2463.107769
660.790958	2469.560446
661.132503	2466.082050
661.473996	2462.049127
661.815438	2459.528550
662.156829	2464.292440
662.498168	2458.318673
662.839456	2468.300158
663.180693	2456.478652
663.521879	2469.862915
663.863013	2476.517238
664.204097	2466.586165
664.545129	2459.377315
664.886110	2465.325877
665.227040	2465.174642
665.567918	2463.107769
665.908746	2469.257977
666.249522	2456.302212
666.590248	2462.074333
666.930922	2462.250773
667.271545	2462.351596
667.612118	2463.032152
667.952639	2465.300671
668.293109	2462.225567
668.633528	2468.804273
668.973896	2457.209619
669.314213	2468.098512
669.654480	2469.888121
669.994695	2459.982254
670.334859	2468.148923
670.674973	2463.813531
671.015035	2465.376288
671.355047	2467.090281
671.695008	2458.747171
672.034918	2457.814558
672.374777	2474.652012
672.714585	2459.629373
673.054342	2465.527523
673.394049	2463.914354
673.733705	2461.746658
674.073310	2468.829479
674.412864	2456.403035
674.752368	2463.309415
675.091820	2456.403035
675.431223	2464.242029
675.770574	2467.266721
676.109875	2462.528037
676.449125	2460.259517
676.788324	2457.789352
677.127473	2459.150463
677.466571	2464.065588
677.805619	2476.668473
678.144616	2457.234825
678.483562	2468.148923
678.822458	2459.831019
679.161303	2463.939560
679.500098	2458.873200
679.838842	2467.796042
680.177535	2460.259517
680.516179	2466.031638
680.854771	2464.821762
681.193314	2465.678758
681.531805	2464.796556
681.870247	2463.460650
682.208638	2464.166412
682.546978	2469.031125
682.885268	2461.368571
683.223508	2464.998202
683.561697	2469.686475
683.899836	2456.957562
684.237925	2472.736373
684.575963	2468.955508
684.913951	2461.519806
685.251889	2464.796556
685.589776	2473.593369
685.927614	2458.974023
686.265401	2459.175669
686.603137	2464.620115
686.940824	2462.704477
687.278460	2468.552215
687.616046	2459.427727
687.953582	2464.065588
688.291068	2463.057358
688.628504	2469.333594
688.965889	2468.123717
689.303224	2468.451392
689.640510	2466.535754
689.977745	2456.352623
690.314930	2459.049640
690.652065	2462.175156
690.989150	2465.779581
691.326185	2457.688529
691.663170	2459.704990
692.000105	2460.561987
692.336990	2456.024948
692.673825	2466.510548
693.010610	2459.226081
693.347345	2461.015690
693.684030	2462.679271
694.020665	2458.469908
694.357251	2460.032665
694.693786	2459.024435
695.030272	2460.335135
695.366707	2460.083077
695.703093	2455.546038
696.039429	2457.386060
696.375716	2462.326390
696.711952	2460.688015
697.048139	2463.233798
697.384276	2465.351083
697.720363	2457.134002
698.056400	2462.729683
698.392388	2458.369085
698.728326	2460.183900
699.064214	2461.847481
699.400053	2464.191617
699.735842	2459.226081
700.071581	2464.267235
700.407270	2469.585652
700.742910	2465.628346
701.078501	2458.520319
701.414042	2459.074846
701.749533	2461.872687
702.084974	2465.502317
702.420366	2464.569704
702.755709	2465.325877
703.091002	2460.083077
703.426246	2463.838737
703.761440	2457.688529
704.096584	2459.528550
704.431679	2467.140692
704.766725	2463.914354
705.101721	2464.645321
705.436668	2462.452419
705.771565	2465.250260
706.106413	2464.796556
706.441212	2466.611371
706.775961	2463.385033
707.110661	2466.737400
707.445311	2462.704477
707.779913	2458.923612
708.114465	2470.165385
708.448967	2463.511062
708.783421	2455.520833
709.117825	2464.947790
709.452180	2463.889148
709.786485	2462.301185
710.120742	2452.697787
710.454949	2450.378856
710.789107	2465.351083
711.123216	2458.343879
711.457275	2460.385546
711.791286	2456.226594
712.125247	2458.747171
712.459159	2458.041410
712.793023	2460.536781
713.126837	2465.703963
713.460602	2461.746658
713.794318	2457.234825
714.127985	2460.536781
714.461602	2463.889148
714.795171	2465.804787
715.128691	2466.359313
715.462162	2458.772377
715.795584	2456.302212
716.128957	2465.300671
716.462281	2456.932356
716.795556	2465.804787
717.128782	2462.275979
717.461960	2460.335135
717.795088	2457.764146
718.128167	2455.470421
718.461198	2460.435958
718.794180	2455.218363
719.127113	2459.125258
719.459997	2465.577935
719.792833	2458.545525
720.125619	2463.132975
720.458357	2453.176696
720.791046	2463.889148
721.123686	2455.672067
721.456278	2461.923098
721.788821	2461.771863
722.121315	2458.671554
722.453761	2457.033179
722.786158	2465.451906
723.118506	2457.436471
723.450805	2456.755915
723.783056	2454.260544
724.115259	2459.906637
724.447412	2461.393777
724.779518	2461.923098
725.111574	2463.989971
725.443582	2459.780608
725.775542	2451.966819
726.107453	2459.553756
726.439315	2457.386060
726.771129	2462.099538
727.102895	2460.688015
727.434612	2459.100052
727.766281	2455.293981
728.097901	2462.956535
728.429473	2464.620115
728.760996	2462.023921
729.092471	2457.411265
729.423897	2461.671040
729.755276	2462.906123
730.086606	2453.579988
730.417887	2461.217337
730.749120	2463.435444
731.080305	2457.915381
731.411442	2464.418469
731.742530	2467.997688
732.073570	2459.679785
732.404562	2466.939046
732.735506	2465.174642
733.066401	2464.393263
733.397249	2461.141719
733.728048	2456.629887
734.058798	2460.385546
734.389501	2466.208079
734.720156	2462.906123
735.050762	2465.577935
735.381320	2467.695219
735.711831	2453.302725
736.042293	2462.880917
736.372707	2465.981227
736.703073	2458.091821
737.033391	2467.720425
737.363661	2466.434931
737.693883	2459.578962
738.024056	2464.191617
738.354182	2462.301185
738.684260	2464.494087
739.014290	2460.158694
739.344272	2456.302212
739.674207	2466.636577
740.004093	2465.729169
740.333931	2450.076387
740.663722	2463.359827
740.993464	2447.303752
741.323159	2458.041410
741.652806	2460.965279
741.982405	2460.561987
742.311956	2463.208592
742.641460	2464.443675
742.970915	2449.118567
743.300323	2456.024948
743.629683	2458.369085
743.958996	2455.798096
744.288260	2461.141719
744.617477	2467.896865
744.946647	2448.664863
745.275768	2461.998715
745.604842	2457.461677
745.933869	2462.175156
746.262847	2454.739454
746.591778	2461.595423
746.920662	2452.697787
747.249498	2456.932356
747.578286	2463.838737
747.907027	2453.781635
748.235720	2465.552729
748.564365	2457.411265
748.892963	2459.150463
749.221514	2452.722992
749.550017	2457.688529
749.878473	2463.006946
750.206881	2448.589246
750.535242	2464.796556
750.863555	2464.947790
751.191821	2455.722479
751.520039	2455.924125
751.848210	2457.310442
752.176334	2468.678244
752.504411	2461.797069
752.832440	2450.605708
753.160421	2455.092335
753.488356	2454.487396
753.816243	2453.983281
754.144082	2461.141719
754.471875	2452.193671
754.799620	2463.385033
755.127318	2457.486883
755.454969	2464.116000
755.782572	2457.688529
756.110129	2451.135029
756.437638	2463.082563
756.765100	2455.420010
757.092515	2466.964252
757.419882	2457.260031
757.747203	2456.554269
758.074477	2453.000256
758.401703	2460.158694
758.728882	2459.528550
759.056014	2458.091821
759.383099	2457.713735
759.710138	2456.579475
760.037129	2453.932869
760.364073	2464.494087
760.690970	2460.940073
761.017820	2454.235338
761.344623	2456.201388
761.671379	2456.024948
761.998088	2462.477625
762.324751	2456.176183
762.651366	2459.856225
762.977935	2459.931842
763.304456	2468.905096
763.630931	2456.226594
763.957359	2459.578962
764.283740	2466.233285
764.610074	2466.964252
764.936362	2463.435444
765.262602	2457.411265
765.588796	2464.594910
765.914943	2463.006946
766.241044	2451.160235
766.567097	2454.563013
766.893104	2456.629887
767.219064	2463.385033
767.544978	2458.847994
767.870845	2462.981740
768.196665	2461.998715
768.522438	2455.823302
768.848165	2464.443675
769.173846	2463.536267
769.499479	2464.141206
769.825066	2465.124231
770.150607	2462.376802
770.476101	2460.360340
770.801548	2456.755915
771.126949	2459.125258
771.452303	2465.275465
771.777611	2460.637604
772.102872	2459.704990
772.428087	2460.940073
772.753256	2465.829992
773.078378	2460.360340
773.403453	2454.689042
773.728482	2457.915381
774.053465	2459.452933
774.378401	2456.428240
774.703291	2460.688015
775.028135	2453.882458
775.352932	2458.797583
775.677683	2462.351596
776.002388	2449.849535
776.327046	2451.891202
776.651658	2453.832046
776.976224	2454.210133
777.300743	2458.923612
777.625216	2445.161262
777.949643	2456.604681
778.274024	2454.310956
778.598359	2462.880917
778.922647	2454.537808
779.246889	2451.941613
779.571086	2455.293981
779.895236	2457.310442
780.219339	2459.881431
780.543397	2461.292954
780.867409	2461.393777
781.191374	2457.915381
781.515294	2458.495113
781.839167	2461.645835
782.162995	2459.150463
782.486776	2460.536781
782.810511	2457.360854
783.134201	2453.731223
783.457844	2458.268262
783.781441	2458.016204
784.104993	2458.696760
784.428498	2457.083590
784.751958	2465.628346
785.075372	2453.353137
785.398739	2458.847994
785.722061	2465.552729
786.045337	2456.755915
786.368568	2466.485342
786.691752	2463.132975
787.014891	2465.124231
787.337983	2453.756429
787.661030	2461.797069
787.984031	2455.596450
788.306987	2460.788838
788.629897	2457.940587
788.952760	2463.208592
789.275579	2462.528037
789.598351	2458.091821
789.921078	2460.486369
790.243759	2463.788325
790.566395	2456.907150
790.888984	2453.277519
791.211529	2460.007460
791.534027	2453.857252
791.856480	2458.671554
792.178888	2459.024435
792.501249	2455.546038
792.823566	2455.167952
793.145836	2451.941613
793.468062	2463.989971
793.790241	2445.614965
794.112375	2449.143773
794.434464	2449.068156
794.756507	2460.259517
795.078505	2459.175669
795.400457	2457.587706
795.722364	2456.529063
796.044226	2462.452419
796.366042	2453.453960
796.687812	2450.303238
797.009538	2455.798096
797.331218	2459.578962
797.652852	2445.539348
797.974442	2451.916408
798.295986	2459.024435
798.617484	2459.049640
798.938938	2461.897892
799.260346	2460.713221
799.581709	2444.279060
799.903026	2457.890175
800.224299	2451.387087
800.545526	2459.452933
800.866708	2449.370625
801.187845	2451.185440
801.508936	2449.295008
801.829983	2461.066102
802.150984	2454.084104
802.471940	2453.428754
802.792851	2466.233285
803.113717	2458.167438
803.434538	2463.107769
803.755314	2460.007460
804.076045	2452.420523
804.396731	2454.915894
804.717372	2460.209106
805.037967	2461.696246
805.358518	2461.797069
805.679024	2458.873200
805.999485	2453.176696
806.319901	2455.823302
806.640272	2462.099538
806.960598	2456.277006
807.280879	2459.427727
807.601115	2462.553242
807.921306	2463.662296
808.241453	2452.672581
808.561554	2452.395317
808.881611	2456.957562
809.201623	2450.025975
809.521590	2450.756942
809.841513	2465.653552
810.161390	2459.024435
810.481223	2453.327931
810.801011	2460.410752
811.120755	2448.438012
811.440453	2455.924125
811.760107	2454.941100
812.079716	2455.546038
812.399281	2454.613425
812.718801	2457.083590
813.038276	2457.612912
813.357707	2453.504371
813.677093	2453.176696
813.996434	2459.352110
814.315731	2463.385033
814.634983	2456.856738
814.954191	2451.185440
815.273354	2467.846454
815.592473	2455.268775
815.911547	2455.646862
816.230577	2457.335648
816.549562	2465.703963
816.868502	2456.730710
817.187399	2450.126798
817.506250	2454.991512
817.825058	2451.613938
818.143821	2454.941100
818.462539	2455.974537
818.781213	2459.402521
819.099843	2457.612912
819.418429	2465.829992
819.736970	2462.729683
820.055466	2464.468881
820.373919	2457.814558
820.692327	2456.781121
821.010691	2456.629887
821.329011	2461.948304
821.647286	2452.823815
821.965517	2455.646862
822.283704	2462.175156
822.601847	2464.695733
822.919945	2469.182360
823.237999	2463.889148
823.556010	2462.603654
823.873976	2458.293467
824.191897	2458.822788
824.509775	2462.175156
824.827609	2452.798610
825.145398	2448.110337
825.463144	2468.375775
825.780845	2456.982767
826.098502	2463.511062
826.416116	2461.267748
826.733685	2458.671554
827.051210	2461.192131
827.368692	2464.872173
827.686129	2449.899946
828.003522	2457.688529
828.320872	2468.148923
828.638177	2452.294494
828.955439	2460.360340
829.272656	2447.555810
829.589830	2457.839763
829.906960	2457.486883
830.224046	2450.353650
830.541088	2466.560960
830.858086	2450.605708
831.175041	2457.184413
831.491952	2462.023921
831.808819	2454.184927
832.125642	2455.117540
832.442421	2460.637604
832.759157	2465.275465
833.075849	2459.704990
833.392497	2467.896865
833.709101	2454.310956
834.025662	2467.039869
834.342179	2455.571244
834.658653	2458.066615
834.975083	2463.284210
835.291469	2453.832046
835.607811	2457.789352
835.924110	2457.965792
836.240366	2449.773917
836.556578	2458.369085
836.872746	2461.141719
837.188871	2462.225567
837.504952	2458.570731
837.820990	2458.091821
838.136984	2457.587706
838.452935	2462.099538
838.768842	2446.421550
839.084706	2453.781635
839.400526	2451.639144
839.716303	2460.435958
840.032037	2451.714762
840.347727	2452.470935
840.663373	2452.395317
840.978977	2453.806840
841.294537	2449.975563
841.610054	2455.167952
841.925527	2446.194698
842.240957	2460.309929
842.556344	2455.924125
842.871687	2450.177210
843.186987	2453.101079
843.502244	2459.301698
843.817458	2456.100565
844.132629	2455.445215
844.447756	2460.284723
844.762840	2458.192644
845.077881	2456.806327
845.392879	2452.773404
845.707833	2450.227621
846.022745	2453.453960
846.337613	2461.923098
846.652438	2449.345419
846.967221	2459.276492
847.281960	2444.581529
847.596656	2452.647375
847.911309	2448.866510
848.225919	2448.816098
848.540485	2455.394804
848.855009	2455.747685
849.169490	2452.470935
849.483928	2450.152004
849.798323	2458.721965
850.112675	2454.689042
850.426984	2457.814558
850.741251	2453.655606
851.055474	2452.143260
851.369654	2455.823302
851.683792	2450.025975
851.997887	2462.855712
852.311938	2455.092335
852.625947	2452.874227
852.939914	2456.529063
853.253837	2456.478652
853.567718	2454.260544
853.881555	2455.117540
854.195350	2466.132462
854.509103	2455.873713
854.822812	2454.310956
855.136479	2455.646862
855.450103	2451.437498
855.763685	2452.596963
856.077224	2447.505398
856.390720	2456.150977
856.704173	2454.285750
857.017584	2461.091308
857.330953	2450.656119
857.644278	2451.992025
857.957561	2464.141206
858.270802	2452.344906
858.584000	2455.747685
858.897155	2452.546552
859.210268	2451.387087
859.523339	2451.840790
859.836367	2454.613425
860.149352	2453.504371
860.462295	2455.167952
860.775195	2448.185954
861.088054	2451.437498
861.400869	2463.208592
861.713642	2457.814558
862.026373	2450.555296
862.339062	2457.159208
862.651708	2456.050154
862.964312	2451.689556
863.276873	2461.015690
863.589392	2456.024948
863.901869	2464.494087
864.214303	2448.891715
864.526696	2453.151490
864.839045	2453.504371
865.151353	2454.512602
865.463619	2457.184413
865.775842	2460.889662
866.088023	2449.395831
866.400162	2450.983794
866.712258	2453.731223
867.024313	2458.117027
867.336325	2454.134515
867.648296	2454.563013
867.960224	2454.184927
868.272110	2453.201902
868.583954	2457.814558
868.895755	2452.344906
869.207515	2459.478138
869.519233	2460.183900
869.830909	2457.587706
870.142542	2446.497167
870.454134	2454.915894
870.765684	2453.327931
871.077191	2449.925152
871.388657	2461.998715
871.700081	2447.782662
872.011463	2463.939560
872.322803	2445.816612
872.634101	2458.797583
872.945357	2451.992025
873.256571	2452.067642
873.567744	2450.101592
873.878874	2453.479165
874.189963	2456.327417
874.501010	2458.243056
874.812015	2451.059412
875.122979	2457.083590
875.433900	2457.083590
875.744780	2463.132975
876.055618	2451.992025
876.366415	2461.645835
876.677169	2448.992538
876.987882	2451.487910
877.298554	2457.436471
877.609183	2457.436471
877.919771	2452.067642
878.230317	2452.092848
878.540822	2451.714762
878.851285	2453.983281
879.161707	2466.838223
879.472087	2456.125771
879.782425	2446.875254
880.092722	2456.806327
880.402977	2451.941613
880.713191	2460.511575
881.023363	2452.647375
881.333494	2460.461163
881.643583	2457.965792
881.953631	2456.403035
882.263637	2451.261058
882.573602	2463.536267
882.883526	2461.797069
883.193408	2461.721452
883.503248	2460.158694
883.813048	2451.613938
884.122806	2452.596963
884.432522	2450.429267
884.742197	2454.411779
885.051831	2451.815585
885.361424	2462.427213
885.670975	2459.074846
885.980485	2457.990998
886.289954	2456.932356
886.599382	2458.772377
886.908768	2449.295008
887.218113	2445.110850
887.527417	2456.125771
887.836680	2442.313010
888.145901	2451.462704
888.455082	2460.007460
888.764221	2451.538321
889.073319	2462.074333
889.382376	2451.941613
889.691392	2453.983281
890.000366	2450.227621
890.309300	2455.193158
890.618193	2452.521346
890.927044	2456.050154
891.235855	2458.268262
891.544625	2451.891202
891.853353	2448.664863
892.162041	2449.295008
892.470687	2451.437498
892.779293	2455.974537
893.087858	2449.547065
893.396381	2457.411265
893.704864	2451.538321
894.013306	2456.730710
894.321707	2453.453960
894.630068	2454.915894
894.938387	2449.143773
895.246665	2461.242542
895.554903	2457.814558
895.863100	2455.722479
896.171256	2452.118054
896.479371	2460.259517
896.787446	2457.663323
897.095480	2450.429267
897.403473	2452.269288
897.711425	2453.756429
898.019336	2454.436985
898.327207	2454.714248
898.635038	2451.538321
898.942827	2453.932869
899.250576	2454.336162
899.558284	2451.059412
899.865952	2461.545012
900.173579	2454.159721
900.481165	2454.235338
900.788711	2454.714248
901.096216	2454.815071
901.403681	2451.513115
901.711105	2457.738940
902.018489	2454.462190
902.325832	2451.739967
902.633135	2437.574325
902.940397	2453.075873
903.247619	2447.807867
903.554800	2446.245110
903.861941	2452.849021
904.169041	2453.504371
904.476101	2455.117540
904.783121	2449.471448
905.090100	2451.084617
905.397039	2450.756942
905.703938	2449.295008
906.010796	2450.177210
906.317614	2455.672067
906.624391	2449.042950
906.931129	2453.050667
907.237826	2456.201388
907.544483	2460.108283
907.851099	2453.579988
908.157675	2446.169492
908.464211	2455.142746
908.770707	2452.823815
909.077163	2449.471448
909.383578	2453.932869
909.689954	2452.344906
909.996289	2446.673608
910.302584	2451.210646
910.608839	2442.010540
910.915054	2457.562500
911.221229	2463.359827
911.527363	2450.857765
911.833458	2460.183900
912.139513	2452.546552
912.445527	2452.244083
912.751502	2450.000769
913.057436	2453.907663
913.363331	2457.310442
913.669186	2440.422577
913.975000	2453.252313
914.280775	2450.782148
914.586510	2449.824329
914.892205	2451.966819
915.197859	2454.613425
915.503475	2449.143773
915.809050	2461.015690
916.114585	2454.436985
916.420081	2456.024948
916.725536	2461.771863
917.030952	2452.218877
917.336328	2459.528550
917.641665	2447.076900
917.946961	2451.412292
918.252218	2445.539348
918.557435	2447.328958
918.862612	2454.159721
919.167750	2456.680298
919.472848	2460.688015
919.777906	2462.200362
920.082925	2450.832560
920.387904	2461.797069
920.692843	2455.747685
920.997743	2449.471448
921.302603	2449.168979
921.607423	2448.564040
921.912204	2455.999742
922.216946	2459.805813
922.521647	2454.563013
922.826310	2456.730710
923.130932	2465.451906
923.435516	2451.714762
923.740059	2452.017231
924.044564	2445.690583
924.349028	2443.522887
924.653454	2463.763119
924.957840	2452.445729
925.262186	2458.167438
925.566493	2459.402521
925.870761	2444.505912
926.174989	2457.915381
926.479178	2451.588733
926.783328	2447.026488
927.087438	2456.705504
927.391509	2455.848508
927.695541	2457.007973
927.999533	2456.478652
928.303486	2451.639144
928.607400	2455.420010
928.911275	2458.873200
929.215110	2443.648915
929.518906	2451.387087
929.822663	2455.798096
930.126381	2452.596963
930.430060	2451.639144
930.733699	2455.142746
931.037299	2447.505398
931.340861	2455.546038
931.644383	2454.084104
931.947866	2449.925152
932.251309	2455.218363
932.554714	2455.924125
932.858080	2450.706531
933.161407	2449.345419
933.464694	2456.957562
933.767943	2444.102619
934.071153	2458.797583
934.374323	2455.445215
934.677455	2449.925152
934.980548	2457.436471
935.283602	2449.168979
935.586617	2454.613425
935.889593	2451.790379
936.192530	2450.706531
936.495428	2455.092335
936.798287	2445.539348
937.101108	2454.033692
937.403890	2453.529577
937.706632	2446.774431
938.009336	2450.076387
938.312002	2454.033692
938.614628	2453.479165
938.917216	2451.588733
939.219765	2446.245110
939.522275	2446.547579
939.824747	2455.621656
940.127179	2450.832560
940.429573	2450.504885
940.731929	2457.537294
941.034246	2459.427727
941.336524	2453.605194
941.638763	2454.084104
941.940964	2445.589760
942.243126	2453.882458
942.545250	2442.338215
942.847335	2453.201902
943.149381	2454.714248
943.451389	2455.848508
943.753359	2453.832046
944.055290	2451.966819
944.357182	2455.167952
944.659036	2453.605194
944.960851	2451.009000
945.262628	2445.161262
945.564367	2453.227108
945.866067	2451.286263
946.167729	2457.033179
946.469352	2444.707558
946.770937	2449.849535
947.072484	2456.781121
947.373992	2455.747685
947.675462	2447.858279
947.976893	2450.731737
948.278286	2450.227621
948.579641	2455.218363
948.880958	2452.244083
949.182236	2447.581015
949.483476	2457.461677
949.784678	2451.639144
950.085841	2451.765173
950.386967	2456.277006
950.688054	2446.547579
950.989103	2459.301698
951.290114	2448.614452
951.591087	2458.217850
951.892021	2448.564040
952.192917	2455.672067
952.493776	2443.170006
952.794596	2449.824329
953.095378	2448.236365
953.396122	2452.798610
953.696828	2454.588219
953.997496	2448.992538
954.298126	2462.528037
954.598718	2446.371138
954.899272	2461.519806
955.199788	2454.235338
955.500266	2451.916408
955.800706	2450.378856
956.101108	2455.167952
956.401472	2456.403035
956.701798	2452.975050
957.002087	2444.379883
957.302337	2450.051181
957.602550	2450.177210
957.902724	2450.706531
958.202861	2455.571244
958.502960	2451.563527
958.803022	2460.083077
959.103045	2456.579475
959.403031	2465.880404
959.702979	2446.799637
960.002889	2452.773404
960.302762	2446.749225
960.602596	2454.033692
960.902393	2455.999742
961.202153	2457.612912
961.501875	2453.050667
961.801559	2454.815071
962.101205	2445.514142
962.400814	2450.555296
962.700385	2444.127825
962.999918	2443.346446
963.299414	2449.068156
963.598873	2448.387600
963.898293	2445.967846
964.197677	2451.286263
964.497022	2447.354163
964.796331	2451.588733
965.095601	2447.454987
965.394835	2448.942127
965.694030	2448.790892
965.993189	2453.680812
966.292309	2454.109310
966.591393	2448.967333
966.890439	2453.101079
967.189447	2451.185440
967.488419	2446.219904
967.787353	2458.293467
968.086249	2447.202929
968.385108	2456.932356
968.683930	2443.850562
968.982714	2455.016717
969.281462	2449.496654
969.580172	2442.943154
969.878844	2451.588733
970.177480	2451.891202
970.476078	2445.161262
970.774639	2444.606735
971.073162	2453.353137
971.371649	2448.765687
971.670098	2447.429781
971.968510	2450.227621
972.266885	2451.034206
972.565223	2449.572271
972.863524	2457.285237
973.161788	2446.446756
973.460014	2454.411779
973.758204	2439.111877
974.056356	2452.647375
974.354471	2450.504885
974.652550	2458.570731
974.950591	2454.008487
975.248595	2456.428240
975.546563	2454.084104
975.844493	2455.520833
976.142386	2445.917435
976.440243	2452.017231
976.738062	2448.967333
977.035845	2447.933896
977.333590	2449.673094
977.631299	2447.883485
977.928971	2449.622683
978.226606	2448.942127
978.524204	2449.345419
978.821765	2443.548092
979.119290	2447.555810
979.416777	2453.378342
979.714228	2457.108796
980.011642	2441.128338
980.309020	2454.764660
980.606360	2455.646862
980.903664	2444.178237
981.200931	2448.942127
981.498162	2449.698300
981.795356	2448.412806
982.092513	2450.051181
982.389633	2450.756942
982.686717	2457.890175
982.983764	2448.790892
983.280775	2455.495627
983.577749	2452.269288
983.874686	2442.867537
984.171587	2445.993052
984.468451	2447.354163
984.765279	2457.285237
985.062070	2451.966819
985.358824	2448.916921
985.655543	2449.773917
985.952224	2449.950358
986.248869	2450.706531
986.545478	2453.403548
986.842050	2445.337702
987.138586	2449.093362
987.435086	2453.403548
987.731549	2450.882971
988.027975	2449.093362
988.324366	2446.018258
988.620719	2452.571758
988.917037	2451.966819
989.213318	2443.648915
989.509563	2444.606735
989.805772	2457.108796
990.101944	2456.478652
990.398080	2448.816098
990.694180	2443.875767
990.990244	2448.765687
991.286271	2446.673608
991.582262	2448.261571
991.878217	2451.109823
992.174136	2454.184927
992.470019	2455.092335
992.765865	2444.379883
993.061676	2450.051181
993.357450	2440.750252
993.653188	2458.621142
993.948890	2444.757969
994.244556	2449.143773
994.540186	2440.876281
994.835780	2448.513629
995.131337	2450.126798
995.426859	2443.195212
995.722345	2436.742535
996.017795	2446.371138
996.313208	2449.345419
996.608586	2456.226594
996.903928	2449.925152
997.199234	2448.412806
997.494504	2452.067642
997.789738	2449.219390
998.084936	2446.270315
998.380099	2454.613425
998.675225	2452.823815
998.970316	2449.572271
999.265371	2447.202929
999.560390	2445.211673
999.855373	2443.170006
1000.150320	2443.573298
1000.445232	2452.571758
1000.740108	2444.077413
1001.034948	2456.050154
1001.329752	2450.782148
1001.624521	2450.832560
1001.919254	2437.549119
1002.213951	2449.168979
1002.508613	2449.824329
1002.803239	2454.386573
1003.097829	2442.413833
1003.392384	2453.453960
1003.686903	2454.714248
1003.981386	2457.486883
1004.275834	2446.875254
1004.570246	2457.184413
1004.864623	2445.993052
1005.158964	2453.050667
1005.453270	2449.824329
1005.747540	2446.724019
1006.041775	2447.732250
1006.335974	2448.690069
1006.630138	2454.537808
1006.924266	2452.823815
1007.218359	2455.445215
1007.512416	2456.024948
1007.806438	2448.059925
1008.100425	2443.497681
1008.394376	2443.900973
1008.688292	2444.556323
1008.982172	2446.371138
1009.276017	2448.538835
1009.569827	2448.135542
1009.863602	2453.227108
1010.157341	2452.697787
1010.451045	2449.496654
1010.744714	2449.622683
1011.038347	2451.261058
1011.331945	2451.412292
1011.625508	2454.663837
1011.919036	2450.605708
1012.212528	2450.479679
1012.505986	2455.672067
1012.799408	2451.790379
1013.092795	2448.639658
1013.386147	2454.689042
1013.679464	2447.581015
1013.972745	2450.328444
1014.265992	2448.311983
1014.559204	2454.789865
1014.852380	2455.823302
1015.145521	2458.192644
1015.438628	2450.404062
1015.731699	2451.865996
1016.024736	2453.176696
1016.317737	2446.320727
1016.610703	2445.993052
1016.903635	2450.303238
1017.196531	2449.622683
1017.489393	2444.178237
1017.782219	2448.790892
1018.075011	2451.311469
1018.367768	2448.236365
1018.660490	2458.091821
1018.953177	2458.091821
1019.245829	2458.091821
