Dividing Wavelength (nm)	Counts (n)	Slit_number_33_of_a_total_of_40	
326.493990	2129.131327
326.888308	2129.131327
327.282561	2129.131327
327.676750	2117.200596
328.070874	2120.057250
328.464933	2121.317538
328.858929	2129.467404
329.252859	2148.203692
329.646726	2157.949923
330.040528	2183.911865
330.434265	2195.926615
330.827938	2214.830942
331.221547	2225.165308
331.615091	2247.430404
332.008571	2269.611481
332.401986	2292.044615
332.795338	2303.555250
333.188625	2330.189346
333.581847	2355.143058
333.975006	2376.483942
334.368100	2394.043962
334.761129	2414.796712
335.154095	2422.694519
335.546996	2448.152346
335.939833	2454.285750
336.332606	2463.611885
336.725315	2465.544327
337.117960	2474.870462
337.510540	2490.498038
337.903056	2512.259019
338.295508	2510.494615
338.687896	2513.183231
339.080220	2526.122192
339.472480	2523.853673
339.864676	2523.181519
340.256807	2554.268635
340.648875	2521.921231
341.040879	2520.913000
341.432818	2553.512462
341.824694	2546.538865
342.216506	2533.431865
342.608253	2544.102308
342.999937	2537.212731
343.391557	2549.647577
343.783113	2532.507654
344.174605	2535.196269
344.566033	2537.548808
344.957397	2529.735019
345.348697	2543.682212
345.739934	2534.944212
346.131106	2535.364308
346.522215	2516.544000
346.913260	2525.113962
347.304241	2522.257308
347.695159	2537.968904
348.086012	2510.074519
348.476802	2516.964096
348.867528	2511.082750
349.258191	2511.250788
349.648789	2518.644481
350.039324	2506.545712
350.429796	2507.553942
350.820203	2513.099212
351.210548	2515.367731
351.600828	2499.824173
351.991045	2507.890019
352.381198	2502.932885
352.771288	2514.191462
353.161314	2519.568692
353.551276	2503.521019
353.941175	2509.066288
354.331010	2519.652712
354.720782	2509.906481
355.110490	2522.341327
355.500135	2536.792635
355.889717	2511.838923
356.279235	2509.570404
356.668689	2510.074519
357.058080	2511.418827
357.447408	2522.257308
357.836672	2498.059769
358.225873	2512.679115
358.615010	2508.478154
359.004084	2515.199692
359.393095	2501.924654
359.782043	2519.652712
360.170927	2508.142077
360.559748	2512.847154
360.948505	2521.921231
361.337199	2526.038173
361.725830	2506.377673
362.114398	2513.267250
362.502903	2514.947635
362.891344	2507.217865
363.279722	2500.076231
363.668037	2533.851962
364.056289	2525.450038
364.444478	2529.230904
364.832603	2518.224385
365.220665	2515.199692
365.608665	2522.845442
365.996601	2522.173288
366.384474	2539.985365
366.772284	2517.972327
367.160031	2533.011769
367.547715	2528.642769
367.935336	2516.880077
368.322893	2512.259019
368.710388	2527.634538
369.097820	2519.904769
369.485189	2516.459981
369.872495	2528.558750
370.259738	2522.341327
370.646918	2532.927750
371.034035	2526.458269
371.421090	2532.507654
371.808081	2540.993596
372.195010	2518.980558
372.581875	2536.960673
372.968678	2525.702096
373.355418	2523.937692
373.742096	2511.670885
374.128710	2517.048115
374.515262	2519.148596
374.901751	2532.927750
375.288177	2535.196269
375.674540	2520.324865
376.060841	2538.304981
376.447079	2517.636250
376.833254	2537.296750
377.219367	2522.929462
377.605417	2523.097500
377.991404	2536.708615
378.377329	2523.181519
378.763191	2514.947635
379.148991	2528.978846
379.534727	2542.001827
379.920402	2524.861904
380.306013	2515.871846
380.691563	2527.550519
381.077049	2520.997019
381.462474	2525.954154
381.847835	2527.886596
382.233134	2537.632827
382.618371	2535.448327
383.003545	2544.690442
383.388657	2529.735019
383.773706	2525.618077
384.158693	2538.052923
384.543618	2539.901346
384.928480	2541.833788
385.313280	2544.270346
385.698017	2530.911288
386.082692	2541.665750
386.467305	2546.874942
386.851856	2540.489481
387.236344	2519.652712
387.620770	2546.286808
388.005133	2535.532346
388.389435	2538.557038
388.773674	2533.179808
389.157851	2530.995308
389.541965	2531.499423
389.926018	2527.130423
390.310008	2539.229192
390.693936	2517.216154
391.077802	2542.505942
391.461606	2542.926038
391.845348	2524.945923
392.229027	2528.222673
392.612645	2525.197981
392.996200	2546.034750
393.379694	2539.817327
393.763125	2528.138654
394.146494	2541.329673
394.529801	2522.593385
394.913047	2524.525827
395.296230	2530.155115
395.679351	2551.832077
396.062410	2540.657519
396.445408	2519.652712
396.828343	2562.502519
397.211217	2543.766231
397.594028	2530.995308
397.976778	2545.278577
398.359466	2528.138654
398.742092	2537.884885
399.124656	2550.319731
399.507158	2533.095788
399.889598	2574.517269
400.271977	2533.011769
400.654294	2537.716846
401.036549	2547.379058
401.418742	2548.051212
401.800874	2534.356077
402.182944	2535.784404
402.564952	2549.983654
402.946898	2542.001827
403.328783	2550.403750
403.710606	2540.657519
404.092367	2523.937692
404.474067	2549.647577
404.855705	2545.194558
405.237282	2543.514173
405.618797	2546.202788
406.000250	2529.903058
406.381642	2552.924327
406.762972	2533.347846
407.144240	2529.819038
407.525447	2539.901346
407.906593	2529.230904
408.287677	2536.708615
408.668700	2547.295038
409.049661	2524.357788
409.430560	2544.354365
409.811399	2548.891404
410.192176	2533.683923
410.572891	2538.220962
410.953545	2539.985365
411.334138	2554.772750
411.714669	2548.471308
412.095139	2551.243942
412.475547	2557.965481
412.855894	2540.825558
413.236180	2552.672269
413.616405	2552.084135
413.996568	2561.326250
414.376670	2537.044692
414.756711	2553.008346
415.136691	2544.354365
415.516609	2533.431865
415.896466	2550.571788
416.276262	2535.616365
416.655997	2518.896538
417.035670	2551.832077
417.415283	2554.856769
417.794834	2539.985365
418.174324	2550.067673
418.553753	2544.354365
418.933121	2538.136942
419.312428	2556.705192
419.691674	2536.792635
420.070859	2565.275154
420.449983	2552.504231
420.829045	2551.327962
421.208047	2543.850250
421.586988	2544.690442
421.965867	2544.102308
422.344686	2530.827269
422.723444	2555.696962
423.102141	2537.632827
423.480777	2559.561846
423.859352	2554.772750
424.237866	2543.514173
424.616319	2555.024808
424.994712	2551.411981
425.373044	2542.842019
425.751314	2536.624596
426.129524	2551.916096
426.507673	2537.464788
426.885762	2558.301558
427.263789	2559.897923
427.641756	2554.436673
428.019662	2554.184615
428.397508	2547.379058
428.775292	2547.799154
429.153016	2565.023096
429.530679	2536.456558
429.908282	2547.379058
430.285824	2549.479538
430.663305	2540.657519
431.040726	2552.924327
431.418086	2567.207596
431.795385	2560.065962
432.172624	2549.395519
432.549802	2561.578308
432.926920	2582.247038
433.303977	2539.061154
433.680974	2550.487769
434.057910	2551.748058
434.434786	2546.286808
434.811601	2548.639346
435.188355	2542.421923
435.565050	2534.440096
435.941683	2551.496000
436.318257	2556.117058
436.694770	2550.067673
437.071222	2556.957250
437.447614	2545.362596
437.823946	2548.639346
438.200218	2563.846827
438.576429	2564.687019
438.952580	2582.583115
439.328670	2561.074192
439.704700	2550.403750
440.080670	2559.141750
440.456580	2548.807385
440.832429	2551.075904
441.208218	2555.024808
441.583947	2561.998404
441.959616	2559.393808
442.335224	2546.034750
442.710773	2559.897923
443.086261	2552.672269
443.461689	2556.285096
443.837057	2544.186327
444.212365	2561.074192
444.587612	2551.916096
444.962800	2552.168154
445.337927	2549.059442
445.712995	2558.049500
446.088002	2539.817327
446.462949	2567.291615
446.837837	2549.983654
447.212664	2555.024808
447.587431	2561.998404
447.962139	2561.242231
448.336786	2560.654096
448.711374	2554.352654
449.085901	2580.566654
449.460369	2548.051212
449.834776	2566.031327
450.209124	2564.687019
450.583412	2542.169865
450.957640	2549.563558
451.331808	2559.393808
451.705917	2561.746346
452.079965	2553.428442
452.453954	2547.463077
452.827883	2562.922615
453.201752	2552.924327
453.575562	2563.006635
453.949311	2544.186327
454.323001	2559.477827
454.696632	2562.502519
455.070202	2559.057731
455.443713	2555.108827
455.817164	2569.896212
456.190556	2547.799154
456.563888	2559.645865
456.937160	2559.477827
457.310373	2576.701769
457.683526	2556.705192
458.056619	2560.990173
458.429653	2552.252173
458.802628	2547.631115
459.175542	2565.443192
459.548398	2568.719942
459.921194	2562.670558
460.293930	2567.963769
460.666607	2569.812192
461.039224	2555.192846
461.411782	2559.897923
461.784280	2550.067673
462.156719	2545.698673
462.529099	2554.856769
462.901419	2565.275154
463.273680	2560.486058
463.645882	2559.897923
464.018024	2547.799154
464.390106	2570.652385
464.762130	2545.950731
465.134094	2550.655808
465.505999	2553.344423
465.877845	2563.678788
466.249631	2560.906154
466.621358	2532.087558
466.993026	2565.947308
467.364634	2568.383865
467.736184	2563.762808
468.107674	2549.899635
468.479105	2548.471308
468.850477	2562.838596
469.221790	2542.505942
469.593043	2552.504231
469.964238	2558.469596
470.335373	2560.486058
470.706449	2555.528923
471.077467	2542.169865
471.448425	2559.729885
471.819324	2573.509038
472.190164	2560.738115
472.560945	2564.182904
472.931667	2562.250462
473.302330	2555.192846
473.672934	2565.947308
474.043479	2548.219250
474.413965	2547.631115
474.784393	2555.949019
475.154761	2566.871519
475.525070	2555.612942
475.895321	2566.199365
476.265513	2566.367404
476.635645	2562.166442
477.005719	2560.654096
477.375734	2559.057731
477.745691	2563.762808
478.115588	2565.779269
478.485427	2561.914385
478.855207	2555.865000
479.224928	2563.090654
479.594591	2564.350942
479.964194	2560.402038
480.333739	2568.215827
480.703226	2561.326250
481.072653	2567.963769
481.442022	2564.603000
481.811333	2573.761096
482.180584	2564.687019
482.549777	2565.443192
482.918912	2558.469596
483.287988	2556.873231
483.657005	2566.703481
484.025964	2558.217538
484.394864	2570.484346
484.763706	2551.496000
485.132489	2560.065962
485.501213	2559.309788
485.869879	2563.174673
486.238487	2566.703481
486.607036	2555.528923
486.975527	2563.258692
487.343959	2564.434962
487.712333	2560.149981
488.080648	2560.402038
488.448905	2565.527212
488.817104	2564.434962
489.185244	2566.115346
489.553326	2549.563558
489.921350	2562.418500
490.289315	2559.309788
490.657222	2569.980231
491.025070	2552.336192
491.392861	2559.309788
491.760593	2565.191135
492.128267	2558.805673
492.495883	2566.955538
492.863440	2557.629404
493.230939	2553.680500
493.598380	2574.097173
493.965763	2556.789212
494.333088	2552.252173
494.700354	2568.047788
495.067563	2575.609519
495.434713	2562.670558
495.801805	2568.215827
496.168839	2559.561846
496.535815	2572.584827
496.902733	2561.494288
497.269593	2564.098885
497.636395	2537.212731
498.003139	2577.037846
498.369825	2570.568365
498.736453	2566.367404
499.103023	2569.476115
499.469535	2560.234000
499.835989	2558.301558
500.202385	2556.285096
500.568723	2556.117058
500.935003	2583.255269
501.301226	2559.141750
501.667390	2560.149981
502.033497	2560.738115
502.399546	2565.359173
502.765537	2561.914385
503.131470	2559.393808
503.497345	2562.082423
503.863163	2559.057731
504.228923	2539.313212
504.594625	2568.131808
504.960269	2567.627692
505.325856	2566.115346
505.691385	2564.855058
506.056856	2552.084135
506.422270	2562.166442
506.787625	2572.080712
507.152924	2554.520692
507.518164	2552.252173
507.883347	2566.955538
508.248472	2573.593058
508.613540	2567.879750
508.978550	2561.326250
509.343503	2574.181192
509.708398	2577.373923
510.073236	2568.131808
510.438016	2565.443192
510.802738	2574.937365
511.167403	2573.004923
511.532010	2552.756288
511.896561	2558.553615
512.261053	2561.494288
512.625488	2557.377346
512.989866	2570.652385
513.354186	2581.490865
513.718449	2564.182904
514.082655	2554.100596
514.446803	2560.486058
514.810894	2562.922615
515.174927	2588.548481
515.538904	2553.008346
515.902822	2559.141750
516.266684	2547.547096
516.630488	2561.746346
516.994235	2566.535442
517.357925	2567.711712
517.721558	2575.105404
518.085133	2585.523788
518.448651	2551.664038
518.812112	2556.621173
519.175516	2566.283385
519.538863	2556.453135
519.902152	2564.687019
520.265385	2578.970288
520.628560	2551.916096
520.991678	2565.443192
521.354739	2577.373923
521.717743	2562.670558
522.080690	2556.453135
522.443580	2565.779269
522.806413	2564.687019
523.169189	2556.705192
523.531908	2568.383865
523.894569	2570.904442
524.257174	2569.644154
524.619722	2548.639346
524.982213	2562.418500
525.344647	2566.283385
525.707025	2566.031327
526.069345	2561.746346
526.431608	2571.240519
526.793815	2556.705192
527.155964	2560.822135
527.518057	2550.403750
527.880093	2570.652385
528.242072	2542.169865
528.603995	2577.878038
528.965860	2562.166442
529.327669	2581.490865
529.689421	2563.762808
530.051117	2549.227481
530.412755	2548.303269
530.774337	2573.004923
531.135862	2572.584827
531.497331	2560.318019
531.858743	2570.316308
532.220098	2579.726462
532.581396	2568.719942
532.942638	2569.560135
533.303824	2562.082423
533.664953	2558.301558
534.026025	2551.664038
534.387040	2558.301558
534.747999	2558.469596
535.108902	2562.502519
535.469748	2571.828654
535.830537	2578.214115
536.191270	2576.029615
536.551947	2562.502519
536.912567	2560.486058
537.273131	2564.434962
537.633638	2578.550192
537.994089	2570.988462
538.354483	2584.347519
538.714821	2557.545385
539.075103	2563.762808
539.435328	2558.973712
539.795497	2553.344423
540.155609	2560.822135
540.515665	2577.205885
540.875665	2556.621173
541.235609	2562.082423
541.595496	2555.192846
541.955328	2565.023096
542.315102	2566.871519
542.674821	2575.189423
543.034483	2554.940788
543.394090	2559.645865
543.753640	2577.625981
544.113134	2566.703481
544.472571	2565.527212
544.831953	2565.863288
545.191278	2565.443192
545.550548	2564.182904
545.909761	2581.490865
546.268918	2565.695250
546.628019	2576.197654
546.987064	2561.410269
547.346053	2555.528923
547.704986	2562.418500
548.063863	2563.174673
548.422684	2565.359173
548.781449	2556.957250
549.140158	2559.645865
549.498811	2564.939077
549.857408	2562.082423
550.215949	2574.769327
550.574434	2571.492577
550.932864	2569.476115
551.291237	2576.533731
551.649555	2579.642442
552.007817	2574.517269
552.366022	2566.283385
552.724173	2584.263500
553.082267	2560.486058
553.440305	2565.275154
553.798288	2577.037846
554.156215	2550.739827
554.514086	2557.629404
554.871902	2556.789212
555.229661	2574.769327
555.587365	2568.131808
555.945014	2579.138327
556.302606	2578.970288
556.660143	2560.486058
557.017625	2561.914385
557.375050	2566.367404
557.732421	2565.527212
558.089735	2566.451423
558.446994	2557.209308
558.804197	2569.644154
559.161345	2566.031327
559.518437	2566.031327
559.875474	2560.065962
560.232455	2570.820423
560.589381	2551.411981
560.946251	2563.846827
561.303065	2551.832077
561.659825	2567.795731
562.016528	2575.525500
562.373177	2568.047788
562.729770	2575.945596
563.086307	2581.742923
563.442789	2575.441481
563.799216	2571.660615
564.155587	2579.726462
564.511904	2573.256981
564.868164	2567.207596
565.224370	2564.098885
565.580520	2561.074192
565.936615	2561.242231
566.292654	2570.568365
566.648638	2557.461365
567.004567	2555.612942
567.360441	2563.006635
567.716260	2563.762808
568.072023	2570.064250
568.427732	2569.476115
568.783385	2559.309788
569.138982	2575.357462
569.494525	2570.400327
569.850013	2578.466173
570.205445	2566.031327
570.560823	2573.761096
570.916145	2565.275154
571.271412	2561.578308
571.626625	2578.802250
571.981782	2582.751154
572.336884	2572.668846
572.691931	2560.149981
573.046923	2561.914385
573.401860	2577.962058
573.756743	2558.133519
574.111570	2565.527212
574.466342	2568.215827
574.821059	2574.265212
575.175722	2574.013154
575.530330	2555.780981
575.884882	2563.426731
576.239380	2571.408558
576.593823	2571.744635
576.948211	2586.027904
577.302544	2569.896212
577.656823	2579.390385
578.011047	2573.425019
578.365216	2568.803962
578.719330	2579.978519
579.073389	2563.174673
579.427394	2563.594769
579.781344	2570.988462
580.135239	2573.172962
580.489080	2559.561846
580.842866	2564.603000
581.196597	2581.994981
581.550273	2579.894500
581.903895	2556.621173
582.257463	2553.344423
582.610975	2570.148269
582.964434	2570.736404
583.317837	2559.561846
583.671186	2572.416788
584.024481	2563.006635
584.377721	2560.570077
584.730906	2573.256981
585.084037	2570.988462
585.437113	2557.125288
585.790135	2564.098885
586.143103	2565.863288
586.496016	2564.687019
586.848874	2564.266923
587.201679	2583.087231
587.554428	2560.486058
587.907124	2560.149981
588.259765	2562.922615
588.612352	2561.746346
588.964884	2571.744635
589.317362	2581.238808
589.669786	2568.887981
590.022155	2576.449712
590.374470	2566.619462
590.726731	2577.373923
591.078937	2576.197654
591.431090	2572.416788
591.783188	2555.024808
592.135232	2562.586538
592.487222	2560.234000
592.839157	2578.130096
593.191038	2564.182904
593.542866	2559.981942
593.894639	2569.896212
594.246358	2559.561846
594.598022	2574.349231
594.949633	2561.494288
595.301190	2562.922615
595.652692	2562.502519
596.004141	2558.049500
596.355535	2573.425019
596.706876	2567.795731
597.058162	2559.729885
597.409395	2571.576596
597.760573	2578.214115
598.111698	2566.619462
598.462768	2563.510750
598.813785	2577.962058
599.164748	2570.568365
599.515657	2553.512462
599.866511	2564.771038
600.217312	2573.761096
600.568060	2571.072481
600.918753	2579.978519
601.269392	2563.678788
601.619978	2577.037846
601.970510	2579.306365
602.320988	2561.326250
602.671412	2576.533731
603.021783	2564.098885
603.372100	2557.797442
603.722363	2574.601288
604.072572	2573.929135
604.422728	2567.207596
604.772830	2579.222346
605.122878	2563.090654
605.472872	2559.561846
605.822813	2572.500808
606.172701	2559.897923
606.522534	2559.813904
606.872314	2567.207596
607.222041	2566.703481
607.571714	2578.634212
607.921333	2574.685308
608.270899	2564.350942
608.620411	2567.543673
608.969870	2566.619462
609.319276	2569.224058
609.668627	2567.963769
610.017926	2574.517269
610.367171	2571.492577
610.716362	2579.474404
611.065500	2563.762808
611.414585	2556.957250
611.763616	2575.441481
612.112594	2559.561846
612.461518	2569.728173
612.810389	2570.904442
613.159207	2575.777558
613.507971	2571.660615
613.856682	2556.705192
614.205340	2573.761096
614.553945	2569.392096
614.902496	2565.695250
615.250994	2575.021385
615.599439	2573.256981
615.947830	2578.046077
616.296169	2548.135231
616.644454	2588.128385
616.992686	2566.619462
617.340864	2567.543673
617.688990	2566.451423
618.037063	2568.047788
618.385082	2559.981942
618.733048	2566.115346
619.080961	2570.232288
619.428821	2569.812192
619.776628	2555.360885
620.124382	2577.373923
620.472083	2570.988462
620.819731	2576.281673
621.167326	2561.662327
621.514868	2564.855058
621.862357	2570.148269
622.209793	2558.469596
622.557176	2573.088942
622.904506	2584.851635
623.251783	2562.418500
623.599007	2556.957250
623.946179	2566.619462
624.293297	2573.425019
624.640363	2556.705192
624.987376	2576.785788
625.334336	2560.570077
625.681243	2565.695250
626.028097	2555.865000
626.374899	2575.357462
626.721647	2573.004923
627.068343	2548.555327
627.414987	2570.820423
627.761577	2574.601288
628.108115	2562.922615
628.454600	2560.990173
628.801032	2567.207596
629.147412	2572.920904
629.493739	2572.080712
629.840014	2567.123577
630.186236	2563.258692
630.532405	2563.174673
630.878521	2568.383865
631.224585	2556.537154
631.570597	2568.551904
631.916556	2556.285096
632.262462	2574.769327
632.608316	2576.449712
632.954117	2556.453135
633.299866	2573.425019
633.645562	2569.560135
633.991206	2579.222346
634.336797	2570.736404
634.682336	2571.408558
635.027823	2569.980231
635.373257	2574.097173
635.718639	2567.879750
636.063968	2560.149981
636.409245	2567.123577
636.754470	2588.884558
637.099642	2562.586538
637.444762	2566.031327
637.789829	2564.855058
638.134845	2561.914385
638.479808	2568.719942
638.824719	2585.775846
639.169577	2558.721654
639.514383	2556.033038
639.859137	2569.392096
640.203839	2567.459654
640.548489	2579.558423
640.893086	2573.677077
641.237632	2573.509038
641.582125	2546.706904
641.926566	2573.172962
642.270955	2561.746346
642.615292	2549.479538
642.959576	2568.467885
643.303809	2569.476115
643.647990	2578.130096
643.992118	2567.375635
644.336195	2573.004923
644.680219	2561.494288
645.024192	2553.932558
645.368112	2558.721654
645.711981	2582.919192
646.055797	2560.234000
646.399562	2576.449712
646.743274	2555.024808
647.086935	2562.334481
647.430544	2576.281673
647.774101	2564.603000
648.117606	2567.627692
648.461059	2563.678788
648.804460	2573.004923
649.147810	2568.383865
649.491108	2572.332769
649.834354	2570.652385
650.177548	2573.088942
650.520690	2576.029615
650.863781	2559.057731
651.206820	2555.612942
651.549807	2561.998404
651.892742	2563.090654
652.235626	2554.856769
652.578458	2551.496000
652.921238	2570.820423
653.263967	2554.604712
653.606644	2568.551904
653.949269	2558.469596
654.291843	2557.377346
654.634365	2566.367404
654.976836	2563.426731
655.319255	2570.316308
655.661622	2581.658904
656.003938	2559.729885
656.346203	2554.352654
656.688416	2572.080712
657.030577	2564.350942
657.372687	2555.360885
657.714746	2562.754577
658.056753	2562.250462
658.398708	2568.467885
658.740612	2572.332769
659.082465	2560.990173
659.424266	2564.771038
659.766016	2556.285096
660.107715	2578.130096
660.449362	2561.410269
660.790958	2573.425019
661.132503	2571.744635
661.473996	2567.543673
661.815438	2576.617750
662.156829	2553.344423
662.498168	2571.072481
662.839456	2558.049500
663.180693	2575.021385
663.521879	2573.341000
663.863013	2560.402038
664.204097	2552.000115
664.545129	2571.912673
664.886110	2566.955538
665.227040	2568.719942
665.567918	2562.502519
665.908746	2556.201077
666.249522	2578.550192
666.590248	2565.023096
666.930922	2558.721654
667.271545	2563.174673
667.612118	2564.434962
667.952639	2575.357462
668.293109	2548.135231
668.633528	2560.402038
668.973896	2566.535442
669.314213	2563.426731
669.654480	2567.543673
669.994695	2572.836885
670.334859	2565.023096
670.674973	2574.349231
671.015035	2561.662327
671.355047	2563.762808
671.695008	2550.319731
672.034918	2568.383865
672.374777	2576.029615
672.714585	2556.621173
673.054342	2581.742923
673.394049	2569.140038
673.733705	2571.912673
674.073310	2582.415077
674.412864	2580.902731
674.752368	2570.064250
675.091820	2560.486058
675.431223	2557.209308
675.770574	2576.785788
676.109875	2550.487769
676.449125	2555.444904
676.788324	2558.553615
677.127473	2564.518981
677.466571	2571.240519
677.805619	2571.240519
678.144616	2569.392096
678.483562	2562.166442
678.822458	2568.383865
679.161303	2573.509038
679.500098	2565.107115
679.838842	2569.140038
680.177535	2563.846827
680.516179	2551.411981
680.854771	2567.795731
681.193314	2582.247038
681.531805	2572.836885
681.870247	2576.533731
682.208638	2579.726462
682.546978	2565.527212
682.885268	2572.836885
683.223508	2563.090654
683.561697	2566.703481
683.899836	2574.265212
684.237925	2573.761096
684.575963	2561.326250
684.913951	2557.209308
685.251889	2563.510750
685.589776	2560.906154
685.927614	2573.172962
686.265401	2562.250462
686.603137	2583.003212
686.940824	2567.711712
687.278460	2571.408558
687.616046	2563.510750
687.953582	2576.617750
688.291068	2558.049500
688.628504	2569.560135
688.965889	2572.752865
689.303224	2582.919192
689.640510	2578.214115
689.977745	2554.436673
690.314930	2577.373923
690.652065	2565.947308
690.989150	2574.181192
691.326185	2573.593058
691.663170	2566.031327
692.000105	2577.710000
692.336990	2557.965481
692.673825	2566.451423
693.010610	2571.576596
693.347345	2576.869808
693.684030	2552.252173
694.020665	2584.179481
694.357251	2573.761096
694.693786	2568.047788
695.030272	2563.762808
695.366707	2565.107115
695.703093	2568.047788
696.039429	2562.082423
696.375716	2562.754577
696.711952	2565.947308
697.048139	2542.842019
697.384276	2571.996692
697.720363	2548.135231
698.056400	2557.713423
698.392388	2563.342712
698.728326	2562.670558
699.064214	2558.133519
699.400053	2564.939077
699.735842	2561.074192
700.071581	2565.023096
700.407270	2575.105404
700.742910	2558.973712
701.078501	2565.695250
701.414042	2566.451423
701.749533	2564.014865
702.084974	2554.856769
702.420366	2557.965481
702.755709	2566.535442
703.091002	2563.426731
703.426246	2554.016577
703.761440	2574.181192
704.096584	2562.502519
704.431679	2565.023096
704.766725	2570.316308
705.101721	2567.459654
705.436668	2551.411981
705.771565	2575.273442
706.106413	2574.265212
706.441212	2566.367404
706.775961	2569.728173
707.110661	2565.023096
707.445311	2566.619462
707.779913	2566.367404
708.114465	2555.612942
708.448967	2558.385577
708.783421	2567.375635
709.117825	2561.578308
709.452180	2565.023096
709.786485	2560.822135
710.120742	2549.311500
710.454949	2553.512462
710.789107	2574.937365
711.123216	2570.736404
711.457275	2553.428442
711.791286	2552.756288
712.125247	2583.759385
712.459159	2572.080712
712.793023	2564.098885
713.126837	2560.486058
713.460602	2543.850250
713.794318	2571.324538
714.127985	2561.410269
714.461602	2576.197654
714.795171	2565.695250
715.128691	2576.869808
715.462162	2565.779269
715.795584	2571.324538
716.128957	2559.057731
716.462281	2573.425019
716.795556	2574.601288
717.128782	2569.644154
717.461960	2564.771038
717.795088	2577.962058
718.128167	2562.082423
718.461198	2569.392096
718.794180	2558.469596
719.127113	2565.779269
719.459997	2565.191135
719.792833	2560.234000
720.125619	2575.777558
720.458357	2561.830365
720.791046	2570.148269
721.123686	2555.528923
721.456278	2586.700058
721.788821	2556.789212
722.121315	2564.518981
722.453761	2581.238808
722.786158	2565.947308
723.118506	2558.469596
723.450805	2566.283385
723.783056	2555.612942
724.115259	2559.309788
724.447412	2559.225769
724.779518	2574.937365
725.111574	2569.644154
725.443582	2567.291615
725.775542	2561.326250
726.107453	2564.939077
726.439315	2557.545385
726.771129	2583.423308
727.102895	2562.670558
727.434612	2559.141750
727.766281	2566.115346
728.097901	2570.316308
728.429473	2565.359173
728.760996	2562.082423
729.092471	2551.243942
729.423897	2559.141750
729.755276	2551.075904
730.086606	2558.805673
730.417887	2563.258692
730.749120	2549.143462
731.080305	2580.482635
731.411442	2572.668846
731.742530	2571.156500
732.073570	2559.729885
732.404562	2573.425019
732.735506	2567.963769
733.066401	2569.476115
733.397249	2559.561846
733.728048	2562.250462
734.058798	2564.687019
734.389501	2559.645865
734.720156	2558.301558
735.050762	2546.622885
735.381320	2570.736404
735.711831	2563.930846
736.042293	2556.033038
736.372707	2562.334481
736.703073	2560.065962
737.033391	2558.469596
737.363661	2562.586538
737.693883	2575.777558
738.024056	2571.912673
738.354182	2558.721654
738.684260	2566.955538
739.014290	2552.672269
739.344272	2570.064250
739.674207	2539.817327
740.004093	2555.696962
740.333931	2573.509038
740.663722	2571.240519
740.993464	2578.214115
741.323159	2569.392096
741.652806	2564.518981
741.982405	2570.232288
742.311956	2569.728173
742.641460	2556.873231
742.970915	2553.260404
743.300323	2584.935654
743.629683	2568.803962
743.958996	2560.738115
744.288260	2556.621173
744.617477	2573.088942
744.946647	2560.990173
745.275768	2559.729885
745.604842	2555.360885
745.933869	2566.535442
746.262847	2555.276865
746.591778	2565.191135
746.920662	2572.416788
747.249498	2555.865000
747.578286	2561.494288
747.907027	2554.352654
748.235720	2552.504231
748.564365	2557.461365
748.892963	2548.807385
749.221514	2561.494288
749.550017	2556.705192
749.878473	2558.637635
750.206881	2579.558423
750.535242	2550.571788
750.863555	2559.897923
751.191821	2558.973712
751.520039	2567.879750
751.848210	2566.871519
752.176334	2560.318019
752.504411	2562.670558
752.832440	2569.056019
753.160421	2580.062538
753.488356	2561.662327
753.816243	2577.962058
754.144082	2574.853346
754.471875	2554.100596
754.799620	2565.107115
755.127318	2563.006635
755.454969	2565.779269
755.782572	2578.214115
756.110129	2555.865000
756.437638	2567.879750
756.765100	2567.711712
757.092515	2559.477827
757.419882	2564.855058
757.747203	2558.469596
758.074477	2554.772750
758.401703	2574.937365
758.728882	2574.013154
759.056014	2573.425019
759.383099	2574.013154
759.710138	2558.385577
760.037129	2584.599577
760.364073	2572.248750
760.690970	2552.504231
761.017820	2550.487769
761.344623	2556.873231
761.671379	2572.836885
761.998088	2568.383865
762.324751	2566.031327
762.651366	2578.634212
762.977935	2552.000115
763.304456	2558.637635
763.630931	2547.715135
763.957359	2569.560135
764.283740	2571.072481
764.610074	2569.644154
764.936362	2573.845115
765.262602	2562.418500
765.588796	2567.795731
765.914943	2578.634212
766.241044	2558.217538
766.567097	2563.846827
766.893104	2561.914385
767.219064	2562.502519
767.544978	2566.367404
767.870845	2570.148269
768.196665	2541.581731
768.522438	2556.117058
768.848165	2556.537154
769.173846	2567.039558
769.499479	2570.064250
769.825066	2560.318019
770.150607	2564.687019
770.476101	2573.341000
770.801548	2561.242231
771.126949	2559.981942
771.452303	2557.545385
771.777611	2553.596481
772.102872	2548.555327
772.428087	2558.469596
772.753256	2558.889692
773.078378	2563.006635
773.403453	2549.815615
773.728482	2556.957250
774.053465	2565.359173
774.378401	2557.293327
774.703291	2566.787500
775.028135	2571.492577
775.352932	2574.937365
775.677683	2562.250462
776.002388	2563.090654
776.327046	2545.698673
776.651658	2564.098885
776.976224	2555.780981
777.300743	2569.644154
777.625216	2562.334481
777.949643	2553.764519
778.274024	2561.914385
778.598359	2554.184615
778.922647	2562.334481
779.246889	2561.242231
779.571086	2566.367404
779.895236	2569.392096
780.219339	2566.787500
780.543397	2553.764519
780.867409	2577.625981
781.191374	2560.906154
781.515294	2566.199365
781.839167	2559.645865
782.162995	2560.990173
782.486776	2562.082423
782.810511	2561.746346
783.134201	2570.652385
783.457844	2557.041269
783.781441	2564.939077
784.104993	2558.133519
784.428498	2570.064250
784.751958	2568.215827
785.075372	2546.118769
785.398739	2559.225769
785.722061	2577.289904
786.045337	2563.762808
786.368568	2559.561846
786.691752	2569.896212
787.014891	2576.029615
787.337983	2566.955538
787.661030	2572.332769
787.984031	2561.410269
788.306987	2566.283385
788.629897	2559.729885
788.952760	2564.098885
789.275579	2560.654096
789.598351	2567.879750
789.921078	2557.629404
790.243759	2562.502519
790.566395	2555.696962
790.888984	2567.459654
791.211529	2560.822135
791.534027	2564.855058
791.856480	2557.629404
792.178888	2560.149981
792.501249	2567.879750
792.823566	2562.586538
793.145836	2555.192846
793.468062	2556.705192
793.790241	2543.262115
794.112375	2543.934269
794.434464	2551.832077
794.756507	2550.235712
795.078505	2563.258692
795.400457	2572.332769
795.722364	2571.660615
796.044226	2561.746346
796.366042	2563.342712
796.687812	2563.678788
797.009538	2558.637635
797.331218	2560.065962
797.652852	2562.334481
797.974442	2568.215827
798.295986	2563.258692
798.617484	2562.166442
798.938938	2566.199365
799.260346	2566.115346
799.581709	2556.201077
799.903026	2554.940788
800.224299	2568.887981
800.545526	2565.023096
800.866708	2574.517269
801.187845	2557.209308
801.508936	2566.451423
801.829983	2564.518981
802.150984	2561.410269
802.471940	2571.156500
802.792851	2557.125288
803.113717	2556.537154
803.434538	2564.182904
803.755314	2575.945596
804.076045	2559.813904
804.396731	2564.687019
804.717372	2558.049500
805.037967	2558.889692
805.358518	2542.085846
805.679024	2555.024808
805.999485	2573.509038
806.319901	2559.897923
806.640272	2564.014865
806.960598	2558.721654
807.280879	2556.453135
807.601115	2568.047788
807.921306	2569.560135
808.241453	2546.874942
808.561554	2572.080712
808.881611	2566.367404
809.201623	2555.360885
809.521590	2546.286808
809.841513	2571.996692
810.161390	2560.570077
810.481223	2565.863288
810.801011	2563.930846
811.120755	2557.797442
811.440453	2562.250462
811.760107	2565.191135
812.079716	2561.830365
812.399281	2559.141750
812.718801	2553.176385
813.038276	2550.487769
813.357707	2558.385577
813.677093	2552.756288
813.996434	2561.914385
814.315731	2561.494288
814.634983	2559.897923
814.954191	2555.108827
815.273354	2560.738115
815.592473	2562.082423
815.911547	2562.754577
816.230577	2539.817327
816.549562	2555.444904
816.868502	2562.502519
817.187399	2560.402038
817.506250	2568.215827
817.825058	2559.729885
818.143821	2539.985365
818.462539	2563.678788
818.781213	2563.006635
819.099843	2550.151692
819.418429	2568.719942
819.736970	2566.535442
820.055466	2539.145173
820.373919	2556.621173
820.692327	2583.171250
821.010691	2556.201077
821.329011	2569.896212
821.647286	2571.408558
821.965517	2564.350942
822.283704	2567.711712
822.601847	2551.832077
822.919945	2567.207596
823.237999	2561.158212
823.556010	2566.535442
823.873976	2570.400327
824.191897	2561.326250
824.509775	2557.041269
824.827609	2567.879750
825.145398	2547.042981
825.463144	2570.820423
825.780845	2561.830365
826.098502	2554.604712
826.416116	2574.181192
826.733685	2549.143462
827.051210	2570.232288
827.368692	2562.418500
827.686129	2564.771038
828.003522	2558.469596
828.320872	2563.090654
828.638177	2553.680500
828.955439	2564.518981
829.272656	2562.250462
829.589830	2563.342712
829.906960	2556.201077
830.224046	2564.266923
830.541088	2560.654096
830.858086	2563.762808
831.175041	2556.201077
831.491952	2567.879750
831.808819	2554.016577
832.125642	2559.393808
832.442421	2554.184615
832.759157	2564.939077
833.075849	2558.049500
833.392497	2561.578308
833.709101	2562.670558
834.025662	2561.410269
834.342179	2565.611231
834.658653	2563.762808
834.975083	2543.430154
835.291469	2578.886269
835.607811	2563.930846
835.924110	2555.696962
836.240366	2555.024808
836.556578	2565.359173
836.872746	2570.904442
837.188871	2561.074192
837.504952	2561.746346
837.820990	2551.327962
838.136984	2562.586538
838.452935	2553.680500
838.768842	2565.275154
839.084706	2566.451423
839.400526	2571.240519
839.716303	2560.065962
840.032037	2547.631115
840.347727	2567.627692
840.663373	2564.350942
840.978977	2545.614654
841.294537	2573.004923
841.610054	2556.789212
841.925527	2553.344423
842.240957	2561.074192
842.556344	2549.311500
842.871687	2571.156500
843.186987	2569.140038
843.502244	2552.924327
843.817458	2545.866712
844.132629	2557.377346
844.447756	2560.486058
844.762840	2577.121865
845.077881	2564.771038
845.392879	2567.627692
845.707833	2571.492577
846.022745	2571.828654
846.337613	2556.285096
846.652438	2542.085846
846.967221	2558.049500
847.281960	2544.186327
847.596656	2569.560135
847.911309	2555.528923
848.225919	2556.705192
848.540485	2547.631115
848.855009	2557.881462
849.169490	2547.127000
849.483928	2561.494288
849.798323	2553.680500
850.112675	2558.889692
850.426984	2558.133519
850.741251	2557.293327
851.055474	2577.205885
851.369654	2557.041269
851.683792	2552.000115
851.997887	2561.242231
852.311938	2558.805673
852.625947	2556.789212
852.939914	2548.639346
853.253837	2563.342712
853.567718	2562.586538
853.881555	2568.299846
854.195350	2552.672269
854.509103	2570.064250
854.822812	2547.967192
855.136479	2549.227481
855.450103	2562.334481
855.763685	2567.291615
856.077224	2576.701769
856.390720	2569.896212
856.704173	2561.578308
857.017584	2557.713423
857.330953	2559.897923
857.644278	2555.276865
857.957561	2563.930846
858.270802	2571.744635
858.584000	2559.981942
858.897155	2560.906154
859.210268	2570.064250
859.523339	2557.293327
859.836367	2547.967192
860.149352	2543.598192
860.462295	2556.621173
860.775195	2560.906154
861.088054	2560.486058
861.400869	2560.486058
861.713642	2564.603000
862.026373	2560.318019
862.339062	2564.098885
862.651708	2559.225769
862.964312	2555.444904
863.276873	2548.471308
863.589392	2559.225769
863.901869	2574.349231
864.214303	2563.678788
864.526696	2571.240519
864.839045	2567.795731
865.151353	2573.761096
865.463619	2556.201077
865.775842	2563.258692
866.088023	2565.107115
866.400162	2570.484346
866.712258	2561.914385
867.024313	2558.133519
867.336325	2569.980231
867.648296	2563.930846
867.960224	2560.318019
868.272110	2555.192846
868.583954	2555.360885
868.895755	2573.341000
869.207515	2551.580019
869.519233	2561.242231
869.830909	2543.766231
870.142542	2553.848538
870.454134	2562.754577
870.765684	2563.006635
871.077191	2550.907865
871.388657	2578.970288
871.700081	2565.443192
872.011463	2581.574885
872.322803	2563.342712
872.634101	2573.004923
872.945357	2559.813904
873.256571	2567.459654
873.567744	2547.463077
873.878874	2564.687019
874.189963	2561.074192
874.501010	2568.467885
874.812015	2555.192846
875.122979	2559.561846
875.433900	2557.209308
875.744780	2570.736404
876.055618	2566.031327
876.366415	2548.639346
876.677169	2545.950731
876.987882	2554.772750
877.298554	2560.738115
877.609183	2545.866712
877.919771	2569.224058
878.230317	2555.780981
878.540822	2569.728173
878.851285	2545.866712
879.161707	2555.865000
879.472087	2550.319731
879.782425	2563.174673
880.092722	2548.051212
880.402977	2549.311500
880.713191	2558.553615
881.023363	2557.713423
881.333494	2556.369115
881.643583	2561.158212
881.953631	2561.746346
882.263637	2552.504231
882.573602	2562.502519
882.883526	2533.935981
883.193408	2555.696962
883.503248	2569.560135
883.813048	2553.344423
884.122806	2563.090654
884.432522	2576.617750
884.742197	2571.660615
885.051831	2566.703481
885.361424	2562.922615
885.670975	2564.939077
885.980485	2562.502519
886.289954	2556.957250
886.599382	2545.950731
886.908768	2570.568365
887.218113	2568.803962
887.527417	2564.855058
887.836680	2560.318019
888.145901	2565.443192
888.455082	2541.329673
888.764221	2566.619462
889.073319	2553.344423
889.382376	2562.586538
889.691392	2563.342712
890.000366	2556.873231
890.309300	2564.434962
890.618193	2554.772750
890.927044	2559.393808
891.235855	2575.357462
891.544625	2554.688731
891.853353	2574.265212
892.162041	2561.998404
892.470687	2560.065962
892.779293	2567.627692
893.087858	2576.449712
893.396381	2553.344423
893.704864	2549.983654
894.013306	2548.723365
894.321707	2561.158212
894.630068	2559.897923
894.938387	2548.303269
895.246665	2552.672269
895.554903	2556.957250
895.863100	2546.958962
896.171256	2561.494288
896.479371	2557.125288
896.787446	2563.090654
897.095480	2556.537154
897.403473	2559.393808
897.711425	2564.098885
898.019336	2551.664038
898.327207	2560.318019
898.635038	2559.477827
898.942827	2565.359173
899.250576	2550.991885
899.558284	2562.502519
899.865952	2557.377346
900.173579	2555.696962
900.481165	2562.082423
900.788711	2567.627692
901.096216	2558.469596
901.403681	2571.324538
901.711105	2553.428442
902.018489	2556.453135
902.325832	2557.293327
902.633135	2566.283385
902.940397	2568.719942
903.247619	2555.696962
903.554800	2557.545385
903.861941	2546.706904
904.169041	2556.957250
904.476101	2558.217538
904.783121	2557.881462
905.090100	2564.014865
905.397039	2551.748058
905.703938	2562.334481
906.010796	2566.367404
906.317614	2555.528923
906.624391	2568.551904
906.931129	2544.270346
907.237826	2562.502519
907.544483	2559.897923
907.851099	2560.486058
908.157675	2551.664038
908.464211	2542.337904
908.770707	2558.553615
909.077163	2558.973712
909.383578	2569.056019
909.689954	2550.823846
909.996289	2554.604712
910.302584	2551.327962
910.608839	2571.828654
910.915054	2557.125288
911.221229	2557.881462
911.527363	2556.957250
911.833458	2558.049500
912.139513	2558.637635
912.445527	2553.428442
912.751502	2555.528923
913.057436	2548.387288
913.363331	2557.377346
913.669186	2558.133519
913.975000	2557.461365
914.280775	2556.621173
914.586510	2559.141750
914.892205	2543.010058
915.197859	2565.023096
915.503475	2556.621173
915.809050	2566.367404
916.114585	2566.787500
916.420081	2554.184615
916.725536	2564.434962
917.030952	2550.235712
917.336328	2559.393808
917.641665	2548.471308
917.946961	2562.754577
918.252218	2557.965481
918.557435	2557.461365
918.862612	2552.924327
919.167750	2547.463077
919.472848	2575.189423
919.777906	2556.201077
920.082925	2556.621173
920.387904	2548.891404
920.692843	2547.463077
920.997743	2553.764519
921.302603	2558.721654
921.607423	2548.135231
921.912204	2551.496000
922.216946	2550.151692
922.521647	2556.873231
922.826310	2555.949019
923.130932	2549.563558
923.435516	2545.362596
923.740059	2564.182904
924.044564	2569.980231
924.349028	2557.377346
924.653454	2568.551904
924.957840	2556.117058
925.262186	2552.252173
925.566493	2570.904442
925.870761	2566.535442
926.174989	2550.067673
926.479178	2541.833788
926.783328	2564.687019
927.087438	2543.178096
927.391509	2549.983654
927.695541	2546.454846
927.999533	2558.973712
928.303486	2582.415077
928.607400	2564.350942
928.911275	2561.242231
929.215110	2561.074192
929.518906	2559.309788
929.822663	2550.907865
930.126381	2555.444904
930.430060	2546.958962
930.733699	2562.166442
931.037299	2548.555327
931.340861	2556.705192
931.644383	2543.514173
931.947866	2553.932558
932.251309	2558.889692
932.554714	2557.545385
932.858080	2560.065962
933.161407	2557.545385
933.464694	2550.823846
933.767943	2570.820423
934.071153	2576.113635
934.374323	2562.670558
934.677455	2551.664038
934.980548	2549.143462
935.283602	2547.883173
935.586617	2554.940788
935.889593	2566.451423
936.192530	2561.914385
936.495428	2552.756288
936.798287	2565.695250
937.101108	2548.051212
937.403890	2567.795731
937.706632	2556.369115
938.009336	2559.897923
938.312002	2561.410269
938.614628	2560.402038
938.917216	2552.168154
939.219765	2561.158212
939.522275	2548.387288
939.824747	2557.881462
940.127179	2555.865000
940.429573	2546.790923
940.731929	2554.772750
941.034246	2567.879750
941.336524	2571.492577
941.638763	2555.108827
941.940964	2553.848538
942.243126	2555.780981
942.545250	2549.143462
942.847335	2555.444904
943.149381	2555.696962
943.451389	2568.047788
943.753359	2555.949019
944.055290	2549.227481
944.357182	2552.924327
944.659036	2563.342712
944.960851	2538.725077
945.262628	2538.389000
945.564367	2576.197654
945.866067	2561.998404
946.167729	2556.957250
946.469352	2553.512462
946.770937	2553.764519
947.072484	2550.235712
947.373992	2560.990173
947.675462	2556.789212
947.976893	2541.749769
948.278286	2558.385577
948.579641	2552.420212
948.880958	2554.436673
949.182236	2548.723365
949.483476	2558.301558
949.784678	2558.133519
950.085841	2556.957250
950.386967	2558.553615
950.688054	2542.001827
950.989103	2564.603000
951.290114	2550.487769
951.591087	2568.215827
951.892021	2563.006635
952.192917	2554.436673
952.493776	2564.182904
952.794596	2564.182904
953.095378	2554.688731
953.396122	2555.024808
953.696828	2560.402038
953.997496	2543.178096
954.298126	2570.484346
954.598718	2555.444904
954.899272	2554.604712
955.199788	2548.807385
955.500266	2554.268635
955.800706	2557.965481
956.101108	2569.644154
956.401472	2554.352654
956.701798	2558.889692
957.002087	2559.813904
957.302337	2564.939077
957.602550	2553.428442
957.902724	2543.934269
958.202861	2555.024808
958.502960	2561.830365
958.803022	2561.158212
959.103045	2553.176385
959.403031	2567.795731
959.702979	2550.739827
960.002889	2562.838596
960.302762	2560.149981
960.602596	2535.280288
960.902393	2553.848538
961.202153	2568.719942
961.501875	2542.253885
961.801559	2562.754577
962.101205	2562.250462
962.400814	2568.131808
962.700385	2569.980231
962.999918	2558.805673
963.299414	2558.973712
963.598873	2546.538865
963.898293	2567.123577
964.197677	2551.411981
964.497022	2564.687019
964.796331	2557.377346
965.095601	2557.881462
965.394835	2563.006635
965.694030	2551.159923
965.993189	2549.395519
966.292309	2557.377346
966.591393	2543.178096
966.890439	2551.075904
967.189447	2551.159923
967.488419	2557.629404
967.787353	2558.553615
968.086249	2558.805673
968.385108	2565.443192
968.683930	2560.318019
968.982714	2564.434962
969.281462	2551.327962
969.580172	2558.301558
969.878844	2558.133519
970.177480	2550.403750
970.476078	2547.547096
970.774639	2562.586538
971.073162	2553.176385
971.371649	2548.807385
971.670098	2560.822135
971.968510	2545.782692
972.266885	2559.561846
972.565223	2556.117058
972.863524	2566.199365
973.161788	2555.444904
973.460014	2556.201077
973.758204	2563.594769
974.056356	2562.922615
974.354471	2564.518981
974.652550	2554.772750
974.950591	2551.916096
975.248595	2575.609519
975.546563	2557.797442
975.844493	2573.172962
976.142386	2561.578308
976.440243	2557.125288
976.738062	2544.690442
977.035845	2557.377346
977.333590	2544.522404
977.631299	2562.334481
977.928971	2557.125288
978.226606	2573.929135
978.524204	2557.041269
978.821765	2565.275154
979.119290	2553.344423
979.416777	2550.067673
979.714228	2551.411981
980.011642	2536.960673
980.309020	2553.764519
980.606360	2565.527212
980.903664	2544.354365
981.200931	2571.072481
981.498162	2549.059442
981.795356	2555.024808
982.092513	2558.385577
982.389633	2558.805673
982.686717	2539.985365
982.983764	2562.586538
983.280775	2551.916096
983.577749	2560.738115
983.874686	2574.013154
984.171587	2556.033038
984.468451	2553.092365
984.765279	2552.504231
985.062070	2555.276865
985.358824	2564.518981
985.655543	2542.505942
985.952224	2557.125288
986.248869	2535.952442
986.545478	2543.010058
986.842050	2564.434962
987.138586	2552.000115
987.435086	2556.705192
987.731549	2562.082423
988.027975	2547.463077
988.324366	2549.899635
988.620719	2569.728173
988.917037	2542.926038
989.213318	2558.133519
989.509563	2574.349231
989.805772	2563.258692
990.101944	2539.481250
990.398080	2558.889692
990.694180	2552.420212
990.990244	2549.731596
991.286271	2561.578308
991.582262	2555.108827
991.878217	2558.217538
992.174136	2566.703481
992.470019	2560.234000
992.765865	2560.570077
993.061676	2562.418500
993.357450	2549.227481
993.653188	2551.748058
993.948890	2561.998404
994.244556	2567.963769
994.540186	2555.865000
994.835780	2562.670558
995.131337	2551.243942
995.426859	2555.024808
995.722345	2551.327962
996.017795	2550.739827
996.313208	2550.655808
996.608586	2564.434962
996.903928	2546.790923
997.199234	2559.309788
997.494504	2546.958962
997.789738	2564.771038
998.084936	2545.278577
998.380099	2548.051212
998.675225	2556.285096
998.970316	2542.842019
999.265371	2549.983654
999.560390	2559.981942
999.855373	2552.756288
1000.150320	2557.965481
1000.445232	2564.350942
1000.740108	2565.527212
1001.034948	2561.998404
1001.329752	2557.545385
1001.624521	2559.141750
1001.919254	2575.861577
1002.213951	2552.084135
1002.508613	2545.110538
1002.803239	2552.672269
1003.097829	2560.402038
1003.392384	2555.444904
1003.686903	2551.916096
1003.981386	2549.815615
1004.275834	2571.660615
1004.570246	2547.547096
1004.864623	2554.268635
1005.158964	2548.555327
1005.453270	2544.186327
1005.747540	2551.411981
1006.041775	2558.553615
1006.335974	2563.258692
1006.630138	2552.756288
1006.924266	2570.988462
1007.218359	2542.085846
1007.512416	2550.991885
1007.806438	2573.088942
1008.100425	2537.548808
1008.394376	2544.690442
1008.688292	2568.047788
1008.982172	2541.161635
1009.276017	2556.537154
1009.569827	2557.629404
1009.863602	2547.715135
1010.157341	2550.571788
1010.451045	2545.614654
1010.744714	2565.527212
1011.038347	2563.426731
1011.331945	2556.789212
1011.625508	2562.166442
1011.919036	2554.688731
1012.212528	2556.201077
1012.505986	2551.411981
1012.799408	2552.420212
1013.092795	2540.909577
1013.386147	2542.085846
1013.679464	2550.991885
1013.972745	2560.654096
1014.265992	2557.797442
1014.559204	2553.680500
1014.852380	2572.248750
1015.145521	2532.339615
1015.438628	2557.293327
1015.731699	2565.191135
1016.024736	2536.372538
1016.317737	2541.581731
1016.610703	2540.825558
1016.903635	2566.031327
1017.196531	2550.487769
1017.489393	2551.243942
1017.782219	2564.182904
1018.075011	2557.041269
1018.367768	2547.631115
1018.660490	2569.392096
1018.953177	2569.392096
1019.245829	2569.392096
