Dividing Wavelength (nm)	Counts (n)	Slit_number_18_of_a_total_of_40	
326.493990	2154.757192
326.888308	2154.757192
327.282561	2154.757192
327.676750	2111.907385
328.070874	2130.055538
328.464933	2134.928654
328.858929	2141.314115
329.252859	2167.276058
329.646726	2167.612135
330.040528	2188.112827
330.434265	2212.226346
330.827938	2217.015442
331.221547	2243.061404
331.615091	2255.160173
332.008571	2283.306615
332.401986	2296.665673
332.795338	2325.064173
333.188625	2326.492500
333.581847	2360.016173
333.975006	2375.223654
334.368100	2401.185596
334.761129	2408.915365
335.154095	2418.997673
335.546996	2439.414346
335.939833	2481.676019
336.332606	2465.460308
336.725315	2489.825885
337.117960	2496.715462
337.510540	2505.789538
337.903056	2512.931173
338.295508	2522.005250
338.687896	2540.993596
339.080220	2544.186327
339.472480	2540.237423
339.864676	2547.799154
340.256807	2557.293327
340.648875	2549.563558
341.040879	2541.581731
341.432818	2552.000115
341.824694	2563.426731
342.216506	2539.397231
342.608253	2547.547096
342.999937	2550.403750
343.391557	2564.266923
343.783113	2548.219250
344.174605	2546.202788
344.566033	2543.262115
344.957397	2545.362596
345.348697	2551.664038
345.739934	2555.444904
346.131106	2536.708615
346.522215	2532.927750
346.913260	2536.624596
347.304241	2525.029942
347.695159	2532.003538
348.086012	2532.087558
348.476802	2535.280288
348.867528	2522.257308
349.258191	2530.911288
349.648789	2503.605038
350.039324	2526.038173
350.429796	2539.817327
350.820203	2518.560462
351.210548	2521.669173
351.600828	2510.242558
351.991045	2526.290231
352.381198	2509.822462
352.771288	2519.568692
353.161314	2523.433577
353.551276	2519.064577
353.941175	2512.427058
354.331010	2523.685635
354.720782	2514.611558
355.110490	2506.545712
355.500135	2507.806000
355.889717	2503.184942
356.279235	2523.685635
356.668689	2528.306692
357.058080	2507.301885
357.447408	2510.158538
357.836672	2505.285423
358.225873	2528.894827
358.615010	2507.553942
359.004084	2520.913000
359.393095	2515.367731
359.782043	2529.482962
360.170927	2525.282000
360.559748	2520.408885
360.948505	2527.718558
361.337199	2530.239135
361.725830	2529.482962
362.114398	2539.229192
362.502903	2529.735019
362.891344	2528.894827
363.279722	2526.374250
363.668037	2524.441808
364.056289	2534.104019
364.444478	2528.474731
364.832603	2542.085846
365.220665	2541.581731
365.608665	2532.759712
365.996601	2531.247365
366.384474	2531.835500
366.772284	2528.390712
367.160031	2523.013481
367.547715	2534.860192
367.935336	2540.657519
368.322893	2529.062865
368.710388	2517.048115
369.097820	2531.499423
369.485189	2538.977135
369.872495	2530.575212
370.259738	2520.913000
370.646918	2531.751481
371.034035	2536.372538
371.421090	2535.784404
371.808081	2539.145173
372.195010	2540.321442
372.581875	2523.097500
372.968678	2529.062865
373.355418	2543.934269
373.742096	2542.673981
374.128710	2538.641058
374.515262	2536.792635
374.901751	2531.499423
375.288177	2544.102308
375.674540	2544.270346
376.060841	2526.794346
376.447079	2535.364308
376.833254	2529.987077
377.219367	2547.127000
377.605417	2548.723365
377.991404	2544.774462
378.377329	2523.013481
378.763191	2527.802577
379.148991	2532.339615
379.534727	2538.977135
379.920402	2537.296750
380.306013	2532.003538
380.691563	2535.112250
381.077049	2536.120481
381.462474	2541.413692
381.847835	2536.456558
382.233134	2536.792635
382.618371	2533.347846
383.003545	2545.026519
383.388657	2547.547096
383.773706	2544.690442
384.158693	2547.042981
384.543618	2526.794346
384.928480	2551.327962
385.313280	2527.802577
385.698017	2541.917808
386.082692	2535.448327
386.467305	2537.044692
386.851856	2541.833788
387.236344	2550.067673
387.620770	2528.642769
388.005133	2558.049500
388.389435	2537.464788
388.773674	2541.245654
389.157851	2547.127000
389.541965	2552.840308
389.926018	2556.033038
390.310008	2543.430154
390.693936	2556.705192
391.077802	2541.413692
391.461606	2544.102308
391.845348	2543.262115
392.229027	2551.243942
392.612645	2555.696962
392.996200	2540.657519
393.379694	2550.235712
393.763125	2549.227481
394.146494	2553.008346
394.529801	2544.186327
394.913047	2543.766231
395.296230	2548.555327
395.679351	2538.389000
396.062410	2561.074192
396.445408	2548.723365
396.828343	2551.496000
397.211217	2547.127000
397.594028	2557.209308
397.976778	2560.654096
398.359466	2564.603000
398.742092	2563.762808
399.124656	2539.565269
399.507158	2553.008346
399.889598	2536.708615
400.271977	2558.385577
400.654294	2552.252173
401.036549	2554.856769
401.418742	2549.227481
401.800874	2554.520692
402.182944	2546.538865
402.564952	2573.425019
402.946898	2553.344423
403.328783	2536.456558
403.710606	2561.494288
404.092367	2560.318019
404.474067	2546.454846
404.855705	2565.443192
405.237282	2547.127000
405.618797	2544.942500
406.000250	2557.629404
406.381642	2551.916096
406.762972	2568.803962
407.144240	2555.360885
407.525447	2554.100596
407.906593	2548.975423
408.287677	2569.140038
408.668700	2557.881462
409.049661	2537.128712
409.430560	2562.754577
409.811399	2551.748058
410.192176	2556.621173
410.572891	2548.723365
410.953545	2560.906154
411.334138	2574.517269
411.714669	2570.820423
412.095139	2570.316308
412.475547	2549.395519
412.855894	2559.141750
413.236180	2565.191135
413.616405	2559.141750
413.996568	2561.410269
414.376670	2568.215827
414.756711	2564.350942
415.136691	2575.189423
415.516609	2568.551904
415.896466	2570.820423
416.276262	2557.377346
416.655997	2549.647577
417.035670	2580.650673
417.415283	2579.306365
417.794834	2579.222346
418.174324	2570.064250
418.553753	2575.861577
418.933121	2581.490865
419.312428	2571.576596
419.691674	2589.052596
420.070859	2578.802250
420.449983	2581.406846
420.829045	2599.975096
421.208047	2584.179481
421.586988	2600.311173
421.965867	2603.419885
422.344686	2621.820096
422.723444	2611.653769
423.102141	2617.199038
423.480777	2636.187385
423.859352	2645.597538
424.237866	2661.141096
424.616319	2666.098231
424.994712	2678.449058
425.373044	2696.597212
425.751314	2715.921635
426.129524	2712.308808
426.507673	2729.784808
426.885762	2744.152096
427.263789	2763.476519
427.641756	2778.179885
428.019662	2813.551981
428.397508	2839.850000
428.775292	2860.098635
429.153016	2897.319154
429.530679	2923.701192
429.908282	2948.486865
430.285824	2968.651481
430.663305	3017.466654
431.040726	3045.445058
431.418086	3065.861731
431.795385	3129.968404
432.172624	3178.279462
432.549802	3198.696135
432.926920	3253.224615
433.303977	3276.161865
433.680974	3348.838500
434.057910	3385.218827
434.434786	3451.425981
434.811601	3493.267558
435.188355	3593.166423
435.565050	3622.993250
435.941683	3683.067000
436.318257	3799.685692
436.694770	3834.553673
437.071222	3927.646981
437.447614	3912.859596
437.823946	3985.536231
438.200218	4034.435423
438.576429	4079.553750
438.952580	4176.595962
439.328670	4218.605577
439.704700	4308.086058
440.080670	4334.132019
440.456580	4437.475673
440.832429	4510.908481
441.208218	4467.050442
441.583947	4586.861865
441.959616	4660.630750
442.335224	4736.248058
442.710773	4821.023462
443.086261	4928.484058
443.461689	4905.462788
443.837057	4961.335577
444.212365	5107.108942
444.587612	5159.452923
444.962800	5187.011231
445.337927	5241.875788
445.712995	5142.060942
446.088002	5425.541827
446.462949	5510.569288
446.837837	5560.392692
447.212664	5571.483231
447.587431	5833.455192
447.962139	6233.050654
448.336786	6753.549788
448.711374	6877.226096
449.085901	6439.737962
449.460369	6351.517769
449.834776	6216.750923
450.209124	6508.465692
450.583412	6511.322346
450.957640	6742.291212
451.331808	6579.041846
451.705917	6344.460154
452.079965	6307.491692
452.453954	6342.443692
452.827883	6262.709442
453.201752	6251.870962
453.575562	6246.829808
453.949311	6409.911135
454.323001	6362.692327
454.696632	6318.918308
455.070202	6449.400173
455.443713	6430.411827
455.817164	6493.594288
456.190556	6551.147462
456.563888	6454.441327
456.937160	6528.546288
457.310373	6268.674808
457.683526	6235.319173
458.056619	6169.784173
458.429653	6070.893538
458.802628	6031.236462
459.175542	5973.851327
459.548398	6003.342077
459.921194	6092.402462
460.293930	6053.837635
460.666607	6181.126769
461.039224	6283.378173
461.411782	6354.878538
461.784280	6167.851731
462.156719	6104.333192
462.529099	5928.985058
462.901419	5709.610846
463.273680	5461.754115
463.645882	5352.193038
464.018024	5209.276327
464.390106	5143.405250
464.762130	5192.220423
465.134094	5315.896731
465.505999	5586.438654
465.877845	5929.405154
466.249631	6065.012192
466.621358	5904.367423
466.993026	5631.220904
467.364634	5347.151885
467.736184	5050.227923
468.107674	4835.138692
468.479105	4667.940423
468.850477	4540.567269
469.221790	4368.411865
469.593043	4182.225250
469.964238	4019.480000
470.335373	3938.401442
470.706449	3889.838327
471.077467	3818.842077
471.448425	3910.591077
471.819324	3981.083212
472.190164	3964.783481
472.560945	3766.162019
472.931667	3584.428423
473.302330	3486.041904
473.672934	3387.067250
474.043479	3332.706808
474.413965	3269.188269
474.784393	3202.140923
475.154761	3188.277750
475.525070	3126.187538
475.895321	3091.235538
476.265513	3075.019827
476.635645	3038.135385
477.005719	3007.720423
477.375734	2958.905250
477.745691	2975.204981
478.115588	2932.775269
478.485427	2910.090077
478.855207	2928.238231
479.224928	2931.094885
479.594591	2925.465596
479.964194	2891.269769
480.333739	2883.455981
480.703226	2848.840058
481.072653	2846.823596
481.442022	2825.230654
481.811333	2816.660692
482.180584	2788.094154
482.549777	2782.128788
482.918912	2766.165135
483.287988	2738.438788
483.657005	2762.048192
484.025964	2729.784808
484.394864	2707.603731
484.763706	2706.091385
485.132489	2700.546115
485.501213	2695.000846
485.869879	2682.650019
486.238487	2696.009077
486.607036	2675.760442
486.975527	2670.551250
487.343959	2666.938423
487.712333	2657.444250
488.080648	2667.442538
488.448905	2655.091712
488.817104	2643.581077
489.185244	2653.411327
489.553326	2641.480596
489.921350	2663.157558
490.289315	2654.251519
490.657222	2644.169212
491.025070	2652.403096
491.392861	2640.640404
491.760593	2637.279635
492.128267	2648.874288
492.495883	2648.370173
492.863440	2640.052269
493.230939	2638.035808
493.598380	2627.449385
493.965763	2607.872904
494.333088	2604.092038
494.700354	2608.208981
495.067563	2611.485731
495.434713	2611.653769
495.801805	2611.317692
496.168839	2614.930519
496.535815	2617.451096
496.902733	2604.512135
497.269593	2616.946981
497.636395	2603.083808
498.003139	2619.131481
498.369825	2611.485731
498.736453	2588.632500
499.103023	2620.223731
499.469535	2618.879423
499.835989	2614.006308
500.202385	2611.989846
500.568723	2596.698346
500.935003	2613.586212
501.301226	2599.975096
501.667390	2609.217212
502.033497	2613.922288
502.399546	2616.862962
502.765537	2598.294712
503.131470	2605.016250
503.497345	2593.001500
503.863163	2607.872904
504.228923	2593.253558
504.594625	2605.856442
504.960269	2604.176058
505.325856	2591.321115
505.691385	2592.749442
506.056856	2596.698346
506.422270	2610.729558
506.787625	2601.739500
507.152924	2600.479212
507.518164	2591.825231
507.883347	2592.665423
508.248472	2586.279962
508.613540	2590.312885
508.978550	2600.815288
509.343503	2598.462750
509.708398	2599.807058
510.073236	2595.186000
510.438016	2600.311173
510.802738	2602.747731
511.167403	2590.144846
511.532010	2587.624269
511.896561	2595.354038
512.261053	2601.571462
512.625488	2596.614327
512.989866	2592.665423
513.354186	2594.765904
513.718449	2592.665423
514.082655	2584.683596
514.446803	2586.532019
514.810894	2591.405135
515.174927	2591.069058
515.538904	2575.441481
515.902822	2591.489154
516.266684	2587.540250
516.630488	2605.436346
516.994235	2595.438058
517.357925	2595.438058
517.721558	2579.642442
518.085133	2595.270019
518.448651	2604.428115
518.812112	2604.680173
519.175516	2586.279962
519.538863	2606.024481
519.902152	2589.640731
520.265385	2605.772423
520.628560	2600.311173
520.991678	2591.825231
521.354739	2576.113635
521.717743	2584.515558
522.080690	2601.319404
522.443580	2600.395192
522.806413	2601.319404
523.169189	2598.546769
523.531908	2596.530308
523.894569	2610.393481
524.257174	2595.522077
524.619722	2588.548481
524.982213	2592.245327
525.344647	2602.243615
525.707025	2588.884558
526.069345	2595.690115
526.431608	2592.413365
526.793815	2588.632500
527.155964	2583.675365
527.518057	2592.917481
527.880093	2588.716519
528.242072	2585.607808
528.603995	2590.648962
528.965860	2589.472692
529.327669	2598.294712
529.689421	2593.169538
530.051117	2583.339288
530.412755	2594.597865
530.774337	2599.386962
531.135862	2604.848212
531.497331	2594.513846
531.858743	2604.596154
532.220098	2595.522077
532.581396	2586.700058
532.942638	2583.591346
533.303824	2593.505615
533.664953	2590.480923
534.026025	2595.606096
534.387040	2583.675365
534.747999	2589.052596
535.108902	2585.355750
535.469748	2589.976808
535.830537	2591.069058
536.191270	2581.154788
536.551947	2587.876327
536.912567	2592.749442
537.273131	2602.159596
537.633638	2598.210692
537.994089	2600.647250
538.354483	2608.461038
538.714821	2590.312885
539.075103	2586.111923
539.435328	2600.983327
539.795497	2574.013154
540.155609	2615.770712
540.515665	2604.512135
540.875665	2601.571462
541.235609	2587.960346
541.595496	2591.405135
541.955328	2594.093750
542.315102	2585.691827
542.674821	2591.237096
543.034483	2590.817000
543.394090	2604.344096
543.753640	2594.345808
544.113134	2581.574885
544.472571	2598.966865
544.831953	2590.648962
545.191278	2586.784077
545.550548	2582.835173
545.909761	2601.571462
546.268918	2588.548481
546.628019	2599.218923
546.987064	2593.085519
547.346053	2600.479212
547.704986	2587.960346
548.063863	2587.036135
548.422684	2595.186000
548.781449	2598.882846
549.140158	2588.548481
549.498811	2605.100269
549.857408	2583.339288
550.215949	2597.118442
550.574434	2582.919192
550.932864	2601.991558
551.291237	2597.370500
551.649555	2585.355750
552.007817	2583.759385
552.366022	2592.161308
552.724173	2596.194231
553.082267	2587.792308
553.440305	2594.513846
553.798288	2593.001500
554.156215	2596.278250
554.514086	2604.344096
554.871902	2580.650673
555.229661	2594.513846
555.587365	2589.472692
555.945014	2575.357462
556.302606	2604.176058
556.660143	2580.062538
557.017625	2593.841692
557.375050	2598.546769
557.732421	2580.314596
558.089735	2591.993269
558.446994	2595.522077
558.804197	2608.797115
559.161345	2588.212404
559.518437	2587.036135
559.875474	2592.077288
560.232455	2596.866385
560.589381	2582.667135
560.946251	2591.321115
561.303065	2597.370500
561.659825	2584.263500
562.016528	2613.586212
562.373177	2586.532019
562.729770	2605.520365
563.086307	2588.716519
563.442789	2602.831750
563.799216	2606.528596
564.155587	2585.019673
564.511904	2594.009731
564.868164	2594.009731
565.224370	2577.625981
565.580520	2584.683596
565.936615	2591.993269
566.292654	2600.395192
566.648638	2583.171250
567.004567	2586.532019
567.360441	2581.322827
567.716260	2589.556712
568.072023	2600.479212
568.427732	2588.632500
568.783385	2590.901019
569.138982	2599.891077
569.494525	2598.462750
569.850013	2594.765904
570.205445	2589.052596
570.560823	2590.564942
570.916145	2578.718231
571.271412	2584.095462
571.626625	2587.960346
571.981782	2612.998077
572.336884	2593.085519
572.691931	2579.978519
573.046923	2581.574885
573.401860	2597.790596
573.756743	2602.411654
574.111570	2586.868096
574.466342	2590.648962
574.821059	2604.512135
575.175722	2590.228865
575.530330	2593.001500
575.884882	2586.784077
576.239380	2592.077288
576.593823	2618.879423
576.948211	2597.118442
577.302544	2601.655481
577.656823	2594.513846
578.011047	2590.564942
578.365216	2596.194231
578.719330	2591.237096
579.073389	2584.347519
579.427394	2586.700058
579.781344	2599.723038
580.135239	2588.884558
580.489080	2591.069058
580.842866	2604.260077
581.196597	2603.755962
581.550273	2580.818712
581.903895	2580.986750
582.257463	2606.696635
582.610975	2600.311173
582.964434	2606.780654
583.317837	2590.817000
583.671186	2599.134904
584.024481	2589.472692
584.377721	2587.960346
584.730906	2598.630788
585.084037	2597.538538
585.437113	2595.522077
585.790135	2602.411654
586.143103	2588.884558
586.496016	2596.278250
586.848874	2596.530308
587.201679	2585.523788
587.554428	2597.454519
587.907124	2600.563231
588.259765	2593.001500
588.612352	2600.731269
588.964884	2574.769327
589.317362	2593.505615
589.669786	2598.126673
590.022155	2576.617750
590.374470	2605.604385
590.726731	2597.790596
591.078937	2587.540250
591.431090	2592.665423
591.783188	2604.596154
592.135232	2603.419885
592.487222	2609.469269
592.839157	2591.657192
593.191038	2598.378731
593.542866	2587.372212
593.894639	2592.581404
594.246358	2610.729558
594.598022	2592.161308
594.949633	2577.205885
595.301190	2586.952115
595.652692	2608.965154
596.004141	2587.036135
596.355535	2595.606096
596.706876	2581.322827
597.058162	2600.563231
597.409395	2588.716519
597.760573	2589.472692
598.111698	2593.169538
598.462768	2597.202462
598.813785	2602.915769
599.164748	2595.354038
599.515657	2608.881135
599.866511	2596.278250
600.217312	2599.891077
600.568060	2602.579692
600.918753	2613.334154
601.269392	2604.680173
601.619978	2595.101981
601.970510	2598.462750
602.320988	2596.614327
602.671412	2591.573173
603.021783	2581.154788
603.372100	2583.591346
603.722363	2600.311173
604.072572	2601.487442
604.422728	2598.966865
604.772830	2585.019673
605.122878	2598.210692
605.472872	2612.073865
605.822813	2589.640731
606.172701	2575.441481
606.522534	2588.296423
606.872314	2586.111923
607.222041	2579.810481
607.571714	2606.024481
607.921333	2575.189423
608.270899	2602.831750
608.620411	2603.839981
608.969870	2584.851635
609.319276	2593.925712
609.668627	2604.680173
610.017926	2596.362269
610.367171	2591.825231
610.716362	2598.882846
611.065500	2591.573173
611.414585	2585.775846
611.763616	2588.800538
612.112594	2584.347519
612.461518	2588.464462
612.810389	2605.688404
613.159207	2588.128385
613.507971	2587.372212
613.856682	2587.708288
614.205340	2581.994981
614.553945	2599.218923
614.902496	2605.436346
615.250994	2608.713096
615.599439	2606.612615
615.947830	2582.583115
616.296169	2609.301231
616.644454	2584.515558
616.992686	2592.161308
617.340864	2601.067346
617.688990	2586.532019
618.037063	2576.953827
618.385082	2587.204173
618.733048	2598.798827
619.080961	2587.288192
619.428821	2590.312885
619.776628	2586.952115
620.124382	2592.665423
620.472083	2596.614327
620.819731	2588.716519
621.167326	2589.892788
621.514868	2605.604385
621.862357	2601.823519
622.209793	2592.749442
622.557176	2606.864673
622.904506	2592.497385
623.251783	2602.411654
623.599007	2586.784077
623.946179	2598.462750
624.293297	2586.532019
624.640363	2599.050885
624.987376	2598.378731
625.334336	2594.345808
625.681243	2577.457942
626.028097	2585.523788
626.374899	2579.726462
626.721647	2579.810481
627.068343	2601.655481
627.414987	2588.548481
627.761577	2587.288192
628.108115	2596.614327
628.454600	2585.691827
628.801032	2594.765904
629.147412	2593.085519
629.493739	2582.583115
629.840014	2594.513846
630.186236	2594.093750
630.532405	2604.512135
630.878521	2601.487442
631.224585	2590.228865
631.570597	2582.499096
631.916556	2583.003212
632.262462	2589.304654
632.608316	2589.052596
632.954117	2590.901019
633.299866	2589.388673
633.645562	2593.085519
633.991206	2597.370500
634.336797	2598.042654
634.682336	2594.345808
635.027823	2580.650673
635.373257	2598.294712
635.718639	2573.509038
636.063968	2594.345808
636.409245	2600.647250
636.754470	2587.960346
637.099642	2583.507327
637.444762	2594.093750
637.789829	2580.734692
638.134845	2592.749442
638.479808	2588.548481
638.824719	2591.489154
639.169577	2586.952115
639.514383	2592.665423
639.859137	2588.716519
640.203839	2581.238808
640.548489	2586.279962
640.893086	2587.036135
641.237632	2592.161308
641.582125	2594.765904
641.926566	2584.011442
642.270955	2590.564942
642.615292	2584.347519
642.959576	2586.868096
643.303809	2591.489154
643.647990	2581.490865
643.992118	2594.513846
644.336195	2579.390385
644.680219	2599.807058
645.024192	2596.698346
645.368112	2583.087231
645.711981	2598.042654
646.055797	2581.574885
646.399562	2580.062538
646.743274	2591.069058
647.086935	2580.146558
647.430544	2583.675365
647.774101	2593.673654
648.117606	2596.866385
648.461059	2597.706577
648.804460	2586.784077
649.147810	2581.322827
649.491108	2566.283385
649.834354	2587.372212
650.177548	2586.111923
650.520690	2580.230577
650.863781	2594.765904
651.206820	2587.624269
651.549807	2580.482635
651.892742	2577.373923
652.235626	2587.624269
652.578458	2585.607808
652.921238	2587.624269
653.263967	2576.449712
653.606644	2589.304654
653.949269	2585.271731
654.291843	2582.499096
654.634365	2584.515558
654.976836	2582.667135
655.319255	2587.708288
655.661622	2584.683596
656.003938	2591.069058
656.346203	2592.833462
656.688416	2595.942173
657.030577	2586.279962
657.372687	2596.110212
657.714746	2578.466173
658.056753	2591.489154
658.398708	2580.902731
658.740612	2576.869808
659.082465	2579.642442
659.424266	2585.187712
659.766016	2581.406846
660.107715	2582.835173
660.449362	2566.283385
660.790958	2585.187712
661.132503	2578.046077
661.473996	2587.288192
661.815438	2598.882846
662.156829	2590.396904
662.498168	2575.105404
662.839456	2598.042654
663.180693	2592.329346
663.521879	2583.255269
663.863013	2594.597865
664.204097	2594.681885
664.545129	2591.405135
664.886110	2575.273442
665.227040	2597.034423
665.567918	2591.993269
665.908746	2569.728173
666.249522	2573.761096
666.590248	2584.851635
666.930922	2576.617750
667.271545	2580.398615
667.612118	2583.423308
667.952639	2583.171250
668.293109	2574.937365
668.633528	2588.548481
668.973896	2587.624269
669.314213	2573.929135
669.654480	2583.843404
669.994695	2585.187712
670.334859	2591.321115
670.674973	2582.163019
671.015035	2582.331058
671.355047	2562.502519
671.695008	2583.423308
672.034918	2588.212404
672.374777	2583.759385
672.714585	2580.398615
673.054342	2581.490865
673.394049	2587.624269
673.733705	2596.446288
674.073310	2593.085519
674.412864	2603.251846
674.752368	2582.835173
675.091820	2591.909250
675.431223	2586.784077
675.770574	2578.130096
676.109875	2582.499096
676.449125	2586.363981
676.788324	2584.767615
677.127473	2588.632500
677.466571	2595.101981
677.805619	2577.457942
678.144616	2586.784077
678.483562	2580.230577
678.822458	2585.691827
679.161303	2585.523788
679.500098	2588.464462
679.838842	2584.179481
680.177535	2581.574885
680.516179	2587.120154
680.854771	2579.558423
681.193314	2562.670558
681.531805	2591.825231
681.870247	2598.882846
682.208638	2581.238808
682.546978	2589.304654
682.885268	2586.784077
683.223508	2588.128385
683.561697	2584.767615
683.899836	2586.700058
684.237925	2583.339288
684.575963	2589.052596
684.913951	2590.312885
685.251889	2585.523788
685.589776	2586.111923
685.927614	2584.347519
686.265401	2582.247038
686.603137	2572.752865
686.940824	2588.464462
687.278460	2586.111923
687.616046	2582.835173
687.953582	2580.062538
688.291068	2581.322827
688.628504	2559.477827
688.965889	2591.993269
689.303224	2597.538538
689.640510	2584.851635
689.977745	2585.103692
690.314930	2574.853346
690.652065	2580.062538
690.989150	2596.194231
691.326185	2577.962058
691.663170	2579.138327
692.000105	2584.011442
692.336990	2586.195942
692.673825	2580.566654
693.010610	2580.818712
693.347345	2586.027904
693.684030	2590.564942
694.020665	2573.593058
694.357251	2581.490865
694.693786	2583.591346
695.030272	2579.894500
695.366707	2589.472692
695.703093	2568.551904
696.039429	2589.808769
696.375716	2578.718231
696.711952	2583.675365
697.048139	2582.247038
697.384276	2579.222346
697.720363	2573.004923
698.056400	2584.011442
698.392388	2592.497385
698.728326	2573.761096
699.064214	2589.724750
699.400053	2570.064250
699.735842	2574.853346
700.071581	2566.367404
700.407270	2579.222346
700.742910	2583.591346
701.078501	2592.749442
701.414042	2597.538538
701.749533	2581.070769
702.084974	2575.945596
702.420366	2587.876327
702.755709	2576.953827
703.091002	2590.396904
703.426246	2577.710000
703.761440	2590.312885
704.096584	2579.894500
704.431679	2572.500808
704.766725	2578.886269
705.101721	2570.904442
705.436668	2577.289904
705.771565	2594.849923
706.106413	2580.650673
706.441212	2586.616038
706.775961	2566.535442
707.110661	2574.265212
707.445311	2574.349231
707.779913	2580.146558
708.114465	2589.472692
708.448967	2572.668846
708.783421	2600.731269
709.117825	2584.095462
709.452180	2576.701769
709.786485	2576.617750
710.120742	2591.069058
710.454949	2584.263500
710.789107	2582.163019
711.123216	2582.163019
711.457275	2573.256981
711.791286	2582.583115
712.125247	2583.591346
712.459159	2577.289904
712.793023	2575.777558
713.126837	2580.734692
713.460602	2574.013154
713.794318	2594.093750
714.127985	2585.523788
714.461602	2575.357462
714.795171	2578.382154
715.128691	2586.111923
715.462162	2583.339288
715.795584	2583.255269
716.128957	2590.060827
716.462281	2596.362269
716.795556	2591.993269
717.128782	2581.490865
717.461960	2584.851635
717.795088	2596.866385
718.128167	2580.902731
718.461198	2594.177769
718.794180	2574.265212
719.127113	2585.019673
719.459997	2569.896212
719.792833	2574.685308
720.125619	2575.105404
720.458357	2568.803962
720.791046	2587.708288
721.123686	2578.718231
721.456278	2579.810481
721.788821	2587.288192
722.121315	2597.790596
722.453761	2585.523788
722.786158	2573.425019
723.118506	2595.690115
723.450805	2587.876327
723.783056	2586.532019
724.115259	2569.980231
724.447412	2568.972000
724.779518	2574.601288
725.111574	2567.459654
725.443582	2588.716519
725.775542	2583.675365
726.107453	2582.499096
726.439315	2591.573173
726.771129	2603.335865
727.102895	2578.970288
727.434612	2569.644154
727.766281	2580.314596
728.097901	2586.700058
728.429473	2566.199365
728.760996	2584.683596
729.092471	2574.937365
729.423897	2584.347519
729.755276	2581.070769
730.086606	2577.121865
730.417887	2588.548481
730.749120	2584.935654
731.080305	2590.312885
731.411442	2596.194231
731.742530	2572.080712
732.073570	2575.357462
732.404562	2572.500808
732.735506	2589.052596
733.066401	2578.886269
733.397249	2574.601288
733.728048	2571.324538
734.058798	2574.517269
734.389501	2564.434962
734.720156	2560.990173
735.050762	2575.021385
735.381320	2574.685308
735.711831	2566.535442
736.042293	2581.910962
736.372707	2578.382154
736.703073	2571.324538
737.033391	2562.166442
737.363661	2562.586538
737.693883	2585.607808
738.024056	2571.324538
738.354182	2571.408558
738.684260	2564.855058
739.014290	2576.953827
739.344272	2580.734692
739.674207	2565.107115
740.004093	2580.398615
740.333931	2582.247038
740.663722	2567.879750
740.993464	2589.052596
741.323159	2580.062538
741.652806	2593.589635
741.982405	2582.163019
742.311956	2584.767615
742.641460	2587.120154
742.970915	2578.718231
743.300323	2569.308077
743.629683	2592.161308
743.958996	2581.826942
744.288260	2567.039558
744.617477	2583.087231
744.946647	2573.172962
745.275768	2572.248750
745.604842	2578.634212
745.933869	2581.994981
746.262847	2589.724750
746.591778	2576.785788
746.920662	2571.240519
747.249498	2581.322827
747.578286	2580.566654
747.907027	2578.970288
748.235720	2579.642442
748.564365	2567.795731
748.892963	2576.533731
749.221514	2601.907538
749.550017	2568.803962
749.878473	2574.433250
750.206881	2568.551904
750.535242	2562.418500
750.863555	2574.685308
751.191821	2570.736404
751.520039	2587.372212
751.848210	2561.074192
752.176334	2587.036135
752.504411	2583.759385
752.832440	2561.158212
753.160421	2576.113635
753.488356	2573.341000
753.816243	2564.939077
754.144082	2586.279962
754.471875	2560.570077
754.799620	2575.777558
755.127318	2575.861577
755.454969	2580.230577
755.782572	2561.578308
756.110129	2584.347519
756.437638	2560.149981
756.765100	2576.365692
757.092515	2576.113635
757.419882	2575.777558
757.747203	2570.316308
758.074477	2577.962058
758.401703	2562.922615
758.728882	2584.683596
759.056014	2586.111923
759.383099	2566.451423
759.710138	2569.896212
760.037129	2578.298135
760.364073	2583.423308
760.690970	2565.611231
761.017820	2585.691827
761.344623	2562.838596
761.671379	2574.685308
761.998088	2578.130096
762.324751	2574.517269
762.651366	2562.418500
762.977935	2572.752865
763.304456	2574.937365
763.630931	2571.240519
763.957359	2582.919192
764.283740	2587.792308
764.610074	2592.329346
764.936362	2577.037846
765.262602	2575.861577
765.588796	2581.994981
765.914943	2585.187712
766.241044	2580.986750
766.567097	2579.390385
766.893104	2562.586538
767.219064	2575.441481
767.544978	2579.054308
767.870845	2567.375635
768.196665	2554.856769
768.522438	2570.232288
768.848165	2571.492577
769.173846	2563.090654
769.499479	2578.130096
769.825066	2578.382154
770.150607	2575.525500
770.476101	2569.056019
770.801548	2576.281673
771.126949	2566.199365
771.452303	2581.826942
771.777611	2577.289904
772.102872	2582.583115
772.428087	2573.509038
772.753256	2570.232288
773.078378	2571.744635
773.403453	2578.130096
773.728482	2578.970288
774.053465	2577.794019
774.378401	2558.217538
774.703291	2578.046077
775.028135	2567.039558
775.352932	2576.953827
775.677683	2570.400327
776.002388	2572.920904
776.327046	2566.115346
776.651658	2576.533731
776.976224	2572.668846
777.300743	2575.189423
777.625216	2562.922615
777.949643	2574.937365
778.274024	2572.248750
778.598359	2578.886269
778.922647	2562.922615
779.246889	2572.080712
779.571086	2567.879750
779.895236	2566.955538
780.219339	2557.629404
780.543397	2570.064250
780.867409	2569.476115
781.191374	2583.591346
781.515294	2575.777558
781.839167	2576.617750
782.162995	2585.439769
782.486776	2580.650673
782.810511	2560.990173
783.134201	2571.156500
783.457844	2588.548481
783.781441	2577.794019
784.104993	2565.527212
784.428498	2589.472692
784.751958	2575.189423
785.075372	2573.425019
785.398739	2578.130096
785.722061	2579.222346
786.045337	2560.318019
786.368568	2574.853346
786.691752	2569.392096
787.014891	2577.037846
787.337983	2579.558423
787.661030	2554.016577
787.984031	2576.533731
788.306987	2563.678788
788.629897	2569.644154
788.952760	2581.322827
789.275579	2574.013154
789.598351	2557.545385
789.921078	2566.955538
790.243759	2564.939077
790.566395	2563.762808
790.888984	2564.939077
791.211529	2586.363981
791.534027	2577.794019
791.856480	2567.879750
792.178888	2568.635923
792.501249	2568.719942
792.823566	2575.693538
793.145836	2570.820423
793.468062	2578.130096
793.790241	2566.871519
794.112375	2574.937365
794.434464	2581.070769
794.756507	2568.047788
795.078505	2571.660615
795.400457	2572.584827
795.722364	2569.644154
796.044226	2573.761096
796.366042	2570.568365
796.687812	2584.767615
797.009538	2562.670558
797.331218	2570.820423
797.652852	2564.939077
797.974442	2571.492577
798.295986	2578.298135
798.617484	2582.163019
798.938938	2576.785788
799.260346	2585.691827
799.581709	2568.131808
799.903026	2577.962058
800.224299	2566.955538
800.545526	2574.517269
800.866708	2567.375635
801.187845	2574.769327
801.508936	2566.703481
801.829983	2563.594769
802.150984	2576.113635
802.471940	2578.298135
802.792851	2573.256981
803.113717	2567.543673
803.434538	2581.070769
803.755314	2563.258692
804.076045	2573.172962
804.396731	2568.383865
804.717372	2581.070769
805.037967	2561.158212
805.358518	2576.953827
805.679024	2562.838596
805.999485	2564.687019
806.319901	2568.131808
806.640272	2580.986750
806.960598	2584.935654
807.280879	2572.248750
807.601115	2581.574885
807.921306	2574.853346
808.241453	2577.121865
808.561554	2563.846827
808.881611	2559.981942
809.201623	2581.238808
809.521590	2580.734692
809.841513	2578.970288
810.161390	2580.566654
810.481223	2577.962058
810.801011	2571.912673
811.120755	2588.548481
811.440453	2570.904442
811.760107	2569.644154
812.079716	2580.314596
812.399281	2569.980231
812.718801	2575.777558
813.038276	2571.660615
813.357707	2580.818712
813.677093	2590.144846
813.996434	2567.879750
814.315731	2558.133519
814.634983	2569.224058
814.954191	2569.812192
815.273354	2570.148269
815.592473	2570.736404
815.911547	2580.314596
816.230577	2566.871519
816.549562	2570.064250
816.868502	2560.402038
817.187399	2575.861577
817.506250	2571.072481
817.825058	2575.693538
818.143821	2554.772750
818.462539	2568.972000
818.781213	2583.675365
819.099843	2573.677077
819.418429	2567.879750
819.736970	2579.978519
820.055466	2577.625981
820.373919	2576.785788
820.692327	2571.408558
821.010691	2570.904442
821.329011	2578.382154
821.647286	2595.101981
821.965517	2588.548481
822.283704	2601.487442
822.601847	2592.497385
822.919945	2592.917481
823.237999	2604.176058
823.556010	2599.050885
823.873976	2591.237096
824.191897	2592.413365
824.509775	2581.574885
824.827609	2588.296423
825.145398	2594.765904
825.463144	2589.892788
825.780845	2578.802250
826.098502	2589.724750
826.416116	2575.441481
826.733685	2588.128385
827.051210	2588.716519
827.368692	2596.194231
827.686129	2579.054308
828.003522	2584.935654
828.320872	2584.851635
828.638177	2578.046077
828.955439	2579.054308
829.272656	2577.625981
829.589830	2567.543673
829.906960	2581.574885
830.224046	2581.574885
830.541088	2570.316308
830.858086	2562.922615
831.175041	2562.418500
831.491952	2572.836885
831.808819	2559.477827
832.125642	2569.140038
832.442421	2578.970288
832.759157	2569.896212
833.075849	2582.079000
833.392497	2575.021385
833.709101	2566.199365
834.025662	2589.808769
834.342179	2585.187712
834.658653	2580.734692
834.975083	2570.736404
835.291469	2589.556712
835.607811	2558.217538
835.924110	2557.209308
836.240366	2580.734692
836.556578	2573.256981
836.872746	2574.349231
837.188871	2559.645865
837.504952	2569.392096
837.820990	2571.156500
838.136984	2566.787500
838.452935	2564.098885
838.768842	2570.568365
839.084706	2565.443192
839.400526	2566.031327
839.716303	2570.652385
840.032037	2577.541962
840.347727	2567.543673
840.663373	2572.332769
840.978977	2565.779269
841.294537	2568.047788
841.610054	2567.039558
841.925527	2580.818712
842.240957	2575.525500
842.556344	2578.214115
842.871687	2581.322827
843.186987	2575.273442
843.502244	2572.080712
843.817458	2560.738115
844.132629	2573.088942
844.447756	2570.988462
844.762840	2578.382154
845.077881	2576.449712
845.392879	2557.797442
845.707833	2572.752865
846.022745	2574.013154
846.337613	2557.461365
846.652438	2576.449712
846.967221	2558.889692
847.281960	2564.771038
847.596656	2565.443192
847.911309	2555.024808
848.225919	2578.214115
848.540485	2568.383865
848.855009	2581.658904
849.169490	2574.769327
849.483928	2560.318019
849.798323	2563.594769
850.112675	2573.761096
850.426984	2564.350942
850.741251	2558.973712
851.055474	2550.823846
851.369654	2574.433250
851.683792	2571.660615
851.997887	2563.090654
852.311938	2564.687019
852.625947	2571.744635
852.939914	2569.056019
853.253837	2567.459654
853.567718	2588.464462
853.881555	2569.140038
854.195350	2576.953827
854.509103	2585.019673
854.822812	2552.336192
855.136479	2572.500808
855.450103	2579.474404
855.763685	2575.945596
856.077224	2563.510750
856.390720	2564.603000
856.704173	2580.818712
857.017584	2562.250462
857.330953	2576.197654
857.644278	2554.772750
857.957561	2574.265212
858.270802	2574.013154
858.584000	2572.416788
858.897155	2554.688731
859.210268	2586.448000
859.523339	2569.728173
859.836367	2561.158212
860.149352	2566.199365
860.462295	2576.785788
860.775195	2572.752865
861.088054	2575.105404
861.400869	2551.411981
861.713642	2560.065962
862.026373	2588.884558
862.339062	2565.107115
862.651708	2569.896212
862.964312	2563.678788
863.276873	2566.703481
863.589392	2574.013154
863.901869	2564.855058
864.214303	2575.189423
864.526696	2558.889692
864.839045	2562.166442
865.151353	2571.156500
865.463619	2565.443192
865.775842	2572.416788
866.088023	2569.980231
866.400162	2575.861577
866.712258	2557.629404
867.024313	2565.359173
867.336325	2576.197654
867.648296	2554.856769
867.960224	2568.467885
868.272110	2570.820423
868.583954	2557.797442
868.895755	2576.533731
869.207515	2589.892788
869.519233	2557.293327
869.830909	2562.418500
870.142542	2563.846827
870.454134	2580.650673
870.765684	2579.054308
871.077191	2571.744635
871.388657	2566.283385
871.700081	2579.054308
872.011463	2572.836885
872.322803	2573.845115
872.634101	2573.004923
872.945357	2551.327962
873.256571	2579.894500
873.567744	2572.836885
873.878874	2571.408558
874.189963	2567.291615
874.501010	2565.695250
874.812015	2581.154788
875.122979	2577.205885
875.433900	2576.617750
875.744780	2569.980231
876.055618	2572.752865
876.366415	2557.209308
876.677169	2564.939077
876.987882	2556.369115
877.298554	2566.955538
877.609183	2566.619462
877.919771	2568.299846
878.230317	2559.309788
878.540822	2579.390385
878.851285	2573.929135
879.161707	2575.189423
879.472087	2565.611231
879.782425	2573.677077
880.092722	2567.123577
880.402977	2575.693538
880.713191	2570.736404
881.023363	2572.500808
881.333494	2571.072481
881.643583	2571.492577
881.953631	2566.619462
882.263637	2592.329346
882.573602	2574.769327
882.883526	2590.901019
883.193408	2577.121865
883.503248	2589.304654
883.813048	2582.499096
884.122806	2571.828654
884.432522	2570.820423
884.742197	2587.120154
885.051831	2578.802250
885.361424	2569.812192
885.670975	2580.818712
885.980485	2585.523788
886.289954	2578.718231
886.599382	2567.375635
886.908768	2570.484346
887.218113	2582.415077
887.527417	2564.350942
887.836680	2565.443192
888.145901	2563.678788
888.455082	2577.625981
888.764221	2574.181192
889.073319	2563.342712
889.382376	2564.687019
889.691392	2572.752865
890.000366	2557.797442
890.309300	2563.678788
890.618193	2547.127000
890.927044	2558.133519
891.235855	2578.214115
891.544625	2563.846827
891.853353	2570.064250
892.162041	2582.919192
892.470687	2570.568365
892.779293	2575.189423
893.087858	2567.291615
893.396381	2570.820423
893.704864	2562.166442
894.013306	2559.561846
894.321707	2568.131808
894.630068	2547.631115
894.938387	2565.527212
895.246665	2576.533731
895.554903	2554.688731
895.863100	2564.603000
896.171256	2584.767615
896.479371	2561.326250
896.787446	2578.214115
897.095480	2568.803962
897.403473	2560.486058
897.711425	2571.156500
898.019336	2575.609519
898.327207	2569.728173
898.635038	2585.439769
898.942827	2570.148269
899.250576	2579.054308
899.558284	2564.182904
899.865952	2564.771038
900.173579	2572.416788
900.481165	2575.777558
900.788711	2549.983654
901.096216	2567.963769
901.403681	2541.329673
901.711105	2569.896212
902.018489	2561.242231
902.325832	2571.324538
902.633135	2566.871519
902.940397	2570.148269
903.247619	2569.224058
903.554800	2563.426731
903.861941	2567.963769
904.169041	2572.500808
904.476101	2572.500808
904.783121	2571.744635
905.090100	2572.836885
905.397039	2575.357462
905.703938	2564.350942
906.010796	2570.400327
906.317614	2565.695250
906.624391	2570.652385
906.931129	2571.576596
907.237826	2577.037846
907.544483	2569.644154
907.851099	2564.687019
908.157675	2585.943885
908.464211	2568.719942
908.770707	2565.107115
909.077163	2570.064250
909.383578	2578.718231
909.689954	2571.660615
909.996289	2575.777558
910.302584	2575.777558
910.608839	2573.172962
910.915054	2564.014865
911.221229	2555.360885
911.527363	2572.920904
911.833458	2569.476115
912.139513	2571.492577
912.445527	2563.930846
912.751502	2566.535442
913.057436	2577.794019
913.363331	2568.215827
913.669186	2558.049500
913.975000	2586.700058
914.280775	2551.159923
914.586510	2580.734692
914.892205	2562.586538
915.197859	2561.158212
915.503475	2572.752865
915.809050	2564.350942
916.114585	2565.527212
916.420081	2573.004923
916.725536	2580.734692
917.030952	2580.818712
917.336328	2579.558423
917.641665	2576.533731
917.946961	2553.596481
918.252218	2560.990173
918.557435	2575.945596
918.862612	2577.710000
919.167750	2565.191135
919.472848	2564.182904
919.777906	2552.924327
920.082925	2574.769327
920.387904	2570.232288
920.692843	2563.594769
920.997743	2574.601288
921.302603	2563.426731
921.607423	2581.994981
921.912204	2573.593058
922.216946	2571.912673
922.521647	2565.191135
922.826310	2554.016577
923.130932	2572.920904
923.435516	2574.433250
923.740059	2573.004923
924.044564	2564.434962
924.349028	2557.377346
924.653454	2564.098885
924.957840	2566.535442
925.262186	2567.207596
925.566493	2570.064250
925.870761	2575.525500
926.174989	2556.537154
926.479178	2557.125288
926.783328	2552.672269
927.087438	2565.443192
927.391509	2558.973712
927.695541	2557.713423
927.999533	2579.810481
928.303486	2553.596481
928.607400	2561.074192
928.911275	2565.527212
929.215110	2558.553615
929.518906	2568.383865
929.822663	2559.057731
930.126381	2564.939077
930.430060	2562.418500
930.733699	2563.510750
931.037299	2563.678788
931.340861	2562.586538
931.644383	2560.318019
931.947866	2574.265212
932.251309	2573.761096
932.554714	2571.408558
932.858080	2555.612942
933.161407	2568.131808
933.464694	2564.266923
933.767943	2569.308077
934.071153	2557.545385
934.374323	2571.828654
934.677455	2574.097173
934.980548	2570.988462
935.283602	2559.225769
935.586617	2553.008346
935.889593	2555.612942
936.192530	2573.761096
936.495428	2563.846827
936.798287	2566.115346
937.101108	2561.998404
937.403890	2550.907865
937.706632	2567.375635
938.009336	2574.685308
938.312002	2558.049500
938.614628	2580.734692
938.917216	2569.728173
939.219765	2561.242231
939.522275	2566.787500
939.824747	2562.838596
940.127179	2564.687019
940.429573	2572.248750
940.731929	2571.156500
941.034246	2569.140038
941.336524	2562.502519
941.638763	2557.377346
941.940964	2564.939077
942.243126	2560.486058
942.545250	2568.719942
942.847335	2549.395519
943.149381	2567.375635
943.451389	2559.645865
943.753359	2569.644154
944.055290	2561.914385
944.357182	2572.416788
944.659036	2548.891404
944.960851	2553.428442
945.262628	2577.457942
945.564367	2557.797442
945.866067	2562.082423
946.167729	2563.090654
946.469352	2556.537154
946.770937	2552.756288
947.072484	2571.912673
947.373992	2571.240519
947.675462	2565.023096
947.976893	2573.341000
948.278286	2553.176385
948.579641	2547.127000
948.880958	2564.603000
949.182236	2578.970288
949.483476	2564.518981
949.784678	2573.677077
950.085841	2555.192846
950.386967	2550.907865
950.688054	2565.863288
950.989103	2561.914385
951.290114	2562.670558
951.591087	2575.273442
951.892021	2567.459654
952.192917	2563.930846
952.493776	2543.850250
952.794596	2549.731596
953.095378	2560.654096
953.396122	2549.059442
953.696828	2566.871519
953.997496	2580.146558
954.298126	2552.336192
954.598718	2559.141750
954.899272	2571.744635
955.199788	2573.929135
955.500266	2567.291615
955.800706	2558.805673
956.101108	2566.535442
956.401472	2569.980231
956.701798	2554.772750
957.002087	2585.943885
957.302337	2570.064250
957.602550	2568.803962
957.902724	2573.509038
958.202861	2581.910962
958.502960	2557.545385
958.803022	2563.174673
959.103045	2570.484346
959.403031	2568.047788
959.702979	2564.350942
960.002889	2553.176385
960.302762	2571.660615
960.602596	2556.873231
960.902393	2568.047788
961.202153	2564.939077
961.501875	2563.930846
961.801559	2560.654096
962.101205	2568.551904
962.400814	2574.013154
962.700385	2551.327962
962.999918	2570.988462
963.299414	2560.570077
963.598873	2560.822135
963.898293	2567.879750
964.197677	2568.383865
964.497022	2556.537154
964.796331	2550.907865
965.095601	2575.861577
965.394835	2556.285096
965.694030	2559.897923
965.993189	2572.920904
966.292309	2552.840308
966.591393	2568.635923
966.890439	2561.494288
967.189447	2573.088942
967.488419	2555.444904
967.787353	2570.988462
968.086249	2560.402038
968.385108	2560.065962
968.683930	2556.117058
968.982714	2560.570077
969.281462	2559.141750
969.580172	2565.359173
969.878844	2567.627692
970.177480	2567.543673
970.476078	2569.728173
970.774639	2557.125288
971.073162	2561.998404
971.371649	2567.123577
971.670098	2550.739827
971.968510	2560.486058
972.266885	2572.248750
972.565223	2564.855058
972.863524	2563.006635
973.161788	2570.820423
973.460014	2561.746346
973.758204	2558.133519
974.056356	2568.887981
974.354471	2573.088942
974.652550	2558.973712
974.950591	2569.392096
975.248595	2565.527212
975.546563	2559.729885
975.844493	2565.023096
976.142386	2565.107115
976.440243	2575.189423
976.738062	2556.537154
977.035845	2567.963769
977.333590	2553.092365
977.631299	2569.644154
977.928971	2566.199365
978.226606	2567.627692
978.524204	2575.021385
978.821765	2542.673981
979.119290	2564.603000
979.416777	2555.192846
979.714228	2567.039558
980.011642	2568.887981
980.309020	2555.024808
980.606360	2551.075904
980.903664	2562.166442
981.200931	2567.963769
981.498162	2564.771038
981.795356	2564.098885
982.092513	2571.240519
982.389633	2556.201077
982.686717	2572.080712
982.983764	2575.861577
983.280775	2561.494288
983.577749	2560.234000
983.874686	2548.891404
984.171587	2574.349231
984.468451	2564.855058
984.765279	2562.502519
985.062070	2566.115346
985.358824	2581.406846
985.655543	2566.619462
985.952224	2566.115346
986.248869	2560.906154
986.545478	2557.293327
986.842050	2552.000115
987.138586	2561.074192
987.435086	2581.574885
987.731549	2567.459654
988.027975	2571.072481
988.324366	2563.006635
988.620719	2588.212404
988.917037	2568.467885
989.213318	2563.006635
989.509563	2558.301558
989.805772	2555.276865
990.101944	2559.813904
990.398080	2545.866712
990.694180	2562.502519
990.990244	2556.117058
991.286271	2568.803962
991.582262	2556.873231
991.878217	2558.301558
992.174136	2571.072481
992.470019	2567.963769
992.765865	2573.172962
993.061676	2573.088942
993.357450	2572.500808
993.653188	2568.972000
993.948890	2581.658904
994.244556	2560.570077
994.540186	2561.494288
994.835780	2555.276865
995.131337	2567.543673
995.426859	2560.990173
995.722345	2562.754577
996.017795	2557.713423
996.313208	2557.461365
996.608586	2577.373923
996.903928	2565.443192
997.199234	2554.520692
997.494504	2561.578308
997.789738	2561.494288
998.084936	2565.191135
998.380099	2563.426731
998.675225	2559.645865
998.970316	2555.696962
999.265371	2560.990173
999.560390	2562.586538
999.855373	2569.644154
1000.150320	2552.840308
1000.445232	2551.664038
1000.740108	2572.500808
1001.034948	2563.510750
1001.329752	2540.909577
1001.624521	2565.359173
1001.919254	2574.013154
1002.213951	2576.617750
1002.508613	2563.342712
1002.803239	2575.189423
1003.097829	2554.688731
1003.392384	2536.036462
1003.686903	2556.285096
1003.981386	2566.283385
1004.275834	2581.322827
1004.570246	2554.268635
1004.864623	2569.812192
1005.158964	2558.217538
1005.453270	2565.527212
1005.747540	2568.719942
1006.041775	2571.744635
1006.335974	2561.410269
1006.630138	2572.920904
1006.924266	2565.779269
1007.218359	2550.487769
1007.512416	2554.436673
1007.806438	2561.410269
1008.100425	2577.794019
1008.394376	2552.756288
1008.688292	2578.298135
1008.982172	2580.734692
1009.276017	2566.619462
1009.569827	2560.318019
1009.863602	2566.031327
1010.157341	2561.662327
1010.451045	2565.611231
1010.744714	2562.670558
1011.038347	2557.041269
1011.331945	2564.266923
1011.625508	2569.392096
1011.919036	2552.672269
1012.212528	2554.436673
1012.505986	2559.813904
1012.799408	2550.235712
1013.092795	2559.393808
1013.386147	2562.838596
1013.679464	2572.332769
1013.972745	2555.865000
1014.265992	2568.635923
1014.559204	2548.723365
1014.852380	2573.004923
1015.145521	2554.100596
1015.438628	2559.309788
1015.731699	2578.970288
1016.024736	2575.693538
1016.317737	2572.416788
1016.610703	2564.855058
1016.903635	2559.981942
1017.196531	2549.479538
1017.489393	2570.400327
1017.782219	2551.832077
1018.075011	2556.369115
1018.367768	2554.352654
1018.660490	2561.662327
1018.953177	2561.662327
1019.245829	2561.662327
