Dividing Wavelength (nm)	Counts (n)	Slit_number_27_of_a_total_of_40	
326.493990	2039.398788
326.888308	2039.398788
327.282561	2039.398788
327.676750	2011.420385
328.070874	2029.568538
328.464933	2030.072654
328.858929	2011.168327
329.252859	2032.845288
329.646726	2045.700231
330.040528	2092.835019
330.434265	2088.550038
330.827938	2106.698192
331.221547	2110.731115
331.615091	2163.663231
332.008571	2161.898827
332.401986	2197.943077
332.795338	2223.148846
333.188625	2243.817577
333.581847	2253.395769
333.975006	2271.291865
334.368100	2280.870058
334.761129	2294.481173
335.154095	2293.472942
335.546996	2328.761019
335.939833	2369.090250
336.332606	2353.462673
336.725315	2356.739423
337.117960	2389.254865
337.510540	2396.312481
337.903056	2418.997673
338.295508	2426.307346
338.687896	2399.589231
339.080220	2420.005904
339.472480	2429.332038
339.864676	2441.682865
340.256807	2431.852615
340.648875	2418.493558
341.040879	2466.132462
341.432818	2471.173615
341.824694	2447.732250
342.216506	2455.546038
342.608253	2429.584096
342.999937	2431.600558
343.391557	2426.559404
343.783113	2451.009000
344.174605	2432.356731
344.566033	2417.233269
344.957397	2453.529577
345.348697	2434.625250
345.739934	2455.041923
346.131106	2410.175654
346.522215	2413.452404
346.913260	2436.641712
347.304241	2421.014135
347.695159	2408.159192
348.086012	2412.696231
348.476802	2401.353635
348.867528	2414.964750
349.258191	2397.320712
349.648789	2423.030596
350.039324	2392.531615
350.429796	2422.274423
350.820203	2397.572769
351.210548	2410.931827
351.600828	2391.523385
351.991045	2416.477096
352.381198	2385.221942
352.771288	2402.865981
353.161314	2420.005904
353.551276	2400.597462
353.941175	2416.981212
354.331010	2448.488423
354.720782	2401.101577
355.110490	2415.720923
355.500135	2405.890673
355.889717	2433.112904
356.279235	2385.221942
356.668689	2387.238404
357.058080	2410.679769
357.447408	2431.600558
357.836672	2414.964750
358.225873	2422.274423
358.615010	2414.964750
359.004084	2402.865981
359.393095	2415.468865
359.782043	2390.767212
360.170927	2411.183885
360.559748	2434.625250
360.948505	2392.531615
361.337199	2398.833058
361.725830	2430.340269
362.114398	2388.750750
362.502903	2415.720923
362.891344	2419.501788
363.279722	2412.192115
363.668037	2403.370096
364.056289	2402.361865
364.444478	2403.874212
364.832603	2413.452404
365.220665	2401.605692
365.608665	2414.964750
365.996601	2434.877308
366.384474	2435.885538
366.772284	2421.266192
367.160031	2423.282654
367.547715	2440.422577
367.935336	2410.931827
368.322893	2396.060423
368.710388	2406.898904
369.097820	2390.515154
369.485189	2448.740481
369.872495	2431.600558
370.259738	2425.551173
370.646918	2439.162288
371.034035	2414.460635
371.421090	2427.567635
371.808081	2441.682865
372.195010	2430.088212
372.581875	2409.167423
372.968678	2425.047058
373.355418	2418.241500
373.742096	2421.518250
374.128710	2434.373192
374.515262	2429.079981
374.901751	2419.249731
375.288177	2435.633481
375.674540	2429.836154
376.060841	2419.249731
376.447079	2430.088212
376.833254	2446.976077
377.219367	2423.030596
377.605417	2424.038827
377.991404	2425.047058
378.377329	2461.595423
378.763191	2432.608788
379.148991	2457.562500
379.534727	2456.050154
379.920402	2461.091308
380.306013	2463.611885
380.691563	2480.247692
381.077049	2479.491519
381.462474	2462.099538
381.847835	2493.606750
382.233134	2505.201404
382.618371	2539.481250
383.003545	2552.084135
383.388657	2557.125288
383.773706	2575.777558
384.158693	2576.785788
384.543618	2594.681885
384.928480	2607.284769
385.313280	2608.797115
385.698017	2667.022442
386.082692	2650.134577
386.467305	2682.650019
386.851856	2692.228212
387.236344	2707.099615
387.620770	2745.664442
388.005133	2747.932962
388.389435	2772.382558
388.773674	2780.700462
389.157851	2793.303346
389.541965	2835.396981
389.926018	2823.046154
390.310008	2850.520442
390.693936	2877.490615
391.077802	2898.411404
391.461606	2924.877462
391.845348	2935.463885
392.229027	2931.430962
392.612645	2966.719038
392.996200	2983.606904
393.379694	3007.300327
393.763125	3040.571942
394.146494	3058.720096
394.529801	3076.616192
394.913047	3104.090481
395.296230	3078.128538
395.679351	3090.731423
396.062410	3099.301385
396.445408	3125.767442
396.828343	3097.536981
397.211217	3146.940288
397.594028	3098.797269
397.976778	3120.474231
398.359466	3136.605923
398.742092	3066.785942
399.124656	3082.413519
399.507158	3091.487596
399.889598	3132.825058
400.271977	3081.657346
400.654294	3049.646019
401.036549	3074.599731
401.418742	3049.646019
401.800874	3053.678942
402.182944	3054.183058
402.564952	3041.832231
402.946898	2976.045173
403.328783	2988.396000
403.710606	2962.938173
404.092367	2997.470077
404.474067	2937.732404
404.855705	2934.707712
405.237282	2893.874365
405.618797	2896.394942
406.000250	2861.106865
406.381642	2898.411404
406.762972	2838.925788
407.144240	2831.868173
407.525447	2818.761173
407.906593	2755.242635
408.287677	2742.387692
408.668700	2750.201481
409.049661	2735.330077
409.430560	2686.178827
409.811399	2699.789942
410.192176	2672.315654
410.572891	2632.742596
410.953545	2645.849596
411.334138	2632.490538
411.714669	2619.635596
412.095139	2579.306365
412.475547	2559.141750
412.855894	2549.059442
413.236180	2561.410269
413.616405	2548.051212
413.996568	2527.634538
414.376670	2508.982269
414.756711	2514.527538
415.136691	2508.478154
415.516609	2471.173615
415.896466	2512.511077
416.276262	2495.875269
416.655997	2486.045019
417.035670	2485.288846
417.415283	2486.045019
417.794834	2471.929788
418.174324	2474.702423
418.553753	2478.231231
418.933121	2459.578962
419.312428	2443.447269
419.691674	2492.346462
420.070859	2461.595423
420.449983	2461.091308
420.829045	2438.154058
421.208047	2476.718885
421.586988	2461.343365
421.965867	2461.091308
422.344686	2476.466827
422.723444	2451.513115
423.102141	2447.732250
423.480777	2467.644808
423.859352	2438.406115
424.237866	2479.743577
424.616319	2467.644808
424.994712	2469.409212
425.373044	2442.943154
425.751314	2460.335135
426.129524	2444.455500
426.507673	2460.083077
426.885762	2441.682865
427.263789	2477.979173
427.641756	2480.751808
428.019662	2451.513115
428.397508	2437.902000
428.775292	2474.198308
429.153016	2469.409212
429.530679	2461.091308
429.908282	2458.318673
430.285824	2469.913327
430.663305	2443.195212
431.040726	2439.162288
431.418086	2460.335135
431.795385	2454.285750
432.172624	2448.488423
432.549802	2475.458596
432.926920	2467.140692
433.303977	2463.863942
433.680974	2463.611885
434.057910	2463.863942
434.434786	2463.359827
434.811601	2467.140692
435.188355	2492.850577
435.565050	2459.326904
435.941683	2447.480192
436.318257	2482.516212
436.694770	2454.789865
437.071222	2446.471962
437.447614	2470.417442
437.823946	2446.471962
438.200218	2450.756942
438.576429	2449.496654
438.952580	2443.195212
439.328670	2455.546038
439.704700	2450.504885
440.080670	2462.099538
440.456580	2448.740481
440.832429	2466.132462
441.208218	2452.269288
441.583947	2449.244596
441.959616	2479.491519
442.335224	2453.277519
442.710773	2468.148923
443.086261	2441.934923
443.461689	2455.293981
443.837057	2479.743577
444.212365	2463.611885
444.587612	2429.584096
444.962800	2440.926692
445.337927	2453.529577
445.712995	2445.463731
446.088002	2474.450365
446.462949	2474.954481
446.837837	2452.773404
447.212664	2456.302212
447.587431	2464.872173
447.962139	2459.074846
448.336786	2475.962712
448.711374	2463.359827
449.085901	2470.669500
449.460369	2469.913327
449.834776	2437.902000
450.209124	2464.872173
450.583412	2476.214769
450.957640	2463.863942
451.331808	2457.310442
451.705917	2459.578962
452.079965	2466.636577
452.453954	2453.529577
452.827883	2456.050154
453.201752	2434.877308
453.575562	2460.083077
453.949311	2464.368058
454.323001	2499.656135
454.696632	2458.822788
455.070202	2461.343365
455.443713	2477.727115
455.817164	2469.157154
456.190556	2467.896865
456.563888	2449.496654
456.937160	2474.198308
457.310373	2477.727115
457.683526	2484.280615
458.056619	2449.748712
458.429653	2466.888635
458.802628	2467.896865
459.175542	2454.789865
459.548398	2486.801192
459.921194	2495.875269
460.293930	2463.863942
460.666607	2483.524442
461.039224	2472.181846
461.411782	2449.496654
461.784280	2493.354692
462.156719	2461.847481
462.529099	2476.970942
462.901419	2493.102635
463.273680	2480.247692
463.645882	2502.176712
464.018024	2485.540904
464.390106	2468.148923
464.762130	2474.198308
465.134094	2480.247692
465.505999	2468.400981
465.877845	2494.362923
466.249631	2478.987404
466.621358	2495.119096
466.993026	2476.970942
467.364634	2466.636577
467.736184	2475.458596
468.107674	2482.012096
468.479105	2482.264154
468.850477	2473.946250
469.221790	2486.801192
469.593043	2475.962712
469.964238	2489.069712
470.335373	2466.888635
470.706449	2471.425673
471.077467	2451.765173
471.448425	2447.732250
471.819324	2478.735346
472.190164	2457.058385
472.560945	2480.247692
472.931667	2481.003865
473.302330	2446.724019
473.672934	2452.269288
474.043479	2480.751808
474.413965	2455.798096
474.784393	2487.809423
475.154761	2472.938019
475.525070	2456.806327
475.895321	2482.768269
476.265513	2475.710654
476.635645	2498.899962
477.005719	2488.817654
477.375734	2461.847481
477.745691	2488.565596
478.115588	2468.653038
478.485427	2464.368058
478.855207	2507.974038
479.224928	2446.976077
479.594591	2447.480192
479.964194	2476.970942
480.333739	2495.119096
480.703226	2470.921558
481.072653	2468.905096
481.442022	2482.012096
481.811333	2463.863942
482.180584	2484.532673
482.549777	2471.677731
482.918912	2455.293981
483.287988	2471.425673
483.657005	2498.899962
484.025964	2484.280615
484.394864	2472.433904
484.763706	2459.326904
485.132489	2487.305308
485.501213	2484.532673
485.869879	2465.880404
486.238487	2470.669500
486.607036	2486.297077
486.975527	2472.938019
487.343959	2488.313538
487.712333	2490.077942
488.080648	2464.872173
488.448905	2489.069712
488.817104	2493.102635
489.185244	2497.891731
489.553326	2494.867038
489.921350	2487.305308
490.289315	2483.776500
490.657222	2483.524442
491.025070	2477.223000
491.392861	2485.792962
491.760593	2459.578962
492.128267	2506.209635
492.495883	2487.305308
492.863440	2496.127327
493.230939	2492.346462
493.598380	2479.743577
493.965763	2472.181846
494.333088	2481.760038
494.700354	2471.929788
495.067563	2489.321769
495.434713	2493.354692
495.801805	2467.896865
496.168839	2521.585154
496.535815	2506.209635
496.902733	2471.173615
497.269593	2465.376288
497.636395	2469.913327
498.003139	2483.020327
498.369825	2492.850577
498.736453	2486.549135
499.103023	2493.354692
499.469535	2478.231231
499.835989	2483.020327
500.202385	2463.863942
500.568723	2502.932885
500.935003	2498.647904
501.301226	2478.987404
501.667390	2495.875269
502.033497	2465.376288
502.399546	2491.338231
502.765537	2479.995635
503.131470	2474.702423
503.497345	2481.760038
503.863163	2463.611885
504.228923	2462.603654
504.594625	2490.077942
504.960269	2468.400981
505.325856	2467.896865
505.691385	2484.784731
506.056856	2462.351596
506.422270	2467.392750
506.787625	2496.379385
507.152924	2485.540904
507.518164	2486.801192
507.883347	2447.480192
508.248472	2481.003865
508.613540	2502.428769
508.978550	2489.825885
509.343503	2475.206538
509.708398	2489.321769
510.073236	2485.792962
510.438016	2476.466827
510.802738	2495.119096
511.167403	2481.003865
511.532010	2474.198308
511.896561	2485.036788
512.261053	2458.570731
512.625488	2486.549135
512.989866	2505.201404
513.354186	2489.573827
513.718449	2492.094404
514.082655	2478.735346
514.446803	2500.412308
514.810894	2468.653038
515.174927	2492.346462
515.538904	2517.300173
515.902822	2496.883500
516.266684	2461.091308
516.630488	2492.850577
516.994235	2487.809423
517.357925	2450.252827
517.721558	2469.661269
518.085133	2487.809423
518.448651	2489.069712
518.812112	2454.789865
519.175516	2498.647904
519.538863	2472.433904
519.902152	2498.395846
520.265385	2467.896865
520.628560	2489.573827
520.991678	2487.809423
521.354739	2467.896865
521.717743	2473.190077
522.080690	2476.970942
522.443580	2449.244596
522.806413	2473.442135
523.169189	2487.809423
523.531908	2453.781635
523.894569	2479.743577
524.257174	2485.288846
524.619722	2487.557365
524.982213	2486.297077
525.344647	2497.639673
525.707025	2484.784731
526.069345	2498.899962
526.431608	2474.198308
526.793815	2502.680827
527.155964	2516.291942
527.518057	2495.371154
527.880093	2495.119096
528.242072	2474.198308
528.603995	2483.272385
528.965860	2470.165385
529.327669	2503.437000
529.689421	2508.730212
530.051117	2507.721981
530.412755	2473.190077
530.774337	2472.938019
531.135862	2469.913327
531.497331	2489.321769
531.858743	2456.302212
532.220098	2492.850577
532.581396	2463.107769
532.942638	2477.223000
533.303824	2474.450365
533.664953	2494.614981
534.026025	2476.214769
534.387040	2495.623212
534.747999	2484.532673
535.108902	2473.442135
535.469748	2450.504885
535.830537	2466.132462
536.191270	2478.987404
536.551947	2476.214769
536.912567	2478.483288
537.273131	2470.669500
537.633638	2459.831019
537.994089	2482.012096
538.354483	2483.272385
538.714821	2469.157154
539.075103	2485.792962
539.435328	2481.760038
539.795497	2487.809423
540.155609	2464.368058
540.515665	2479.743577
540.875665	2465.880404
541.235609	2483.524442
541.595496	2464.368058
541.955328	2516.544000
542.315102	2481.255923
542.674821	2476.214769
543.034483	2491.590288
543.394090	2488.565596
543.753640	2481.507981
544.113134	2498.395846
544.472571	2497.891731
544.831953	2467.392750
545.191278	2485.540904
545.550548	2478.987404
545.909761	2498.395846
546.268918	2467.140692
546.628019	2507.217865
546.987064	2472.433904
547.346053	2478.735346
547.704986	2473.190077
548.063863	2482.516212
548.422684	2449.496654
548.781449	2495.623212
549.140158	2465.628346
549.498811	2472.433904
549.857408	2485.036788
550.215949	2498.143788
550.574434	2472.433904
550.932864	2473.946250
551.291237	2498.647904
551.649555	2483.524442
552.007817	2471.929788
552.366022	2466.384519
552.724173	2508.982269
553.082267	2483.020327
553.440305	2452.269288
553.798288	2494.110865
554.156215	2469.913327
554.514086	2483.776500
554.871902	2461.343365
555.229661	2476.718885
555.587365	2457.310442
555.945014	2467.644808
556.302606	2446.976077
556.660143	2494.614981
557.017625	2467.896865
557.375050	2476.466827
557.732421	2480.751808
558.089735	2488.061481
558.446994	2501.924654
558.804197	2500.412308
559.161345	2461.091308
559.518437	2494.867038
559.875474	2474.198308
560.232455	2501.924654
560.589381	2490.582058
560.946251	2457.562500
561.303065	2488.313538
561.659825	2437.145827
562.016528	2477.223000
562.373177	2482.012096
562.729770	2502.428769
563.086307	2485.036788
563.442789	2485.036788
563.799216	2468.905096
564.155587	2491.338231
564.511904	2493.858808
564.868164	2470.921558
565.224370	2485.036788
565.580520	2500.160250
565.936615	2471.173615
566.292654	2497.639673
566.648638	2467.140692
567.004567	2475.962712
567.360441	2478.231231
567.716260	2494.362923
568.072023	2482.264154
568.427732	2479.995635
568.783385	2476.718885
569.138982	2459.074846
569.494525	2480.247692
569.850013	2485.288846
570.205445	2505.705519
570.560823	2477.475058
570.916145	2463.359827
571.271412	2483.272385
571.626625	2471.929788
571.981782	2494.110865
572.336884	2472.938019
572.691931	2448.992538
573.046923	2474.450365
573.401860	2469.913327
573.756743	2505.705519
574.111570	2464.116000
574.466342	2484.532673
574.821059	2481.507981
575.175722	2479.995635
575.530330	2461.595423
575.884882	2469.409212
576.239380	2495.623212
576.593823	2486.297077
576.948211	2475.206538
577.302544	2486.045019
577.656823	2453.529577
578.011047	2492.598519
578.365216	2457.814558
578.719330	2484.532673
579.073389	2501.672596
579.427394	2482.768269
579.781344	2470.165385
580.135239	2445.211673
580.489080	2473.946250
580.842866	2465.124231
581.196597	2480.247692
581.550273	2474.450365
581.903895	2480.499750
582.257463	2492.850577
582.610975	2492.850577
582.964434	2493.606750
583.317837	2486.045019
583.671186	2477.727115
584.024481	2482.264154
584.377721	2481.760038
584.730906	2450.756942
585.084037	2499.404077
585.437113	2484.280615
585.790135	2483.524442
586.143103	2478.735346
586.496016	2470.921558
586.848874	2477.727115
587.201679	2489.573827
587.554428	2467.392750
587.907124	2452.521346
588.259765	2510.242558
588.612352	2480.751808
588.964884	2497.639673
589.317362	2462.603654
589.669786	2476.970942
590.022155	2471.677731
590.374470	2465.376288
590.726731	2482.768269
591.078937	2455.798096
591.431090	2474.702423
591.783188	2494.110865
592.135232	2514.779596
592.487222	2487.557365
592.839157	2484.784731
593.191038	2482.264154
593.542866	2473.190077
593.894639	2489.825885
594.246358	2472.433904
594.598022	2476.970942
594.949633	2486.045019
595.301190	2476.214769
595.652692	2487.809423
596.004141	2495.371154
596.355535	2459.831019
596.706876	2460.335135
597.058162	2482.516212
597.409395	2476.970942
597.760573	2493.102635
598.111698	2457.814558
598.462768	2450.252827
598.813785	2477.475058
599.164748	2445.715788
599.515657	2461.847481
599.866511	2454.537808
600.217312	2463.863942
600.568060	2473.442135
600.918753	2456.302212
601.269392	2481.507981
601.619978	2453.025462
601.970510	2475.962712
602.320988	2455.798096
602.671412	2485.540904
603.021783	2490.582058
603.372100	2474.450365
603.722363	2486.045019
604.072572	2458.318673
604.422728	2493.102635
604.772830	2475.458596
605.122878	2466.132462
605.472872	2475.206538
605.822813	2497.387615
606.172701	2502.932885
606.522534	2488.313538
606.872314	2495.875269
607.222041	2482.768269
607.571714	2481.507981
607.921333	2466.636577
608.270899	2475.710654
608.620411	2483.524442
608.969870	2485.288846
609.319276	2453.781635
609.668627	2477.223000
610.017926	2471.173615
610.367171	2481.507981
610.716362	2476.718885
611.065500	2488.817654
611.414585	2492.850577
611.763616	2455.041923
612.112594	2489.825885
612.461518	2493.858808
612.810389	2504.193173
613.159207	2499.656135
613.507971	2471.425673
613.856682	2483.776500
614.205340	2472.181846
614.553945	2469.661269
614.902496	2460.587192
615.250994	2508.730212
615.599439	2485.792962
615.947830	2473.190077
616.296169	2480.751808
616.644454	2474.198308
616.992686	2467.896865
617.340864	2496.127327
617.688990	2478.231231
618.037063	2483.272385
618.385082	2483.776500
618.733048	2473.694192
619.080961	2462.855712
619.428821	2523.097500
619.776628	2478.735346
620.124382	2470.669500
620.472083	2500.160250
620.819731	2472.938019
621.167326	2488.565596
621.514868	2493.606750
621.862357	2488.061481
622.209793	2469.913327
622.557176	2476.214769
622.904506	2467.896865
623.251783	2452.017231
623.599007	2467.140692
623.946179	2509.738442
624.293297	2438.910231
624.640363	2490.077942
624.987376	2477.475058
625.334336	2483.272385
625.681243	2463.863942
626.028097	2482.012096
626.374899	2484.280615
626.721647	2490.077942
627.068343	2473.190077
627.414987	2504.445231
627.761577	2471.425673
628.108115	2466.888635
628.454600	2454.789865
628.801032	2471.425673
629.147412	2473.190077
629.493739	2486.297077
629.840014	2488.313538
630.186236	2474.954481
630.532405	2498.899962
630.878521	2490.077942
631.224585	2483.272385
631.570597	2476.718885
631.916556	2490.330000
632.262462	2473.442135
632.608316	2485.288846
632.954117	2453.529577
633.299866	2469.157154
633.645562	2470.669500
633.991206	2470.165385
634.336797	2468.653038
634.682336	2469.409212
635.027823	2486.801192
635.373257	2434.877308
635.718639	2482.012096
636.063968	2478.483288
636.409245	2496.379385
636.754470	2477.475058
637.099642	2475.458596
637.444762	2479.491519
637.789829	2490.582058
638.134845	2466.132462
638.479808	2488.565596
638.824719	2483.524442
639.169577	2487.809423
639.514383	2478.483288
639.859137	2482.012096
640.203839	2473.190077
640.548489	2482.264154
640.893086	2462.855712
641.237632	2491.842346
641.582125	2497.387615
641.926566	2489.825885
642.270955	2467.896865
642.615292	2457.058385
642.959576	2473.694192
643.303809	2459.074846
643.647990	2472.938019
643.992118	2493.858808
644.336195	2496.883500
644.680219	2457.058385
645.024192	2457.814558
645.368112	2477.727115
645.711981	2492.094404
646.055797	2452.521346
646.399562	2482.768269
646.743274	2472.685962
647.086935	2502.932885
647.430544	2496.379385
647.774101	2468.148923
648.117606	2475.458596
648.461059	2453.025462
648.804460	2505.453462
649.147810	2481.760038
649.491108	2497.639673
649.834354	2466.384519
650.177548	2451.513115
650.520690	2481.255923
650.863781	2456.302212
651.206820	2441.178750
651.549807	2467.644808
651.892742	2464.116000
652.235626	2471.929788
652.578458	2480.499750
652.921238	2466.636577
653.263967	2472.938019
653.606644	2473.442135
653.949269	2478.735346
654.291843	2475.962712
654.634365	2477.223000
654.976836	2480.247692
655.319255	2470.165385
655.661622	2459.831019
656.003938	2492.346462
656.346203	2470.165385
656.688416	2469.913327
657.030577	2462.855712
657.372687	2490.582058
657.714746	2450.000769
658.056753	2472.433904
658.398708	2487.305308
658.740612	2485.540904
659.082465	2476.214769
659.424266	2475.962712
659.766016	2488.313538
660.107715	2471.425673
660.449362	2460.587192
660.790958	2494.867038
661.132503	2445.463731
661.473996	2461.595423
661.815438	2481.760038
662.156829	2489.573827
662.498168	2481.760038
662.839456	2456.806327
663.180693	2461.343365
663.521879	2501.924654
663.863013	2461.595423
664.204097	2473.190077
664.545129	2479.995635
664.886110	2470.417442
665.227040	2494.614981
665.567918	2473.694192
665.908746	2471.929788
666.249522	2486.549135
666.590248	2507.217865
666.930922	2471.929788
667.271545	2487.053250
667.612118	2487.557365
667.952639	2453.277519
668.293109	2488.817654
668.633528	2481.003865
668.973896	2436.389654
669.314213	2489.321769
669.654480	2475.962712
669.994695	2499.908192
670.334859	2465.880404
670.674973	2480.751808
671.015035	2477.727115
671.355047	2468.905096
671.695008	2489.069712
672.034918	2459.326904
672.374777	2489.069712
672.714585	2486.045019
673.054342	2495.119096
673.394049	2482.768269
673.733705	2493.354692
674.073310	2466.888635
674.412864	2478.231231
674.752368	2441.934923
675.091820	2485.288846
675.431223	2461.091308
675.770574	2460.839250
676.109875	2454.537808
676.449125	2499.152019
676.788324	2460.587192
677.127473	2496.379385
677.466571	2447.984308
677.805619	2492.598519
678.144616	2472.433904
678.483562	2487.305308
678.822458	2469.661269
679.161303	2474.954481
679.500098	2501.168481
679.838842	2456.050154
680.177535	2472.685962
680.516179	2467.644808
680.854771	2482.012096
681.193314	2449.244596
681.531805	2480.247692
681.870247	2459.578962
682.208638	2465.628346
682.546978	2477.979173
682.885268	2468.148923
683.223508	2484.532673
683.561697	2506.461692
683.899836	2460.839250
684.237925	2465.376288
684.575963	2463.107769
684.913951	2492.094404
685.251889	2475.458596
685.589776	2468.905096
685.927614	2481.760038
686.265401	2474.450365
686.603137	2466.132462
686.940824	2475.962712
687.278460	2506.461692
687.616046	2438.154058
687.953582	2446.219904
688.291068	2494.110865
688.628504	2468.400981
688.965889	2488.817654
689.303224	2482.012096
689.640510	2498.143788
689.977745	2492.598519
690.314930	2495.371154
690.652065	2480.499750
690.989150	2468.905096
691.326185	2487.557365
691.663170	2452.017231
692.000105	2479.239462
692.336990	2474.198308
692.673825	2455.546038
693.010610	2476.466827
693.347345	2472.938019
693.684030	2444.959615
694.020665	2457.814558
694.357251	2467.392750
694.693786	2479.995635
695.030272	2483.524442
695.366707	2458.066615
695.703093	2490.077942
696.039429	2470.669500
696.375716	2446.219904
696.711952	2465.628346
697.048139	2473.190077
697.384276	2475.458596
697.720363	2450.252827
698.056400	2475.206538
698.392388	2467.644808
698.728326	2487.557365
699.064214	2493.102635
699.400053	2465.376288
699.735842	2460.335135
700.071581	2467.644808
700.407270	2480.499750
700.742910	2471.425673
701.078501	2478.735346
701.414042	2464.620115
701.749533	2465.124231
702.084974	2478.483288
702.420366	2466.132462
702.755709	2477.979173
703.091002	2485.792962
703.426246	2467.392750
703.761440	2482.516212
704.096584	2474.954481
704.431679	2466.132462
704.766725	2462.099538
705.101721	2466.384519
705.436668	2474.198308
705.771565	2454.789865
706.106413	2466.636577
706.441212	2469.409212
706.775961	2472.433904
707.110661	2452.521346
707.445311	2459.326904
707.779913	2463.611885
708.114465	2482.264154
708.448967	2453.025462
708.783421	2434.625250
709.117825	2487.053250
709.452180	2459.831019
709.786485	2462.603654
710.120742	2464.872173
710.454949	2470.921558
710.789107	2454.285750
711.123216	2478.735346
711.457275	2497.135558
711.791286	2510.746673
712.125247	2463.359827
712.459159	2456.554269
712.793023	2457.058385
713.126837	2460.839250
713.460602	2457.814558
713.794318	2463.863942
714.127985	2483.272385
714.461602	2472.181846
714.795171	2471.173615
715.128691	2479.491519
715.462162	2466.132462
715.795584	2486.549135
716.128957	2483.524442
716.462281	2465.880404
716.795556	2455.293981
717.128782	2460.839250
717.461960	2488.313538
717.795088	2463.107769
718.128167	2471.929788
718.461198	2474.450365
718.794180	2478.231231
719.127113	2469.661269
719.459997	2445.715788
719.792833	2461.847481
720.125619	2468.400981
720.458357	2455.041923
720.791046	2464.872173
721.123686	2460.839250
721.456278	2463.863942
721.788821	2453.277519
722.121315	2459.831019
722.453761	2458.318673
722.786158	2475.206538
723.118506	2476.970942
723.450805	2454.033692
723.783056	2485.540904
724.115259	2489.321769
724.447412	2473.694192
724.779518	2457.814558
725.111574	2472.938019
725.443582	2454.537808
725.775542	2491.086173
726.107453	2466.132462
726.439315	2454.789865
726.771129	2485.792962
727.102895	2458.822788
727.434612	2490.077942
727.766281	2446.724019
728.097901	2451.513115
728.429473	2482.768269
728.760996	2458.318673
729.092471	2459.578962
729.423897	2469.661269
729.755276	2462.099538
730.086606	2468.905096
730.417887	2459.578962
730.749120	2461.847481
731.080305	2463.359827
731.411442	2473.442135
731.742530	2474.702423
732.073570	2446.471962
732.404562	2473.442135
732.735506	2484.784731
733.066401	2457.562500
733.397249	2478.987404
733.728048	2453.781635
734.058798	2467.896865
734.389501	2475.962712
734.720156	2483.272385
735.050762	2483.524442
735.381320	2456.806327
735.711831	2468.400981
736.042293	2454.033692
736.372707	2466.132462
736.703073	2483.272385
737.033391	2464.872173
737.363661	2470.921558
737.693883	2477.223000
738.024056	2468.400981
738.354182	2479.239462
738.684260	2464.368058
739.014290	2471.929788
739.344272	2460.839250
739.674207	2457.058385
740.004093	2468.148923
740.333931	2463.107769
740.663722	2463.611885
740.993464	2497.639673
741.323159	2449.244596
741.652806	2457.058385
741.982405	2492.598519
742.311956	2464.116000
742.641460	2476.214769
742.970915	2456.302212
743.300323	2485.540904
743.629683	2435.129365
743.958996	2463.359827
744.288260	2444.707558
744.617477	2475.962712
744.946647	2435.381423
745.275768	2453.025462
745.604842	2477.475058
745.933869	2439.666404
746.262847	2483.776500
746.591778	2470.417442
746.920662	2473.946250
747.249498	2448.236365
747.578286	2456.302212
747.907027	2467.140692
748.235720	2470.417442
748.564365	2465.880404
748.892963	2455.546038
749.221514	2487.809423
749.550017	2460.839250
749.878473	2495.371154
750.206881	2463.611885
750.535242	2478.987404
750.863555	2456.302212
751.191821	2482.264154
751.520039	2452.521346
751.848210	2459.578962
752.176334	2460.839250
752.504411	2485.036788
752.832440	2492.346462
753.160421	2456.806327
753.488356	2456.554269
753.816243	2477.223000
754.144082	2477.727115
754.471875	2440.170519
754.799620	2481.255923
755.127318	2461.847481
755.454969	2469.661269
755.782572	2467.644808
756.110129	2481.255923
756.437638	2493.102635
756.765100	2465.124231
757.092515	2455.546038
757.419882	2477.223000
757.747203	2467.140692
758.074477	2479.995635
758.401703	2473.190077
758.728882	2477.979173
759.056014	2482.012096
759.383099	2451.765173
759.710138	2459.326904
760.037129	2430.844385
760.364073	2460.083077
760.690970	2454.285750
761.017820	2458.066615
761.344623	2476.970942
761.671379	2463.359827
761.998088	2453.025462
762.324751	2463.359827
762.651366	2453.781635
762.977935	2462.099538
763.304456	2445.715788
763.630931	2461.847481
763.957359	2470.669500
764.283740	2467.140692
764.610074	2465.880404
764.936362	2490.330000
765.262602	2453.781635
765.588796	2465.124231
765.914943	2457.310442
766.241044	2495.371154
766.567097	2468.905096
766.893104	2449.496654
767.219064	2450.252827
767.544978	2456.302212
767.870845	2456.554269
768.196665	2450.000769
768.522438	2444.707558
768.848165	2447.480192
769.173846	2460.083077
769.499479	2460.083077
769.825066	2467.140692
770.150607	2421.266192
770.476101	2461.595423
770.801548	2468.653038
771.126949	2454.033692
771.452303	2454.789865
771.777611	2458.570731
772.102872	2500.412308
772.428087	2462.855712
772.753256	2451.261058
773.078378	2483.524442
773.403453	2448.236365
773.728482	2479.491519
774.053465	2470.921558
774.378401	2454.789865
774.703291	2443.447269
775.028135	2456.050154
775.352932	2472.938019
775.677683	2480.247692
776.002388	2454.537808
776.327046	2460.587192
776.651658	2453.277519
776.976224	2444.959615
777.300743	2471.677731
777.625216	2475.206538
777.949643	2468.148923
778.274024	2496.883500
778.598359	2483.020327
778.922647	2441.934923
779.246889	2456.554269
779.571086	2455.546038
779.895236	2455.293981
780.219339	2476.970942
780.543397	2479.743577
780.867409	2474.702423
781.191374	2481.760038
781.515294	2463.611885
781.839167	2489.069712
782.162995	2494.110865
782.486776	2461.595423
782.810511	2492.346462
783.134201	2457.562500
783.457844	2497.135558
783.781441	2463.359827
784.104993	2475.206538
784.428498	2460.587192
784.751958	2487.557365
785.075372	2466.636577
785.398739	2457.562500
785.722061	2463.863942
786.045337	2483.776500
786.368568	2458.066615
786.691752	2473.946250
787.014891	2481.507981
787.337983	2479.995635
787.661030	2474.198308
787.984031	2460.335135
788.306987	2471.929788
788.629897	2459.578962
788.952760	2452.773404
789.275579	2469.913327
789.598351	2473.694192
789.921078	2483.020327
790.243759	2483.020327
790.566395	2464.368058
790.888984	2463.863942
791.211529	2474.198308
791.534027	2458.318673
791.856480	2440.926692
792.178888	2473.190077
792.501249	2468.653038
792.823566	2424.795000
793.145836	2448.992538
793.468062	2481.255923
793.790241	2463.611885
794.112375	2470.417442
794.434464	2457.310442
794.756507	2451.765173
795.078505	2444.455500
795.400457	2478.231231
795.722364	2457.058385
796.044226	2471.677731
796.366042	2463.107769
796.687812	2471.173615
797.009538	2482.768269
797.331218	2461.595423
797.652852	2478.987404
797.974442	2460.587192
798.295986	2448.740481
798.617484	2441.430808
798.938938	2464.872173
799.260346	2478.735346
799.581709	2456.806327
799.903026	2467.644808
800.224299	2463.611885
800.545526	2457.058385
800.866708	2467.140692
801.187845	2458.318673
801.508936	2476.466827
801.829983	2479.491519
802.150984	2473.442135
802.471940	2460.335135
802.792851	2464.368058
803.113717	2453.025462
803.434538	2442.439038
803.755314	2476.718885
804.076045	2472.685962
804.396731	2482.264154
804.717372	2464.368058
805.037967	2463.611885
805.358518	2447.732250
805.679024	2485.540904
805.999485	2474.954481
806.319901	2467.392750
806.640272	2467.896865
806.960598	2458.822788
807.280879	2434.373192
807.601115	2450.756942
807.921306	2460.587192
808.241453	2448.236365
808.561554	2475.962712
808.881611	2437.649942
809.201623	2480.751808
809.521590	2458.570731
809.841513	2450.504885
810.161390	2491.590288
810.481223	2461.343365
810.801011	2475.962712
811.120755	2495.371154
811.440453	2484.280615
811.760107	2458.822788
812.079716	2452.521346
812.399281	2457.814558
812.718801	2494.362923
813.038276	2479.491519
813.357707	2463.107769
813.677093	2461.595423
813.996434	2446.976077
814.315731	2452.773404
814.634983	2473.694192
814.954191	2470.417442
815.273354	2445.715788
815.592473	2468.148923
815.911547	2447.732250
816.230577	2464.872173
816.549562	2458.318673
816.868502	2459.326904
817.187399	2451.765173
817.506250	2462.351596
817.825058	2451.261058
818.143821	2465.376288
818.462539	2459.326904
818.781213	2494.362923
819.099843	2466.636577
819.418429	2451.765173
819.736970	2465.376288
820.055466	2474.954481
820.373919	2501.168481
820.692327	2457.562500
821.010691	2479.491519
821.329011	2440.170519
821.647286	2466.132462
821.965517	2475.458596
822.283704	2504.445231
822.601847	2495.875269
822.919945	2512.006962
823.237999	2472.685962
823.556010	2483.020327
823.873976	2457.562500
824.191897	2485.792962
824.509775	2457.562500
824.827609	2472.685962
825.145398	2472.685962
825.463144	2468.653038
825.780845	2455.293981
826.098502	2470.417442
826.416116	2471.677731
826.733685	2444.203442
827.051210	2484.532673
827.368692	2500.412308
827.686129	2497.135558
828.003522	2473.190077
828.320872	2467.140692
828.638177	2432.860846
828.955439	2464.116000
829.272656	2433.617019
829.589830	2465.124231
829.906960	2462.855712
830.224046	2459.578962
830.541088	2470.921558
830.858086	2462.099538
831.175041	2481.760038
831.491952	2441.178750
831.808819	2459.578962
832.125642	2461.091308
832.442421	2462.099538
832.759157	2466.888635
833.075849	2475.962712
833.392497	2461.091308
833.709101	2464.620115
834.025662	2469.661269
834.342179	2465.628346
834.658653	2457.562500
834.975083	2465.880404
835.291469	2469.661269
835.607811	2473.946250
835.924110	2466.636577
836.240366	2479.995635
836.556578	2473.190077
836.872746	2465.376288
837.188871	2451.765173
837.504952	2468.400981
837.820990	2469.913327
838.136984	2475.206538
838.452935	2487.305308
838.768842	2462.603654
839.084706	2473.190077
839.400526	2457.310442
839.716303	2471.425673
840.032037	2489.573827
840.347727	2470.669500
840.663373	2463.863942
840.978977	2485.540904
841.294537	2450.000769
841.610054	2473.190077
841.925527	2450.252827
842.240957	2468.653038
842.556344	2446.724019
842.871687	2479.995635
843.186987	2459.326904
843.502244	2473.946250
843.817458	2482.012096
844.132629	2460.587192
844.447756	2467.392750
844.762840	2437.902000
845.077881	2489.069712
845.392879	2455.293981
845.707833	2449.748712
846.022745	2468.653038
846.337613	2485.036788
846.652438	2459.326904
846.967221	2450.252827
847.281960	2500.160250
847.596656	2455.041923
847.911309	2473.694192
848.225919	2472.181846
848.540485	2463.359827
848.855009	2466.636577
849.169490	2465.124231
849.483928	2485.540904
849.798323	2479.239462
850.112675	2485.036788
850.426984	2443.951385
850.741251	2460.587192
851.055474	2438.154058
851.369654	2448.488423
851.683792	2447.732250
851.997887	2460.335135
852.311938	2463.611885
852.625947	2449.244596
852.939914	2458.822788
853.253837	2456.554269
853.567718	2474.702423
853.881555	2493.102635
854.195350	2469.157154
854.509103	2451.765173
854.822812	2452.269288
855.136479	2476.466827
855.450103	2441.682865
855.763685	2469.157154
856.077224	2428.323808
856.390720	2424.290885
856.704173	2464.620115
857.017584	2454.789865
857.330953	2439.666404
857.644278	2482.264154
857.957561	2481.760038
858.270802	2481.255923
858.584000	2472.938019
858.897155	2443.447269
859.210268	2447.480192
859.523339	2464.620115
859.836367	2455.041923
860.149352	2465.124231
860.462295	2458.318673
860.775195	2480.751808
861.088054	2468.653038
861.400869	2474.450365
861.713642	2471.677731
862.026373	2451.261058
862.339062	2448.488423
862.651708	2468.905096
862.964312	2456.806327
863.276873	2450.252827
863.589392	2440.926692
863.901869	2474.954481
864.214303	2483.020327
864.526696	2461.091308
864.839045	2447.228135
865.151353	2454.285750
865.463619	2443.699327
865.775842	2463.611885
866.088023	2461.091308
866.400162	2469.409212
866.712258	2455.041923
867.024313	2452.521346
867.336325	2452.773404
867.648296	2448.488423
867.960224	2472.181846
868.272110	2432.356731
868.583954	2467.644808
868.895755	2473.946250
869.207515	2474.954481
869.519233	2435.129365
869.830909	2491.338231
870.142542	2448.236365
870.454134	2461.343365
870.765684	2455.546038
871.077191	2474.702423
871.388657	2450.000769
871.700081	2454.033692
872.011463	2485.288846
872.322803	2454.285750
872.634101	2465.376288
872.945357	2453.277519
873.256571	2477.727115
873.567744	2453.025462
873.878874	2453.529577
874.189963	2470.669500
874.501010	2475.206538
874.812015	2454.537808
875.122979	2487.557365
875.433900	2470.165385
875.744780	2481.003865
876.055618	2463.359827
876.366415	2458.822788
876.677169	2463.359827
876.987882	2462.099538
877.298554	2473.190077
877.609183	2464.116000
877.919771	2453.277519
878.230317	2468.400981
878.540822	2451.009000
878.851285	2470.165385
879.161707	2466.384519
879.472087	2456.806327
879.782425	2432.104673
880.092722	2481.003865
880.402977	2458.822788
880.713191	2472.433904
881.023363	2463.107769
881.333494	2469.661269
881.643583	2448.488423
881.953631	2485.036788
882.263637	2460.083077
882.573602	2496.127327
882.883526	2471.173615
883.193408	2462.855712
883.503248	2464.620115
883.813048	2461.847481
884.122806	2477.979173
884.432522	2442.186981
884.742197	2479.491519
885.051831	2483.020327
885.361424	2464.620115
885.670975	2458.822788
885.980485	2465.124231
886.289954	2471.425673
886.599382	2478.987404
886.908768	2461.595423
887.218113	2465.124231
887.527417	2470.165385
887.836680	2464.368058
888.145901	2441.178750
888.455082	2467.896865
888.764221	2481.003865
889.073319	2443.447269
889.382376	2475.962712
889.691392	2481.003865
890.000366	2467.392750
890.309300	2467.392750
890.618193	2450.252827
890.927044	2443.447269
891.235855	2442.691096
891.544625	2451.513115
891.853353	2468.653038
892.162041	2451.765173
892.470687	2494.362923
892.779293	2450.252827
893.087858	2453.277519
893.396381	2473.694192
893.704864	2471.677731
894.013306	2438.658173
894.321707	2464.368058
894.630068	2451.765173
894.938387	2487.053250
895.246665	2461.847481
895.554903	2468.653038
895.863100	2464.368058
896.171256	2492.850577
896.479371	2453.529577
896.787446	2473.442135
897.095480	2461.091308
897.403473	2459.074846
897.711425	2466.384519
898.019336	2457.562500
898.327207	2457.310442
898.635038	2439.918462
898.942827	2435.381423
899.250576	2492.850577
899.558284	2454.285750
899.865952	2449.496654
900.173579	2448.992538
900.481165	2474.954481
900.788711	2476.214769
901.096216	2431.600558
901.403681	2465.376288
901.711105	2485.792962
902.018489	2494.362923
902.325832	2476.466827
902.633135	2445.463731
902.940397	2476.970942
903.247619	2464.116000
903.554800	2473.190077
903.861941	2452.521346
904.169041	2481.760038
904.476101	2458.066615
904.783121	2457.562500
905.090100	2447.732250
905.397039	2463.359827
905.703938	2465.124231
906.010796	2488.565596
906.317614	2438.154058
906.624391	2472.685962
906.931129	2445.463731
907.237826	2452.521346
907.544483	2459.074846
907.851099	2477.475058
908.157675	2464.116000
908.464211	2463.611885
908.770707	2473.946250
909.077163	2424.795000
909.383578	2456.554269
909.689954	2448.236365
909.996289	2489.069712
910.302584	2453.529577
910.608839	2461.343365
910.915054	2456.554269
911.221229	2461.091308
911.527363	2453.025462
911.833458	2468.905096
912.139513	2455.798096
912.445527	2460.083077
912.751502	2456.554269
913.057436	2465.628346
913.363331	2476.214769
913.669186	2431.600558
913.975000	2455.293981
914.280775	2438.910231
914.586510	2448.236365
914.892205	2485.792962
915.197859	2470.669500
915.503475	2480.247692
915.809050	2463.611885
916.114585	2462.603654
916.420081	2455.041923
916.725536	2473.442135
917.030952	2471.677731
917.336328	2462.099538
917.641665	2447.732250
917.946961	2474.702423
918.252218	2461.343365
918.557435	2456.806327
918.862612	2473.946250
919.167750	2457.562500
919.472848	2465.376288
919.777906	2459.831019
920.082925	2460.587192
920.387904	2487.557365
920.692843	2461.343365
920.997743	2471.173615
921.302603	2453.025462
921.607423	2453.277519
921.912204	2475.206538
922.216946	2464.368058
922.521647	2437.902000
922.826310	2488.817654
923.130932	2494.867038
923.435516	2440.674635
923.740059	2460.083077
924.044564	2459.578962
924.349028	2478.735346
924.653454	2475.710654
924.957840	2465.376288
925.262186	2446.976077
925.566493	2440.674635
925.870761	2466.384519
926.174989	2441.430808
926.479178	2466.636577
926.783328	2453.529577
927.087438	2424.795000
927.391509	2447.480192
927.695541	2466.636577
927.999533	2471.425673
928.303486	2435.381423
928.607400	2437.902000
928.911275	2451.765173
929.215110	2472.433904
929.518906	2457.058385
929.822663	2449.244596
930.126381	2447.732250
930.430060	2435.381423
930.733699	2448.992538
931.037299	2462.855712
931.340861	2449.496654
931.644383	2482.012096
931.947866	2446.471962
932.251309	2465.880404
932.554714	2464.116000
932.858080	2451.513115
933.161407	2444.203442
933.464694	2469.913327
933.767943	2457.562500
934.071153	2441.934923
934.374323	2477.223000
934.677455	2450.252827
934.980548	2447.984308
935.283602	2441.934923
935.586617	2457.058385
935.889593	2456.806327
936.192530	2439.918462
936.495428	2475.206538
936.798287	2473.190077
937.101108	2471.173615
937.403890	2439.666404
937.706632	2464.116000
938.009336	2453.025462
938.312002	2442.186981
938.614628	2463.863942
938.917216	2474.450365
939.219765	2466.888635
939.522275	2470.669500
939.824747	2461.091308
940.127179	2458.822788
940.429573	2477.727115
940.731929	2443.699327
941.034246	2466.384519
941.336524	2470.417442
941.638763	2465.124231
941.940964	2472.685962
942.243126	2476.466827
942.545250	2468.905096
942.847335	2465.628346
943.149381	2493.354692
943.451389	2438.154058
943.753359	2472.181846
944.055290	2472.433904
944.357182	2459.074846
944.659036	2461.595423
944.960851	2466.636577
945.262628	2439.666404
945.564367	2471.929788
945.866067	2428.323808
946.167729	2490.582058
946.469352	2469.409212
946.770937	2458.066615
947.072484	2463.611885
947.373992	2450.252827
947.675462	2460.083077
947.976893	2442.691096
948.278286	2438.154058
948.579641	2435.129365
948.880958	2460.083077
949.182236	2458.822788
949.483476	2475.206538
949.784678	2470.417442
950.085841	2459.578962
950.386967	2443.951385
950.688054	2454.285750
950.989103	2468.400981
951.290114	2467.644808
951.591087	2455.798096
951.892021	2485.540904
952.192917	2483.020327
952.493776	2458.066615
952.794596	2467.140692
953.095378	2418.745615
953.396122	2475.206538
953.696828	2458.318673
953.997496	2423.786769
954.298126	2469.157154
954.598718	2467.896865
954.899272	2437.397885
955.199788	2460.839250
955.500266	2422.022365
955.800706	2473.190077
956.101108	2447.732250
956.401472	2455.798096
956.701798	2423.030596
957.002087	2456.050154
957.302337	2471.173615
957.602550	2476.970942
957.902724	2447.984308
958.202861	2466.132462
958.502960	2439.918462
958.803022	2474.954481
959.103045	2431.600558
959.403031	2439.162288
959.702979	2466.888635
960.002889	2495.371154
960.302762	2452.269288
960.602596	2437.902000
960.902393	2461.091308
961.202153	2434.373192
961.501875	2475.206538
961.801559	2453.781635
962.101205	2452.521346
962.400814	2472.685962
962.700385	2435.381423
962.999918	2475.710654
963.299414	2442.691096
963.598873	2451.261058
963.898293	2436.641712
964.197677	2437.397885
964.497022	2458.570731
964.796331	2461.595423
965.095601	2462.351596
965.394835	2461.343365
965.694030	2442.691096
965.993189	2468.905096
966.292309	2461.091308
966.591393	2457.814558
966.890439	2462.603654
967.189447	2444.203442
967.488419	2469.661269
967.787353	2444.707558
968.086249	2459.578962
968.385108	2470.417442
968.683930	2481.255923
968.982714	2458.066615
969.281462	2463.863942
969.580172	2428.827923
969.878844	2457.814558
970.177480	2445.715788
970.476078	2488.565596
970.774639	2448.740481
971.073162	2471.425673
971.371649	2444.203442
971.670098	2454.285750
971.968510	2447.228135
972.266885	2456.302212
972.565223	2448.488423
972.863524	2455.798096
973.161788	2452.017231
973.460014	2474.450365
973.758204	2436.641712
974.056356	2497.135558
974.354471	2447.228135
974.652550	2469.913327
974.950591	2458.318673
975.248595	2453.277519
975.546563	2480.751808
975.844493	2468.148923
976.142386	2461.091308
976.440243	2463.863942
976.738062	2475.206538
977.035845	2464.368058
977.333590	2430.340269
977.631299	2449.496654
977.928971	2461.091308
978.226606	2435.885538
978.524204	2462.603654
978.821765	2451.009000
979.119290	2444.203442
979.416777	2437.902000
979.714228	2466.888635
980.011642	2469.409212
980.309020	2457.562500
980.606360	2453.781635
980.903664	2442.439038
981.200931	2442.943154
981.498162	2430.340269
981.795356	2459.578962
982.092513	2443.699327
982.389633	2442.691096
982.686717	2425.047058
982.983764	2462.855712
983.280775	2456.050154
983.577749	2452.773404
983.874686	2455.293981
984.171587	2450.000769
984.468451	2473.442135
984.765279	2460.083077
985.062070	2442.943154
985.358824	2451.009000
985.655543	2432.104673
985.952224	2465.124231
986.248869	2442.186981
986.545478	2445.463731
986.842050	2439.414346
987.138586	2445.967846
987.435086	2479.995635
987.731549	2445.463731
988.027975	2462.351596
988.324366	2468.653038
988.620719	2441.178750
988.917037	2454.285750
989.213318	2439.666404
989.509563	2462.099538
989.805772	2450.252827
990.101944	2433.364962
990.398080	2490.330000
990.694180	2451.009000
990.990244	2463.107769
991.286271	2435.129365
991.582262	2456.050154
991.878217	2455.798096
992.174136	2466.888635
992.470019	2453.529577
992.765865	2453.781635
993.061676	2471.425673
993.357450	2468.653038
993.653188	2449.748712
993.948890	2452.269288
994.244556	2446.976077
994.540186	2448.740481
994.835780	2468.905096
995.131337	2487.557365
995.426859	2465.124231
995.722345	2450.756942
996.017795	2478.987404
996.313208	2454.537808
996.608586	2453.781635
996.903928	2474.198308
997.199234	2465.376288
997.494504	2447.480192
997.789738	2456.302212
998.084936	2452.521346
998.380099	2455.293981
998.675225	2456.554269
998.970316	2450.000769
999.265371	2455.041923
999.560390	2477.223000
999.855373	2456.554269
1000.150320	2479.239462
1000.445232	2468.653038
1000.740108	2442.943154
1001.034948	2446.976077
1001.329752	2457.562500
1001.624521	2455.798096
1001.919254	2447.732250
1002.213951	2467.140692
1002.508613	2463.107769
1002.803239	2457.562500
1003.097829	2468.148923
1003.392384	2481.507981
1003.686903	2479.995635
1003.981386	2448.236365
1004.275834	2484.028558
1004.570246	2457.310442
1004.864623	2466.384519
1005.158964	2442.691096
1005.453270	2465.628346
1005.747540	2480.499750
1006.041775	2485.792962
1006.335974	2446.976077
1006.630138	2474.198308
1006.924266	2440.422577
1007.218359	2473.694192
1007.512416	2459.074846
1007.806438	2462.603654
1008.100425	2466.384519
1008.394376	2476.970942
1008.688292	2456.554269
1008.982172	2455.293981
1009.276017	2451.765173
1009.569827	2446.976077
1009.863602	2469.409212
1010.157341	2485.036788
1010.451045	2473.946250
1010.744714	2463.107769
1011.038347	2454.537808
1011.331945	2451.009000
1011.625508	2467.644808
1011.919036	2445.715788
1012.212528	2449.496654
1012.505986	2476.970942
1012.799408	2464.116000
1013.092795	2467.392750
1013.386147	2442.439038
1013.679464	2446.976077
1013.972745	2444.455500
1014.265992	2476.718885
1014.559204	2467.392750
1014.852380	2438.154058
1015.145521	2467.644808
1015.438628	2462.603654
1015.731699	2428.827923
1016.024736	2432.860846
1016.317737	2482.768269
1016.610703	2475.206538
1016.903635	2446.724019
1017.196531	2462.351596
1017.489393	2448.740481
1017.782219	2449.244596
1018.075011	2455.546038
1018.367768	2469.913327
1018.660490	2451.009000
1018.953177	2451.009000
1019.245829	2451.009000
