Dividing Wavelength (nm)	Counts (n)	Slit_number_5_of_a_total_of_40	
326.493990	2146.187231
326.888308	2146.187231
327.282561	2146.187231
327.676750	2139.045596
328.070874	2137.785308
328.464933	2140.978038
328.858929	2151.312404
329.252859	2165.343615
329.646726	2172.065154
330.040528	2180.467077
330.434265	2219.704058
330.827938	2214.662904
331.221547	2246.422173
331.615091	2258.100846
332.008571	2290.784327
332.401986	2306.747981
332.795338	2324.980154
333.188625	2339.767538
333.581847	2361.276462
333.975006	2393.539846
334.368100	2401.353635
334.761129	2432.020654
335.154095	2440.506596
335.546996	2457.394462
335.939833	2489.657846
336.332606	2491.422250
336.725315	2494.362923
337.117960	2515.619788
337.510540	2518.728500
337.903056	2525.618077
338.295508	2544.438385
338.687896	2574.769327
339.080220	2556.957250
339.472480	2554.772750
339.864676	2561.998404
340.256807	2557.461365
340.648875	2565.275154
341.040879	2571.156500
341.432818	2584.431538
341.824694	2553.764519
342.216506	2573.425019
342.608253	2568.467885
342.999937	2565.527212
343.391557	2578.382154
343.783113	2554.100596
344.174605	2554.772750
344.566033	2564.939077
344.957397	2565.611231
345.348697	2555.696962
345.739934	2544.690442
346.131106	2548.219250
346.522215	2536.708615
346.913260	2563.006635
347.304241	2552.756288
347.695159	2550.907865
348.086012	2550.907865
348.476802	2553.848538
348.867528	2542.758000
349.258191	2548.051212
349.648789	2533.599904
350.039324	2548.051212
350.429796	2549.899635
350.820203	2538.809096
351.210548	2551.496000
351.600828	2558.049500
351.991045	2537.464788
352.381198	2545.698673
352.771288	2538.725077
353.161314	2533.515885
353.551276	2533.431865
353.941175	2542.505942
354.331010	2537.296750
354.720782	2532.591673
355.110490	2527.130423
355.500135	2536.540577
355.889717	2527.298462
356.279235	2533.599904
356.668689	2553.848538
357.058080	2536.120481
357.447408	2548.555327
357.836672	2538.052923
358.225873	2562.502519
358.615010	2537.296750
359.004084	2533.179808
359.393095	2540.405462
359.782043	2534.272058
360.170927	2535.616365
360.559748	2531.667462
360.948505	2547.547096
361.337199	2541.917808
361.725830	2560.318019
362.114398	2560.402038
362.502903	2546.034750
362.891344	2539.145173
363.279722	2545.782692
363.668037	2548.723365
364.056289	2554.268635
364.444478	2553.260404
364.832603	2542.505942
365.220665	2567.627692
365.608665	2535.112250
365.996601	2555.192846
366.384474	2553.008346
366.772284	2541.917808
367.160031	2534.692154
367.547715	2528.474731
367.935336	2548.891404
368.322893	2566.619462
368.710388	2556.117058
369.097820	2562.754577
369.485189	2544.102308
369.872495	2558.637635
370.259738	2555.444904
370.646918	2549.563558
371.034035	2546.202788
371.421090	2547.295038
371.808081	2542.926038
372.195010	2547.631115
372.581875	2563.258692
372.968678	2551.916096
373.355418	2563.426731
373.742096	2554.604712
374.128710	2556.705192
374.515262	2556.621173
374.901751	2554.184615
375.288177	2546.370827
375.674540	2546.958962
376.060841	2560.402038
376.447079	2556.957250
376.833254	2564.266923
377.219367	2549.395519
377.605417	2561.326250
377.991404	2554.352654
378.377329	2563.594769
378.763191	2542.505942
379.148991	2561.998404
379.534727	2561.578308
379.920402	2563.678788
380.306013	2558.973712
380.691563	2555.444904
381.077049	2565.779269
381.462474	2536.792635
381.847835	2571.492577
382.233134	2566.031327
382.618371	2564.014865
383.003545	2552.420212
383.388657	2555.108827
383.773706	2559.141750
384.158693	2559.813904
384.543618	2559.561846
384.928480	2560.065962
385.313280	2562.250462
385.698017	2562.334481
386.082692	2577.373923
386.467305	2566.283385
386.851856	2553.428442
387.236344	2581.574885
387.620770	2561.998404
388.005133	2578.382154
388.389435	2566.451423
388.773674	2555.528923
389.157851	2556.453135
389.541965	2572.416788
389.926018	2581.742923
390.310008	2573.929135
390.693936	2561.158212
391.077802	2574.181192
391.461606	2573.929135
391.845348	2570.820423
392.229027	2569.812192
392.612645	2570.988462
392.996200	2564.687019
393.379694	2569.224058
393.763125	2569.896212
394.146494	2584.011442
394.529801	2565.779269
394.913047	2563.426731
395.296230	2585.943885
395.679351	2568.635923
396.062410	2555.108827
396.445408	2553.092365
396.828343	2559.729885
397.211217	2561.998404
397.594028	2550.403750
397.976778	2565.863288
398.359466	2558.721654
398.742092	2563.090654
399.124656	2571.660615
399.507158	2577.037846
399.889598	2559.561846
400.271977	2568.047788
400.654294	2560.570077
401.036549	2563.846827
401.418742	2571.576596
401.800874	2559.477827
402.182944	2576.617750
402.564952	2561.914385
402.946898	2561.494288
403.328783	2561.830365
403.710606	2554.604712
404.092367	2575.357462
404.474067	2572.080712
404.855705	2563.006635
405.237282	2581.406846
405.618797	2590.648962
406.000250	2574.013154
406.381642	2575.273442
406.762972	2564.350942
407.144240	2572.080712
407.525447	2576.449712
407.906593	2578.382154
408.287677	2571.492577
408.668700	2569.056019
409.049661	2572.668846
409.430560	2548.051212
409.811399	2570.316308
410.192176	2586.363981
410.572891	2575.021385
410.953545	2560.822135
411.334138	2566.283385
411.714669	2568.467885
412.095139	2571.912673
412.475547	2579.306365
412.855894	2574.349231
413.236180	2569.980231
413.616405	2572.668846
413.996568	2576.785788
414.376670	2570.400327
414.756711	2572.416788
415.136691	2569.056019
415.516609	2576.785788
415.896466	2564.603000
416.276262	2576.281673
416.655997	2582.835173
417.035670	2572.836885
417.415283	2575.357462
417.794834	2567.879750
418.174324	2571.408558
418.553753	2589.052596
418.933121	2576.449712
419.312428	2581.658904
419.691674	2578.130096
420.070859	2585.271731
420.449983	2589.808769
420.829045	2582.163019
421.208047	2583.423308
421.586988	2579.138327
421.965867	2593.421596
422.344686	2583.339288
422.723444	2592.413365
423.102141	2572.920904
423.480777	2571.660615
423.859352	2582.079000
424.237866	2582.499096
424.616319	2570.652385
424.994712	2581.574885
425.373044	2582.247038
425.751314	2556.117058
426.129524	2567.291615
426.507673	2593.085519
426.885762	2577.289904
427.263789	2578.886269
427.641756	2575.021385
428.019662	2585.439769
428.397508	2563.846827
428.775292	2581.658904
429.153016	2588.800538
429.530679	2587.456231
429.908282	2583.507327
430.285824	2573.172962
430.663305	2589.052596
431.040726	2582.079000
431.418086	2584.767615
431.795385	2570.736404
432.172624	2562.838596
432.549802	2573.845115
432.926920	2580.566654
433.303977	2582.079000
433.680974	2569.896212
434.057910	2574.937365
434.434786	2586.784077
434.811601	2574.769327
435.188355	2600.731269
435.565050	2587.120154
435.941683	2568.551904
436.318257	2568.719942
436.694770	2585.355750
437.071222	2566.367404
437.447614	2592.833462
437.823946	2582.331058
438.200218	2577.878038
438.576429	2578.382154
438.952580	2573.088942
439.328670	2577.121865
439.704700	2572.332769
440.080670	2582.751154
440.456580	2580.650673
440.832429	2571.324538
441.208218	2584.011442
441.583947	2583.339288
441.959616	2590.901019
442.335224	2586.363981
442.710773	2583.087231
443.086261	2571.492577
443.461689	2581.658904
443.837057	2575.861577
444.212365	2592.665423
444.587612	2556.453135
444.962800	2585.019673
445.337927	2578.214115
445.712995	2588.548481
446.088002	2579.222346
446.462949	2595.101981
446.837837	2586.111923
447.212664	2587.120154
447.587431	2566.535442
447.962139	2581.574885
448.336786	2596.278250
448.711374	2573.341000
449.085901	2579.558423
449.460369	2590.564942
449.834776	2576.533731
450.209124	2594.093750
450.583412	2585.439769
450.957640	2584.515558
451.331808	2588.548481
451.705917	2585.103692
452.079965	2587.120154
452.453954	2586.784077
452.827883	2596.026192
453.201752	2577.794019
453.575562	2587.120154
453.949311	2594.849923
454.323001	2592.413365
454.696632	2599.975096
455.070202	2587.036135
455.443713	2601.067346
455.817164	2593.505615
456.190556	2597.202462
456.563888	2594.429827
456.937160	2581.994981
457.310373	2600.227154
457.683526	2585.607808
458.056619	2588.968577
458.429653	2589.388673
458.802628	2596.950404
459.175542	2592.413365
459.548398	2587.288192
459.921194	2589.640731
460.293930	2578.466173
460.666607	2592.245327
461.039224	2583.927423
461.411782	2577.289904
461.784280	2598.882846
462.156719	2597.202462
462.529099	2574.181192
462.901419	2578.634212
463.273680	2589.220635
463.645882	2599.134904
464.018024	2579.978519
464.390106	2593.925712
464.762130	2601.319404
465.134094	2584.347519
465.505999	2588.296423
465.877845	2597.118442
466.249631	2596.278250
466.621358	2585.691827
466.993026	2604.512135
467.364634	2609.721327
467.736184	2588.548481
468.107674	2584.515558
468.479105	2596.362269
468.850477	2603.671942
469.221790	2605.268308
469.593043	2584.263500
469.964238	2589.052596
470.335373	2591.153077
470.706449	2595.942173
471.077467	2604.848212
471.448425	2586.195942
471.819324	2593.589635
472.190164	2605.604385
472.560945	2600.563231
472.931667	2593.673654
473.302330	2590.648962
473.672934	2596.446288
474.043479	2587.792308
474.413965	2592.833462
474.784393	2593.421596
475.154761	2586.784077
475.525070	2591.321115
475.895321	2599.050885
476.265513	2593.337577
476.635645	2591.573173
477.005719	2582.247038
477.375734	2601.151365
477.745691	2580.062538
478.115588	2586.279962
478.485427	2589.640731
478.855207	2580.146558
479.224928	2587.792308
479.594591	2573.425019
479.964194	2592.329346
480.333739	2587.036135
480.703226	2587.372212
481.072653	2598.462750
481.442022	2595.186000
481.811333	2585.859865
482.180584	2600.731269
482.549777	2600.899308
482.918912	2607.284769
483.287988	2586.448000
483.657005	2590.480923
484.025964	2589.556712
484.394864	2591.153077
484.763706	2606.192519
485.132489	2581.574885
485.501213	2598.294712
485.869879	2601.487442
486.238487	2582.919192
486.607036	2594.597865
486.975527	2596.950404
487.343959	2609.637308
487.712333	2593.925712
488.080648	2575.945596
488.448905	2597.622558
488.817104	2596.026192
489.185244	2604.176058
489.553326	2595.438058
489.921350	2594.849923
490.289315	2598.462750
490.657222	2600.899308
491.025070	2588.380442
491.392861	2594.681885
491.760593	2609.133192
492.128267	2596.614327
492.495883	2600.227154
492.863440	2593.925712
493.230939	2588.044365
493.598380	2594.093750
493.965763	2598.042654
494.333088	2604.092038
494.700354	2599.386962
495.067563	2608.293000
495.434713	2585.439769
495.801805	2592.161308
496.168839	2600.059115
496.535815	2600.143135
496.902733	2591.573173
497.269593	2606.780654
497.636395	2585.271731
498.003139	2606.780654
498.369825	2600.059115
498.736453	2614.258365
499.103023	2593.589635
499.469535	2595.942173
499.835989	2600.899308
500.202385	2594.513846
500.568723	2611.485731
500.935003	2606.024481
501.301226	2601.571462
501.667390	2577.289904
502.033497	2599.134904
502.399546	2580.986750
502.765537	2606.024481
503.131470	2595.186000
503.497345	2584.935654
503.863163	2604.092038
504.228923	2594.177769
504.594625	2599.302942
504.960269	2593.925712
505.325856	2585.943885
505.691385	2611.233673
506.056856	2596.278250
506.422270	2605.436346
506.787625	2603.671942
507.152924	2601.319404
507.518164	2602.999788
507.883347	2599.470981
508.248472	2599.807058
508.613540	2612.409942
508.978550	2598.462750
509.343503	2593.505615
509.708398	2611.233673
510.073236	2610.477500
510.438016	2605.856442
510.802738	2599.050885
511.167403	2603.839981
511.532010	2618.795404
511.896561	2603.167827
512.261053	2609.133192
512.625488	2607.536827
512.989866	2600.479212
513.354186	2627.113308
513.718449	2603.924000
514.082655	2629.465846
514.446803	2610.141423
514.810894	2588.464462
515.174927	2629.129769
515.538904	2620.979904
515.902822	2613.838269
516.266684	2620.727846
516.630488	2622.744308
516.994235	2625.937038
517.357925	2613.922288
517.721558	2610.309462
518.085133	2620.307750
518.448651	2612.409942
518.812112	2628.709673
519.175516	2618.459327
519.538863	2622.240192
519.902152	2612.073865
520.265385	2616.778942
520.628560	2630.474077
520.991678	2630.810154
521.354739	2622.576269
521.717743	2626.525173
522.080690	2619.299519
522.443580	2639.884231
522.806413	2611.317692
523.169189	2632.154462
523.531908	2636.943558
523.894569	2632.994654
524.257174	2626.105077
524.619722	2642.152750
524.982213	2624.088615
525.344647	2633.414750
525.707025	2626.777231
526.069345	2625.516942
526.431608	2631.650346
526.793815	2622.156173
527.155964	2621.063923
527.518057	2624.004596
527.880093	2627.449385
528.242072	2627.113308
528.603995	2629.129769
528.965860	2631.734365
529.327669	2634.927096
529.689421	2630.053981
530.051117	2634.591019
530.412755	2631.146231
530.774337	2641.984712
531.135862	2631.734365
531.497331	2640.472365
531.858743	2640.388346
532.220098	2634.002885
532.581396	2638.371885
532.942638	2638.876000
533.303824	2632.406519
533.664953	2636.271404
534.026025	2641.816673
534.387040	2650.050558
534.747999	2639.464135
535.108902	2631.230250
535.469748	2642.320788
535.830537	2628.373596
536.191270	2629.633885
536.551947	2632.238481
536.912567	2627.533404
537.273131	2633.918865
537.633638	2632.742596
537.994089	2640.892462
538.354483	2624.508712
538.714821	2633.666808
539.075103	2640.724423
539.435328	2641.144519
539.795497	2627.701442
540.155609	2629.213788
540.515665	2629.717904
540.875665	2629.129769
541.235609	2640.472365
541.595496	2629.381827
541.955328	2639.296096
542.315102	2632.994654
542.674821	2636.355423
543.034483	2638.876000
543.394090	2655.679846
543.753640	2641.564615
544.113134	2653.915442
544.472571	2643.917154
544.831953	2640.724423
545.191278	2641.984712
545.550548	2638.876000
545.909761	2634.927096
546.268918	2637.027577
546.628019	2643.160981
546.987064	2647.445962
547.346053	2644.253231
547.704986	2647.025865
548.063863	2641.816673
548.422684	2635.011115
548.781449	2623.836558
549.140158	2630.642115
549.498811	2650.470654
549.857408	2630.053981
550.215949	2637.279635
550.574434	2641.984712
550.932864	2644.169212
551.291237	2639.380115
551.649555	2651.478885
552.007817	2641.648635
552.366022	2636.019346
552.724173	2641.732654
553.082267	2639.716192
553.440305	2648.958308
553.798288	2640.976481
554.156215	2652.571135
554.514086	2641.144519
554.871902	2641.144519
555.229661	2642.236769
555.587365	2668.450769
555.945014	2645.849596
556.302606	2641.732654
556.660143	2647.445962
557.017625	2645.345481
557.375050	2648.790269
557.732421	2646.773808
558.089735	2645.345481
558.446994	2629.213788
558.804197	2640.892462
559.161345	2663.997750
559.518437	2655.091712
559.875474	2639.044038
560.232455	2637.699731
560.589381	2648.286154
560.946251	2654.923673
561.303065	2645.429500
561.659825	2658.116404
562.016528	2665.342058
562.373177	2649.546442
562.729770	2649.126346
563.086307	2656.099942
563.442789	2640.640404
563.799216	2651.814962
564.155587	2648.118115
564.511904	2653.831423
564.868164	2651.983000
565.224370	2657.864346
565.580520	2662.233346
565.936615	2663.913731
566.292654	2661.813250
566.648638	2648.118115
567.004567	2657.024154
567.360441	2673.323885
567.716260	2663.073538
568.072023	2662.149327
568.427732	2665.174019
568.783385	2665.678135
569.138982	2661.561192
569.494525	2661.309135
569.850013	2658.872577
570.205445	2654.251519
570.560823	2660.973058
570.916145	2668.786846
571.271412	2675.508385
571.626625	2672.147615
571.981782	2654.419558
572.336884	2663.829712
572.691931	2676.180538
573.046923	2663.745692
573.401860	2669.290962
573.756743	2666.938423
574.111570	2681.137673
574.466342	2669.963115
574.821059	2676.684654
575.175722	2678.449058
575.530330	2667.610577
575.884882	2691.388019
576.239380	2684.330404
576.593823	2682.145904
576.948211	2686.682942
577.302544	2692.144192
577.656823	2685.842750
578.011047	2680.801596
578.365216	2674.668192
578.719330	2683.574231
579.073389	2682.145904
579.427394	2687.691173
579.781344	2695.420942
580.135239	2698.109558
580.489080	2690.631846
580.842866	2679.121212
581.196597	2707.855788
581.550273	2717.181923
581.903895	2705.167173
582.257463	2705.755308
582.610975	2690.967923
582.964434	2694.832808
583.317837	2704.915115
583.671186	2709.872250
584.024481	2715.501538
584.377721	2723.315327
584.730906	2721.718962
585.084037	2726.340019
585.437113	2734.825962
585.790135	2723.567385
586.143103	2705.251192
586.496016	2729.028635
586.848874	2729.280692
587.201679	2726.676096
587.554428	2751.713827
587.907124	2723.567385
588.259765	2744.824250
588.612352	2729.448731
588.964884	2734.657923
589.317362	2755.158615
589.669786	2765.072885
590.022155	2737.598596
590.374470	2762.888385
590.726731	2761.123981
591.078937	2762.720346
591.431090	2770.702173
591.783188	2764.736808
592.135232	2771.206288
592.487222	2768.685712
592.839157	2789.858558
593.191038	2778.431942
593.542866	2803.553692
593.894639	2781.288596
594.246358	2787.337981
594.598022	2805.570154
594.949633	2791.538942
595.301190	2814.812269
595.652692	2812.459731
596.004141	2818.341077
596.355535	2814.056096
596.706876	2805.906231
597.058162	2818.593135
597.409395	2828.927500
597.760573	2841.278327
598.111698	2841.026269
598.462768	2842.118519
598.813785	2834.388750
599.164748	2855.729635
599.515657	2864.299596
599.866511	2849.008096
600.217312	2867.912423
600.568060	2854.049250
600.918753	2890.429577
601.269392	2904.628827
601.619978	2889.085269
601.970510	2892.614077
602.320988	2909.249885
602.671412	2905.048923
603.021783	2918.407981
603.372100	2909.417923
603.722363	2928.154212
604.072572	2935.883981
604.422728	2933.111346
604.772830	2959.409365
605.122878	2959.913481
605.472872	2960.585635
605.822813	2976.045173
606.172701	2978.901827
606.522534	2990.244423
606.872314	2998.730365
607.222041	3016.962538
607.571714	3034.606577
607.921333	3022.927904
608.270899	3049.057885
608.620411	3061.072635
608.969870	3073.843558
609.319276	3089.303096
609.668627	3095.604538
610.017926	3105.602827
610.367171	3104.342538
610.716362	3130.808596
611.065500	3148.536654
611.414585	3158.198865
611.763616	3190.042154
612.112594	3196.427615
612.461518	3205.501692
612.810389	3229.699231
613.159207	3238.521250
613.507971	3243.646423
613.856682	3276.918038
614.205340	3291.957481
614.553945	3322.120385
614.902496	3316.491096
615.250994	3342.789115
615.599439	3382.782269
615.947830	3378.917385
616.296169	3415.129673
616.644454	3434.706154
616.992686	3466.717481
617.340864	3473.607058
617.688990	3494.359808
618.037063	3530.067981
618.385082	3564.011750
618.733048	3597.619442
619.080961	3640.469250
619.428821	3643.830019
619.776628	3686.259731
620.124382	3689.032365
620.472083	3705.752192
620.819731	3736.251173
621.167326	3743.728885
621.514868	3782.713808
621.862357	3766.750154
622.209793	3801.030000
622.557176	3791.031712
622.904506	3805.146942
623.251783	3819.010115
623.599007	3823.463135
623.946179	3845.140096
624.293297	3867.237154
624.640363	3869.673712
624.987376	3886.729615
625.334336	3895.131538
625.681243	3894.795462
626.028097	3907.230308
626.374899	3951.004327
626.721647	3966.883962
627.068343	3996.290692
627.414987	3995.870596
627.761577	3998.307154
628.108115	4050.819173
628.454600	4037.880212
628.801032	4094.677212
629.147412	4131.225577
629.493739	4155.675173
629.840014	4175.755769
630.186236	4206.422788
630.532405	4227.091519
630.878521	4258.430692
631.224585	4283.300385
631.570597	4312.203000
631.916556	4355.893000
632.262462	4371.688615
632.608316	4415.126558
632.954117	4439.240077
633.299866	4468.730827
633.645562	4504.102923
633.991206	4493.936596
634.336797	4506.287423
634.682336	4532.333385
635.027823	4528.132423
635.373257	4538.550808
635.718639	4566.529212
636.063968	4554.850538
636.409245	4573.418788
636.754470	4609.547058
637.099642	4630.635885
637.444762	4623.158173
637.789829	4631.560096
638.134845	4655.841654
638.479808	4666.428077
638.824719	4691.381788
639.169577	4696.254904
639.514383	4738.684615
639.859137	4751.623577
640.203839	4783.130788
640.548489	4810.605077
640.893086	4823.123942
641.237632	4851.522442
641.582125	4877.064288
641.926566	4911.680212
642.270955	4944.027615
642.615292	4937.558135
642.959576	4972.930231
643.303809	5007.966250
643.647990	5052.580462
643.992118	5085.431981
644.336195	5128.197769
644.680219	5145.001615
645.024192	5200.286269
645.368112	5259.939923
645.711981	5318.417308
646.055797	5393.278442
646.399562	5448.311038
646.743274	5530.565865
647.086935	5646.932500
647.430544	5677.431481
647.774101	5748.595769
648.117606	5791.109500
648.461059	5857.232635
648.804460	5857.820769
649.147810	5836.563904
649.491108	5875.632846
649.834354	5852.527558
650.177548	5844.881808
650.520690	5832.362942
650.863781	5827.321788
651.206820	5864.458288
651.549807	5863.618096
651.892742	5821.272404
652.235626	5819.003885
652.578458	5865.634558
652.921238	5841.689077
653.263967	5884.706923
653.606644	5897.561865
653.949269	5933.270038
654.291843	5913.189442
654.634365	5980.068750
654.976836	5974.187404
655.319255	6028.295788
655.661622	6033.420962
656.003938	6043.335231
656.346203	6069.717269
656.688416	6156.845212
657.030577	6141.217635
657.372687	6153.820519
657.714746	6221.876096
658.056753	6260.020827
658.398708	6221.287962
658.740612	6258.004365
659.082465	6322.111038
659.424266	6333.705692
659.766016	6367.229365
660.107715	6395.543846
660.449362	6422.009904
660.790958	6460.574731
661.132503	6493.846346
661.473996	6555.012346
661.815438	6560.809673
662.156829	6634.998654
662.498168	6650.878288
662.839456	6649.281923
663.180693	6702.466096
663.521879	6757.414673
663.863013	6797.911942
664.204097	6838.745288
664.545129	6949.146558
664.886110	6983.930519
665.227040	6994.600962
665.567918	7046.020731
665.908746	7096.012173
666.249522	7127.519385
666.590248	7163.563635
666.930922	7221.452885
667.271545	7253.044115
667.612118	7304.295846
667.952639	7313.453942
668.293109	7333.954635
668.633528	7345.129192
668.973896	7381.845596
669.314213	7439.818865
669.654480	7423.267077
669.994695	7427.047942
670.334859	7451.245481
670.674973	7457.630942
671.015035	7511.655308
671.355047	7542.826442
671.695008	7580.551077
672.034918	7545.767115
672.374777	7626.593615
672.714585	7611.722212
673.054342	7691.540481
673.394049	7669.779500
673.733705	7755.815192
674.073310	7732.205788
674.412864	7792.699635
674.752368	7770.266500
675.091820	7859.578942
675.431223	7816.056981
675.770574	7793.539827
676.109875	7814.124538
676.449125	7797.824808
676.788324	7808.579269
677.127473	7783.205462
677.466571	7753.630692
677.805619	7784.213692
678.144616	7784.633788
678.483562	7800.597442
678.822458	7775.139615
679.161303	7778.416365
679.500098	7766.569654
679.838842	7805.470558
680.177535	7809.167404
680.516179	7879.575519
680.854771	7909.570385
681.193314	8051.982981
681.531805	8232.372269
681.870247	8331.430942
682.208638	8522.574692
682.546978	8638.353192
682.885268	8714.306577
683.223508	8707.501019
683.561697	8683.975635
683.899836	8645.494827
684.237925	8589.033904
684.575963	8624.069923
684.913951	8500.057538
685.251889	8512.996500
685.589776	8554.754058
685.927614	8534.421404
686.265401	8543.411462
686.603137	8558.198846
686.940824	8663.138865
687.278460	8714.390596
687.616046	8692.797654
687.953582	8830.337135
688.291068	8801.434519
688.628504	8904.022000
688.965889	8932.504519
689.303224	8871.170481
689.640510	8894.359788
689.977745	8823.867654
690.314930	8734.219135
690.652065	8672.549019
690.989150	8603.317173
691.326185	8453.090788
691.663170	8330.170654
692.000105	8282.363712
692.336990	8160.703865
692.673825	8096.513173
693.010610	8017.535096
693.347345	7938.557019
693.684030	7813.788462
694.020665	7800.093327
694.357251	7697.673885
694.693786	7694.733212
695.030272	7626.929692
695.366707	7526.106615
695.703093	7458.723192
696.039429	7483.592885
696.375716	7473.846654
696.711952	7437.550346
697.048139	7420.326404
697.384276	7377.980712
697.720363	7407.303423
698.056400	7385.962538
698.392388	7341.012250
698.728326	7399.741692
699.064214	7331.266019
699.400053	7382.097654
699.735842	7301.103115
700.071581	7284.551327
700.407270	7231.199115
700.742910	7216.915846
701.078501	7171.965558
701.414042	7164.823923
701.749533	7088.282404
702.084974	7017.370173
702.420366	7113.992288
702.755709	6987.375308
703.091002	6977.040942
703.426246	6974.604385
703.761440	6990.736077
704.096584	6902.515885
704.431679	6900.079327
704.766725	6902.095788
705.101721	6899.659231
705.436668	6920.916096
705.771565	6867.899962
706.106413	6917.807385
706.441212	6911.169865
706.775961	6966.454519
707.110661	6962.841692
707.445311	7046.524846
707.779913	6969.899308
708.114465	7030.729231
708.448967	7112.732000
708.783421	7253.716269
709.117825	7278.838019
709.452180	7324.124385
709.786485	7377.308558
710.120742	7525.350442
710.454949	7512.999615
710.789107	7616.931404
711.123216	7721.199269
711.457275	7754.554904
711.791286	7838.910212
712.125247	7901.420519
712.459159	7823.030577
712.793023	8022.996346
713.126837	7812.528173
713.460602	7895.623192
713.794318	7892.598500
714.127985	7837.229827
714.461602	7683.726692
714.795171	7728.340904
715.128691	7522.997904
715.462162	7448.808923
715.795584	7322.107923
716.128957	7306.480346
716.462281	7256.320865
716.795556	7231.367154
717.128782	7142.054712
717.461960	7035.266269
717.795088	6999.978192
718.128167	6925.201077
718.461198	6798.584096
718.794180	6761.279558
719.127113	6727.251769
719.459997	6673.899558
719.792833	6583.830942
720.125619	6598.786365
720.458357	6527.622077
720.791046	6470.993115
721.123686	6417.052769
721.456278	6383.949192
721.788821	6380.252346
722.121315	6308.247865
722.453761	6310.852462
722.786158	6283.294154
723.118506	6293.292442
723.450805	6264.053750
723.783056	6290.603827
724.115259	6239.268077
724.447412	6242.040712
724.779518	6296.653212
725.111574	6304.467000
725.443582	6350.593558
725.775542	6326.059942
726.107453	6428.899481
726.439315	6373.866885
726.771129	6459.398462
727.102895	6517.203692
727.434612	6563.834365
727.766281	6603.323404
728.097901	6684.149904
728.429473	6695.072404
728.760996	6721.034346
729.092471	6744.223654
729.423897	6735.065558
729.755276	6690.451346
730.086606	6721.706500
730.417887	6803.877308
730.749120	6919.571788
731.080305	6978.889365
731.411442	7070.974442
731.742530	7121.806077
732.073570	7151.548885
732.404562	7262.286231
732.735506	7209.354115
733.066401	7213.219000
733.397249	7165.244019
733.728048	7054.842750
734.058798	6862.774788
734.389501	6727.335788
734.720156	6592.736981
735.050762	6475.782212
735.381320	6356.138827
735.711831	6276.404577
736.042293	6158.357558
736.372707	6164.574981
736.703073	6103.661038
737.033391	6119.288615
737.363661	6082.320154
737.693883	6077.531058
738.024056	6130.799250
738.354182	6132.311596
738.684260	6192.469365
739.014290	6207.088712
739.344272	6226.581173
739.674207	6297.829481
740.004093	6350.173462
740.333931	6360.591846
740.663722	6355.634712
740.993464	6384.201250
741.323159	6335.638135
741.652806	6267.498538
741.982405	6259.600731
742.311956	6202.299615
742.641460	6192.217308
742.970915	6136.176481
743.300323	6036.109577
743.629683	6003.510115
743.958996	5944.192538
744.288260	5886.303288
744.617477	5798.755250
744.946647	5789.849212
745.275768	5714.736019
745.604842	5638.278519
745.933869	5618.365962
746.262847	5625.255538
746.591778	5583.750038
746.920662	5566.106000
747.249498	5533.422519
747.578286	5576.440365
747.907027	5570.643038
748.235720	5625.171519
748.564365	5598.789481
748.892963	5590.387558
749.221514	5625.003481
749.550017	5598.957519
749.878473	5604.418769
750.206881	5537.791519
750.535242	5504.603923
750.863555	5493.681423
751.191821	5454.780519
751.520039	5444.866250
751.848210	5448.227019
752.176334	5450.075442
752.504411	5395.210885
752.832440	5346.311692
753.160421	5395.462942
753.488356	5340.850442
753.816243	5308.587058
754.144082	5282.289038
754.471875	5230.953288
754.799620	5239.355212
755.127318	5206.503692
755.454969	5207.848000
755.782572	5205.159385
756.110129	5174.996481
756.437638	5154.915885
756.765100	5137.607923
757.092515	5146.261904
757.419882	5151.891192
757.747203	5124.584942
758.074477	5150.882962
758.401703	5123.324654
758.728882	5152.647365
759.056014	5160.041058
759.383099	5207.007808
759.710138	5210.788673
760.037129	5237.338750
760.364073	5268.509885
760.690970	5234.482096
761.017820	5256.495135
761.344623	5268.257827
761.671379	5340.262308
761.998088	5445.958500
762.324751	5608.619731
762.651366	6098.535865
762.977935	6915.538865
763.304456	7652.723596
763.630931	8142.639731
763.957359	8159.779654
764.283740	7833.785038
764.610074	7449.817154
764.936362	6933.182904
765.262602	6551.567558
765.588796	6101.140462
765.914943	5783.715808
766.241044	5502.503442
766.567097	5265.317154
766.893104	5067.031769
767.219064	4929.912385
767.544978	4827.745000
767.870845	4702.724385
768.196665	4643.406808
768.522438	4589.214404
768.848165	4507.883788
769.173846	4466.210250
769.499479	4443.357019
769.825066	4383.367288
770.150607	4326.570288
770.476101	4311.782904
770.801548	4280.527750
771.126949	4231.292481
771.452303	4230.452288
771.777611	4171.554808
772.102872	4165.253365
772.428087	4120.555135
772.753256	4096.777692
773.078378	4061.237558
773.403453	4023.176846
773.728482	4003.012231
774.053465	3967.892192
774.378401	3943.442596
774.703291	3915.632231
775.028135	3895.635654
775.352932	3875.471038
775.677683	3860.431596
776.002388	3834.721712
776.327046	3809.852019
776.651658	3793.132192
776.976224	3770.278962
777.300743	3775.656192
777.625216	3732.302269
777.949643	3726.588962
778.274024	3749.778269
778.598359	3707.600615
778.922647	3710.877365
779.246889	3674.497038
779.571086	3687.940115
779.895236	3711.297462
780.219339	3680.546423
780.543397	3684.159250
780.867409	3686.427769
781.191374	3691.720981
781.515294	3662.482288
781.839167	3700.543000
782.162995	3689.116385
782.486776	3690.544712
782.810511	3667.187365
783.134201	3647.862942
783.457844	3634.251827
783.781441	3631.731250
784.104993	3611.566635
784.428498	3609.718212
784.751958	3601.232269
785.075372	3586.276846
785.398739	3580.731577
785.722061	3596.695231
786.045337	3602.492558
786.368568	3591.990154
786.691752	3584.092346
787.014891	3650.383519
787.337983	3659.037500
787.661030	3764.985750
787.984031	3863.876385
788.306987	3972.177173
788.629897	4030.738577
788.952760	4029.898385
789.275579	4001.415865
789.598351	3926.050615
789.921078	3888.830096
790.243759	3818.926096
790.566395	3767.590346
790.888984	3706.256308
791.211529	3650.635577
791.534027	3603.080692
791.856480	3540.318327
792.178888	3536.621481
792.501249	3495.956173
792.823566	3465.793269
793.145836	3461.172212
793.468062	3443.276115
793.790241	3423.279538
794.112375	3451.510000
794.434464	3454.030577
794.756507	3463.860827
795.078505	3483.185250
795.400457	3501.669481
795.722364	3568.380750
796.044226	3614.003192
796.366042	3663.574538
796.687812	3669.287846
797.009538	3669.875981
797.331218	3665.422962
797.652852	3689.452462
797.974442	3628.706558
798.295986	3614.255250
798.617484	3589.133500
798.938938	3557.626288
799.260346	3537.293635
799.581709	3494.275788
799.903026	3484.865635
800.224299	3466.801500
800.545526	3423.867673
800.866708	3411.516846
801.187845	3385.890981
801.508936	3387.655385
801.829983	3384.042558
802.150984	3331.614558
802.471940	3335.311404
802.792851	3311.533962
803.113717	3316.827173
803.434538	3312.962288
803.755314	3299.015096
804.076045	3286.244173
804.396731	3299.771269
804.717372	3277.254115
805.037967	3266.835731
805.358518	3272.296981
805.679024	3260.618308
805.999485	3275.573731
806.319901	3267.171808
806.640272	3286.412212
806.960598	3294.730115
807.280879	3299.015096
807.601115	3301.115577
807.921306	3287.420442
808.241453	3289.100827
808.561554	3303.048019
808.881611	3278.346365
809.201623	3292.881692
809.521590	3291.453365
809.841513	3270.952673
810.161390	3289.857000
810.481223	3268.684154
810.801011	3257.173519
811.120755	3236.252731
811.440453	3243.394365
811.760107	3225.582288
812.079716	3227.598750
812.399281	3208.946481
812.718801	3214.911846
813.038276	3191.890577
813.357707	3165.928635
813.677093	3183.404635
813.996434	3159.795231
814.315731	3165.424519
814.634983	3146.604212
814.954191	3146.100096
815.273354	3161.643654
815.592473	3147.612442
815.911547	3193.066846
816.230577	3185.085019
816.549562	3207.854231
816.868502	3215.079885
817.187399	3230.203346
817.506250	3242.386135
817.825058	3246.167000
818.143821	3274.733538
818.462539	3299.687250
818.781213	3347.326154
819.099843	3384.042558
819.418429	3497.552538
819.736970	3617.111904
820.055466	3759.944596
820.373919	3917.144577
820.692327	4118.706712
821.010691	4475.200308
821.329011	5270.022231
821.647286	6885.375962
821.965517	9353.944981
822.283704	11369.734365
822.601847	12642.541692
822.919945	12163.211981
823.237999	11220.684250
823.556010	10104.908865
823.873976	9081.470615
824.191897	8153.982327
824.509775	7399.489635
824.827609	6629.621423
825.145398	6094.586962
825.463144	5645.756231
825.780845	5498.050423
826.098502	5502.335404
826.416116	5810.181865
826.733685	6293.460481
827.051210	6575.513038
827.368692	6561.397808
827.686129	6163.146654
828.003522	5655.082365
828.320872	5197.933731
828.638177	4831.357827
828.955439	4515.445519
829.272656	4260.195096
829.589830	4029.562308
829.906960	3832.957308
830.224046	3629.966846
830.541088	3507.886904
830.858086	3414.625558
831.175041	3325.145077
831.491952	3300.611462
831.808819	3259.105962
832.125642	3265.743481
832.442421	3320.524019
832.759157	3462.936615
833.075849	3714.406173
833.392497	4098.542096
833.709101	4436.803519
834.025662	4594.927712
834.342179	4486.710942
834.658653	4271.285635
834.975083	4027.125750
835.291469	3845.392154
835.607811	3669.203827
835.924110	3574.178077
836.240366	3448.401288
836.556578	3325.229096
836.872746	3245.578865
837.188871	3146.436173
837.504952	3088.967019
837.820990	3035.194712
838.136984	2998.646346
838.452935	2964.786596
838.768842	2954.704288
839.084706	2976.045173
839.400526	3051.494442
839.716303	3227.682769
840.032037	3398.073769
840.347727	3445.964731
840.663373	3389.083712
840.978977	3281.287038
841.294537	3187.353538
841.610054	3120.138154
841.925527	3053.258846
842.240957	3005.115827
842.556344	2970.583923
842.871687	2934.539673
843.186987	2887.993019
843.502244	2859.678538
843.817458	2832.876404
844.132629	2804.898000
844.447756	2784.733385
844.762840	2778.852038
845.077881	2757.595173
845.392879	2767.929538
845.707833	2757.175077
846.022745	2750.537558
846.337613	2755.158615
846.652438	2739.783096
846.967221	2728.524519
847.281960	2732.557442
847.596656	2729.532750
847.911309	2715.165462
848.225919	2720.878769
848.540485	2718.442212
848.855009	2713.485077
849.169490	2718.106135
849.483928	2711.468615
849.798323	2718.778288
850.112675	2683.574231
850.426984	2710.796462
850.741251	2694.832808
851.055474	2702.478558
851.369654	2703.234731
851.683792	2696.765250
851.997887	2696.765250
852.311938	2702.394538
852.625947	2693.320462
852.939914	2705.587269
853.253837	2701.554346
853.567718	2710.712442
853.881555	2690.967923
854.195350	2708.023827
854.509103	2708.107846
854.822812	2699.285827
855.136479	2689.371558
855.450103	2708.107846
855.763685	2706.427462
856.077224	2702.982673
856.390720	2705.167173
856.704173	2715.417519
857.017584	2705.671288
857.330953	2705.419231
857.644278	2691.051942
857.957561	2708.023827
858.270802	2717.013885
858.584000	2694.076635
858.897155	2692.816346
859.210268	2705.083154
859.523339	2709.704212
859.836367	2703.318750
860.149352	2705.251192
860.462295	2700.294058
860.775195	2697.857500
861.088054	2701.302288
861.400869	2699.117788
861.713642	2700.630135
862.026373	2697.353385
862.339062	2681.725808
862.651708	2701.470327
862.964312	2688.951462
863.276873	2685.674712
863.589392	2688.531365
863.901869	2701.722385
864.214303	2695.420942
864.526696	2705.419231
864.839045	2727.600308
865.151353	2722.727192
865.463619	2719.702500
865.775842	2718.274173
866.088023	2720.206615
866.400162	2730.961077
866.712258	2706.175404
867.024313	2730.456962
867.336325	2724.407577
867.648296	2715.753596
867.960224	2714.577327
868.272110	2728.440500
868.583954	2728.860596
868.895755	2710.208327
869.207515	2725.331788
869.519233	2718.526231
869.830909	2706.259423
870.142542	2724.323558
870.454134	2719.702500
870.765684	2722.727192
871.077191	2724.911692
871.388657	2726.340019
871.700081	2731.297154
872.011463	2743.311904
872.322803	2741.211423
872.634101	2749.193250
872.945357	2741.883577
873.256571	2752.806077
873.567744	2765.913077
873.878874	2759.359577
874.189963	2750.957654
874.501010	2765.072885
874.812015	2767.677481
875.122979	2769.777962
875.433900	2770.450115
875.744780	2770.282077
876.055618	2760.115750
876.366415	2756.586942
876.677169	2764.148673
876.987882	2759.527615
877.298554	2765.913077
877.609183	2779.356154
877.919771	2778.599981
878.230317	2762.972404
878.540822	2796.496077
878.851285	2808.846904
879.161707	2825.986827
879.472087	2864.467635
879.782425	2928.322250
880.092722	3043.344577
880.402977	3305.232519
880.713191	3698.190462
881.023363	4242.971154
881.333494	4713.646885
881.643583	5006.621942
881.953631	5011.915154
882.263637	4885.382192
882.573602	4712.722673
882.883526	4519.646481
883.193408	4357.657404
883.503248	4184.913865
883.813048	4047.794481
884.122806	3900.928865
884.432522	3763.473404
884.742197	3616.607788
885.051831	3461.676327
885.361424	3328.337808
885.670975	3233.396077
885.980485	3140.470808
886.289954	3051.998558
886.599382	2998.478308
886.908768	2961.425827
887.218113	2905.721077
887.527417	2873.877788
887.836680	2857.326000
888.145901	2820.441558
888.455082	2811.535519
888.764221	2806.242308
889.073319	2777.507731
889.382376	2763.560538
889.691392	2768.013558
890.000366	2761.460058
890.309300	2743.732000
890.618193	2750.285500
890.927044	2759.863692
891.235855	2740.035154
891.544625	2743.563962
891.853353	2741.043385
892.162041	2767.677481
892.470687	2772.382558
892.779293	2784.817404
893.087858	2802.461442
893.396381	2841.530385
893.704864	2895.890827
894.013306	2966.971096
894.321707	3079.052750
894.630068	3168.281173
894.938387	3194.663212
895.246665	3199.284269
895.554903	3165.004423
895.863100	3111.484173
896.171256	3075.691981
896.479371	3018.222827
896.787446	2988.311981
897.095480	2978.649769
897.403473	2927.650096
897.711425	2908.997827
898.019336	2888.749192
898.327207	2857.157962
898.635038	2825.062615
898.942827	2811.367481
899.250576	2793.555404
899.558284	2780.952519
899.865952	2759.863692
900.173579	2761.292019
900.481165	2736.674385
900.788711	2747.596885
901.096216	2731.717250
901.403681	2730.793038
901.711105	2712.140769
902.018489	2704.326981
902.325832	2721.466904
902.633135	2705.251192
902.940397	2713.401058
903.247619	2761.628096
903.554800	2847.075654
903.861941	2983.942981
904.169041	3125.851462
904.476101	3243.982500
904.783121	3250.199923
905.090100	3209.954712
905.397039	3147.276365
905.703938	3102.074019
906.010796	3041.580173
906.317614	3001.082904
906.624391	2952.855865
906.931129	2904.040692
907.237826	2891.185750
907.544483	2851.780731
907.851099	2816.324615
908.157675	2794.647654
908.464211	2753.478231
908.770707	2726.928154
909.077163	2711.384596
909.383578	2693.320462
909.689954	2685.590692
909.996289	2659.208654
910.302584	2671.643500
910.608839	2657.192192
910.915054	2656.940135
911.221229	2658.368462
911.527363	2659.124635
911.833458	2665.678135
912.139513	2644.337250
912.445527	2658.788558
912.751502	2655.007692
913.057436	2658.200423
913.363331	2677.356808
913.669186	2687.355096
913.975000	2680.717577
914.280775	2706.847558
914.586510	2737.346538
914.892205	2783.305058
915.197859	2863.375385
915.503475	2945.714231
915.809050	3039.563712
916.114585	3132.068885
916.420081	3153.073692
916.725536	3157.862788
917.030952	3161.307577
917.336328	3131.732808
917.641665	3091.487596
917.946961	3070.398769
918.252218	3036.202942
918.557435	3007.384346
918.862612	2973.860673
919.167750	2948.738923
919.472848	2906.981365
919.777906	2875.894250
920.082925	2877.742673
920.387904	2830.187788
920.692843	2794.647654
920.997743	2765.997096
921.302603	2736.590365
921.607423	2726.844135
921.912204	2710.040288
922.216946	2695.841038
922.521647	2699.369846
922.826310	2680.549538
923.130932	2664.417846
923.435516	2680.045423
923.740059	2671.307423
924.044564	2652.319077
924.349028	2645.429500
924.653454	2639.884231
924.957840	2649.714481
925.262186	2640.808442
925.566493	2650.722712
925.870761	2647.361942
926.174989	2618.627365
926.479178	2634.675038
926.783328	2632.742596
927.087438	2632.658577
927.391509	2624.508712
927.695541	2626.105077
927.999533	2614.678462
928.303486	2610.057404
928.607400	2616.862962
928.911275	2611.737788
929.215110	2609.385250
929.518906	2622.996365
929.822663	2614.174346
930.126381	2604.596154
930.430060	2599.218923
930.733699	2616.358846
931.037299	2614.342385
931.340861	2615.854731
931.644383	2627.197327
931.947866	2619.635596
932.251309	2605.856442
932.554714	2608.965154
932.858080	2605.100269
933.161407	2602.159596
933.464694	2632.490538
933.767943	2606.864673
934.071153	2608.377019
934.374323	2600.815288
934.677455	2609.133192
934.980548	2614.342385
935.283602	2589.808769
935.586617	2591.237096
935.889593	2594.849923
936.192530	2608.208981
936.495428	2606.024481
936.798287	2596.950404
937.101108	2618.627365
937.403890	2594.849923
937.706632	2595.858154
938.009336	2617.871192
938.312002	2607.200750
938.614628	2624.508712
938.917216	2638.119827
939.219765	2617.283058
939.522275	2645.345481
939.824747	2645.597538
940.127179	2621.063923
940.429573	2633.750827
940.731929	2629.297808
941.034246	2637.783750
941.336524	2650.554673
941.638763	2627.533404
941.940964	2644.337250
942.243126	2645.177442
942.545250	2633.162692
942.847335	2627.197327
943.149381	2622.240192
943.451389	2617.115019
943.753359	2627.281346
944.055290	2616.610904
944.357182	2618.291288
944.659036	2618.795404
944.960851	2627.533404
945.262628	2613.250135
945.564367	2611.905827
945.866067	2612.493962
946.167729	2611.653769
946.469352	2605.352327
946.770937	2611.401712
947.072484	2625.096846
947.373992	2628.121538
947.675462	2604.344096
947.976893	2623.416462
948.278286	2612.746019
948.579641	2624.592731
948.880958	2604.596154
949.182236	2623.668519
949.483476	2615.854731
949.784678	2605.016250
950.085841	2614.426404
950.386967	2617.787173
950.688054	2603.839981
950.989103	2609.133192
951.290114	2623.836558
951.591087	2615.686692
951.892021	2607.620846
952.192917	2619.047462
952.493776	2618.291288
952.794596	2625.348904
953.095378	2622.072154
953.396122	2629.381827
953.696828	2619.887654
953.997496	2630.222019
954.298126	2617.031000
954.598718	2615.686692
954.899272	2624.844788
955.199788	2620.811865
955.500266	2631.146231
955.800706	2610.477500
956.101108	2592.161308
956.401472	2611.401712
956.701798	2601.739500
957.002087	2597.454519
957.302337	2606.444577
957.602550	2596.614327
957.902724	2608.293000
958.202861	2599.134904
958.502960	2602.411654
958.803022	2596.278250
959.103045	2590.228865
959.403031	2587.540250
959.702979	2583.591346
960.002889	2582.919192
960.302762	2577.121865
960.602596	2573.088942
960.902393	2586.027904
961.202153	2571.996692
961.501875	2589.808769
961.801559	2591.069058
962.101205	2588.800538
962.400814	2579.810481
962.700385	2583.843404
962.999918	2581.490865
963.299414	2581.910962
963.598873	2579.306365
963.898293	2581.322827
964.197677	2586.027904
964.497022	2586.700058
964.796331	2575.609519
965.095601	2587.876327
965.394835	2579.306365
965.694030	2591.321115
965.993189	2567.039558
966.292309	2573.593058
966.591393	2577.962058
966.890439	2575.693538
967.189447	2583.339288
967.488419	2559.141750
967.787353	2597.622558
968.086249	2583.507327
968.385108	2587.288192
968.683930	2575.357462
968.982714	2573.425019
969.281462	2579.558423
969.580172	2577.289904
969.878844	2586.868096
970.177480	2594.513846
970.476078	2574.181192
970.774639	2581.994981
971.073162	2570.316308
971.371649	2573.677077
971.670098	2582.583115
971.968510	2587.792308
972.266885	2577.289904
972.565223	2582.751154
972.863524	2583.759385
973.161788	2584.515558
973.460014	2572.752865
973.758204	2601.907538
974.056356	2584.095462
974.354471	2603.671942
974.652550	2587.624269
974.950591	2586.195942
975.248595	2591.237096
975.546563	2593.169538
975.844493	2592.665423
976.142386	2586.532019
976.440243	2580.902731
976.738062	2586.616038
977.035845	2583.171250
977.333590	2573.004923
977.631299	2580.062538
977.928971	2586.784077
978.226606	2574.097173
978.524204	2588.968577
978.821765	2589.724750
979.119290	2574.349231
979.416777	2579.726462
979.714228	2585.775846
980.011642	2581.994981
980.309020	2581.406846
980.606360	2585.523788
980.903664	2600.899308
981.200931	2591.321115
981.498162	2582.835173
981.795356	2595.354038
982.092513	2594.345808
982.389633	2588.548481
982.686717	2611.821808
982.983764	2615.686692
983.280775	2620.895885
983.577749	2623.584500
983.874686	2630.810154
984.171587	2630.642115
984.468451	2638.455904
984.765279	2624.340673
985.062070	2621.568038
985.358824	2626.693212
985.655543	2605.016250
985.952224	2610.477500
986.248869	2611.065635
986.545478	2592.917481
986.842050	2599.218923
987.138586	2583.507327
987.435086	2597.454519
987.731549	2584.935654
988.027975	2580.566654
988.324366	2592.665423
988.620719	2583.927423
988.917037	2573.341000
989.213318	2571.324538
989.509563	2565.275154
989.805772	2576.953827
990.101944	2578.718231
990.398080	2581.742923
990.694180	2573.509038
990.990244	2580.146558
991.286271	2577.289904
991.582262	2577.037846
991.878217	2579.726462
992.174136	2577.373923
992.470019	2574.181192
992.765865	2587.120154
993.061676	2572.500808
993.357450	2573.341000
993.653188	2562.250462
993.948890	2577.878038
994.244556	2576.869808
994.540186	2590.060827
994.835780	2578.802250
995.131337	2583.087231
995.426859	2576.365692
995.722345	2586.111923
996.017795	2595.858154
996.313208	2602.663712
996.608586	2610.813577
996.903928	2598.378731
997.199234	2608.545058
997.494504	2606.192519
997.789738	2601.319404
998.084936	2595.690115
998.380099	2592.917481
998.675225	2603.839981
998.970316	2595.354038
999.265371	2599.555000
999.560390	2576.533731
999.855373	2608.797115
1000.150320	2589.640731
1000.445232	2586.952115
1000.740108	2581.574885
1001.034948	2576.785788
1001.329752	2571.744635
1001.624521	2572.332769
1001.919254	2587.204173
1002.213951	2580.650673
1002.508613	2575.525500
1002.803239	2571.744635
1003.097829	2570.988462
1003.392384	2562.922615
1003.686903	2570.820423
1003.981386	2575.105404
1004.275834	2572.752865
1004.570246	2560.654096
1004.864623	2587.624269
1005.158964	2563.930846
1005.453270	2586.784077
1005.747540	2575.273442
1006.041775	2566.367404
1006.335974	2576.197654
1006.630138	2586.279962
1006.924266	2583.087231
1007.218359	2570.988462
1007.512416	2563.846827
1007.806438	2573.761096
1008.100425	2566.283385
1008.394376	2576.197654
1008.688292	2555.360885
1008.982172	2573.004923
1009.276017	2580.230577
1009.569827	2567.543673
1009.863602	2559.561846
1010.157341	2560.318019
1010.451045	2571.576596
1010.744714	2566.535442
1011.038347	2568.719942
1011.331945	2567.711712
1011.625508	2576.617750
1011.919036	2587.372212
1012.212528	2573.929135
1012.505986	2583.843404
1012.799408	2578.550192
1013.092795	2568.047788
1013.386147	2580.482635
1013.679464	2570.988462
1013.972745	2567.207596
1014.265992	2580.986750
1014.559204	2557.545385
1014.852380	2579.642442
1015.145521	2585.523788
1015.438628	2569.644154
1015.731699	2573.845115
1016.024736	2571.912673
1016.317737	2576.533731
1016.610703	2587.036135
1016.903635	2568.299846
1017.196531	2566.535442
1017.489393	2576.533731
1017.782219	2559.729885
1018.075011	2570.820423
1018.367768	2562.586538
1018.660490	2577.205885
1018.953177	2577.205885
1019.245829	2577.205885
