Dividing Wavelength (nm)	Counts (n)	Slit_number_3_of_a_total_of_40	
326.493990	2153.160827
326.888308	2153.160827
327.282561	2153.160827
327.676750	2141.062058
328.070874	2135.348750
328.464933	2155.597385
328.858929	2159.462269
329.252859	2154.421115
329.646726	2178.702673
330.040528	2187.860769
330.434265	2187.608712
330.827938	2221.048365
331.221547	2250.959212
331.615091	2262.721904
332.008571	2277.677327
332.401986	2288.851885
332.795338	2340.607731
333.188625	2364.553212
333.581847	2373.795327
333.975006	2378.584423
334.368100	2402.950000
334.761129	2416.813173
335.154095	2442.186981
335.546996	2463.527865
335.939833	2492.010385
336.332606	2492.010385
336.725315	2525.786115
337.117960	2533.011769
337.510540	2537.464788
337.903056	2539.649288
338.295508	2543.178096
338.687896	2558.385577
339.080220	2560.822135
339.472480	2560.906154
339.864676	2570.064250
340.256807	2588.632500
340.648875	2567.627692
341.040879	2561.662327
341.432818	2569.728173
341.824694	2565.947308
342.216506	2587.540250
342.608253	2571.156500
342.999937	2575.441481
343.391557	2571.324538
343.783113	2567.879750
344.174605	2561.662327
344.566033	2570.904442
344.957397	2550.067673
345.348697	2552.252173
345.739934	2558.385577
346.131106	2562.502519
346.522215	2551.243942
346.913260	2568.719942
347.304241	2535.784404
347.695159	2557.377346
348.086012	2559.813904
348.476802	2533.599904
348.867528	2559.309788
349.258191	2536.036462
349.648789	2547.295038
350.039324	2533.767942
350.429796	2557.881462
350.820203	2546.958962
351.210548	2527.886596
351.600828	2561.998404
351.991045	2553.428442
352.381198	2538.977135
352.771288	2532.843731
353.161314	2548.051212
353.551276	2530.323154
353.941175	2540.741538
354.331010	2551.243942
354.720782	2534.860192
355.110490	2533.179808
355.500135	2537.464788
355.889717	2543.934269
356.279235	2549.395519
356.668689	2548.975423
357.058080	2547.295038
357.447408	2532.927750
357.836672	2540.825558
358.225873	2546.202788
358.615010	2549.815615
359.004084	2546.454846
359.393095	2549.815615
359.782043	2544.102308
360.170927	2547.211019
360.559748	2541.329673
360.948505	2549.311500
361.337199	2550.067673
361.725830	2530.323154
362.114398	2563.846827
362.502903	2550.319731
362.891344	2549.479538
363.279722	2560.570077
363.668037	2549.983654
364.056289	2553.512462
364.444478	2546.118769
364.832603	2557.797442
365.220665	2558.133519
365.608665	2552.672269
365.996601	2546.622885
366.384474	2543.346135
366.772284	2560.654096
367.160031	2549.731596
367.547715	2551.075904
367.935336	2547.547096
368.322893	2561.578308
368.710388	2555.444904
369.097820	2546.370827
369.485189	2546.958962
369.872495	2552.168154
370.259738	2562.166442
370.646918	2571.912673
371.034035	2560.318019
371.421090	2555.192846
371.808081	2546.370827
372.195010	2552.168154
372.581875	2549.647577
372.968678	2555.696962
373.355418	2561.326250
373.742096	2554.772750
374.128710	2557.209308
374.515262	2552.084135
374.901751	2555.528923
375.288177	2547.379058
375.674540	2562.166442
376.060841	2558.049500
376.447079	2542.421923
376.833254	2557.965481
377.219367	2551.664038
377.605417	2551.832077
377.991404	2544.774462
378.377329	2547.715135
378.763191	2563.594769
379.148991	2561.998404
379.534727	2569.056019
379.920402	2556.789212
380.306013	2571.660615
380.691563	2549.059442
381.077049	2567.627692
381.462474	2541.161635
381.847835	2567.207596
382.233134	2549.563558
382.618371	2568.803962
383.003545	2564.939077
383.388657	2556.285096
383.773706	2565.527212
384.158693	2548.975423
384.543618	2565.107115
384.928480	2565.023096
385.313280	2571.828654
385.698017	2574.013154
386.082692	2575.525500
386.467305	2552.588250
386.851856	2567.543673
387.236344	2572.668846
387.620770	2574.265212
388.005133	2567.123577
388.389435	2568.215827
388.773674	2565.023096
389.157851	2562.082423
389.541965	2576.113635
389.926018	2578.466173
390.310008	2568.131808
390.693936	2552.420212
391.077802	2553.764519
391.461606	2564.014865
391.845348	2568.803962
392.229027	2557.797442
392.612645	2573.341000
392.996200	2560.486058
393.379694	2568.131808
393.763125	2570.316308
394.146494	2571.324538
394.529801	2563.510750
394.913047	2569.896212
395.296230	2570.568365
395.679351	2556.537154
396.062410	2567.963769
396.445408	2575.105404
396.828343	2578.130096
397.211217	2572.332769
397.594028	2571.828654
397.976778	2573.509038
398.359466	2584.431538
398.742092	2583.591346
399.124656	2577.541962
399.507158	2580.902731
399.889598	2577.794019
400.271977	2566.031327
400.654294	2578.046077
401.036549	2582.499096
401.418742	2566.199365
401.800874	2571.912673
402.182944	2572.836885
402.564952	2570.232288
402.946898	2565.527212
403.328783	2556.117058
403.710606	2587.708288
404.092367	2575.273442
404.474067	2583.339288
404.855705	2566.955538
405.237282	2572.248750
405.618797	2593.337577
406.000250	2566.703481
406.381642	2578.802250
406.762972	2578.046077
407.144240	2579.222346
407.525447	2574.685308
407.906593	2567.963769
408.287677	2577.457942
408.668700	2577.289904
409.049661	2572.332769
409.430560	2584.095462
409.811399	2581.910962
410.192176	2594.597865
410.572891	2587.204173
410.953545	2586.279962
411.334138	2580.230577
411.714669	2588.716519
412.095139	2570.484346
412.475547	2577.878038
412.855894	2578.886269
413.236180	2573.593058
413.616405	2595.522077
413.996568	2570.064250
414.376670	2572.248750
414.756711	2588.968577
415.136691	2569.308077
415.516609	2575.777558
415.896466	2579.978519
416.276262	2579.726462
416.655997	2558.973712
417.035670	2583.507327
417.415283	2594.009731
417.794834	2575.105404
418.174324	2580.314596
418.553753	2574.601288
418.933121	2586.363981
419.312428	2586.616038
419.691674	2591.909250
420.070859	2578.214115
420.449983	2590.144846
420.829045	2574.853346
421.208047	2580.986750
421.586988	2567.879750
421.965867	2583.255269
422.344686	2558.805673
422.723444	2578.886269
423.102141	2572.164731
423.480777	2591.069058
423.859352	2588.128385
424.237866	2589.388673
424.616319	2580.902731
424.994712	2572.164731
425.373044	2579.558423
425.751314	2583.591346
426.129524	2592.833462
426.507673	2579.054308
426.885762	2569.560135
427.263789	2577.037846
427.641756	2590.396904
428.019662	2577.710000
428.397508	2567.543673
428.775292	2585.943885
429.153016	2592.413365
429.530679	2589.556712
429.908282	2579.978519
430.285824	2578.718231
430.663305	2584.095462
431.040726	2583.507327
431.418086	2581.070769
431.795385	2586.616038
432.172624	2571.156500
432.549802	2577.962058
432.926920	2578.298135
433.303977	2580.566654
433.680974	2580.314596
434.057910	2575.693538
434.434786	2588.800538
434.811601	2578.718231
435.188355	2583.507327
435.565050	2570.148269
435.941683	2592.245327
436.318257	2574.265212
436.694770	2580.650673
437.071222	2596.950404
437.447614	2580.650673
437.823946	2587.120154
438.200218	2578.466173
438.576429	2596.110212
438.952580	2586.868096
439.328670	2603.924000
439.704700	2590.817000
440.080670	2582.079000
440.456580	2599.302942
440.832429	2575.945596
441.208218	2606.360558
441.583947	2600.059115
441.959616	2605.604385
442.335224	2589.556712
442.710773	2590.480923
443.086261	2581.490865
443.461689	2587.036135
443.837057	2590.480923
444.212365	2584.515558
444.587612	2581.574885
444.962800	2573.929135
445.337927	2595.690115
445.712995	2580.566654
446.088002	2592.917481
446.462949	2569.980231
446.837837	2579.390385
447.212664	2590.060827
447.587431	2588.044365
447.962139	2591.069058
448.336786	2588.380442
448.711374	2580.314596
449.085901	2595.774135
449.460369	2581.994981
449.834776	2582.331058
450.209124	2594.261788
450.583412	2592.161308
450.957640	2585.943885
451.331808	2589.556712
451.705917	2573.509038
452.079965	2578.046077
452.453954	2592.161308
452.827883	2590.228865
453.201752	2607.368788
453.575562	2585.859865
453.949311	2602.915769
454.323001	2588.296423
454.696632	2585.607808
455.070202	2589.472692
455.443713	2574.685308
455.817164	2590.901019
456.190556	2588.884558
456.563888	2599.386962
456.937160	2600.899308
457.310373	2589.472692
457.683526	2572.668846
458.056619	2582.079000
458.429653	2589.472692
458.802628	2593.421596
459.175542	2589.724750
459.548398	2582.415077
459.921194	2583.423308
460.293930	2589.136615
460.666607	2590.901019
461.039224	2574.769327
461.411782	2596.782365
461.784280	2582.667135
462.156719	2597.118442
462.529099	2578.298135
462.901419	2594.261788
463.273680	2575.861577
463.645882	2585.439769
464.018024	2588.716519
464.390106	2588.548481
464.762130	2586.616038
465.134094	2589.556712
465.505999	2594.429827
465.877845	2575.189423
466.249631	2598.210692
466.621358	2578.718231
466.993026	2594.093750
467.364634	2604.848212
467.736184	2585.943885
468.107674	2590.901019
468.479105	2588.884558
468.850477	2592.749442
469.221790	2603.335865
469.593043	2578.802250
469.964238	2589.472692
470.335373	2588.632500
470.706449	2585.439769
471.077467	2584.767615
471.448425	2586.363981
471.819324	2590.060827
472.190164	2578.718231
472.560945	2598.462750
472.931667	2596.698346
473.302330	2597.202462
473.672934	2603.083808
474.043479	2576.533731
474.413965	2594.429827
474.784393	2608.377019
475.154761	2596.782365
475.525070	2570.736404
475.895321	2583.759385
476.265513	2580.062538
476.635645	2592.497385
477.005719	2585.019673
477.375734	2582.247038
477.745691	2600.227154
478.115588	2590.564942
478.485427	2593.589635
478.855207	2596.110212
479.224928	2597.370500
479.594591	2576.449712
479.964194	2591.237096
480.333739	2584.599577
480.703226	2598.714808
481.072653	2590.901019
481.442022	2601.739500
481.811333	2591.909250
482.180584	2579.054308
482.549777	2590.396904
482.918912	2587.540250
483.287988	2603.167827
483.657005	2575.189423
484.025964	2591.069058
484.394864	2600.815288
484.763706	2583.843404
485.132489	2580.146558
485.501213	2601.571462
485.869879	2583.591346
486.238487	2603.251846
486.607036	2592.245327
486.975527	2605.520365
487.343959	2595.101981
487.712333	2592.161308
488.080648	2603.924000
488.448905	2586.784077
488.817104	2599.639019
489.185244	2598.714808
489.553326	2602.243615
489.921350	2609.889365
490.289315	2597.286481
490.657222	2576.953827
491.025070	2603.251846
491.392861	2594.093750
491.760593	2591.573173
492.128267	2595.354038
492.495883	2593.841692
492.863440	2602.495673
493.230939	2601.739500
493.598380	2591.909250
493.965763	2591.069058
494.333088	2597.958635
494.700354	2596.782365
495.067563	2598.126673
495.434713	2593.757673
495.801805	2602.999788
496.168839	2601.823519
496.535815	2596.950404
496.902733	2596.110212
497.269593	2580.398615
497.636395	2579.054308
498.003139	2600.059115
498.369825	2591.573173
498.736453	2598.798827
499.103023	2605.856442
499.469535	2591.993269
499.835989	2596.530308
500.202385	2596.194231
500.568723	2595.606096
500.935003	2599.723038
501.301226	2601.571462
501.667390	2597.622558
502.033497	2594.345808
502.399546	2599.639019
502.765537	2576.365692
503.131470	2589.640731
503.497345	2592.329346
503.863163	2575.693538
504.228923	2605.100269
504.594625	2591.153077
504.960269	2601.907538
505.325856	2608.713096
505.691385	2601.487442
506.056856	2585.355750
506.422270	2592.581404
506.787625	2581.490865
507.152924	2605.016250
507.518164	2606.696635
507.883347	2596.446288
508.248472	2575.105404
508.613540	2607.032712
508.978550	2601.235385
509.343503	2607.956923
509.708398	2602.747731
510.073236	2593.337577
510.438016	2597.286481
510.802738	2594.093750
511.167403	2589.976808
511.532010	2620.811865
511.896561	2602.075577
512.261053	2594.177769
512.625488	2595.858154
512.989866	2598.882846
513.354186	2586.700058
513.718449	2611.905827
514.082655	2602.495673
514.446803	2612.157885
514.810894	2595.522077
515.174927	2598.378731
515.538904	2600.899308
515.902822	2593.841692
516.266684	2594.849923
516.630488	2591.825231
516.994235	2599.975096
517.357925	2580.482635
517.721558	2595.606096
518.085133	2607.452808
518.448651	2603.503904
518.812112	2611.905827
519.175516	2604.932231
519.538863	2582.919192
519.902152	2595.438058
520.265385	2596.194231
520.628560	2592.077288
520.991678	2596.194231
521.354739	2600.647250
521.717743	2591.741212
522.080690	2605.688404
522.443580	2591.909250
522.806413	2610.393481
523.169189	2588.380442
523.531908	2582.415077
523.894569	2598.378731
524.257174	2610.813577
524.619722	2618.711385
524.982213	2577.289904
525.344647	2603.839981
525.707025	2599.975096
526.069345	2607.200750
526.431608	2592.497385
526.793815	2590.144846
527.155964	2610.309462
527.518057	2601.991558
527.880093	2599.891077
528.242072	2601.235385
528.603995	2581.658904
528.965860	2609.889365
529.327669	2600.647250
529.689421	2605.772423
530.051117	2607.368788
530.412755	2596.698346
530.774337	2597.874615
531.135862	2594.177769
531.497331	2598.126673
531.858743	2606.024481
532.220098	2615.098558
532.581396	2627.953500
532.942638	2610.057404
533.303824	2610.225442
533.664953	2608.377019
534.026025	2618.039231
534.387040	2613.586212
534.747999	2595.438058
535.108902	2612.241904
535.469748	2623.836558
535.830537	2618.375308
536.191270	2617.703154
536.551947	2617.703154
536.912567	2618.795404
537.273131	2626.693212
537.633638	2621.988135
537.994089	2595.186000
538.354483	2609.553288
538.714821	2617.367077
539.075103	2624.676750
539.435328	2605.856442
539.795497	2599.639019
540.155609	2603.335865
540.515665	2613.082096
540.875665	2616.526885
541.235609	2610.981615
541.595496	2602.495673
541.955328	2613.082096
542.315102	2615.686692
542.674821	2618.207269
543.034483	2619.803635
543.394090	2623.584500
543.753640	2615.266596
544.113134	2617.787173
544.472571	2611.065635
544.831953	2610.225442
545.191278	2605.688404
545.550548	2616.610904
545.909761	2615.434635
546.268918	2626.441154
546.628019	2611.569750
546.987064	2604.176058
547.346053	2619.887654
547.704986	2619.635596
548.063863	2610.141423
548.422684	2601.907538
548.781449	2618.963442
549.140158	2631.230250
549.498811	2617.703154
549.857408	2617.451096
550.215949	2634.675038
550.574434	2614.930519
550.932864	2617.367077
551.291237	2623.248423
551.649555	2629.885942
552.007817	2613.670231
552.366022	2630.053981
552.724173	2619.719615
553.082267	2619.887654
553.440305	2624.088615
553.798288	2626.273115
554.156215	2629.213788
554.514086	2629.297808
554.871902	2625.432923
555.229661	2631.650346
555.587365	2608.965154
555.945014	2627.869481
556.302606	2607.284769
556.660143	2632.154462
557.017625	2638.119827
557.375050	2625.096846
557.732421	2618.375308
558.089735	2620.139712
558.446994	2609.721327
558.804197	2619.467558
559.161345	2616.022769
559.518437	2632.322500
559.875474	2635.683269
560.232455	2633.078673
560.589381	2615.434635
560.946251	2613.670231
561.303065	2628.373596
561.659825	2638.035808
562.016528	2615.266596
562.373177	2626.273115
562.729770	2620.055692
563.086307	2613.082096
563.442789	2603.924000
563.799216	2622.324212
564.155587	2632.826615
564.511904	2619.887654
564.868164	2626.273115
565.224370	2634.507000
565.580520	2634.507000
565.936615	2624.592731
566.292654	2609.553288
566.648638	2623.668519
567.004567	2620.643827
567.360441	2631.398288
567.716260	2616.778942
568.072023	2636.607481
568.427732	2622.828327
568.783385	2632.490538
569.138982	2635.011115
569.494525	2629.381827
569.850013	2620.139712
570.205445	2614.762481
570.560823	2639.548154
570.916145	2626.777231
571.271412	2624.256654
571.626625	2644.673327
571.981782	2631.902404
572.336884	2626.273115
572.691931	2637.615712
573.046923	2638.371885
573.401860	2636.019346
573.756743	2635.011115
574.111570	2621.988135
574.466342	2628.037519
574.821059	2631.062212
575.175722	2626.105077
575.530330	2621.568038
575.884882	2634.675038
576.239380	2626.777231
576.593823	2641.312558
576.948211	2652.907212
577.302544	2620.727846
577.656823	2625.348904
578.011047	2626.525173
578.365216	2644.841365
578.719330	2617.115019
579.073389	2625.684981
579.427394	2617.451096
579.781344	2624.172635
580.135239	2625.937038
580.489080	2626.441154
580.842866	2643.665096
581.196597	2631.986423
581.550273	2620.139712
581.903895	2628.877712
582.257463	2625.180865
582.610975	2627.533404
582.964434	2625.348904
583.317837	2629.045750
583.671186	2637.111596
584.024481	2629.801923
584.377721	2621.988135
584.730906	2633.246712
585.084037	2632.154462
585.437113	2630.978192
585.790135	2639.212077
586.143103	2612.914058
586.496016	2620.391769
586.848874	2627.953500
587.201679	2606.612615
587.554428	2635.179154
587.907124	2625.684981
588.259765	2624.004596
588.612352	2622.744308
588.964884	2624.424692
589.317362	2634.254942
589.669786	2643.076962
590.022155	2630.558096
590.374470	2627.953500
590.726731	2638.203846
591.078937	2629.465846
591.431090	2632.826615
591.783188	2634.254942
592.135232	2642.572846
592.487222	2631.146231
592.839157	2644.253231
593.191038	2627.029288
593.542866	2624.676750
593.894639	2635.263173
594.246358	2615.350615
594.598022	2631.986423
594.949633	2630.222019
595.301190	2627.113308
595.652692	2628.037519
596.004141	2624.676750
596.355535	2630.642115
596.706876	2618.459327
597.058162	2632.658577
597.409395	2612.998077
597.760573	2628.541635
598.111698	2626.021058
598.462768	2625.096846
598.813785	2619.131481
599.164748	2637.195615
599.515657	2613.418173
599.866511	2621.736077
600.217312	2615.014538
600.568060	2639.464135
600.918753	2641.984712
601.269392	2627.365365
601.619978	2626.693212
601.970510	2640.976481
602.320988	2618.795404
602.671412	2632.490538
603.021783	2634.507000
603.372100	2635.263173
603.722363	2627.281346
604.072572	2632.322500
604.422728	2635.515231
604.772830	2632.742596
605.122878	2634.170923
605.472872	2636.187385
605.822813	2630.053981
606.172701	2625.600962
606.522534	2630.138000
606.872314	2626.189096
607.222041	2624.340673
607.571714	2626.861250
607.921333	2618.543346
608.270899	2632.994654
608.620411	2629.549865
608.969870	2616.610904
609.319276	2629.129769
609.668627	2628.625654
610.017926	2650.134577
610.367171	2636.943558
610.716362	2649.042327
611.065500	2640.724423
611.414585	2625.264885
611.763616	2626.777231
612.112594	2627.029288
612.461518	2627.365365
612.810389	2636.019346
613.159207	2640.052269
613.507971	2621.063923
613.856682	2633.834846
614.205340	2648.118115
614.553945	2637.699731
614.902496	2636.439442
615.250994	2620.307750
615.599439	2648.202135
615.947830	2637.279635
616.296169	2639.716192
616.644454	2629.045750
616.992686	2658.200423
617.340864	2645.513519
617.688990	2637.447673
618.037063	2638.119827
618.385082	2650.722712
618.733048	2636.187385
619.080961	2650.554673
619.428821	2645.177442
619.776628	2645.681558
620.124382	2645.345481
620.472083	2654.167500
620.819731	2646.353712
621.167326	2645.513519
621.514868	2637.699731
621.862357	2642.404808
622.209793	2640.724423
622.557176	2648.202135
622.904506	2644.505288
623.251783	2659.292673
623.599007	2643.245000
623.946179	2648.034096
624.293297	2655.511808
624.640363	2638.791981
624.987376	2652.739173
625.334336	2645.429500
625.681243	2638.623942
626.028097	2647.445962
626.374899	2653.243288
626.721647	2659.544731
627.068343	2640.388346
627.414987	2648.202135
627.761577	2643.581077
628.108115	2654.419558
628.454600	2655.175731
628.801032	2644.253231
629.147412	2647.614000
629.493739	2649.042327
629.840014	2661.645212
630.186236	2666.518327
630.532405	2656.436019
630.878521	2672.735750
631.224585	2651.730942
631.570597	2654.335538
631.916556	2652.067019
632.262462	2652.739173
632.608316	2659.880808
632.954117	2670.131154
633.299866	2664.585885
633.645562	2660.132865
633.991206	2662.317365
634.336797	2662.653442
634.682336	2654.839654
635.027823	2666.770385
635.373257	2663.073538
635.718639	2656.436019
636.063968	2648.538212
636.409245	2644.589308
636.754470	2671.727519
637.099642	2670.887327
637.444762	2665.510096
637.789829	2674.416135
638.134845	2674.836231
638.479808	2656.856115
638.824719	2659.544731
639.169577	2682.818058
639.514383	2664.753923
639.859137	2674.668192
640.203839	2660.552962
640.548489	2670.383212
640.893086	2655.427788
641.237632	2665.510096
641.582125	2666.518327
641.926566	2668.198712
642.270955	2656.604058
642.615292	2669.711058
642.959576	2676.432596
643.303809	2678.281019
643.647990	2680.297481
643.992118	2683.574231
644.336195	2667.610577
644.680219	2692.816346
645.024192	2686.682942
645.368112	2705.755308
645.711981	2685.842750
646.055797	2707.855788
646.399562	2682.986096
646.743274	2693.908596
647.086935	2711.468615
647.430544	2705.251192
647.774101	2711.552635
648.117606	2699.285827
648.461059	2722.979250
648.804460	2733.733712
649.147810	2729.616769
649.491108	2722.727192
649.834354	2717.686038
650.177548	2717.181923
650.520690	2698.865731
650.863781	2721.046808
651.206820	2726.087962
651.549807	2725.331788
651.892742	2709.872250
652.235626	2718.106135
652.578458	2727.516288
652.921238	2734.994000
653.263967	2735.078019
653.606644	2727.096192
653.949269	2741.799558
654.291843	2726.424038
654.634365	2730.709019
654.976836	2738.270750
655.319255	2721.382885
655.661622	2747.176788
656.003938	2736.590365
656.346203	2748.269038
656.688416	2736.926442
657.030577	2753.058135
657.372687	2751.713827
657.714746	2751.965885
658.056753	2769.777962
658.398708	2764.904846
658.740612	2747.092769
659.082465	2758.099288
659.424266	2769.357865
659.766016	2776.415481
660.107715	2781.708692
660.449362	2770.198058
660.790958	2775.995385
661.132503	2793.723442
661.473996	2769.693942
661.815438	2789.186404
662.156829	2806.158288
662.498168	2802.041346
662.839456	2784.061231
663.180693	2802.713500
663.521879	2816.324615
663.863013	2818.341077
664.204097	2805.402115
664.545129	2825.566731
664.886110	2818.257058
665.227040	2817.920981
665.567918	2823.802327
665.908746	2856.737865
666.249522	2843.042731
666.590248	2852.368865
666.930922	2858.922365
667.271545	2844.975173
667.612118	2871.525250
667.952639	2856.821885
668.293109	2891.017712
668.633528	2884.464212
668.973896	2891.941923
669.314213	2897.907288
669.654480	2899.671692
669.994695	2881.775596
670.334859	2902.948442
670.674973	2908.157635
671.015035	2911.602423
671.355047	2910.426154
671.695008	2922.861000
672.034918	2933.615462
672.374777	2947.142558
672.714585	2948.654904
673.054342	2950.503327
673.394049	2947.394615
673.733705	2956.552712
674.073310	2988.564038
674.412864	2974.448808
674.752368	2973.692635
675.091820	2981.338385
675.431223	2973.020481
675.770574	2985.539346
676.109875	2978.481731
676.449125	2984.867192
676.788324	2991.252654
677.127473	2984.279058
677.466571	2989.656288
677.805619	2995.621654
678.144616	2996.209788
678.483562	3008.644635
678.822458	2997.049981
679.161303	3012.677558
679.500098	3005.367885
679.838842	3031.833942
680.177535	3038.219404
680.516179	3042.588404
680.854771	3045.108981
681.193314	3074.935808
681.531805	3094.008173
681.870247	3132.404962
682.208638	3158.787000
682.546978	3178.111423
682.885268	3184.244827
683.223508	3198.696135
683.561697	3191.722538
683.899836	3208.274327
684.237925	3200.124462
684.575963	3212.475288
684.913951	3208.946481
685.251889	3205.501692
685.589776	3226.002385
685.927614	3242.302115
686.265401	3265.911519
686.603137	3277.254115
686.940824	3306.408788
687.278460	3325.649192
687.616046	3360.097077
687.953582	3383.034327
688.291068	3407.147846
688.628504	3425.548058
688.965889	3453.862538
689.303224	3453.778519
689.640510	3460.920154
689.977745	3451.594019
690.314930	3438.318981
690.652065	3431.429404
690.989150	3421.263077
691.326185	3393.872808
691.663170	3378.497288
692.000105	3367.406750
692.336990	3361.105308
692.673825	3350.014769
693.010610	3348.082327
693.347345	3329.598096
693.684030	3296.158442
694.020665	3325.649192
694.357251	3301.871750
694.693786	3315.146788
695.030272	3297.418731
695.366707	3281.959192
695.703093	3281.455077
696.039429	3306.912904
696.375716	3306.576827
696.711952	3311.954058
697.048139	3316.323058
697.384276	3318.339519
697.720363	3338.420115
698.056400	3363.541865
698.392388	3349.594673
698.728326	3369.759288
699.064214	3354.887885
699.400053	3382.362173
699.735842	3364.466077
700.071581	3355.476019
700.407270	3338.420115
700.742910	3361.861481
701.078501	3352.619365
701.414042	3354.635827
701.749533	3356.232192
702.084974	3336.403654
702.420366	3350.350846
702.755709	3344.889596
703.091002	3360.685212
703.426246	3352.283288
703.761440	3363.373827
704.096584	3343.209212
704.431679	3357.072385
704.766725	3360.097077
705.101721	3346.738019
705.436668	3369.171154
705.771565	3385.134808
706.106413	3397.653673
706.441212	3399.502096
706.775961	3412.693115
707.110661	3426.556288
707.445311	3457.643404
707.779913	3455.963019
708.114465	3496.292250
708.448967	3494.191769
708.783421	3557.290212
709.117825	3581.319712
709.452180	3600.308058
709.786485	3650.383519
710.120742	3684.159250
710.454949	3716.758712
710.789107	3764.649673
711.123216	3841.527269
711.457275	3872.110269
711.791286	3911.683327
712.125247	3955.037250
712.459159	3942.686423
712.793023	4009.901808
713.126837	3963.691231
713.460602	3995.618538
713.794318	3993.350019
714.127985	3980.327038
714.461602	3932.436077
714.795171	3942.854462
715.128691	3880.764250
715.462162	3841.863346
715.795584	3835.225827
716.128957	3820.186385
716.462281	3823.547154
716.795556	3814.052981
717.128782	3778.176769
717.461960	3739.527923
717.795088	3746.921615
718.128167	3738.351654
718.461198	3702.475442
718.794180	3706.172288
719.127113	3696.846154
719.459997	3691.552942
719.792833	3675.337231
720.125619	3701.635250
720.458357	3672.060481
720.791046	3667.943538
721.123686	3655.424673
721.456278	3652.988115
721.788821	3669.791962
722.121315	3661.474058
722.453761	3667.523442
722.786158	3662.902385
723.118506	3673.908904
723.450805	3679.790250
723.783056	3699.702808
724.115259	3719.195269
724.447412	3697.686346
724.779518	3746.921615
725.111574	3757.087942
725.443582	3779.185000
725.775542	3784.310173
726.107453	3822.622942
726.439315	3840.855115
726.771129	3881.856500
727.102895	3927.815019
727.434612	3942.098288
727.766281	3956.633615
728.097901	4012.758462
728.429473	4043.341462
728.760996	4039.056481
729.092471	4086.527346
729.423897	4095.769462
729.755276	4075.520827
730.086606	4088.039692
730.417887	4145.172769
730.749120	4195.416269
731.080305	4247.172115
731.411442	4289.601827
731.742530	4308.758212
732.073570	4322.453346
732.404562	4373.621058
732.735506	4385.803846
733.066401	4402.187596
733.397249	4394.205769
733.728048	4328.838808
734.058798	4278.343250
734.389501	4214.740692
734.720156	4142.568173
735.050762	4124.336000
735.381320	4093.837019
735.711831	4036.871981
736.042293	4024.269096
736.372707	4031.074654
736.703073	4008.557500
737.033391	4037.628154
737.363661	4039.644615
737.693883	4046.030077
738.024056	4082.410404
738.354182	4096.441615
738.684260	4150.634019
739.014290	4184.073673
739.344272	4213.732462
739.674207	4250.028769
740.004093	4294.811019
740.333931	4310.102519
740.663722	4326.066173
740.993464	4351.355962
741.323159	4341.441692
741.652806	4351.355962
741.982405	4320.184827
742.311956	4289.601827
742.641460	4306.909788
742.970915	4275.570615
743.300323	4251.121019
743.629683	4241.206750
743.958996	4207.935135
744.288260	4191.635404
744.617477	4160.968385
744.946647	4163.152885
745.275768	4144.584635
745.604842	4130.721462
745.933869	4094.845250
746.262847	4107.700192
746.591778	4113.245462
746.920662	4096.525635
747.249498	4096.273577
747.578286	4120.891212
747.907027	4127.948827
748.235720	4181.385058
748.564365	4192.139519
748.892963	4216.337058
749.221514	4208.271212
749.550017	4242.719096
749.878473	4233.140904
750.206881	4193.651865
750.535242	4202.305846
750.863555	4200.793500
751.191821	4171.470788
751.520039	4199.785269
751.848210	4224.234865
752.176334	4233.308942
752.504411	4185.670038
752.832440	4184.829846
753.160421	4230.788365
753.488356	4209.111404
753.816243	4205.162500
754.144082	4199.113115
754.471875	4170.546577
754.799620	4170.798635
755.127318	4192.727654
755.454969	4176.343904
755.782572	4196.592538
756.110129	4212.556192
756.437638	4199.449192
756.765100	4186.174154
757.092515	4191.887462
757.419882	4212.052077
757.747203	4188.442673
758.074477	4236.165596
758.401703	4244.819577
758.728882	4276.410808
759.056014	4258.178635
759.383099	4307.834000
759.710138	4343.122077
760.037129	4342.365904
760.364073	4358.917692
760.690970	4377.317904
761.017820	4370.848423
761.344623	4405.716404
761.671379	4446.717788
761.998088	4540.147173
762.324751	4700.371846
762.651366	5035.356519
762.977935	5594.756558
763.304456	6134.916192
763.630931	6467.548327
763.957359	6484.604231
764.283740	6294.216654
764.610074	6031.068423
764.936362	5705.493904
765.262602	5460.157750
765.588796	5157.268423
765.914943	4968.645250
766.241044	4733.643462
766.567097	4612.151654
766.893104	4425.460923
767.219064	4374.881346
767.544978	4294.054846
767.870845	4212.136096
768.196665	4189.786981
768.522438	4127.612750
768.848165	4106.691962
769.173846	4084.426865
769.499479	4077.033173
769.825066	4023.849000
770.150607	3994.610308
770.476101	3980.327038
770.801548	3981.167231
771.126949	3953.692942
771.452303	3921.345538
771.777611	3900.928865
772.102872	3931.175788
772.428087	3882.612673
772.753256	3864.044423
773.078378	3857.827000
773.403453	3817.917865
773.728482	3822.202846
774.053465	3803.970673
774.378401	3795.820808
774.703291	3784.562231
775.028135	3744.148981
775.352932	3769.858865
775.677683	3729.361596
776.002388	3718.271058
776.327046	3719.531346
776.651658	3712.977846
776.976224	3689.788538
777.300743	3716.086558
777.625216	3695.417827
777.949643	3683.403077
778.274024	3666.683250
778.598359	3661.726115
778.922647	3686.175712
779.246889	3669.455885
779.571086	3656.600942
779.895236	3670.212058
780.219339	3690.880788
780.543397	3677.689769
780.867409	3692.141077
781.191374	3692.729212
781.515294	3704.155827
781.839167	3719.195269
782.162995	3716.338615
782.486776	3696.089981
782.810511	3703.819750
783.134201	3700.374962
783.457844	3686.847865
783.781441	3691.048827
784.104993	3702.139365
784.428498	3705.332096
784.751958	3695.753904
785.075372	3678.193885
785.398739	3686.931885
785.722061	3706.004250
786.045337	3686.007673
786.368568	3717.598904
786.691752	3721.127712
787.014891	3763.725462
787.337983	3804.306750
787.661030	3893.535173
787.984031	3976.210096
788.306987	4096.777692
788.629897	4140.215635
788.952760	4170.714615
789.275579	4172.815096
789.598351	4145.508846
789.921078	4097.533865
790.243759	4027.041731
790.566395	3983.183692
790.888984	3941.678192
791.211529	3919.077019
791.534027	3856.314654
791.856480	3819.682269
792.178888	3807.499481
792.501249	3756.751865
792.823566	3758.180192
793.145836	3744.821135
793.468062	3750.366404
793.790241	3712.809808
794.112375	3722.135942
794.434464	3761.036846
794.756507	3749.274154
795.078505	3763.137327
795.400457	3799.097558
795.722364	3861.355808
796.044226	3875.891135
796.366042	3950.332173
796.687812	3955.205288
797.009538	4005.280750
797.331218	3984.948096
797.652852	4013.598654
797.974442	3976.210096
798.295986	3964.615442
798.617484	3944.198769
798.938938	3927.394923
799.260346	3934.788615
799.581709	3877.067404
799.903026	3888.241962
800.224299	3848.752923
800.545526	3792.628077
800.866708	3802.542346
801.187845	3776.496385
801.508936	3743.812904
801.829983	3772.295423
802.150984	3707.936692
802.471940	3692.225096
802.792851	3682.730923
803.113717	3685.923654
803.434538	3677.521731
803.755314	3676.933596
804.076045	3657.189077
804.396731	3638.368769
804.717372	3639.629058
805.037967	3653.324192
805.358518	3625.261769
805.679024	3653.492231
805.999485	3668.027558
806.319901	3653.072135
806.640272	3682.142788
806.960598	3677.353692
807.280879	3680.882500
807.601115	3682.310827
807.921306	3671.472346
808.241453	3682.562885
808.561554	3702.139365
808.881611	3702.559462
809.201623	3716.842731
809.521590	3702.559462
809.841513	3714.994308
810.161390	3732.134231
810.481223	3696.594096
810.801011	3687.520019
811.120755	3695.333808
811.440453	3665.254923
811.760107	3675.673308
812.079716	3686.931885
812.399281	3672.648615
812.718801	3666.179135
813.038276	3681.134558
813.357707	3658.281327
813.677093	3692.729212
813.996434	3656.096827
814.315731	3673.908904
814.634983	3661.726115
814.954191	3663.574538
815.273354	3712.137654
815.592473	3709.953154
815.911547	3745.409269
816.230577	3766.918192
816.549562	3787.838981
816.868502	3826.235769
817.187399	3850.097231
817.506250	3904.289635
817.825058	3926.638750
818.143821	4003.012231
818.462539	4067.454981
818.781213	4148.953635
819.099843	4246.836038
819.418429	4443.777115
819.736970	4639.121827
820.055466	4903.782404
820.373919	5216.838058
820.692327	5663.232231
821.010691	6266.322269
821.329011	7374.367885
821.647286	9087.099904
821.965517	11227.741865
822.283704	13023.064788
822.601847	14599.013500
822.919945	14706.894192
823.237999	14443.745962
823.556010	13720.592442
823.873976	12716.478615
824.191897	11597.342462
824.509775	10708.082923
824.827609	9704.977327
825.145398	8961.995269
825.463144	8423.432000
825.780845	8248.503962
826.098502	8145.328346
826.416116	8556.770519
826.733685	9125.160615
827.051210	9586.846288
827.368692	9649.188558
827.686129	9268.749481
828.003522	8624.153942
828.320872	7826.643404
828.638177	7189.105481
828.955439	6665.833712
829.272656	6162.054404
829.589830	5750.192135
829.906960	5364.039750
830.224046	5072.493019
830.541088	4804.303635
830.858086	4614.168115
831.175041	4467.974654
831.491952	4403.195827
831.808819	4361.018173
832.125642	4378.410154
832.442421	4507.799769
832.759157	4783.970981
833.075849	5212.721115
833.392497	5793.546058
833.709101	6388.150154
834.025662	6660.120404
834.342179	6612.817577
834.658653	6308.247865
834.975083	5947.889385
835.291469	5586.774731
835.607811	5245.992731
835.924110	5041.489923
836.240366	4756.832769
836.556578	4541.911577
836.872746	4317.412192
837.188871	4156.935462
837.504952	3974.781769
837.820990	3872.362327
838.136984	3777.588635
838.452935	3731.966192
838.768842	3671.724404
839.084706	3716.338615
839.400526	3851.189481
839.716303	4152.734500
840.032037	4468.478769
840.347727	4654.581365
840.663373	4601.145135
840.978977	4369.756173
841.294537	4173.991365
841.610054	4020.404212
841.925527	3887.989904
842.240957	3781.033423
842.556344	3686.679827
842.871687	3621.396885
843.186987	3499.400962
843.502244	3414.373500
843.817458	3349.174577
844.132629	3297.082654
844.447756	3267.675923
844.762840	3227.934827
845.077881	3195.671442
845.392879	3162.483846
845.707833	3150.553115
846.022745	3123.750981
846.337613	3130.808596
846.652438	3124.087058
846.967221	3090.395346
847.281960	3091.403577
847.596656	3076.532173
847.911309	3062.584981
848.225919	3060.484500
848.540485	3060.316462
848.855009	3059.812346
849.169490	3044.940942
849.483928	3049.225923
849.798323	3040.571942
850.112675	3026.036615
850.426984	3045.613096
850.741251	3019.315077
851.055474	3027.212885
851.369654	3023.348000
851.683792	3037.715288
851.997887	3022.759865
852.311938	3022.507808
852.625947	3030.657673
852.939914	3020.995462
853.253837	3022.591827
853.567718	3026.792788
853.881555	3021.751635
854.195350	3028.305135
854.509103	3019.819192
854.822812	3023.936135
855.136479	3023.852115
855.450103	3031.329827
855.763685	3009.484827
856.077224	3017.718712
856.390720	3015.114115
856.704173	3022.423788
857.017584	3028.809250
857.330953	3022.927904
857.644278	3031.665904
857.957561	3046.705346
858.270802	3038.051365
858.584000	3045.949173
858.897155	3037.379212
859.210268	3037.967346
859.523339	3037.295192
859.836367	3044.772904
860.149352	3032.506096
860.462295	3022.171731
860.775195	3022.255750
861.088054	3033.430308
861.400869	3028.641212
861.713642	3030.237577
862.026373	3037.379212
862.339062	3029.649442
862.651708	3030.069538
862.964312	3050.150135
863.276873	3041.076058
863.589392	3065.693692
863.901869	3074.767769
864.214303	3066.449865
864.526696	3091.235538
864.839045	3096.528750
865.151353	3122.154615
865.463619	3111.568192
865.775842	3136.017788
866.088023	3134.169365
866.400162	3134.337404
866.712258	3147.192346
867.024313	3147.780481
867.336325	3134.253385
867.648296	3157.442692
867.960224	3149.124788
868.272110	3163.240019
868.583954	3162.399827
868.895755	3165.256481
869.207515	3180.800038
869.519233	3187.857654
869.830909	3186.681385
870.142542	3187.017462
870.454134	3191.722538
870.765684	3213.483519
871.077191	3216.424192
871.388657	3240.789769
871.700081	3234.824404
872.011463	3260.870365
872.322803	3254.905000
872.634101	3255.241077
872.945357	3282.883404
873.256571	3270.952673
873.567744	3303.048019
873.878874	3307.164962
874.189963	3316.491096
874.501010	3330.018192
874.812015	3334.555231
875.122979	3352.787404
875.433900	3346.738019
875.744780	3377.909154
876.055618	3367.574788
876.366415	3390.259981
876.677169	3387.067250
876.987882	3418.742500
877.298554	3434.538115
877.609183	3464.701019
877.919771	3490.999038
878.230317	3543.427038
878.540822	3602.576577
878.851285	3705.500135
879.161707	3829.596538
879.472087	4013.010519
879.782425	4257.086385
880.092722	4675.082058
880.402977	5223.895673
880.713191	5895.545404
881.023363	6548.962962
881.333494	7063.412712
881.643583	7425.787654
881.953631	7722.879654
882.263637	7833.028865
882.573602	7791.607385
882.883526	7678.013385
883.193408	7464.772577
883.503248	7205.405212
883.813048	6909.321442
884.122806	6567.867288
884.432522	6241.284538
884.742197	5941.671962
885.051831	5604.250731
885.361424	5270.442327
885.670975	5016.536212
885.980485	4788.087923
886.289954	4555.270635
886.599382	4370.092250
886.908768	4219.193712
887.218113	4091.904577
887.527417	3971.505019
887.836680	3855.222404
888.145901	3769.774846
888.455082	3693.737442
888.764221	3631.479192
889.073319	3566.784385
889.382376	3534.857077
889.691392	3507.634846
890.000366	3484.697596
890.309300	3455.626942
890.618193	3453.610481
890.927044	3453.778519
891.235855	3453.610481
891.544625	3428.572750
891.853353	3458.987712
892.162041	3493.603635
892.470687	3530.908173
892.779293	3565.440077
893.087858	3643.409923
893.396381	3766.078000
893.704864	3940.753981
894.013306	4174.831558
894.321707	4453.187269
894.630068	4725.913692
894.938387	4910.587962
895.246665	4983.852731
895.554903	4958.226865
895.863100	4836.483000
896.171256	4697.935288
896.479371	4596.356038
896.787446	4455.623827
897.095480	4321.193058
897.403473	4217.513327
897.711425	4107.700192
898.019336	4014.438846
898.327207	3914.455962
898.635038	3846.064308
898.942827	3753.139038
899.250576	3657.357115
899.558284	3583.672250
899.865952	3524.690750
900.173579	3472.934904
900.481165	3431.597442
900.788711	3394.460942
901.096216	3380.261692
901.403681	3325.229096
901.711105	3342.369019
902.018489	3303.804192
902.325832	3301.871750
902.633135	3326.825462
902.940397	3379.169442
903.247619	3511.247673
903.554800	3768.010442
903.861941	4181.805154
904.169041	4610.723327
904.476101	4968.813288
904.783121	5096.354481
905.090100	5055.185058
905.397039	4897.985077
905.703938	4724.905462
906.010796	4559.891692
906.317614	4387.400212
906.624391	4240.534596
906.931129	4113.497519
907.237826	3985.032115
907.544483	3879.840038
907.851099	3772.211404
908.157675	3607.785769
908.464211	3486.966115
908.770707	3375.052500
909.077163	3274.061385
909.383578	3195.839481
909.689954	3155.510250
909.996289	3112.240346
910.302584	3093.336019
910.608839	3058.215981
910.915054	3049.562000
911.221229	3027.717000
911.527363	3026.792788
911.833458	3032.926192
912.139513	3021.751635
912.445527	3046.117212
912.751502	3062.080865
913.057436	3109.635750
913.363331	3117.869635
913.669186	3159.375135
913.975000	3225.246212
914.280775	3340.688635
914.586510	3461.256231
914.892205	3650.467538
915.197859	3865.556769
915.503475	4157.691635
915.809050	4473.183846
916.114585	4697.095096
916.420081	4876.056058
916.725536	4999.480308
917.030952	4958.478923
917.336328	4908.907577
917.641665	4834.298500
917.946961	4759.773442
918.252218	4688.105038
918.557435	4537.206500
918.862612	4411.933827
919.167750	4307.161846
919.472848	4163.404942
919.777906	4064.682346
920.082925	3941.678192
920.387904	3798.845500
920.692843	3694.325577
920.997743	3587.789192
921.302603	3499.821058
921.607423	3442.687981
921.912204	3368.583019
922.216946	3316.659135
922.521647	3250.872077
922.826310	3202.897096
923.130932	3174.414577
923.435516	3137.110038
923.740059	3116.525327
924.044564	3078.548635
924.349028	3060.148423
924.653454	3014.862058
924.957840	2993.941269
925.262186	2971.256077
925.566493	2955.628500
925.870761	2943.361692
926.174989	2925.969712
926.479178	2906.813327
926.783328	2879.843154
927.087438	2872.533481
927.391509	2867.072231
927.695541	2857.157962
927.999533	2835.733058
928.303486	2815.232365
928.607400	2809.519058
928.911275	2829.263577
929.215110	2811.871596
929.518906	2793.807462
929.822663	2805.990250
930.126381	2798.680577
930.430060	2804.393885
930.733699	2804.309865
931.037299	2792.295115
931.340861	2779.692231
931.644383	2786.665827
931.947866	2798.680577
932.251309	2784.481327
932.554714	2785.909654
932.858080	2790.362673
933.161407	2787.169942
933.464694	2801.033115
933.767943	2779.692231
934.071153	2782.968981
934.374323	2781.036538
934.677455	2775.827346
934.980548	2780.280365
935.283602	2772.382558
935.586617	2769.357865
935.889593	2763.728577
936.192530	2780.616442
936.495428	2773.726865
936.798287	2776.415481
937.101108	2780.868500
937.403890	2807.418577
937.706632	2829.431615
938.009336	2834.136692
938.312002	2853.629154
938.614628	2889.925462
938.917216	2916.055442
939.219765	2920.928558
939.522275	2949.831173
939.824747	2944.033846
940.127179	2956.636731
940.429573	2950.503327
940.731929	2954.956346
941.034246	2953.780077
941.336524	2958.989269
941.638763	2949.747154
941.940964	2958.065058
942.243126	2933.531442
942.545250	2926.473827
942.847335	2921.180615
943.149381	2906.561269
943.451389	2894.714558
943.753359	2885.808519
944.055290	2874.717981
944.357182	2862.451173
944.659036	2868.416538
944.960851	2846.571538
945.262628	2853.293077
945.564367	2850.184365
945.866067	2842.454596
946.167729	2848.840058
946.469352	2819.769404
946.770937	2854.049250
947.072484	2807.418577
947.373992	2837.665500
947.675462	2829.767692
947.976893	2812.375712
948.278286	2827.583192
948.579641	2802.629481
948.880958	2802.293404
949.182236	2823.634288
949.483476	2813.383942
949.784678	2806.830442
950.085841	2810.611308
950.386967	2823.466250
950.688054	2823.466250
950.989103	2821.701846
951.290114	2815.232365
951.591087	2823.634288
951.892021	2838.589712
952.192917	2851.192596
952.493776	2866.148019
952.794596	2874.886019
953.095378	2871.945346
953.396122	2863.711462
953.696828	2853.713173
953.997496	2867.492327
954.298126	2870.685058
954.598718	2860.266673
954.899272	2844.050962
955.199788	2820.777635
955.500266	2818.341077
955.800706	2818.425096
956.101108	2792.967269
956.401472	2795.655885
956.701798	2779.440173
957.002087	2776.499500
957.302337	2751.461769
957.602550	2736.842423
957.902724	2734.321846
958.202861	2725.751885
958.502960	2721.802981
958.803022	2720.542692
959.103045	2715.501538
959.403031	2685.254615
959.702979	2679.625327
960.002889	2677.608865
960.302762	2663.913731
960.602596	2663.661673
960.902393	2663.661673
961.202153	2660.048846
961.501875	2647.866058
961.801559	2642.404808
962.101205	2663.493635
962.400814	2646.857827
962.700385	2639.800212
962.999918	2642.908923
963.299414	2640.052269
963.598873	2627.785462
963.898293	2634.338962
964.197677	2630.894173
964.497022	2634.170923
964.796331	2624.928808
965.095601	2633.750827
965.394835	2610.141423
965.694030	2628.289577
965.993189	2628.205558
966.292309	2619.299519
966.591393	2618.123250
966.890439	2620.055692
967.189447	2626.777231
967.488419	2620.559808
967.787353	2619.215500
968.086249	2622.072154
968.385108	2640.136288
968.683930	2621.988135
968.982714	2622.576269
969.281462	2631.398288
969.580172	2625.348904
969.878844	2636.103365
970.177480	2625.348904
970.476078	2628.457615
970.774639	2636.103365
971.073162	2636.187385
971.371649	2633.162692
971.670098	2656.688077
971.968510	2645.933615
972.266885	2648.790269
972.565223	2655.679846
972.863524	2663.493635
973.161788	2670.047135
973.460014	2661.981288
973.758204	2665.342058
974.056356	2659.460712
974.354471	2660.721000
974.652550	2674.668192
974.950591	2657.612288
975.248595	2665.174019
975.546563	2659.880808
975.844493	2683.070115
976.142386	2655.175731
976.440243	2653.747404
976.738062	2656.352000
977.035845	2645.009404
977.333590	2645.093423
977.631299	2658.452481
977.928971	2648.790269
978.226606	2641.816673
978.524204	2644.421269
978.821765	2657.024154
979.119290	2636.019346
979.416777	2656.940135
979.714228	2636.607481
980.011642	2655.931904
980.309020	2640.724423
980.606360	2645.261462
980.903664	2651.898981
981.200931	2672.903788
981.498162	2670.971346
981.795356	2703.654827
982.092513	2729.280692
982.389633	2758.435365
982.686717	2784.145250
982.983764	2815.736481
983.280775	2844.891154
983.577749	2855.561596
983.874686	2863.459404
984.171587	2862.283135
984.468451	2858.250212
984.765279	2847.327712
985.062070	2818.425096
985.358824	2821.365769
985.655543	2797.084212
985.952224	2806.998481
986.248869	2771.206288
986.545478	2742.807788
986.842050	2719.618481
987.138586	2703.486788
987.435086	2667.442538
987.731549	2677.104750
988.027975	2634.002885
988.324366	2619.383538
988.620719	2633.750827
988.917037	2620.475788
989.213318	2610.477500
989.509563	2613.250135
989.805772	2607.536827
990.101944	2603.924000
990.398080	2603.083808
990.694180	2604.008019
990.990244	2611.821808
991.286271	2602.747731
991.582262	2606.276538
991.878217	2610.897596
992.174136	2610.141423
992.470019	2625.432923
992.765865	2592.077288
993.061676	2615.350615
993.357450	2610.813577
993.653188	2618.375308
993.948890	2627.533404
994.244556	2619.551577
994.540186	2630.053981
994.835780	2645.597538
995.131337	2658.368462
995.426859	2656.604058
995.722345	2695.000846
996.017795	2713.653115
996.313208	2705.419231
996.608586	2737.682615
996.903928	2744.992288
997.199234	2745.580423
997.494504	2750.621577
997.789738	2749.781385
998.084936	2743.984058
998.380099	2741.967596
998.675225	2736.338308
998.970316	2720.542692
999.265371	2709.956269
999.560390	2691.472038
999.855373	2682.061885
1000.150320	2653.243288
1000.445232	2651.394865
1000.740108	2650.806731
1001.034948	2637.615712
1001.329752	2621.484019
1001.624521	2637.867769
1001.919254	2611.485731
1002.213951	2619.047462
1002.508613	2611.485731
1002.803239	2597.286481
1003.097829	2607.620846
1003.392384	2608.713096
1003.686903	2587.792308
1003.981386	2599.891077
1004.275834	2592.413365
1004.570246	2592.245327
1004.864623	2587.372212
1005.158964	2592.497385
1005.453270	2599.302942
1005.747540	2580.314596
1006.041775	2591.825231
1006.335974	2588.464462
1006.630138	2582.835173
1006.924266	2591.405135
1007.218359	2578.550192
1007.512416	2591.657192
1007.806438	2580.230577
1008.100425	2586.448000
1008.394376	2584.683596
1008.688292	2585.187712
1008.982172	2580.230577
1009.276017	2581.658904
1009.569827	2591.321115
1009.863602	2601.823519
1010.157341	2594.429827
1010.451045	2594.681885
1010.744714	2572.668846
1011.038347	2589.052596
1011.331945	2576.449712
1011.625508	2580.986750
1011.919036	2581.238808
1012.212528	2578.550192
1012.505986	2577.541962
1012.799408	2581.826942
1013.092795	2579.390385
1013.386147	2581.322827
1013.679464	2579.054308
1013.972745	2583.675365
1014.265992	2580.650673
1014.559204	2579.894500
1014.852380	2561.494288
1015.145521	2585.691827
1015.438628	2569.644154
1015.731699	2578.214115
1016.024736	2577.121865
1016.317737	2588.380442
1016.610703	2583.423308
1016.903635	2575.693538
1017.196531	2575.441481
1017.489393	2591.993269
1017.782219	2581.658904
1018.075011	2600.479212
1018.367768	2595.606096
1018.660490	2594.429827
1018.953177	2594.429827
1019.245829	2594.429827
