Dividing Wavelength (nm)	Counts (n)	Slit_number_35_of_a_total_of_40	
326.493990	2130.307596
326.888308	2130.307596
327.282561	2130.307596
327.676750	2124.678308
328.070874	2112.327481
328.464933	2120.225288
328.858929	2135.936885
329.252859	2150.136135
329.646726	2157.277769
330.040528	2182.483538
330.434265	2207.605288
330.827938	2219.956115
331.221547	2241.549058
331.615091	2243.145423
332.008571	2279.861827
332.401986	2306.663962
332.795338	2312.209231
333.188625	2331.365615
333.581847	2349.765827
333.975006	2357.663635
334.368100	2400.933538
334.761129	2393.035731
335.154095	2427.567635
335.546996	2449.664692
335.939833	2439.498365
336.332606	2474.954481
336.725315	2476.802904
337.117960	2490.750096
337.510540	2496.883500
337.903056	2508.814231
338.295508	2511.250788
338.687896	2525.786115
339.080220	2522.089269
339.472480	2523.097500
339.864676	2531.415404
340.256807	2535.280288
340.648875	2537.632827
341.040879	2536.456558
341.432818	2556.873231
341.824694	2564.182904
342.216506	2556.453135
342.608253	2533.263827
342.999937	2547.799154
343.391557	2537.800865
343.783113	2534.188038
344.174605	2544.102308
344.566033	2547.211019
344.957397	2532.003538
345.348697	2528.558750
345.739934	2531.835500
346.131106	2531.247365
346.522215	2523.181519
346.913260	2525.450038
347.304241	2522.761423
347.695159	2508.478154
348.086012	2522.677404
348.476802	2519.820750
348.867528	2517.804288
349.258191	2526.374250
349.648789	2521.753192
350.039324	2508.730212
350.429796	2505.453462
350.820203	2502.596808
351.210548	2511.082750
351.600828	2525.534058
351.991045	2509.486385
352.381198	2513.771365
352.771288	2503.605038
353.161314	2512.511077
353.551276	2517.216154
353.941175	2499.992212
354.331010	2511.082750
354.720782	2516.628019
355.110490	2506.125615
355.500135	2515.871846
355.889717	2506.545712
356.279235	2511.586865
356.668689	2509.066288
357.058080	2512.259019
357.447408	2514.611558
357.836672	2496.883500
358.225873	2528.390712
358.615010	2506.461692
359.004084	2511.418827
359.393095	2513.519308
359.782043	2515.199692
360.170927	2515.283712
360.559748	2532.675692
360.948505	2501.756615
361.337199	2510.746673
361.725830	2512.175000
362.114398	2523.181519
362.502903	2502.848865
362.891344	2523.685635
363.279722	2491.758327
363.668037	2525.366019
364.056289	2521.333096
364.444478	2517.720269
364.832603	2505.537481
365.220665	2525.197981
365.608665	2517.216154
365.996601	2522.089269
366.384474	2518.980558
366.772284	2526.794346
367.160031	2521.333096
367.547715	2518.980558
367.935336	2526.038173
368.322893	2517.888308
368.710388	2539.061154
369.097820	2510.494615
369.485189	2527.466500
369.872495	2524.777885
370.259738	2520.744962
370.646918	2518.308404
371.034035	2540.909577
371.421090	2518.644481
371.808081	2523.769654
372.195010	2513.519308
372.581875	2532.339615
372.968678	2530.407173
373.355418	2521.921231
373.742096	2526.290231
374.128710	2521.921231
374.515262	2522.005250
374.901751	2523.097500
375.288177	2527.298462
375.674540	2537.968904
376.060841	2526.962385
376.447079	2522.677404
376.833254	2528.726788
377.219367	2517.972327
377.605417	2534.272058
377.991404	2517.720269
378.377329	2538.893115
378.763191	2526.122192
379.148991	2539.985365
379.534727	2517.552231
379.920402	2543.010058
380.306013	2523.181519
380.691563	2525.282000
381.077049	2540.657519
381.462474	2517.972327
381.847835	2533.347846
382.233134	2524.945923
382.618371	2539.817327
383.003545	2533.431865
383.388657	2536.204500
383.773706	2530.827269
384.158693	2540.909577
384.543618	2531.163346
384.928480	2523.517596
385.313280	2529.651000
385.698017	2535.952442
386.082692	2532.171577
386.467305	2529.566981
386.851856	2530.071096
387.236344	2529.903058
387.620770	2542.842019
388.005133	2548.135231
388.389435	2540.993596
388.773674	2531.163346
389.157851	2544.606423
389.541965	2552.840308
389.926018	2535.532346
390.310008	2536.372538
390.693936	2537.800865
391.077802	2530.491192
391.461606	2521.165058
391.845348	2535.868423
392.229027	2541.665750
392.612645	2547.547096
392.996200	2536.876654
393.379694	2531.415404
393.763125	2539.901346
394.146494	2529.566981
394.529801	2542.673981
394.913047	2525.870135
395.296230	2531.163346
395.679351	2541.833788
396.062410	2540.405462
396.445408	2554.772750
396.828343	2555.024808
397.211217	2532.255596
397.594028	2542.253885
397.976778	2551.075904
398.359466	2534.860192
398.742092	2545.782692
399.124656	2535.784404
399.507158	2527.634538
399.889598	2529.903058
400.271977	2547.547096
400.654294	2555.444904
401.036549	2549.647577
401.418742	2548.135231
401.800874	2526.794346
402.182944	2534.776173
402.564952	2542.505942
402.946898	2527.802577
403.328783	2538.473019
403.710606	2532.927750
404.092367	2537.380769
404.474067	2534.776173
404.855705	2545.026519
405.237282	2533.431865
405.618797	2546.706904
406.000250	2548.051212
406.381642	2555.949019
406.762972	2541.161635
407.144240	2538.725077
407.525447	2538.389000
407.906593	2539.733308
408.287677	2547.883173
408.668700	2544.270346
409.049661	2551.916096
409.430560	2541.161635
409.811399	2552.420212
410.192176	2531.919519
410.572891	2542.673981
410.953545	2546.370827
411.334138	2547.799154
411.714669	2543.430154
412.095139	2535.868423
412.475547	2537.884885
412.855894	2543.262115
413.236180	2543.094077
413.616405	2553.596481
413.996568	2562.250462
414.376670	2550.151692
414.756711	2555.192846
415.136691	2534.524115
415.516609	2552.420212
415.896466	2546.538865
416.276262	2544.690442
416.655997	2551.411981
417.035670	2546.622885
417.415283	2556.117058
417.794834	2533.515885
418.174324	2547.715135
418.553753	2536.876654
418.933121	2555.696962
419.312428	2547.967192
419.691674	2546.370827
420.070859	2535.784404
420.449983	2552.756288
420.829045	2553.848538
421.208047	2533.011769
421.586988	2549.647577
421.965867	2535.616365
422.344686	2545.278577
422.723444	2559.057731
423.102141	2540.825558
423.480777	2540.909577
423.859352	2566.367404
424.237866	2540.489481
424.616319	2554.268635
424.994712	2548.135231
425.373044	2539.481250
425.751314	2549.815615
426.129524	2552.588250
426.507673	2552.084135
426.885762	2545.362596
427.263789	2546.958962
427.641756	2558.805673
428.019662	2561.998404
428.397508	2538.641058
428.775292	2569.224058
429.153016	2545.026519
429.530679	2547.042981
429.908282	2545.026519
430.285824	2547.547096
430.663305	2554.352654
431.040726	2546.958962
431.418086	2550.151692
431.795385	2554.688731
432.172624	2551.075904
432.549802	2550.655808
432.926920	2557.965481
433.303977	2550.739827
433.680974	2563.594769
434.057910	2551.748058
434.434786	2544.858481
434.811601	2557.041269
435.188355	2555.444904
435.565050	2550.067673
435.941683	2563.258692
436.318257	2555.528923
436.694770	2549.731596
437.071222	2557.209308
437.447614	2542.758000
437.823946	2557.209308
438.200218	2553.848538
438.576429	2536.876654
438.952580	2548.723365
439.328670	2546.538865
439.704700	2551.411981
440.080670	2565.947308
440.456580	2548.219250
440.832429	2562.922615
441.208218	2551.748058
441.583947	2553.176385
441.959616	2564.771038
442.335224	2552.000115
442.710773	2542.589962
443.086261	2546.790923
443.461689	2561.074192
443.837057	2560.570077
444.212365	2559.057731
444.587612	2570.736404
444.962800	2558.721654
445.337927	2545.278577
445.712995	2545.110538
446.088002	2560.822135
446.462949	2541.581731
446.837837	2556.201077
447.212664	2569.896212
447.587431	2548.555327
447.962139	2551.243942
448.336786	2555.612942
448.711374	2565.107115
449.085901	2559.813904
449.460369	2553.596481
449.834776	2557.461365
450.209124	2561.578308
450.583412	2560.486058
450.957640	2549.983654
451.331808	2549.983654
451.705917	2541.917808
452.079965	2552.840308
452.453954	2571.996692
452.827883	2551.580019
453.201752	2561.914385
453.575562	2570.148269
453.949311	2555.612942
454.323001	2559.813904
454.696632	2563.930846
455.070202	2557.545385
455.443713	2547.127000
455.817164	2562.502519
456.190556	2564.518981
456.563888	2559.057731
456.937160	2557.125288
457.310373	2550.487769
457.683526	2550.487769
458.056619	2550.571788
458.429653	2566.703481
458.802628	2555.696962
459.175542	2557.125288
459.548398	2558.553615
459.921194	2536.960673
460.293930	2548.303269
460.666607	2555.360885
461.039224	2565.359173
461.411782	2567.459654
461.784280	2551.327962
462.156719	2567.459654
462.529099	2553.260404
462.901419	2551.159923
463.273680	2555.108827
463.645882	2555.612942
464.018024	2562.502519
464.390106	2563.006635
464.762130	2548.135231
465.134094	2559.561846
465.505999	2559.477827
465.877845	2560.906154
466.249631	2554.016577
466.621358	2560.822135
466.993026	2564.939077
467.364634	2577.878038
467.736184	2553.596481
468.107674	2567.207596
468.479105	2559.141750
468.850477	2562.082423
469.221790	2574.517269
469.593043	2543.262115
469.964238	2554.184615
470.335373	2559.645865
470.706449	2560.990173
471.077467	2552.504231
471.448425	2578.802250
471.819324	2572.668846
472.190164	2561.326250
472.560945	2545.446615
472.931667	2570.400327
473.302330	2567.879750
473.672934	2578.046077
474.043479	2552.336192
474.413965	2562.082423
474.784393	2551.327962
475.154761	2563.762808
475.525070	2569.980231
475.895321	2561.074192
476.265513	2566.031327
476.635645	2568.551904
477.005719	2554.604712
477.375734	2579.138327
477.745691	2561.494288
478.115588	2567.459654
478.485427	2552.924327
478.855207	2579.474404
479.224928	2552.504231
479.594591	2552.672269
479.964194	2557.965481
480.333739	2570.736404
480.703226	2561.998404
481.072653	2565.527212
481.442022	2576.869808
481.811333	2562.754577
482.180584	2568.887981
482.549777	2567.879750
482.918912	2562.082423
483.287988	2568.299846
483.657005	2574.853346
484.025964	2576.533731
484.394864	2559.645865
484.763706	2558.133519
485.132489	2571.408558
485.501213	2571.492577
485.869879	2563.426731
486.238487	2573.593058
486.607036	2562.586538
486.975527	2560.570077
487.343959	2578.046077
487.712333	2569.896212
488.080648	2558.553615
488.448905	2568.215827
488.817104	2557.629404
489.185244	2546.118769
489.553326	2566.367404
489.921350	2581.994981
490.289315	2565.611231
490.657222	2561.830365
491.025070	2565.947308
491.392861	2560.318019
491.760593	2565.023096
492.128267	2564.266923
492.495883	2584.011442
492.863440	2565.191135
493.230939	2569.896212
493.598380	2574.433250
493.965763	2571.576596
494.333088	2580.062538
494.700354	2568.131808
495.067563	2566.451423
495.434713	2561.662327
495.801805	2553.092365
496.168839	2562.418500
496.535815	2558.805673
496.902733	2571.996692
497.269593	2575.861577
497.636395	2574.685308
498.003139	2563.930846
498.369825	2554.688731
498.736453	2578.550192
499.103023	2559.309788
499.469535	2571.072481
499.835989	2577.037846
500.202385	2571.492577
500.568723	2566.283385
500.935003	2574.685308
501.301226	2580.482635
501.667390	2567.291615
502.033497	2577.878038
502.399546	2563.510750
502.765537	2562.166442
503.131470	2566.871519
503.497345	2559.141750
503.863163	2573.088942
504.228923	2577.373923
504.594625	2563.090654
504.960269	2576.617750
505.325856	2569.476115
505.691385	2560.149981
506.056856	2565.107115
506.422270	2573.509038
506.787625	2559.225769
507.152924	2565.023096
507.518164	2562.502519
507.883347	2562.082423
508.248472	2561.998404
508.613540	2572.920904
508.978550	2559.393808
509.343503	2543.850250
509.708398	2554.856769
510.073236	2563.594769
510.438016	2549.815615
510.802738	2555.444904
511.167403	2575.273442
511.532010	2555.360885
511.896561	2561.746346
512.261053	2569.392096
512.625488	2577.625981
512.989866	2565.779269
513.354186	2569.980231
513.718449	2560.149981
514.082655	2569.896212
514.446803	2566.787500
514.810894	2554.100596
515.174927	2567.543673
515.538904	2563.174673
515.902822	2575.189423
516.266684	2578.046077
516.630488	2581.574885
516.994235	2562.418500
517.357925	2568.131808
517.721558	2571.072481
518.085133	2564.098885
518.448651	2569.560135
518.812112	2564.518981
519.175516	2564.182904
519.538863	2569.812192
519.902152	2561.830365
520.265385	2571.492577
520.628560	2552.756288
520.991678	2567.459654
521.354739	2558.637635
521.717743	2570.148269
522.080690	2568.719942
522.443580	2576.197654
522.806413	2567.123577
523.169189	2548.471308
523.531908	2560.822135
523.894569	2564.182904
524.257174	2555.276865
524.619722	2558.973712
524.982213	2568.299846
525.344647	2562.418500
525.707025	2559.645865
526.069345	2559.897923
526.431608	2559.477827
526.793815	2574.517269
527.155964	2558.805673
527.518057	2551.075904
527.880093	2566.451423
528.242072	2558.133519
528.603995	2569.056019
528.965860	2570.904442
529.327669	2551.580019
529.689421	2573.425019
530.051117	2559.981942
530.412755	2567.039558
530.774337	2574.181192
531.135862	2567.375635
531.497331	2563.342712
531.858743	2568.887981
532.220098	2577.794019
532.581396	2556.537154
532.942638	2558.133519
533.303824	2568.551904
533.664953	2567.459654
534.026025	2560.065962
534.387040	2570.400327
534.747999	2561.662327
535.108902	2568.215827
535.469748	2563.762808
535.830537	2558.385577
536.191270	2570.316308
536.551947	2551.496000
536.912567	2557.125288
537.273131	2569.812192
537.633638	2566.451423
537.994089	2566.619462
538.354483	2577.878038
538.714821	2554.436673
539.075103	2561.578308
539.435328	2561.410269
539.795497	2559.477827
540.155609	2566.283385
540.515665	2568.047788
540.875665	2577.541962
541.235609	2568.635923
541.595496	2564.098885
541.955328	2565.695250
542.315102	2550.991885
542.674821	2580.986750
543.034483	2564.350942
543.394090	2566.535442
543.753640	2562.502519
544.113134	2574.937365
544.472571	2562.250462
544.831953	2559.981942
545.191278	2565.443192
545.550548	2579.726462
545.909761	2565.023096
546.268918	2567.627692
546.628019	2569.560135
546.987064	2579.390385
547.346053	2565.779269
547.704986	2575.525500
548.063863	2574.349231
548.422684	2570.064250
548.781449	2571.240519
549.140158	2563.426731
549.498811	2573.425019
549.857408	2564.687019
550.215949	2554.856769
550.574434	2568.887981
550.932864	2552.672269
551.291237	2568.215827
551.649555	2573.845115
552.007817	2560.402038
552.366022	2568.551904
552.724173	2568.299846
553.082267	2570.400327
553.440305	2570.484346
553.798288	2568.803962
554.156215	2569.812192
554.514086	2574.937365
554.871902	2565.695250
555.229661	2577.710000
555.587365	2571.744635
555.945014	2562.418500
556.302606	2566.199365
556.660143	2566.703481
557.017625	2576.365692
557.375050	2558.217538
557.732421	2577.710000
558.089735	2546.622885
558.446994	2563.090654
558.804197	2557.629404
559.161345	2556.285096
559.518437	2571.408558
559.875474	2571.156500
560.232455	2546.454846
560.589381	2575.357462
560.946251	2567.879750
561.303065	2566.871519
561.659825	2569.140038
562.016528	2567.879750
562.373177	2570.400327
562.729770	2562.670558
563.086307	2562.082423
563.442789	2570.652385
563.799216	2575.945596
564.155587	2574.601288
564.511904	2567.291615
564.868164	2557.881462
565.224370	2558.805673
565.580520	2564.687019
565.936615	2552.336192
566.292654	2566.787500
566.648638	2561.326250
567.004567	2563.846827
567.360441	2570.904442
567.716260	2553.764519
568.072023	2560.486058
568.427732	2566.871519
568.783385	2582.667135
569.138982	2551.075904
569.494525	2567.291615
569.850013	2577.373923
570.205445	2542.758000
570.560823	2555.949019
570.916145	2572.584827
571.271412	2553.428442
571.626625	2564.434962
571.981782	2560.654096
572.336884	2561.914385
572.691931	2579.474404
573.046923	2572.332769
573.401860	2581.490865
573.756743	2566.955538
574.111570	2573.425019
574.466342	2584.263500
574.821059	2572.584827
575.175722	2563.174673
575.530330	2560.906154
575.884882	2567.123577
576.239380	2577.037846
576.593823	2567.291615
576.948211	2566.787500
577.302544	2575.441481
577.656823	2571.744635
578.011047	2572.752865
578.365216	2555.444904
578.719330	2585.187712
579.073389	2564.855058
579.427394	2557.797442
579.781344	2564.771038
580.135239	2578.466173
580.489080	2570.232288
580.842866	2562.670558
581.196597	2588.884558
581.550273	2571.240519
581.903895	2584.347519
582.257463	2571.912673
582.610975	2556.117058
582.964434	2561.746346
583.317837	2565.611231
583.671186	2559.477827
584.024481	2557.629404
584.377721	2576.197654
584.730906	2557.377346
585.084037	2572.752865
585.437113	2577.625981
585.790135	2559.981942
586.143103	2565.779269
586.496016	2558.217538
586.848874	2565.443192
587.201679	2564.603000
587.554428	2562.670558
587.907124	2556.537154
588.259765	2568.972000
588.612352	2563.678788
588.964884	2587.624269
589.317362	2579.222346
589.669786	2572.500808
590.022155	2573.341000
590.374470	2570.988462
590.726731	2567.543673
591.078937	2565.695250
591.431090	2569.308077
591.783188	2564.182904
592.135232	2562.754577
592.487222	2575.273442
592.839157	2557.881462
593.191038	2569.896212
593.542866	2571.072481
593.894639	2571.240519
594.246358	2578.466173
594.598022	2568.215827
594.949633	2560.738115
595.301190	2571.408558
595.652692	2549.983654
596.004141	2571.660615
596.355535	2564.603000
596.706876	2560.738115
597.058162	2570.820423
597.409395	2570.400327
597.760573	2550.151692
598.111698	2576.701769
598.462768	2565.863288
598.813785	2571.912673
599.164748	2576.029615
599.515657	2561.410269
599.866511	2559.141750
600.217312	2568.383865
600.568060	2583.339288
600.918753	2563.510750
601.269392	2564.098885
601.619978	2560.990173
601.970510	2569.980231
602.320988	2576.365692
602.671412	2556.117058
603.021783	2573.509038
603.372100	2570.232288
603.722363	2558.889692
604.072572	2573.425019
604.422728	2556.369115
604.772830	2562.922615
605.122878	2569.056019
605.472872	2566.619462
605.822813	2569.812192
606.172701	2563.090654
606.522534	2570.568365
606.872314	2575.861577
607.222041	2577.457942
607.571714	2552.672269
607.921333	2575.609519
608.270899	2580.314596
608.620411	2576.869808
608.969870	2551.243942
609.319276	2560.065962
609.668627	2563.678788
610.017926	2568.972000
610.367171	2567.459654
610.716362	2555.865000
611.065500	2562.166442
611.414585	2558.469596
611.763616	2575.609519
612.112594	2574.265212
612.461518	2569.140038
612.810389	2569.812192
613.159207	2565.107115
613.507971	2562.754577
613.856682	2558.637635
614.205340	2583.507327
614.553945	2568.467885
614.902496	2566.535442
615.250994	2559.813904
615.599439	2566.871519
615.947830	2573.677077
616.296169	2572.332769
616.644454	2557.209308
616.992686	2575.609519
617.340864	2568.047788
617.688990	2564.182904
618.037063	2550.151692
618.385082	2565.191135
618.733048	2577.962058
619.080961	2570.400327
619.428821	2555.612942
619.776628	2577.373923
620.124382	2572.920904
620.472083	2565.695250
620.819731	2561.326250
621.167326	2564.098885
621.514868	2572.248750
621.862357	2568.047788
622.209793	2581.238808
622.557176	2573.004923
622.904506	2571.996692
623.251783	2569.560135
623.599007	2574.265212
623.946179	2560.486058
624.293297	2562.670558
624.640363	2566.703481
624.987376	2575.609519
625.334336	2577.625981
625.681243	2546.706904
626.028097	2569.644154
626.374899	2580.902731
626.721647	2560.486058
627.068343	2577.878038
627.414987	2569.056019
627.761577	2562.250462
628.108115	2567.291615
628.454600	2568.887981
628.801032	2555.780981
629.147412	2567.291615
629.493739	2572.668846
629.840014	2562.922615
630.186236	2573.256981
630.532405	2567.711712
630.878521	2563.006635
631.224585	2570.736404
631.570597	2567.879750
631.916556	2561.578308
632.262462	2577.205885
632.608316	2571.324538
632.954117	2559.561846
633.299866	2567.459654
633.645562	2567.207596
633.991206	2560.654096
634.336797	2545.782692
634.682336	2567.459654
635.027823	2559.813904
635.373257	2575.273442
635.718639	2566.787500
636.063968	2556.033038
636.409245	2561.662327
636.754470	2568.972000
637.099642	2565.023096
637.444762	2575.777558
637.789829	2569.224058
638.134845	2553.260404
638.479808	2559.477827
638.824719	2570.652385
639.169577	2552.504231
639.514383	2578.466173
639.859137	2552.756288
640.203839	2558.301558
640.548489	2563.426731
640.893086	2559.225769
641.237632	2550.907865
641.582125	2564.855058
641.926566	2561.242231
642.270955	2564.350942
642.615292	2552.504231
642.959576	2572.080712
643.303809	2564.771038
643.647990	2558.469596
643.992118	2565.443192
644.336195	2554.856769
644.680219	2585.187712
645.024192	2581.406846
645.368112	2560.822135
645.711981	2580.566654
646.055797	2561.410269
646.399562	2543.010058
646.743274	2570.232288
647.086935	2560.906154
647.430544	2561.326250
647.774101	2572.248750
648.117606	2570.736404
648.461059	2553.428442
648.804460	2564.939077
649.147810	2554.436673
649.491108	2567.459654
649.834354	2572.836885
650.177548	2571.408558
650.520690	2567.543673
650.863781	2586.700058
651.206820	2567.543673
651.549807	2570.568365
651.892742	2579.390385
652.235626	2568.467885
652.578458	2561.242231
652.921238	2575.777558
653.263967	2576.449712
653.606644	2586.279962
653.949269	2569.476115
654.291843	2565.863288
654.634365	2564.939077
654.976836	2568.803962
655.319255	2572.164731
655.661622	2576.449712
656.003938	2553.680500
656.346203	2569.224058
656.688416	2564.434962
657.030577	2557.461365
657.372687	2572.836885
657.714746	2577.541962
658.056753	2571.408558
658.398708	2567.039558
658.740612	2569.476115
659.082465	2566.619462
659.424266	2550.403750
659.766016	2562.166442
660.107715	2576.449712
660.449362	2560.149981
660.790958	2565.191135
661.132503	2560.738115
661.473996	2567.207596
661.815438	2551.159923
662.156829	2567.963769
662.498168	2557.041269
662.839456	2571.240519
663.180693	2571.744635
663.521879	2559.729885
663.863013	2570.736404
664.204097	2550.571788
664.545129	2553.764519
664.886110	2558.301558
665.227040	2570.988462
665.567918	2574.349231
665.908746	2577.289904
666.249522	2561.242231
666.590248	2567.879750
666.930922	2554.184615
667.271545	2569.896212
667.612118	2565.863288
667.952639	2567.627692
668.293109	2575.693538
668.633528	2567.879750
668.973896	2548.639346
669.314213	2570.736404
669.654480	2559.393808
669.994695	2578.298135
670.334859	2561.998404
670.674973	2566.367404
671.015035	2554.352654
671.355047	2551.664038
671.695008	2573.509038
672.034918	2548.387288
672.374777	2565.107115
672.714585	2570.064250
673.054342	2569.560135
673.394049	2550.319731
673.733705	2559.057731
674.073310	2575.609519
674.412864	2559.645865
674.752368	2551.916096
675.091820	2552.336192
675.431223	2578.718231
675.770574	2556.285096
676.109875	2567.963769
676.449125	2574.349231
676.788324	2564.182904
677.127473	2570.064250
677.466571	2572.080712
677.805619	2563.762808
678.144616	2564.350942
678.483562	2556.453135
678.822458	2574.769327
679.161303	2564.182904
679.500098	2574.937365
679.838842	2561.410269
680.177535	2552.420212
680.516179	2585.607808
680.854771	2550.319731
681.193314	2560.990173
681.531805	2546.622885
681.870247	2558.301558
682.208638	2567.039558
682.546978	2560.486058
682.885268	2576.953827
683.223508	2572.836885
683.561697	2553.512462
683.899836	2580.062538
684.237925	2551.496000
684.575963	2559.981942
684.913951	2566.703481
685.251889	2580.146558
685.589776	2578.046077
685.927614	2560.065962
686.265401	2575.105404
686.603137	2546.622885
686.940824	2568.467885
687.278460	2576.953827
687.616046	2575.021385
687.953582	2554.772750
688.291068	2557.041269
688.628504	2556.033038
688.965889	2562.250462
689.303224	2558.469596
689.640510	2547.295038
689.977745	2554.100596
690.314930	2569.308077
690.652065	2573.088942
690.989150	2564.855058
691.326185	2569.728173
691.663170	2572.332769
692.000105	2549.731596
692.336990	2566.199365
692.673825	2572.584827
693.010610	2561.158212
693.347345	2580.146558
693.684030	2558.721654
694.020665	2550.823846
694.357251	2547.127000
694.693786	2570.820423
695.030272	2566.451423
695.366707	2569.392096
695.703093	2580.482635
696.039429	2557.209308
696.375716	2571.408558
696.711952	2563.846827
697.048139	2560.738115
697.384276	2555.949019
697.720363	2556.453135
698.056400	2557.629404
698.392388	2550.991885
698.728326	2567.039558
699.064214	2564.014865
699.400053	2567.459654
699.735842	2567.627692
700.071581	2560.654096
700.407270	2567.291615
700.742910	2557.041269
701.078501	2564.182904
701.414042	2554.100596
701.749533	2559.813904
702.084974	2574.853346
702.420366	2556.873231
702.755709	2553.932558
703.091002	2560.486058
703.426246	2558.553615
703.761440	2564.434962
704.096584	2568.131808
704.431679	2569.812192
704.766725	2563.090654
705.101721	2569.476115
705.436668	2569.896212
705.771565	2558.637635
706.106413	2570.988462
706.441212	2561.914385
706.775961	2550.991885
707.110661	2564.518981
707.445311	2559.225769
707.779913	2561.746346
708.114465	2562.922615
708.448967	2567.123577
708.783421	2546.202788
709.117825	2564.855058
709.452180	2555.780981
709.786485	2569.728173
710.120742	2574.349231
710.454949	2564.518981
710.789107	2557.881462
711.123216	2559.477827
711.457275	2563.342712
711.791286	2579.054308
712.125247	2576.533731
712.459159	2562.250462
712.793023	2560.149981
713.126837	2567.039558
713.460602	2569.980231
713.794318	2560.486058
714.127985	2554.604712
714.461602	2571.576596
714.795171	2571.996692
715.128691	2554.688731
715.462162	2559.813904
715.795584	2571.156500
716.128957	2567.375635
716.462281	2565.527212
716.795556	2555.780981
717.128782	2557.041269
717.461960	2566.871519
717.795088	2568.131808
718.128167	2561.998404
718.461198	2569.392096
718.794180	2554.016577
719.127113	2560.906154
719.459997	2566.199365
719.792833	2551.075904
720.125619	2557.797442
720.458357	2566.031327
720.791046	2576.029615
721.123686	2561.578308
721.456278	2566.115346
721.788821	2564.855058
722.121315	2562.670558
722.453761	2561.494288
722.786158	2560.570077
723.118506	2567.291615
723.450805	2561.494288
723.783056	2537.884885
724.115259	2566.367404
724.447412	2566.031327
724.779518	2569.140038
725.111574	2570.904442
725.443582	2554.940788
725.775542	2572.668846
726.107453	2569.644154
726.439315	2559.477827
726.771129	2584.431538
727.102895	2574.097173
727.434612	2570.904442
727.766281	2559.225769
728.097901	2563.846827
728.429473	2573.425019
728.760996	2557.293327
729.092471	2557.797442
729.423897	2566.199365
729.755276	2560.822135
730.086606	2558.133519
730.417887	2570.400327
730.749120	2553.008346
731.080305	2560.402038
731.411442	2570.232288
731.742530	2571.996692
732.073570	2583.423308
732.404562	2569.812192
732.735506	2579.054308
733.066401	2555.865000
733.397249	2571.912673
733.728048	2558.385577
734.058798	2561.242231
734.389501	2548.387288
734.720156	2566.283385
735.050762	2569.308077
735.381320	2565.107115
735.711831	2559.225769
736.042293	2555.780981
736.372707	2566.787500
736.703073	2559.561846
737.033391	2576.701769
737.363661	2564.098885
737.693883	2573.845115
738.024056	2569.728173
738.354182	2554.436673
738.684260	2554.688731
739.014290	2576.029615
739.344272	2569.980231
739.674207	2552.420212
740.004093	2565.947308
740.333931	2570.148269
740.663722	2561.326250
740.993464	2562.082423
741.323159	2577.037846
741.652806	2553.176385
741.982405	2566.115346
742.311956	2565.947308
742.641460	2552.924327
742.970915	2578.382154
743.300323	2584.515558
743.629683	2569.644154
743.958996	2542.926038
744.288260	2564.518981
744.617477	2560.065962
744.946647	2565.947308
745.275768	2556.117058
745.604842	2567.375635
745.933869	2564.266923
746.262847	2549.899635
746.591778	2561.326250
746.920662	2551.075904
747.249498	2556.873231
747.578286	2568.299846
747.907027	2565.779269
748.235720	2564.266923
748.564365	2547.967192
748.892963	2575.441481
749.221514	2560.065962
749.550017	2562.586538
749.878473	2557.293327
750.206881	2564.771038
750.535242	2568.719942
750.863555	2573.929135
751.191821	2560.738115
751.520039	2576.533731
751.848210	2568.972000
752.176334	2569.140038
752.504411	2570.316308
752.832440	2558.301558
753.160421	2571.492577
753.488356	2564.939077
753.816243	2564.939077
754.144082	2563.342712
754.471875	2567.711712
754.799620	2563.678788
755.127318	2542.169865
755.454969	2562.418500
755.782572	2558.889692
756.110129	2571.408558
756.437638	2556.873231
756.765100	2564.939077
757.092515	2566.619462
757.419882	2552.168154
757.747203	2565.023096
758.074477	2550.823846
758.401703	2585.103692
758.728882	2567.711712
759.056014	2558.469596
759.383099	2560.402038
759.710138	2568.972000
760.037129	2561.158212
760.364073	2574.517269
760.690970	2560.570077
761.017820	2563.174673
761.344623	2559.981942
761.671379	2567.375635
761.998088	2563.846827
762.324751	2560.738115
762.651366	2561.494288
762.977935	2560.990173
763.304456	2568.467885
763.630931	2563.090654
763.957359	2559.897923
764.283740	2554.940788
764.610074	2563.258692
764.936362	2562.166442
765.262602	2577.373923
765.588796	2571.828654
765.914943	2571.156500
766.241044	2560.318019
766.567097	2553.344423
766.893104	2562.166442
767.219064	2571.324538
767.544978	2569.980231
767.870845	2550.991885
768.196665	2555.024808
768.522438	2572.416788
768.848165	2574.433250
769.173846	2567.963769
769.499479	2563.678788
769.825066	2559.057731
770.150607	2560.234000
770.476101	2561.410269
770.801548	2565.695250
771.126949	2558.469596
771.452303	2559.477827
771.777611	2555.865000
772.102872	2565.695250
772.428087	2570.736404
772.753256	2564.771038
773.078378	2574.097173
773.403453	2563.006635
773.728482	2564.771038
774.053465	2576.953827
774.378401	2562.334481
774.703291	2557.713423
775.028135	2553.260404
775.352932	2565.443192
775.677683	2558.133519
776.002388	2569.560135
776.327046	2574.517269
776.651658	2565.275154
776.976224	2567.711712
777.300743	2570.820423
777.625216	2566.031327
777.949643	2569.560135
778.274024	2564.855058
778.598359	2558.805673
778.922647	2561.830365
779.246889	2556.369115
779.571086	2557.041269
779.895236	2566.451423
780.219339	2563.090654
780.543397	2557.545385
780.867409	2568.131808
781.191374	2550.823846
781.515294	2552.504231
781.839167	2553.176385
782.162995	2558.217538
782.486776	2559.813904
782.810511	2563.846827
783.134201	2551.496000
783.457844	2558.217538
783.781441	2581.658904
784.104993	2551.832077
784.428498	2556.537154
784.751958	2556.453135
785.075372	2569.644154
785.398739	2568.215827
785.722061	2565.611231
786.045337	2564.939077
786.368568	2560.822135
786.691752	2558.301558
787.014891	2555.444904
787.337983	2569.644154
787.661030	2559.561846
787.984031	2561.410269
788.306987	2571.324538
788.629897	2555.192846
788.952760	2558.721654
789.275579	2563.762808
789.598351	2546.034750
789.921078	2566.703481
790.243759	2564.098885
790.566395	2563.174673
790.888984	2563.090654
791.211529	2560.402038
791.534027	2560.234000
791.856480	2571.996692
792.178888	2555.192846
792.501249	2566.031327
792.823566	2560.318019
793.145836	2565.107115
793.468062	2564.939077
793.790241	2559.477827
794.112375	2574.937365
794.434464	2552.252173
794.756507	2550.067673
795.078505	2578.298135
795.400457	2555.696962
795.722364	2561.746346
796.044226	2558.721654
796.366042	2564.939077
796.687812	2569.224058
797.009538	2556.621173
797.331218	2570.820423
797.652852	2559.393808
797.974442	2555.949019
798.295986	2558.385577
798.617484	2564.350942
798.938938	2562.586538
799.260346	2570.148269
799.581709	2558.973712
799.903026	2570.064250
800.224299	2568.635923
800.545526	2565.191135
800.866708	2566.115346
801.187845	2553.764519
801.508936	2554.436673
801.829983	2555.865000
802.150984	2557.545385
802.471940	2563.006635
802.792851	2576.113635
803.113717	2564.855058
803.434538	2550.151692
803.755314	2567.375635
804.076045	2563.006635
804.396731	2567.627692
804.717372	2557.461365
805.037967	2548.975423
805.358518	2555.696962
805.679024	2560.822135
805.999485	2574.097173
806.319901	2567.123577
806.640272	2560.906154
806.960598	2547.715135
807.280879	2570.484346
807.601115	2554.856769
807.921306	2553.596481
808.241453	2569.224058
808.561554	2555.696962
808.881611	2563.426731
809.201623	2554.940788
809.521590	2567.963769
809.841513	2577.457942
810.161390	2558.805673
810.481223	2558.301558
810.801011	2571.828654
811.120755	2561.242231
811.440453	2565.947308
811.760107	2562.082423
812.079716	2576.953827
812.399281	2542.421923
812.718801	2565.947308
813.038276	2569.224058
813.357707	2554.352654
813.677093	2561.326250
813.996434	2560.570077
814.315731	2566.955538
814.634983	2571.828654
814.954191	2557.209308
815.273354	2556.789212
815.592473	2557.713423
815.911547	2550.739827
816.230577	2566.283385
816.549562	2579.222346
816.868502	2564.350942
817.187399	2570.484346
817.506250	2570.904442
817.825058	2573.425019
818.143821	2556.117058
818.462539	2561.326250
818.781213	2567.795731
819.099843	2566.199365
819.418429	2575.021385
819.736970	2566.787500
820.055466	2568.299846
820.373919	2564.939077
820.692327	2573.256981
821.010691	2567.543673
821.329011	2566.283385
821.647286	2557.461365
821.965517	2569.476115
822.283704	2562.502519
822.601847	2567.963769
822.919945	2555.444904
823.237999	2559.645865
823.556010	2553.848538
823.873976	2564.771038
824.191897	2555.360885
824.509775	2560.654096
824.827609	2553.680500
825.145398	2558.301558
825.463144	2572.332769
825.780845	2570.232288
826.098502	2562.418500
826.416116	2566.871519
826.733685	2578.886269
827.051210	2569.728173
827.368692	2567.291615
827.686129	2573.929135
828.003522	2572.080712
828.320872	2563.762808
828.638177	2561.074192
828.955439	2563.006635
829.272656	2566.535442
829.589830	2559.645865
829.906960	2561.998404
830.224046	2556.033038
830.541088	2553.680500
830.858086	2571.408558
831.175041	2569.392096
831.491952	2549.227481
831.808819	2563.258692
832.125642	2563.006635
832.442421	2569.560135
832.759157	2556.621173
833.075849	2559.645865
833.392497	2564.518981
833.709101	2571.072481
834.025662	2563.342712
834.342179	2561.662327
834.658653	2542.337904
834.975083	2568.467885
835.291469	2570.820423
835.607811	2566.535442
835.924110	2546.958962
836.240366	2559.981942
836.556578	2561.998404
836.872746	2561.578308
837.188871	2553.764519
837.504952	2551.075904
837.820990	2555.528923
838.136984	2557.965481
838.452935	2556.957250
838.768842	2568.719942
839.084706	2552.168154
839.400526	2563.594769
839.716303	2558.469596
840.032037	2549.311500
840.347727	2566.115346
840.663373	2571.324538
840.978977	2564.603000
841.294537	2551.496000
841.610054	2559.393808
841.925527	2566.703481
842.240957	2556.957250
842.556344	2563.258692
842.871687	2545.278577
843.186987	2563.174673
843.502244	2568.635923
843.817458	2561.410269
844.132629	2556.537154
844.447756	2575.189423
844.762840	2544.942500
845.077881	2573.004923
845.392879	2559.561846
845.707833	2561.830365
846.022745	2569.392096
846.337613	2571.240519
846.652438	2567.123577
846.967221	2563.930846
847.281960	2562.922615
847.596656	2547.547096
847.911309	2564.771038
848.225919	2574.181192
848.540485	2554.352654
848.855009	2558.469596
849.169490	2561.494288
849.483928	2562.586538
849.798323	2553.260404
850.112675	2571.324538
850.426984	2562.418500
850.741251	2551.159923
851.055474	2558.469596
851.369654	2553.008346
851.683792	2562.922615
851.997887	2569.644154
852.311938	2564.098885
852.625947	2555.108827
852.939914	2574.097173
853.253837	2564.014865
853.567718	2565.359173
853.881555	2567.375635
854.195350	2554.268635
854.509103	2547.042981
854.822812	2554.856769
855.136479	2563.594769
855.450103	2549.563558
855.763685	2560.822135
856.077224	2560.822135
856.390720	2560.065962
856.704173	2557.713423
857.017584	2574.433250
857.330953	2564.434962
857.644278	2561.998404
857.957561	2573.425019
858.270802	2564.771038
858.584000	2555.360885
858.897155	2560.486058
859.210268	2564.098885
859.523339	2562.670558
859.836367	2560.486058
860.149352	2575.273442
860.462295	2560.570077
860.775195	2570.316308
861.088054	2565.947308
861.400869	2538.052923
861.713642	2552.756288
862.026373	2562.502519
862.339062	2568.803962
862.651708	2556.957250
862.964312	2554.940788
863.276873	2567.375635
863.589392	2552.084135
863.901869	2545.446615
864.214303	2565.443192
864.526696	2557.629404
864.839045	2555.360885
865.151353	2571.156500
865.463619	2558.301558
865.775842	2547.463077
866.088023	2550.151692
866.400162	2560.486058
866.712258	2553.848538
867.024313	2559.309788
867.336325	2547.211019
867.648296	2561.998404
867.960224	2550.067673
868.272110	2553.680500
868.583954	2560.486058
868.895755	2552.252173
869.207515	2556.201077
869.519233	2561.410269
869.830909	2557.209308
870.142542	2561.326250
870.454134	2564.771038
870.765684	2559.981942
871.077191	2555.108827
871.388657	2568.131808
871.700081	2569.140038
872.011463	2559.897923
872.322803	2549.143462
872.634101	2564.266923
872.945357	2556.537154
873.256571	2549.647577
873.567744	2563.762808
873.878874	2561.998404
874.189963	2545.950731
874.501010	2566.703481
874.812015	2564.939077
875.122979	2562.334481
875.433900	2573.845115
875.744780	2569.644154
876.055618	2543.262115
876.366415	2549.059442
876.677169	2550.739827
876.987882	2551.411981
877.298554	2556.369115
877.609183	2563.006635
877.919771	2571.492577
878.230317	2560.065962
878.540822	2568.383865
878.851285	2553.428442
879.161707	2541.245654
879.472087	2554.520692
879.782425	2554.520692
880.092722	2547.967192
880.402977	2564.603000
880.713191	2579.978519
881.023363	2563.426731
881.333494	2566.367404
881.643583	2549.227481
881.953631	2554.940788
882.263637	2561.158212
882.573602	2554.520692
882.883526	2560.654096
883.193408	2575.441481
883.503248	2579.474404
883.813048	2564.182904
884.122806	2561.998404
884.432522	2544.942500
884.742197	2552.084135
885.051831	2558.385577
885.361424	2553.848538
885.670975	2556.453135
885.980485	2549.983654
886.289954	2557.461365
886.599382	2565.863288
886.908768	2555.696962
887.218113	2556.873231
887.527417	2557.125288
887.836680	2568.635923
888.145901	2547.379058
888.455082	2568.299846
888.764221	2565.695250
889.073319	2563.930846
889.382376	2556.453135
889.691392	2569.308077
890.000366	2553.176385
890.309300	2567.207596
890.618193	2563.762808
890.927044	2568.299846
891.235855	2546.706904
891.544625	2555.192846
891.853353	2563.678788
892.162041	2552.336192
892.470687	2559.897923
892.779293	2553.344423
893.087858	2563.510750
893.396381	2560.906154
893.704864	2556.201077
894.013306	2551.916096
894.321707	2565.611231
894.630068	2566.451423
894.938387	2559.981942
895.246665	2566.031327
895.554903	2555.612942
895.863100	2575.105404
896.171256	2560.990173
896.479371	2554.772750
896.787446	2558.385577
897.095480	2566.955538
897.403473	2566.283385
897.711425	2564.434962
898.019336	2550.823846
898.327207	2556.873231
898.635038	2556.789212
898.942827	2558.301558
899.250576	2555.696962
899.558284	2557.125288
899.865952	2542.001827
900.173579	2551.327962
900.481165	2549.983654
900.788711	2543.934269
901.096216	2560.402038
901.403681	2559.057731
901.711105	2557.545385
902.018489	2555.444904
902.325832	2554.268635
902.633135	2567.963769
902.940397	2552.168154
903.247619	2562.754577
903.554800	2547.547096
903.861941	2566.367404
904.169041	2545.698673
904.476101	2554.352654
904.783121	2553.680500
905.090100	2566.955538
905.397039	2566.367404
905.703938	2555.780981
906.010796	2573.172962
906.317614	2573.172962
906.624391	2563.258692
906.931129	2554.016577
907.237826	2566.367404
907.544483	2564.014865
907.851099	2558.721654
908.157675	2541.581731
908.464211	2562.754577
908.770707	2564.855058
909.077163	2561.998404
909.383578	2550.991885
909.689954	2558.133519
909.996289	2556.285096
910.302584	2534.440096
910.608839	2555.780981
910.915054	2554.604712
911.221229	2570.736404
911.527363	2548.891404
911.833458	2564.350942
912.139513	2542.337904
912.445527	2568.215827
912.751502	2571.660615
913.057436	2552.588250
913.363331	2554.436673
913.669186	2561.242231
913.975000	2561.494288
914.280775	2555.108827
914.586510	2551.664038
914.892205	2557.965481
915.197859	2550.571788
915.503475	2566.031327
915.809050	2554.772750
916.114585	2565.611231
916.420081	2560.234000
916.725536	2566.955538
917.030952	2565.863288
917.336328	2571.156500
917.641665	2544.438385
917.946961	2553.848538
918.252218	2556.873231
918.557435	2553.176385
918.862612	2557.209308
919.167750	2558.553615
919.472848	2561.158212
919.777906	2539.397231
920.082925	2564.771038
920.387904	2560.570077
920.692843	2553.848538
920.997743	2546.958962
921.302603	2555.360885
921.607423	2561.746346
921.912204	2569.140038
922.216946	2556.621173
922.521647	2545.278577
922.826310	2567.879750
923.130932	2571.744635
923.435516	2555.949019
923.740059	2558.805673
924.044564	2547.295038
924.349028	2563.426731
924.653454	2562.502519
924.957840	2550.655808
925.262186	2560.906154
925.566493	2558.049500
925.870761	2549.311500
926.174989	2558.133519
926.479178	2557.209308
926.783328	2567.291615
927.087438	2543.346135
927.391509	2551.664038
927.695541	2553.344423
927.999533	2546.958962
928.303486	2547.799154
928.607400	2544.438385
928.911275	2564.182904
929.215110	2548.639346
929.518906	2543.850250
929.822663	2558.889692
930.126381	2547.715135
930.430060	2554.352654
930.733699	2564.687019
931.037299	2554.604712
931.340861	2564.098885
931.644383	2568.467885
931.947866	2550.823846
932.251309	2555.108827
932.554714	2557.377346
932.858080	2564.855058
933.161407	2552.504231
933.464694	2570.148269
933.767943	2550.823846
934.071153	2557.545385
934.374323	2572.668846
934.677455	2570.568365
934.980548	2553.344423
935.283602	2568.131808
935.586617	2564.182904
935.889593	2550.487769
936.192530	2554.268635
936.495428	2560.318019
936.798287	2559.141750
937.101108	2558.805673
937.403890	2552.924327
937.706632	2559.057731
938.009336	2564.603000
938.312002	2557.797442
938.614628	2551.748058
938.917216	2564.518981
939.219765	2568.635923
939.522275	2566.535442
939.824747	2550.571788
940.127179	2548.639346
940.429573	2542.337904
940.731929	2559.057731
941.034246	2555.865000
941.336524	2546.874942
941.638763	2555.696962
941.940964	2570.148269
942.243126	2555.360885
942.545250	2558.385577
942.847335	2552.252173
943.149381	2553.008346
943.451389	2550.235712
943.753359	2551.327962
944.055290	2545.950731
944.357182	2541.833788
944.659036	2551.916096
944.960851	2566.787500
945.262628	2555.108827
945.564367	2568.215827
945.866067	2552.756288
946.167729	2547.967192
946.469352	2548.975423
946.770937	2557.881462
947.072484	2543.766231
947.373992	2550.571788
947.675462	2557.713423
947.976893	2557.881462
948.278286	2561.578308
948.579641	2554.856769
948.880958	2550.907865
949.182236	2558.217538
949.483476	2543.682212
949.784678	2551.496000
950.085841	2569.560135
950.386967	2557.461365
950.688054	2563.090654
950.989103	2562.082423
951.290114	2567.711712
951.591087	2556.873231
951.892021	2553.680500
952.192917	2544.270346
952.493776	2572.584827
952.794596	2535.784404
953.095378	2560.822135
953.396122	2559.813904
953.696828	2571.492577
953.997496	2552.588250
954.298126	2549.815615
954.598718	2550.991885
954.899272	2549.899635
955.199788	2564.603000
955.500266	2558.301558
955.800706	2549.983654
956.101108	2546.874942
956.401472	2548.051212
956.701798	2559.477827
957.002087	2554.856769
957.302337	2552.504231
957.602550	2576.281673
957.902724	2547.799154
958.202861	2554.688731
958.502960	2550.991885
958.803022	2558.469596
959.103045	2566.703481
959.403031	2535.448327
959.702979	2557.797442
960.002889	2538.557038
960.302762	2559.141750
960.602596	2561.410269
960.902393	2561.326250
961.202153	2539.229192
961.501875	2557.881462
961.801559	2558.217538
962.101205	2562.334481
962.400814	2560.822135
962.700385	2568.215827
962.999918	2536.204500
963.299414	2557.629404
963.598873	2557.797442
963.898293	2562.838596
964.197677	2547.463077
964.497022	2558.721654
964.796331	2570.652385
965.095601	2538.304981
965.394835	2570.568365
965.694030	2541.329673
965.993189	2556.789212
966.292309	2557.881462
966.591393	2550.571788
966.890439	2568.635923
967.189447	2546.202788
967.488419	2566.031327
967.787353	2553.764519
968.086249	2548.303269
968.385108	2549.899635
968.683930	2552.588250
968.982714	2549.395519
969.281462	2555.108827
969.580172	2550.403750
969.878844	2557.545385
970.177480	2556.705192
970.476078	2569.896212
970.774639	2557.629404
971.073162	2572.584827
971.371649	2553.428442
971.670098	2551.748058
971.968510	2549.227481
972.266885	2566.871519
972.565223	2566.451423
972.863524	2564.182904
973.161788	2544.606423
973.460014	2551.916096
973.758204	2561.830365
974.056356	2556.705192
974.354471	2550.571788
974.652550	2546.706904
974.950591	2558.553615
975.248595	2553.176385
975.546563	2560.486058
975.844493	2573.004923
976.142386	2562.922615
976.440243	2547.883173
976.738062	2553.260404
977.035845	2556.537154
977.333590	2552.084135
977.631299	2553.260404
977.928971	2563.090654
978.226606	2559.057731
978.524204	2560.402038
978.821765	2556.537154
979.119290	2552.252173
979.416777	2560.906154
979.714228	2564.518981
980.011642	2557.797442
980.309020	2552.000115
980.606360	2544.102308
980.903664	2555.360885
981.200931	2549.311500
981.498162	2567.627692
981.795356	2534.272058
982.092513	2557.545385
982.389633	2561.242231
982.686717	2549.311500
982.983764	2567.123577
983.280775	2556.117058
983.577749	2556.033038
983.874686	2576.029615
984.171587	2553.848538
984.468451	2553.008346
984.765279	2562.166442
985.062070	2545.866712
985.358824	2566.619462
985.655543	2549.227481
985.952224	2548.639346
986.248869	2563.510750
986.545478	2565.107115
986.842050	2561.914385
987.138586	2540.153404
987.435086	2560.318019
987.731549	2557.377346
988.027975	2556.537154
988.324366	2564.855058
988.620719	2561.410269
988.917037	2574.349231
989.213318	2543.514173
989.509563	2555.865000
989.805772	2550.067673
990.101944	2546.454846
990.398080	2549.143462
990.694180	2558.637635
990.990244	2560.402038
991.286271	2546.538865
991.582262	2545.194558
991.878217	2550.319731
992.174136	2567.459654
992.470019	2560.990173
992.765865	2552.252173
993.061676	2554.772750
993.357450	2554.016577
993.653188	2556.873231
993.948890	2551.748058
994.244556	2559.897923
994.540186	2541.497712
994.835780	2561.242231
995.131337	2557.545385
995.426859	2552.840308
995.722345	2558.553615
996.017795	2552.000115
996.313208	2556.789212
996.608586	2556.957250
996.903928	2565.443192
997.199234	2555.696962
997.494504	2545.446615
997.789738	2551.075904
998.084936	2564.771038
998.380099	2547.967192
998.675225	2549.395519
998.970316	2549.983654
999.265371	2547.715135
999.560390	2565.863288
999.855373	2556.957250
1000.150320	2542.001827
1000.445232	2553.848538
1000.740108	2543.262115
1001.034948	2552.756288
1001.329752	2560.822135
1001.624521	2557.881462
1001.919254	2544.690442
1002.213951	2555.865000
1002.508613	2555.360885
1002.803239	2546.370827
1003.097829	2551.411981
1003.392384	2533.851962
1003.686903	2567.879750
1003.981386	2559.477827
1004.275834	2564.350942
1004.570246	2553.344423
1004.864623	2558.721654
1005.158964	2556.201077
1005.453270	2566.619462
1005.747540	2555.949019
1006.041775	2554.688731
1006.335974	2555.612942
1006.630138	2550.487769
1006.924266	2542.842019
1007.218359	2565.527212
1007.512416	2548.471308
1007.806438	2557.293327
1008.100425	2550.823846
1008.394376	2567.627692
1008.688292	2550.067673
1008.982172	2566.451423
1009.276017	2544.102308
1009.569827	2558.301558
1009.863602	2549.479538
1010.157341	2548.807385
1010.451045	2560.402038
1010.744714	2550.067673
1011.038347	2548.555327
1011.331945	2551.748058
1011.625508	2560.654096
1011.919036	2541.749769
1012.212528	2563.006635
1012.505986	2548.471308
1012.799408	2551.580019
1013.092795	2553.596481
1013.386147	2549.563558
1013.679464	2552.840308
1013.972745	2571.828654
1014.265992	2553.848538
1014.559204	2554.268635
1014.852380	2539.565269
1015.145521	2557.713423
1015.438628	2550.151692
1015.731699	2553.680500
1016.024736	2566.955538
1016.317737	2535.532346
1016.610703	2552.840308
1016.903635	2551.243942
1017.196531	2563.846827
1017.489393	2562.838596
1017.782219	2550.235712
1018.075011	2547.967192
1018.367768	2566.367404
1018.660490	2550.151692
1018.953177	2550.151692
1019.245829	2550.151692
