Dividing Wavelength (nm)	Counts (n)	Slit_number_3_of_a_total_of_40	
326.493990	2051.321117
326.888308	2051.321117
327.282561	2051.321117
327.676750	2028.207427
328.070874	2020.696108
328.464933	2028.635925
328.858929	2043.028419
329.252859	2053.791283
329.646726	2059.689433
330.040528	2083.029975
330.434265	2100.472367
330.827938	2125.476490
331.221547	2139.339663
331.615091	2155.849442
332.008571	2179.643688
332.401986	2204.975487
332.795338	2215.914790
333.188625	2230.156050
333.581847	2257.605133
333.975006	2273.812442
334.368100	2291.330452
334.761129	2309.377783
335.154095	2322.988898
335.546996	2344.514625
335.939833	2361.679754
336.332606	2373.602083
336.725315	2389.229660
337.117960	2396.640156
337.510540	2406.646846
337.903056	2420.383990
338.295508	2433.768254
338.687896	2439.641198
339.080220	2445.110850
339.472480	2438.355704
339.864676	2447.631427
340.256807	2457.990998
340.648875	2463.284210
341.040879	2450.303238
341.432818	2458.243056
341.824694	2461.192131
342.216506	2463.712708
342.608253	2455.369598
342.999937	2455.369598
343.391557	2455.546038
343.783113	2445.388113
344.174605	2451.966819
344.566033	2447.404575
344.957397	2455.394804
345.348697	2442.439038
345.739934	2450.227621
346.131106	2447.505398
346.522215	2443.447269
346.913260	2436.717329
347.304241	2437.927206
347.695159	2434.095929
348.086012	2436.288831
348.476802	2432.331525
348.867528	2425.929260
349.258191	2428.853129
349.648789	2428.777512
350.039324	2427.819692
350.429796	2423.761563
350.820203	2424.795000
351.210548	2426.307346
351.600828	2424.366502
351.991045	2426.761050
352.381198	2434.020312
352.771288	2423.610329
353.161314	2420.333579
353.551276	2423.358271
353.941175	2419.552200
354.331010	2427.416400
354.720782	2424.265679
355.110490	2427.920515
355.500135	2420.257962
355.889717	2424.744588
356.279235	2425.072263
356.668689	2426.584610
357.058080	2425.248704
357.447408	2428.122162
357.836672	2429.357244
358.225873	2424.719383
358.615010	2429.710125
359.004084	2428.878335
359.393095	2429.483273
359.782043	2428.525454
360.170927	2428.374219
360.559748	2427.970927
360.948505	2435.230188
361.337199	2439.363935
361.725830	2433.087698
362.114398	2422.097983
362.502903	2440.397371
362.891344	2432.785229
363.279722	2435.179777
363.668037	2432.255908
364.056289	2434.776485
364.444478	2436.818152
364.832603	2431.524940
365.220665	2436.061979
365.608665	2440.573812
365.996601	2440.346960
366.384474	2437.196238
366.772284	2430.718356
367.160031	2441.203956
367.547715	2441.002310
367.935336	2442.817125
368.322893	2438.179263
368.710388	2434.171546
369.097820	2433.818665
369.485189	2425.853642
369.872495	2443.346446
370.259738	2434.952925
370.646918	2440.951898
371.034035	2444.581529
371.421090	2435.986362
371.808081	2434.095929
372.195010	2441.355190
372.581875	2440.599017
372.968678	2441.203956
373.355418	2447.606221
373.742096	2442.514656
374.128710	2438.683379
374.515262	2445.312496
374.901751	2448.009513
375.288177	2442.010540
375.674540	2435.734304
376.060841	2446.547579
376.447079	2438.154058
376.833254	2448.790892
377.219367	2438.179263
377.605417	2442.363421
377.991404	2441.456013
378.377329	2446.623196
378.763191	2442.010540
379.148991	2445.942640
379.534727	2434.045517
379.920402	2444.783175
380.306013	2440.523400
380.691563	2444.657146
381.077049	2447.001283
381.462474	2450.706531
381.847835	2445.564554
382.233134	2442.892742
382.618371	2444.455500
383.003545	2449.017744
383.388657	2443.900973
383.773706	2438.002823
384.158693	2451.109823
384.543618	2450.202415
384.928480	2446.497167
385.313280	2441.632454
385.698017	2445.514142
386.082692	2445.993052
386.467305	2453.605194
386.851856	2446.698813
387.236344	2443.094388
387.620770	2453.579988
388.005133	2440.800663
388.389435	2448.185954
388.773674	2442.161775
389.157851	2453.403548
389.541965	2449.446242
389.926018	2454.537808
390.310008	2444.556323
390.693936	2455.117540
391.077802	2452.067642
391.461606	2453.504371
391.845348	2449.647888
392.229027	2458.268262
392.612645	2449.370625
392.996200	2454.840277
393.379694	2451.689556
393.763125	2459.881431
394.146494	2444.304265
394.529801	2447.681838
394.913047	2454.361367
395.296230	2453.857252
395.679351	2457.486883
396.062410	2451.538321
396.445408	2444.757969
396.828343	2453.731223
397.211217	2452.092848
397.594028	2453.378342
397.976778	2450.756942
398.359466	2456.125771
398.742092	2454.663837
399.124656	2458.999229
399.507158	2461.847481
399.889598	2459.957048
400.271977	2456.478652
400.654294	2459.780608
401.036549	2458.016204
401.418742	2457.663323
401.800874	2454.058898
402.182944	2458.343879
402.564952	2456.352623
402.946898	2455.117540
403.328783	2451.840790
403.710606	2462.880917
404.092367	2447.102106
404.474067	2456.150977
404.855705	2452.949844
405.237282	2452.244083
405.618797	2451.714762
406.000250	2457.915381
406.381642	2458.268262
406.762972	2453.630400
407.144240	2456.226594
407.525447	2461.620629
407.906593	2453.050667
408.287677	2451.160235
408.668700	2458.822788
409.049661	2463.259004
409.430560	2455.117540
409.811399	2461.872687
410.192176	2445.841817
410.572891	2465.754375
410.953545	2461.091308
411.334138	2456.302212
411.714669	2463.359827
412.095139	2456.226594
412.475547	2464.821762
412.855894	2466.258490
413.236180	2455.193158
413.616405	2464.116000
413.996568	2459.175669
414.376670	2470.946763
414.756711	2460.612398
415.136691	2472.786785
415.516609	2451.941613
415.896466	2456.781121
416.276262	2461.318160
416.655997	2457.234825
417.035670	2460.914867
417.415283	2468.022894
417.794834	2465.703963
418.174324	2464.594910
418.553753	2466.510548
418.933121	2464.922585
419.312428	2471.198821
419.691674	2465.149437
420.070859	2458.847994
420.449983	2462.729683
420.829045	2466.283696
421.208047	2466.359313
421.586988	2459.251287
421.965867	2469.812504
422.344686	2468.174129
422.723444	2466.712194
423.102141	2461.872687
423.480777	2455.142746
423.859352	2452.874227
424.237866	2459.931842
424.616319	2463.536267
424.994712	2468.249746
425.373044	2463.006946
425.751314	2466.031638
426.129524	2462.049127
426.507673	2457.612912
426.885762	2463.763119
427.263789	2460.057871
427.641756	2467.342338
428.019662	2468.098512
428.397508	2472.408698
428.775292	2466.787812
429.153016	2458.595937
429.530679	2460.940073
429.908282	2466.586165
430.285824	2462.906123
430.663305	2458.822788
431.040726	2463.611885
431.418086	2466.460137
431.795385	2465.502317
432.172624	2467.165898
432.549802	2467.216310
432.926920	2466.460137
433.303977	2460.486369
433.680974	2466.031638
434.057910	2468.375775
434.434786	2470.971969
434.811601	2463.964765
435.188355	2460.990485
435.565050	2468.224540
435.941683	2467.342338
436.318257	2467.241515
436.694770	2461.696246
437.071222	2466.989458
437.447614	2465.451906
437.823946	2464.998202
438.200218	2466.233285
438.576429	2468.224540
438.952580	2464.267235
439.328670	2461.797069
439.704700	2463.788325
440.080670	2465.451906
440.456580	2466.359313
440.832429	2473.442135
441.208218	2469.862915
441.583947	2471.652525
441.959616	2467.266721
442.335224	2463.763119
442.710773	2468.249746
443.086261	2471.728142
443.461689	2465.401494
443.837057	2472.509521
444.212365	2468.300158
444.587612	2460.435958
444.962800	2467.468367
445.337927	2462.200362
445.712995	2466.762606
446.088002	2462.326390
446.462949	2457.915381
446.837837	2470.820735
447.212664	2465.703963
447.587431	2465.225054
447.962139	2474.652012
448.336786	2468.577421
448.711374	2466.308902
449.085901	2459.604167
449.460369	2474.576394
449.834776	2465.729169
450.209124	2472.509521
450.583412	2469.862915
450.957640	2471.249233
451.331808	2470.493060
451.705917	2469.535240
452.079965	2466.460137
452.453954	2469.510035
452.827883	2472.660756
453.201752	2471.072792
453.575562	2465.376288
453.949311	2470.543471
454.323001	2466.586165
454.696632	2468.350569
455.070202	2479.920017
455.443713	2478.936992
455.817164	2476.214769
456.190556	2468.753862
456.563888	2470.316619
456.937160	2474.273925
457.310373	2466.913840
457.683526	2474.399954
458.056619	2476.996148
458.429653	2475.458596
458.802628	2471.854171
459.175542	2478.458083
459.548398	2477.122177
459.921194	2467.871660
460.293930	2465.073819
460.666607	2465.048613
461.039224	2466.636577
461.411782	2474.122690
461.784280	2465.225054
462.156719	2482.667446
462.529099	2478.836169
462.901419	2469.257977
463.273680	2473.542958
463.645882	2474.702423
464.018024	2471.274438
464.390106	2475.231744
464.762130	2475.458596
465.134094	2469.484829
465.505999	2476.139152
465.877845	2466.384519
466.249631	2480.197281
466.621358	2470.896352
466.993026	2477.601087
467.364634	2476.315592
467.736184	2476.113946
468.107674	2475.408185
468.479105	2479.264667
468.850477	2463.637090
469.221790	2467.972483
469.593043	2473.064048
469.964238	2475.181333
470.335373	2473.643781
470.706449	2472.660756
471.077467	2467.896865
471.448425	2476.265181
471.819324	2475.156127
472.190164	2472.081023
472.560945	2474.828452
472.931667	2467.947277
473.302330	2480.928248
473.672934	2471.778554
474.043479	2482.768269
474.413965	2474.173102
474.784393	2477.374235
475.154761	2477.096971
475.525070	2477.777527
475.895321	2480.474544
476.265513	2483.801706
476.635645	2479.667960
477.005719	2480.323310
477.375734	2482.138125
477.745691	2470.518265
478.115588	2480.398927
478.485427	2478.609317
478.855207	2476.416415
479.224928	2475.685448
479.594591	2478.483288
479.964194	2479.063021
480.333739	2480.903042
480.703226	2479.718371
481.072653	2476.718885
481.442022	2480.272898
481.811333	2478.609317
482.180584	2475.055304
482.549777	2467.443162
482.918912	2477.021354
483.287988	2476.895325
483.657005	2472.610344
484.025964	2480.373721
484.394864	2478.634523
484.763706	2474.727629
485.132489	2486.801192
485.501213	2481.155100
485.869879	2480.676190
486.238487	2482.440594
486.607036	2478.836169
486.975527	2473.240488
487.343959	2478.105202
487.712333	2474.374748
488.080648	2471.854171
488.448905	2484.305821
488.817104	2473.467340
489.185244	2477.197794
489.553326	2482.944710
489.921350	2486.498723
490.289315	2478.281642
490.657222	2480.172075
491.025070	2477.046560
491.392861	2474.677217
491.760593	2475.382979
492.128267	2488.489979
492.495883	2478.609317
492.863440	2479.441108
493.230939	2482.894298
493.598380	2484.331027
493.965763	2484.532673
494.333088	2470.140179
494.700354	2486.448312
495.067563	2484.709113
495.434713	2476.466827
495.801805	2481.734833
496.168839	2476.844913
496.535815	2490.582058
496.902733	2484.381438
497.269593	2477.777527
497.636395	2476.466827
498.003139	2480.071252
498.369825	2475.937506
498.736453	2485.893785
499.103023	2480.323310
499.469535	2480.524956
499.835989	2491.489465
500.202385	2480.046046
500.568723	2480.499750
500.935003	2477.248206
501.301226	2467.997688
501.667390	2487.280102
502.033497	2478.584112
502.399546	2489.321769
502.765537	2476.920531
503.131470	2479.617548
503.497345	2482.541417
503.863163	2483.902529
504.228923	2482.869092
504.594625	2478.332054
504.960269	2477.651498
505.325856	2483.952940
505.691385	2478.634523
506.056856	2479.063021
506.422270	2471.753348
506.787625	2481.356746
507.152924	2479.390696
507.518164	2484.331027
507.883347	2474.248719
508.248472	2484.910760
508.613540	2481.684421
508.978550	2472.358287
509.343503	2476.164358
509.708398	2486.927221
510.073236	2477.500263
510.438016	2478.432877
510.802738	2482.944710
511.167403	2489.649444
511.532010	2490.708087
511.896561	2482.289360
512.261053	2485.717344
512.625488	2480.373721
512.989866	2481.507981
513.354186	2483.751294
513.718449	2490.934938
514.082655	2482.516212
514.446803	2483.927735
514.810894	2487.960658
515.174927	2491.413848
515.538904	2486.523929
515.902822	2482.969915
516.266684	2488.691625
516.630488	2477.802733
516.994235	2481.281129
517.357925	2483.650471
517.721558	2491.035762
518.085133	2476.214769
518.448651	2481.860862
518.812112	2478.533700
519.175516	2492.699342
519.538863	2486.927221
519.902152	2489.674650
520.265385	2489.069712
520.628560	2495.572800
520.991678	2485.414875
521.354739	2496.328973
521.717743	2488.086687
522.080690	2500.160250
522.443580	2500.689571
522.806413	2502.731238
523.169189	2488.943683
523.531908	2499.681340
523.894569	2497.841319
524.257174	2497.185969
524.619722	2500.462719
524.982213	2499.025990
525.344647	2500.109838
525.707025	2503.815087
526.069345	2503.210148
526.431608	2507.747187
526.793815	2498.042965
527.155964	2510.948319
527.518057	2503.310971
527.880093	2509.133504
528.242072	2510.192146
528.603995	2508.856240
528.965860	2516.468383
529.327669	2517.400996
529.689421	2517.022910
530.051117	2514.199863
530.412755	2520.501306
530.774337	2514.703979
531.135862	2525.945752
531.497331	2515.233300
531.858743	2523.147912
532.220098	2523.273940
532.581396	2522.769825
532.942638	2525.139167
533.303824	2531.566638
533.664953	2533.104190
534.026025	2523.904085
534.387040	2520.400483
534.747999	2526.500279
535.108902	2533.356248
535.469748	2527.382481
535.830537	2535.246681
536.191270	2537.616023
536.551947	2530.155115
536.912567	2528.365506
537.273131	2531.012112
537.633638	2526.071781
537.994089	2541.548123
538.354483	2546.312013
538.714821	2536.708615
539.075103	2532.423635
539.435328	2534.666948
539.795497	2547.471479
540.155609	2534.742565
540.515665	2544.194729
540.875665	2539.556867
541.235609	2548.933413
541.595496	2539.632485
541.955328	2548.278063
542.315102	2544.295552
542.674821	2550.773435
543.034483	2547.673125
543.394090	2552.310987
543.753640	2558.410783
544.113134	2551.706048
544.472571	2558.587223
544.831953	2565.417987
545.191278	2562.569735
545.550548	2550.420554
545.909761	2551.504402
546.268918	2552.966337
546.628019	2562.821792
546.987064	2557.074877
547.346053	2556.570762
547.704986	2560.074363
548.063863	2550.874258
548.422684	2557.931873
548.781449	2558.335165
549.140158	2560.780125
549.498811	2561.334652
549.857408	2563.779612
550.215949	2566.501835
550.574434	2560.049158
550.932864	2559.292985
551.291237	2566.148954
551.649555	2563.754406
552.007817	2569.425704
552.366022	2561.183417
552.724173	2552.941131
553.082267	2565.065106
553.440305	2567.157185
553.798288	2566.199365
554.156215	2567.837740
554.514086	2557.226112
554.871902	2560.780125
555.229661	2558.763663
555.587365	2560.175187
555.945014	2561.309446
556.302606	2559.494631
556.660143	2564.409756
557.017625	2559.015721
557.375050	2547.169010
557.732421	2567.812535
558.089735	2560.376833
558.446994	2558.612429
558.804197	2557.982285
559.161345	2556.369115
559.518437	2557.755433
559.875474	2563.124262
560.232455	2560.023952
560.589381	2565.014694
560.946251	2558.461194
561.303065	2562.191648
561.659825	2559.998746
562.016528	2549.866027
562.373177	2556.066646
562.729770	2555.134033
563.086307	2551.529608
563.442789	2554.781152
563.799216	2552.361398
564.155587	2550.294525
564.511904	2552.487427
564.868164	2550.496171
565.224370	2550.899463
565.580520	2549.135060
565.936615	2554.151008
566.292654	2542.808412
566.648638	2551.479196
567.004567	2544.295552
567.360441	2543.766231
567.716260	2545.732281
568.072023	2541.018802
568.427732	2541.296065
568.783385	2547.421067
569.138982	2546.387631
569.494525	2544.093906
569.850013	2542.228679
570.205445	2535.221475
570.560823	2540.413863
570.916145	2536.154088
571.271412	2538.599048
571.626625	2535.196269
571.981782	2531.087729
572.336884	2531.390198
572.691931	2534.087215
573.046923	2528.088242
573.401860	2527.357275
573.756743	2528.667975
574.111570	2521.459125
574.466342	2529.373737
574.821059	2534.011598
575.175722	2525.517254
575.530330	2522.643796
575.884882	2523.652027
576.239380	2529.146885
576.593823	2526.197810
576.948211	2526.096987
577.302544	2519.997190
577.656823	2529.146885
578.011047	2523.626821
578.365216	2520.526512
578.719330	2526.147398
579.073389	2517.501819
579.427394	2522.921060
579.781344	2518.182375
580.135239	2511.603669
580.489080	2509.435973
580.842866	2509.713237
581.196597	2519.064577
581.550273	2513.393279
581.903895	2516.014679
582.257463	2510.696262
582.610975	2517.753877
582.964434	2506.890190
583.317837	2517.476613
583.671186	2518.333610
584.024481	2511.906138
584.377721	2511.830521
584.730906	2510.066117
585.084037	2507.142248
585.437113	2511.427229
585.790135	2511.754904
586.143103	2509.511590
586.496016	2502.655621
586.848874	2511.477640
587.201679	2505.125787
587.554428	2510.746673
587.907124	2511.301200
588.259765	2509.965294
588.612352	2508.226096
588.964884	2501.319715
589.317362	2512.737929
589.669786	2509.435973
590.022155	2503.134531
590.374470	2507.091837
590.726731	2496.833088
591.078937	2499.681340
591.431090	2514.603156
591.783188	2500.185456
592.135232	2508.528565
592.487222	2505.100581
592.839157	2509.259533
593.191038	2504.949346
593.542866	2505.932371
593.894639	2496.631442
594.246358	2501.823831
594.598022	2501.294510
594.949633	2510.948319
595.301190	2496.807883
595.652692	2499.933398
596.004141	2502.176712
596.355535	2505.957577
596.706876	2497.236381
597.058162	2503.336177
597.409395	2502.428769
597.760573	2503.689058
598.111698	2510.545027
598.462768	2500.966835
598.813785	2503.109325
599.164748	2496.278562
599.515657	2507.091837
599.866511	2504.621671
600.217312	2503.865498
600.568060	2505.201404
600.918753	2507.217865
601.269392	2509.562002
601.619978	2501.193687
601.970510	2501.571773
602.320988	2497.135558
602.671412	2497.538850
603.021783	2508.200890
603.372100	2506.007988
603.722363	2505.806342
604.072572	2503.764675
604.422728	2498.975579
604.772830	2495.018273
605.122878	2505.705519
605.472872	2517.451408
605.822813	2502.479181
606.172701	2511.502846
606.522534	2504.672083
606.872314	2508.377331
607.222041	2500.538337
607.571714	2509.990500
607.921333	2505.125787
608.270899	2499.278048
608.620411	2498.975579
608.969870	2502.932885
609.319276	2506.991013
609.668627	2507.217865
610.017926	2503.764675
610.367171	2503.058913
610.716362	2508.251302
611.065500	2515.132477
611.414585	2505.604696
611.763616	2515.082065
612.112594	2509.461179
612.461518	2520.476100
612.810389	2503.008502
613.159207	2511.628875
613.507971	2508.326919
613.856682	2518.459638
614.205340	2510.923113
614.553945	2513.317662
614.902496	2517.123733
615.250994	2519.946779
615.599439	2516.216325
615.947830	2514.830008
616.296169	2515.762621
616.644454	2527.206040
616.992686	2513.670542
617.340864	2518.938548
617.688990	2517.022910
618.037063	2522.341327
618.385082	2522.164887
618.733048	2523.525998
619.080961	2530.583613
619.428821	2528.970444
619.776628	2531.037317
620.124382	2533.331042
620.472083	2536.481763
620.819731	2543.665408
621.167326	2532.625281
621.514868	2528.466329
621.862357	2527.684950
622.209793	2539.330015
622.557176	2539.254398
622.904506	2524.559435
623.251783	2529.524971
623.599007	2533.003367
623.946179	2531.617050
624.293297	2540.842362
624.640363	2534.238450
624.987376	2541.447300
625.334336	2529.449354
625.681243	2540.439069
626.028097	2530.558408
626.374899	2533.633512
626.721647	2544.648433
627.068343	2549.210677
627.414987	2535.902031
627.761577	2545.858310
628.108115	2552.437015
628.454600	2543.841848
628.801032	2558.083108
629.147412	2561.107800
629.493739	2560.754919
629.840014	2559.746688
630.186236	2560.099569
630.532405	2571.139696
630.878521	2565.972513
631.224585	2578.953485
631.570597	2570.938050
631.916556	2577.163875
632.262462	2579.785275
632.608316	2585.103692
632.954117	2588.279619
633.299866	2585.053281
633.645562	2592.967892
633.991206	2593.824888
634.336797	2594.757502
634.682336	2589.035792
635.027823	2591.959662
635.373257	2598.613985
635.718639	2593.119127
636.063968	2597.076433
636.409245	2588.204002
636.754470	2598.966865
637.099642	2601.058944
637.444762	2602.394850
637.789829	2604.713781
638.134845	2611.065635
638.479808	2606.503390
638.824719	2608.141765
639.169577	2608.897938
639.514383	2619.333127
639.859137	2615.678290
640.203839	2618.677777
640.548489	2621.526029
640.893086	2623.592902
641.237632	2632.238481
641.582125	2628.155146
641.926566	2638.665952
642.270955	2648.773465
642.615292	2635.414408
642.959576	2645.471510
643.303809	2646.656181
643.647990	2657.721513
643.992118	2660.847029
644.336195	2669.089315
644.680219	2672.668535
645.024192	2678.591890
645.368112	2680.028619
645.711981	2691.144363
646.055797	2690.186544
646.399562	2710.729246
646.743274	2723.937069
647.086935	2729.759602
647.430544	2743.471540
647.774101	2738.556415
648.117606	2761.418048
648.461059	2765.224119
648.804460	2766.837288
649.147810	2769.685540
649.491108	2769.156219
649.834354	2770.466919
650.177548	2769.710746
650.520690	2765.072885
650.863781	2773.138731
651.206820	2766.610437
651.549807	2782.817746
651.892742	2777.625358
652.235626	2792.673202
652.578458	2785.439146
652.921238	2786.245731
653.263967	2793.782256
653.606644	2798.798204
653.949269	2808.426808
654.291843	2812.484937
654.634365	2821.987512
654.976836	2824.986998
655.319255	2836.102742
655.661622	2832.170642
656.003938	2836.480829
656.346203	2835.699450
656.688416	2842.757065
657.030577	2849.461800
657.372687	2859.544108
657.714746	2859.972606
658.056753	2874.717981
658.398708	2872.751931
658.740612	2879.532283
659.082465	2896.193296
659.424266	2896.092473
659.766016	2901.839388
660.107715	2904.511200
660.449362	2913.081162
660.790958	2936.875408
661.132503	2945.495781
661.473996	2952.452573
661.815438	2953.208746
662.156829	2966.769450
662.498168	2972.390337
662.839456	2979.952067
663.180693	2991.420692
663.521879	2990.462873
663.863013	3010.677900
664.204097	3008.812673
664.545129	3024.314221
664.886110	3048.335319
665.227040	3050.175340
665.567918	3071.322981
665.908746	3074.952612
666.249522	3090.630600
666.590248	3104.191304
666.930922	3114.122377
667.271545	3128.061167
667.612118	3136.051396
667.952639	3143.713950
668.293109	3159.341527
668.633528	3154.754077
668.973896	3167.609019
669.314213	3178.649146
669.654480	3182.127542
669.994695	3179.480937
670.334859	3189.361598
670.674973	3192.663554
671.015035	3209.979917
671.355047	3222.834860
671.695008	3231.379615
672.034918	3232.060171
672.374777	3251.695465
672.714585	3260.794748
673.054342	3278.993313
673.394049	3284.715023
673.733705	3308.282417
674.073310	3302.661531
674.412864	3311.382727
674.752368	3300.972744
675.091820	3328.321004
675.431223	3330.791169
675.770574	3335.958352
676.109875	3331.194462
676.449125	3344.301462
676.788324	3340.419773
677.127473	3329.026765
677.466571	3328.648679
677.805619	3347.452183
678.144616	3349.846731
678.483562	3360.533977
678.822458	3338.201665
679.161303	3364.113196
679.500098	3371.523692
679.838842	3367.919267
680.177535	3387.478944
680.516179	3412.407450
680.854771	3434.386881
681.193314	3473.808704
681.531805	3526.513967
681.870247	3568.179104
682.208638	3629.983650
682.546978	3648.333450
682.885268	3652.668842
683.223508	3644.300527
683.561697	3655.340654
683.899836	3656.248062
684.237925	3658.592198
684.575963	3670.161646
684.913951	3658.088083
685.251889	3689.746529
685.589776	3716.842731
685.927614	3713.389540
686.265401	3737.637490
686.603137	3767.203858
686.940824	3804.659631
687.278460	3845.770240
687.616046	3892.753794
687.953582	3923.479627
688.291068	3947.954429
688.628504	3976.436948
688.965889	3997.105679
689.303224	3984.023885
689.640510	3980.545488
689.977745	3963.128302
690.314930	3936.536215
690.652065	3916.169954
690.989150	3888.040315
691.326185	3850.130838
691.663170	3819.808298
692.000105	3803.651400
692.336990	3763.851490
692.673825	3753.340685
693.010610	3733.327304
693.347345	3718.808781
693.684030	3675.354035
694.020665	3675.202800
694.357251	3648.056187
694.693786	3663.658558
695.030272	3663.784587
695.366707	3647.577277
695.703093	3651.509377
696.039429	3643.645177
696.375716	3655.769152
696.711952	3664.792817
697.048139	3668.775329
697.384276	3674.648273
697.720363	3685.587577
698.056400	3679.185312
698.392388	3686.822660
698.728326	3705.197665
699.064214	3697.157025
699.400053	3700.458981
699.735842	3690.301056
700.071581	3684.957433
700.407270	3664.818023
700.742910	3670.690967
701.078501	3673.236750
701.414042	3659.323165
701.749533	3639.385402
702.084974	3640.065958
702.420366	3654.710510
702.755709	3636.814413
703.091002	3622.522742
703.426246	3635.251656
703.761440	3644.124087
704.096584	3629.655975
704.431679	3624.513998
704.766725	3630.966675
705.101721	3644.426556
705.436668	3656.374090
705.771565	3647.199190
706.106413	3672.833458
706.441212	3684.402906
706.775961	3696.602498
707.110661	3720.195098
707.445311	3751.979573
707.779913	3758.129781
708.114465	3795.837612
708.448967	3810.381340
708.783421	3878.159654
709.117825	3928.218312
709.452180	3951.861323
709.786485	3994.080987
710.120742	4070.983788
710.454949	4091.198815
710.789107	4145.239985
711.123216	4210.422104
711.457275	4245.281683
711.791286	4311.799708
712.125247	4329.796627
712.459159	4329.141277
712.793023	4391.802819
713.126837	4327.175227
713.460602	4354.876367
713.794318	4335.997246
714.127985	4333.073377
714.461602	4249.869133
714.795171	4263.933952
715.128691	4193.004917
715.462162	4158.220956
715.795584	4120.714771
716.128957	4106.019808
716.462281	4072.092842
716.795556	4083.763113
717.128782	4033.049106
717.461960	3985.233762
717.795088	3994.408662
718.128167	3968.371102
718.461198	3935.175104
718.794180	3942.409160
719.127113	3918.740942
719.459997	3911.784150
719.792833	3885.343298
720.125619	3894.089700
720.458357	3867.875700
720.791046	3862.859752
721.123686	3859.456973
721.456278	3833.142150
721.788821	3845.593800
722.121315	3826.865913
722.453761	3842.795960
722.786158	3837.124662
723.118506	3851.895242
723.450805	3855.096375
723.783056	3880.201321
724.115259	3883.755335
724.447412	3872.589179
724.779518	3923.933331
725.111574	3930.713683
725.443582	3960.027992
725.775542	3965.875731
726.107453	4029.217829
726.439315	4024.781613
726.771129	4071.235846
727.102895	4122.907673
727.434612	4158.195750
727.766281	4180.931354
728.097901	4225.142273
728.429473	4243.290427
728.760996	4262.950927
729.092471	4287.123260
729.423897	4264.589302
729.755276	4261.312552
730.086606	4290.425215
730.417887	4356.741594
730.749120	4423.965381
731.080305	4462.353767
731.411442	4510.471581
731.742530	4537.290519
732.073570	4553.094537
732.404562	4606.833237
732.735506	4602.044140
733.066401	4591.331688
733.397249	4557.757604
733.728048	4483.627437
734.058798	4394.978746
734.389501	4324.074917
734.720156	4275.377371
735.050762	4218.891242
735.381320	4182.846992
735.711831	4158.346985
736.042293	4125.579485
736.372707	4126.713744
736.703073	4109.120117
737.033391	4147.180829
737.363661	4145.265190
737.693883	4162.127850
738.024056	4190.333106
738.354182	4223.453487
738.684260	4256.573867
739.014290	4305.296619
739.344272	4332.468438
739.674207	4378.216910
740.004093	4416.882560
740.333931	4423.587294
740.663722	4448.440183
740.993464	4460.816215
741.323159	4445.642342
741.652806	4425.906225
741.982405	4412.572373
742.311956	4376.477712
742.641460	4366.874313
742.970915	4340.257021
743.300323	4297.432419
743.629683	4270.235394
743.958996	4252.440121
744.288260	4223.655133
744.617477	4191.366542
744.946647	4189.627344
745.275768	4148.920027
745.604842	4135.661792
745.933869	4127.772387
746.262847	4127.318683
746.591778	4110.582052
746.920662	4111.363431
747.249498	4105.893779
747.578286	4131.754898
747.907027	4157.943692
748.235720	4208.783729
748.564365	4212.413360
748.892963	4202.658727
749.221514	4229.981781
749.550017	4213.850088
749.878473	4217.177250
750.206881	4191.542983
750.535242	4193.987942
750.863555	4180.427238
751.191821	4179.973535
751.520039	4184.787837
751.848210	4184.737425
752.176334	4190.862427
752.504411	4184.586190
752.832440	4163.388138
753.160421	4181.737938
753.488356	4162.253879
753.816243	4166.488448
754.144082	4135.082060
754.471875	4128.402531
754.799620	4126.134012
755.127318	4134.754385
755.454969	4135.712204
755.782572	4129.057881
756.110129	4148.567146
756.437638	4135.636587
756.765100	4132.964775
757.092515	4131.275988
757.419882	4145.769306
757.747203	4155.675173
758.074477	4179.721477
758.401703	4164.169517
758.728882	4197.138663
759.056014	4219.823856
759.383099	4244.601127
759.710138	4255.792488
760.037129	4287.879433
760.364073	4299.146412
760.690970	4297.331596
761.017820	4312.883556
761.344623	4355.783775
761.671379	4409.925767
761.998088	4541.197413
762.324751	4797.640910
762.651366	5260.897742
762.977935	5910.400004
763.304456	6375.043154
763.630931	6546.971706
763.957359	6412.826602
764.283740	6136.142873
764.610074	5821.474050
764.936362	5424.558802
765.262602	5152.664169
765.588796	4858.512842
765.914943	4661.479344
766.241044	4487.105833
766.567097	4361.581102
766.893104	4250.171602
767.219064	4174.024973
767.544978	4091.400462
767.870845	4042.803738
768.196665	4005.751258
768.522438	3960.708548
768.848165	3940.090229
769.173846	3909.364396
769.499479	3886.477558
769.825066	3855.650902
770.150607	3832.612829
770.476101	3823.437929
770.801548	3805.188952
771.126949	3788.553144
771.452303	3766.649331
771.777611	3727.202302
772.102872	3738.065988
772.428087	3715.078327
772.753256	3693.603012
773.078378	3670.867408
773.403453	3643.872029
773.728482	3635.907006
774.053465	3609.819035
774.378401	3613.423460
774.703291	3591.897733
775.028135	3563.768094
775.352932	3556.433215
775.677683	3542.595248
776.002388	3519.708410
776.327046	3523.312835
776.651658	3512.297913
776.976224	3489.335458
777.300743	3492.183710
777.625216	3481.748521
777.949643	3483.386896
778.274024	3485.050477
778.598359	3470.355513
778.922647	3468.011377
779.246889	3470.859629
779.571086	3462.365285
779.895236	3484.722802
780.219339	3462.012404
780.543397	3470.607571
780.867409	3485.025271
781.191374	3492.561796
781.515294	3494.981550
781.839167	3506.777850
782.162995	3500.552025
782.486776	3491.830829
782.810511	3481.824138
783.134201	3482.731546
783.457844	3480.059735
783.781441	3466.952735
784.104993	3451.955302
784.428498	3458.962506
784.751958	3450.468162
785.075372	3456.215077
785.398739	3444.746452
785.722061	3460.651292
786.045337	3457.626600
786.368568	3490.973833
786.691752	3498.585975
787.014891	3546.577760
787.337983	3606.869960
787.661030	3707.894683
787.984031	3812.876712
788.306987	3882.394223
788.629897	3919.522321
788.952760	3932.226029
789.275579	3903.844333
789.598351	3845.669417
789.921078	3785.200777
790.243759	3719.741394
790.566395	3674.320598
790.888984	3634.167808
791.211529	3596.686829
791.534027	3547.081875
791.856480	3513.230527
792.178888	3497.678567
792.501249	3477.035042
792.823566	3442.251081
793.145836	3450.720219
793.468062	3444.519600
793.790241	3440.915175
794.112375	3452.358594
794.434464	3477.135865
794.756507	3488.579285
795.078505	3502.870956
795.400457	3560.793813
795.722364	3616.221300
796.044226	3660.104544
796.366042	3706.987275
796.687812	3707.617419
797.009538	3725.337075
797.331218	3710.137996
797.652852	3705.953838
797.974442	3689.519677
798.295986	3663.759381
798.617484	3633.562869
798.938938	3603.215123
799.260346	3601.198662
799.581709	3560.037640
799.903026	3546.602965
800.224299	3520.968698
800.545526	3497.955831
800.866708	3479.026298
801.187845	3469.498517
801.508936	3440.688323
801.829983	3437.184721
802.150984	3407.769588
802.471940	3389.142525
802.792851	3399.451685
803.113717	3392.343658
803.434538	3382.614231
803.755314	3363.306612
804.076045	3370.465050
804.396731	3354.005683
804.717372	3352.921835
805.037967	3350.073583
805.358518	3358.215046
805.679024	3375.203735
805.999485	3371.372458
806.319901	3380.950650
806.640272	3379.564333
806.960598	3393.049419
807.280879	3412.029363
807.601115	3418.028337
807.921306	3420.296856
808.241453	3408.576173
808.561554	3405.803538
808.881611	3412.104981
809.201623	3405.072571
809.521590	3402.249525
809.841513	3398.720717
810.161390	3410.643046
810.481223	3385.815363
810.801011	3388.814850
811.120755	3374.850854
811.440453	3367.667210
811.760107	3359.929038
812.079716	3366.709390
812.399281	3355.568440
812.718801	3355.039119
813.038276	3354.358563
813.357707	3331.950635
813.677093	3344.931606
813.996434	3329.127588
814.315731	3341.957325
814.634983	3333.563804
814.954191	3347.855475
815.273354	3368.927498
815.592473	3390.453225
815.911547	3407.139444
816.230577	3436.478960
816.549562	3453.971763
816.868502	3482.504694
817.187399	3503.778363
817.506250	3526.892054
817.825058	3565.179617
818.143821	3617.179119
818.462539	3661.742919
818.781213	3742.149323
819.099843	3857.768187
819.418429	4065.136050
819.736970	4260.279115
820.055466	4500.590919
820.373919	4810.647087
820.692327	5268.484679
821.010691	6004.997256
821.329011	7451.001825
821.647286	9441.703067
821.965517	11678.916733
822.283704	13118.796300
822.601847	13997.545033
822.919945	13453.780973
823.237999	12549.498796
823.556010	11455.618823
823.873976	10298.169900
824.191897	9145.358838
824.509775	8290.051471
824.827609	7462.924154
825.145398	6987.215671
825.463144	6718.648200
825.780845	6748.718683
826.098502	7002.187898
826.416116	7614.763708
826.733685	8244.958350
827.051210	8500.721290
827.368692	8254.309690
827.686129	7616.754963
828.003522	6871.067487
828.320872	6192.553385
828.638177	5623.659173
828.955439	5203.075708
829.272656	4838.978371
829.589830	4530.837842
829.906960	4292.315648
830.224046	4084.746138
830.541088	3943.770271
830.858086	3833.545442
831.175041	3768.111265
831.491952	3751.399840
831.808819	3754.752208
832.125642	3832.007890
832.442421	4003.860825
832.759157	4348.020398
833.075849	4872.678485
833.392497	5452.562412
833.709101	5843.529098
834.025662	5868.457604
834.342179	5596.462148
834.658653	5205.066963
834.975083	4849.690823
835.291469	4527.737533
835.607811	4251.280656
835.924110	4065.312490
836.240366	3878.941033
836.556578	3710.037173
836.872746	3567.548960
837.188871	3467.532467
837.504952	3378.656925
837.820990	3308.988179
838.136984	3263.239708
838.452935	3238.840523
838.768842	3235.715008
839.084706	3321.187771
839.400526	3538.033004
839.716303	3848.341229
840.032037	4073.579983
840.347727	4087.947271
840.663373	3904.222419
840.978977	3698.997046
841.294537	3530.698125
841.610054	3408.929054
841.925527	3316.877585
842.240957	3230.068915
842.556344	3162.467042
842.871687	3107.039556
843.186987	3028.120292
843.502244	2991.143429
843.817458	2955.326031
844.132629	2919.584250
844.447756	2901.259656
844.762840	2888.480331
845.077881	2862.543594
845.392879	2854.931452
845.707833	2845.655729
846.022745	2833.657783
846.337613	2826.625373
846.652438	2813.896460
846.967221	2804.696354
847.281960	2803.259625
847.596656	2802.957156
847.911309	2785.363529
848.225919	2790.329065
848.540485	2779.591408
848.855009	2779.540996
849.169490	2778.406737
849.483928	2769.811569
849.798323	2764.493152
850.112675	2766.181938
850.426984	2768.626898
850.741251	2762.779160
851.055474	2761.241608
851.369654	2763.207658
851.683792	2766.837288
851.997887	2758.998294
852.311938	2757.611977
852.625947	2750.831625
852.939914	2758.216915
853.253837	2771.147475
853.567718	2767.744696
853.881555	2760.460229
854.195350	2766.408790
854.509103	2760.586258
854.822812	2760.056937
855.136479	2756.376894
855.450103	2752.596029
855.763685	2754.713313
856.077224	2756.276071
856.390720	2762.955600
856.704173	2761.518871
857.017584	2765.299737
857.330953	2770.038421
857.644278	2770.466919
857.957561	2784.279681
858.270802	2772.256529
858.584000	2777.549740
858.897155	2776.491098
859.210268	2770.920623
859.523339	2764.745210
859.836367	2764.089860
860.149352	2752.142325
860.462295	2759.250352
860.775195	2755.015783
861.088054	2759.225146
861.400869	2757.712800
861.713642	2759.023500
862.026373	2758.015269
862.339062	2761.266813
862.651708	2763.610950
862.964312	2769.660335
863.276873	2779.919083
863.589392	2786.296142
863.901869	2789.774538
864.214303	2801.545633
864.526696	2811.678352
864.839045	2815.408806
865.151353	2815.333188
865.463619	2824.029179
865.775842	2815.610452
866.088023	2832.548729
866.400162	2835.649038
866.712258	2825.919612
867.024313	2826.297698
867.336325	2831.414469
867.648296	2828.793069
867.960224	2839.152640
868.272110	2826.650579
868.583954	2831.842967
868.895755	2835.901096
869.207515	2838.799760
869.519233	2849.360977
869.830909	2857.376412
870.142542	2858.132585
870.454134	2853.494723
870.765684	2857.174765
871.077191	2870.029708
871.388657	2878.019937
871.700081	2869.802856
872.011463	2891.731875
872.322803	2898.260169
872.634101	2901.587331
872.945357	2915.072417
873.256571	2927.524067
873.567744	2926.011721
873.878874	2937.883638
874.189963	2943.076027
874.501010	2942.219031
874.812015	2947.260185
875.122979	2953.334775
875.433900	2951.923252
875.744780	2956.661937
876.055618	2965.257104
876.366415	2956.762760
876.677169	2967.777681
876.987882	2976.221613
877.298554	2993.588388
877.609183	3005.485512
877.919771	3033.615150
878.230317	3072.759710
878.540822	3114.903756
878.851285	3175.750483
879.161707	3274.758744
879.472087	3434.865790
879.782425	3679.084488
880.092722	4082.301179
880.402977	4650.540040
880.713191	5268.434267
881.023363	5851.645356
881.333494	6220.304937
881.643583	6453.231450
881.953631	6515.817375
882.263637	6414.288537
882.573602	6187.739083
882.883526	5953.275017
883.193408	5670.239435
883.503248	5380.700763
883.813048	5096.883802
884.122806	4829.702648
884.432522	4553.270977
884.742197	4308.245694
885.051831	4103.826906
885.361424	3913.876229
885.670975	3748.576794
885.980485	3620.808750
886.289954	3515.499046
886.599382	3403.661048
886.908768	3327.262362
887.218113	3259.610077
887.527417	3193.142463
887.836680	3143.865185
888.145901	3094.613112
888.455082	3064.038513
888.764221	3024.944365
889.073319	3007.401150
889.382376	2988.925321
889.691392	2980.178919
890.000366	2969.012763
890.309300	2956.787965
890.618193	2962.282823
890.927044	2958.577575
891.235855	2969.012763
891.544625	2966.265335
891.853353	2978.969042
892.162041	3013.122860
892.470687	3046.167623
892.779293	3088.135229
893.087858	3150.645537
893.396381	3269.289092
893.704864	3424.707865
894.013306	3634.066985
894.321707	3861.170965
894.630068	4009.431300
894.938387	4052.482754
895.246665	4024.353115
895.554903	3915.766662
895.863100	3790.947692
896.171256	3669.909588
896.479371	3569.943508
896.787446	3477.110660
897.095480	3395.393556
897.403473	3329.631704
897.711425	3269.440327
898.019336	3207.408929
898.327207	3162.769512
898.635038	3106.384206
898.942827	3057.510219
899.250576	3016.828108
899.558284	2985.396513
899.865952	2964.248873
900.173579	2930.977258
900.481165	2913.761717
900.788711	2897.226733
901.096216	2874.365100
901.403681	2866.450488
901.711105	2857.376412
902.018489	2856.620238
902.325832	2865.946373
902.633135	2892.513254
902.940397	2958.955662
903.247619	3090.731423
903.554800	3370.086963
903.861941	3723.018144
904.169041	4013.514635
904.476101	4144.811487
904.783121	4079.805808
905.090100	3955.037250
905.397039	3803.575783
905.703938	3655.164213
906.010796	3527.194523
906.317614	3418.658481
906.624391	3309.013385
906.931129	3227.598750
907.237826	3160.400169
907.544483	3070.642425
907.851099	2992.781804
908.157675	2932.766867
908.464211	2866.778163
908.770707	2829.297185
909.077163	2783.473096
909.383578	2758.418562
909.689954	2732.002915
909.996289	2713.955585
910.302584	2707.578525
910.608839	2703.747248
910.915054	2696.160312
911.221229	2692.933973
911.527363	2690.993129
911.833458	2693.186031
912.139513	2705.032742
912.445527	2701.327494
912.751502	2721.466904
913.057436	2740.547671
913.363331	2757.738006
913.669186	2806.208700
913.975000	2852.738550
914.280775	2937.959256
914.586510	3044.100750
914.892205	3191.226825
915.197859	3369.910523
915.503475	3608.205865
915.809050	3795.913229
916.114585	3930.159156
916.420081	3971.471412
916.725536	3978.478615
917.030952	3885.847413
917.336328	3817.741425
917.641665	3747.341712
917.946961	3642.006802
918.252218	3569.136923
918.557435	3482.832369
918.862612	3390.024727
919.167750	3318.793223
919.472848	3248.015423
919.777906	3169.499452
920.082925	3098.041096
920.387904	3033.615150
920.692843	2975.818321
920.997743	2932.540015
921.302603	2885.808519
921.607423	2859.166021
921.912204	2835.220540
922.216946	2801.016312
922.521647	2785.741615
922.826310	2767.517844
923.130932	2747.378435
923.435516	2726.583675
923.740059	2713.149000
924.044564	2699.361444
924.349028	2686.985412
924.653454	2672.870181
924.957840	2661.956083
925.262186	2643.076962
925.566493	2642.950933
925.870761	2622.256996
926.174989	2626.390742
926.479178	2620.013683
926.783328	2608.645881
927.087438	2594.732296
927.391509	2592.766246
927.695541	2582.532704
927.999533	2582.331058
928.303486	2581.474062
928.607400	2563.300702
928.911275	2579.608835
929.215110	2568.644325
929.518906	2571.240519
929.822663	2569.022412
930.126381	2571.820252
930.430060	2568.745148
930.733699	2566.980744
931.037299	2575.752352
931.340861	2569.677762
931.644383	2567.661300
931.947866	2561.561504
932.251309	2572.273956
932.554714	2560.931360
932.858080	2558.738458
933.161407	2559.746688
933.464694	2560.603685
933.767943	2556.117058
934.071153	2557.957079
934.374323	2558.536812
934.677455	2558.486400
934.980548	2553.041954
935.283602	2552.663867
935.586617	2558.234342
935.889593	2556.999260
936.192530	2556.243087
936.495428	2547.395862
936.798287	2562.216854
937.101108	2567.031156
937.403890	2581.095975
937.706632	2586.363981
938.009336	2605.898452
938.312002	2613.359360
938.614628	2626.214302
938.917216	2633.977679
939.219765	2651.823363
939.522275	2652.100627
939.824747	2648.798671
940.127179	2647.084679
940.429573	2654.520381
940.731929	2650.210194
941.034246	2643.177785
941.336524	2642.572846
941.638763	2643.757517
941.940964	2638.615540
942.243126	2627.096504
942.545250	2618.702983
942.847335	2624.626338
943.149381	2610.813577
943.451389	2608.116560
943.753359	2597.252873
944.055290	2598.235898
944.357182	2589.489496
944.659036	2596.244642
944.960851	2596.799169
945.262628	2583.213260
945.564367	2586.363981
945.866067	2580.213773
946.167729	2577.415933
946.469352	2578.701427
946.770937	2580.717888
947.072484	2575.475088
947.373992	2579.659246
947.675462	2573.181363
947.976893	2568.467885
948.278286	2562.872204
948.579641	2568.997206
948.880958	2567.661300
949.182236	2576.080027
949.483476	2566.930333
949.784678	2567.510065
950.085841	2566.552246
950.386967	2569.375292
950.688054	2569.955025
950.989103	2572.223544
951.290114	2579.810481
951.591087	2572.878894
951.892021	2591.631987
952.192917	2588.027562
952.493776	2597.706577
952.794596	2594.833119
953.095378	2597.404108
953.396122	2605.268308
953.696828	2602.823348
953.997496	2591.203488
954.298126	2594.152563
954.598718	2589.539908
954.899272	2580.314596
955.199788	2578.701427
955.500266	2573.509038
955.800706	2573.105746
956.101108	2559.595454
956.401472	2547.143804
956.701798	2552.991542
957.002087	2538.145344
957.302337	2541.321271
957.602550	2532.297606
957.902724	2526.071781
958.202861	2521.837212
958.502960	2518.963754
958.803022	2512.914369
959.103045	2509.158710
959.403031	2508.200890
959.702979	2505.655108
960.002889	2497.488438
960.302762	2493.934425
960.602596	2499.454488
960.902393	2494.690598
961.202153	2490.254383
961.501875	2486.397900
961.801559	2491.464260
962.101205	2490.985350
962.400814	2485.137612
962.700385	2495.169508
962.999918	2483.221973
963.299414	2487.053250
963.598873	2483.045533
963.898293	2473.517752
964.197677	2476.492033
964.497022	2480.877837
964.796331	2481.230717
965.095601	2488.792448
965.394835	2477.223000
965.694030	2482.944710
965.993189	2477.601087
966.292309	2481.558392
966.591393	2482.037302
966.890439	2482.314565
967.189447	2479.592342
967.488419	2475.937506
967.787353	2486.095431
968.086249	2482.264154
968.385108	2480.096458
968.683930	2475.685448
968.982714	2484.078969
969.281462	2477.550675
969.580172	2487.859835
969.878844	2481.608804
970.177480	2491.262613
970.476078	2487.582571
970.774639	2493.884013
971.073162	2492.447285
971.371649	2493.657162
971.670098	2493.001812
971.968510	2493.934425
972.266885	2491.892758
972.565223	2485.994608
972.863524	2495.774446
973.161788	2496.177738
973.460014	2490.808910
973.758204	2498.698315
974.056356	2500.109838
974.354471	2502.479181
974.652550	2501.622185
974.950591	2488.792448
975.248595	2494.488952
975.546563	2501.622185
975.844493	2495.850063
976.142386	2495.547594
976.440243	2499.202431
976.738062	2491.539877
977.035845	2488.540390
977.333590	2489.951913
977.631299	2495.295537
977.928971	2483.247179
978.226606	2483.700883
978.524204	2487.330513
978.821765	2482.969915
979.119290	2487.103662
979.416777	2490.506440
979.714228	2490.834115
980.011642	2491.060967
980.309020	2483.978146
980.606360	2488.767242
980.903664	2489.649444
981.200931	2495.673623
981.498162	2519.140194
981.795356	2528.718387
982.092513	2545.076931
982.389633	2552.033723
982.686717	2573.660273
982.983764	2583.994638
983.280775	2605.848040
983.577749	2603.302258
983.874686	2596.320260
984.171587	2594.707090
984.468451	2588.380442
984.765279	2572.853688
985.062070	2573.105746
985.358824	2562.191648
985.655543	2545.757487
985.952224	2529.146885
986.248869	2524.105731
986.545478	2513.796571
986.842050	2516.972498
987.138586	2500.059427
987.435086	2507.621158
987.731549	2490.531646
988.027975	2487.229690
988.324366	2486.498723
988.620719	2486.952427
988.917037	2478.004379
989.213318	2475.987917
989.509563	2474.853658
989.805772	2479.970429
990.101944	2472.232258
990.398080	2463.838737
990.694180	2467.493573
990.990244	2471.526496
991.286271	2469.484829
991.582262	2473.517752
991.878217	2477.651498
992.174136	2476.643267
992.470019	2472.736373
992.765865	2478.105202
993.061676	2470.467854
993.357450	2465.905610
993.653188	2478.281642
993.948890	2481.129894
994.244556	2490.052737
994.540186	2481.331540
994.835780	2492.497696
995.131337	2501.672596
995.426859	2508.982269
995.722345	2517.174144
996.017795	2517.854700
996.313208	2531.516227
996.608586	2535.523944
996.903928	2534.868594
997.199234	2539.960160
997.494504	2529.701412
997.789738	2525.265196
998.084936	2532.297606
998.380099	2515.359329
998.675225	2518.560462
998.970316	2509.562002
999.265371	2506.058400
999.560390	2497.816113
999.855373	2499.278048
1000.150320	2484.658702
1000.445232	2489.296563
1000.740108	2477.071765
1001.034948	2479.415902
1001.329752	2483.600060
1001.624521	2477.399440
1001.919254	2469.787298
1002.213951	2474.576394
1002.508613	2475.307362
1002.803239	2478.281642
1003.097829	2474.450365
1003.392384	2469.686475
1003.686903	2470.745117
1003.981386	2468.274952
1004.275834	2471.501290
1004.570246	2471.980200
1004.864623	2466.913840
1005.158964	2471.425673
1005.453270	2459.881431
1005.747540	2465.351083
1006.041775	2472.106229
1006.335974	2470.921558
1006.630138	2469.636063
1006.924266	2465.477112
1007.218359	2458.999229
1007.512416	2461.897892
1007.806438	2466.182873
1008.100425	2462.880917
1008.394376	2461.393777
1008.688292	2476.718885
1008.982172	2467.165898
1009.276017	2462.023921
1009.569827	2458.293467
1009.863602	2461.671040
1010.157341	2469.787298
1010.451045	2463.838737
1010.744714	2468.400981
1011.038347	2464.443675
1011.331945	2459.427727
1011.625508	2466.661783
1011.919036	2462.351596
1012.212528	2459.780608
1012.505986	2460.360340
1012.799408	2466.485342
1013.092795	2463.662296
1013.386147	2466.359313
1013.679464	2456.226594
1013.972745	2464.292440
1014.265992	2467.947277
1014.559204	2459.478138
1014.852380	2458.721965
1015.145521	2462.250773
1015.438628	2455.798096
1015.731699	2471.551702
1016.024736	2465.250260
1016.317737	2466.182873
1016.610703	2468.400981
1016.903635	2467.543985
1017.196531	2461.166925
1017.489393	2463.410238
1017.782219	2467.317133
1018.075011	2458.343879
1018.367768	2462.679271
1018.660490	2465.426700
1018.953177	2465.426700
1019.245829	2465.426700
