Dividing Wavelength (nm)	Counts (n)	Slit_number_8_of_a_total_of_40	
326.493990	2147.867615
326.888308	2147.867615
327.282561	2147.867615
327.676750	2138.793538
328.070874	2132.072000
328.464933	2131.147788
328.858929	2147.027423
329.252859	2161.478731
329.646726	2177.106308
330.040528	2210.545962
330.434265	2207.521269
330.827938	2230.122442
331.221547	2238.692404
331.615091	2278.853596
332.008571	2285.407096
332.401986	2308.176308
332.795338	2331.113558
333.188625	2342.708212
333.581847	2368.082019
333.975006	2379.592654
334.368100	2419.585808
334.761129	2429.836154
335.154095	2426.979500
335.546996	2435.465442
335.939833	2485.961000
336.332606	2476.886923
336.725315	2498.479865
337.117960	2495.707231
337.510540	2521.921231
337.903056	2517.552231
338.295508	2539.313212
338.687896	2530.323154
339.080220	2535.364308
339.472480	2539.145173
339.864676	2540.153404
340.256807	2550.571788
340.648875	2556.201077
341.040879	2557.461365
341.432818	2572.836885
341.824694	2558.049500
342.216506	2546.706904
342.608253	2558.805673
342.999937	2557.461365
343.391557	2549.899635
343.783113	2560.234000
344.174605	2560.486058
344.566033	2564.434962
344.957397	2547.127000
345.348697	2550.823846
345.739934	2542.253885
346.131106	2549.311500
346.522215	2549.899635
346.913260	2540.321442
347.304241	2535.196269
347.695159	2533.347846
348.086012	2540.573500
348.476802	2533.431865
348.867528	2524.357788
349.258191	2518.980558
349.648789	2523.769654
350.039324	2526.038173
350.429796	2528.810808
350.820203	2532.507654
351.210548	2535.280288
351.600828	2558.133519
351.991045	2520.913000
352.381198	2519.652712
352.771288	2535.532346
353.161314	2543.178096
353.551276	2535.532346
353.941175	2524.021712
354.331010	2515.367731
354.720782	2528.978846
355.110490	2534.608135
355.500135	2523.517596
355.889717	2534.692154
356.279235	2540.657519
356.668689	2528.390712
357.058080	2539.481250
357.447408	2531.079327
357.836672	2530.071096
358.225873	2534.440096
358.615010	2534.692154
359.004084	2503.016904
359.393095	2554.856769
359.782043	2519.904769
360.170927	2539.145173
360.559748	2525.282000
360.948505	2518.056346
361.337199	2527.718558
361.725830	2534.272058
362.114398	2527.550519
362.502903	2538.641058
362.891344	2520.828981
363.279722	2531.835500
363.668037	2542.589962
364.056289	2534.272058
364.444478	2531.499423
364.832603	2537.716846
365.220665	2527.466500
365.608665	2540.321442
365.996601	2539.061154
366.384474	2536.204500
366.772284	2529.651000
367.160031	2541.161635
367.547715	2541.077615
367.935336	2536.288519
368.322893	2538.052923
368.710388	2535.532346
369.097820	2531.331385
369.485189	2545.782692
369.872495	2533.515885
370.259738	2542.673981
370.646918	2536.792635
371.034035	2555.865000
371.421090	2542.253885
371.808081	2555.108827
372.195010	2537.968904
372.581875	2539.061154
372.968678	2551.159923
373.355418	2535.196269
373.742096	2546.874942
374.128710	2542.169865
374.515262	2539.565269
374.901751	2556.201077
375.288177	2533.431865
375.674540	2560.654096
376.060841	2538.220962
376.447079	2550.907865
376.833254	2547.211019
377.219367	2542.589962
377.605417	2545.194558
377.991404	2522.593385
378.377329	2546.286808
378.763191	2535.616365
379.148991	2544.186327
379.534727	2548.807385
379.920402	2552.420212
380.306013	2544.942500
380.691563	2547.547096
381.077049	2542.589962
381.462474	2551.748058
381.847835	2545.530635
382.233134	2561.830365
382.618371	2546.706904
383.003545	2542.253885
383.388657	2547.715135
383.773706	2549.143462
384.158693	2550.403750
384.543618	2555.528923
384.928480	2527.802577
385.313280	2546.958962
385.698017	2554.352654
386.082692	2557.713423
386.467305	2564.182904
386.851856	2548.639346
387.236344	2546.958962
387.620770	2540.321442
388.005133	2548.303269
388.389435	2560.402038
388.773674	2558.973712
389.157851	2551.748058
389.541965	2538.977135
389.926018	2559.981942
390.310008	2553.176385
390.693936	2541.497712
391.077802	2557.377346
391.461606	2569.056019
391.845348	2562.922615
392.229027	2543.346135
392.612645	2565.695250
392.996200	2550.235712
393.379694	2546.454846
393.763125	2554.604712
394.146494	2562.418500
394.529801	2544.102308
394.913047	2546.034750
395.296230	2555.528923
395.679351	2556.873231
396.062410	2565.275154
396.445408	2554.184615
396.828343	2551.159923
397.211217	2550.151692
397.594028	2553.932558
397.976778	2565.191135
398.359466	2554.184615
398.742092	2560.486058
399.124656	2553.848538
399.507158	2562.166442
399.889598	2552.252173
400.271977	2570.400327
400.654294	2569.056019
401.036549	2562.250462
401.418742	2563.846827
401.800874	2563.510750
402.182944	2560.234000
402.564952	2553.092365
402.946898	2562.586538
403.328783	2570.820423
403.710606	2542.085846
404.092367	2552.168154
404.474067	2561.998404
404.855705	2555.696962
405.237282	2566.283385
405.618797	2566.955538
406.000250	2571.912673
406.381642	2541.665750
406.762972	2556.201077
407.144240	2539.901346
407.525447	2565.695250
407.906593	2573.425019
408.287677	2557.041269
408.668700	2565.863288
409.049661	2554.016577
409.430560	2574.769327
409.811399	2564.939077
410.192176	2558.385577
410.572891	2573.509038
410.953545	2554.184615
411.334138	2577.625981
411.714669	2565.779269
412.095139	2556.789212
412.475547	2549.311500
412.855894	2566.031327
413.236180	2556.705192
413.616405	2564.771038
413.996568	2562.838596
414.376670	2572.248750
414.756711	2559.477827
415.136691	2568.635923
415.516609	2565.191135
415.896466	2574.181192
416.276262	2563.342712
416.655997	2556.033038
417.035670	2554.520692
417.415283	2560.990173
417.794834	2563.510750
418.174324	2555.108827
418.553753	2559.897923
418.933121	2569.392096
419.312428	2571.660615
419.691674	2551.243942
420.070859	2559.561846
420.449983	2554.268635
420.829045	2571.576596
421.208047	2557.629404
421.586988	2551.075904
421.965867	2564.098885
422.344686	2566.283385
422.723444	2582.667135
423.102141	2578.130096
423.480777	2563.006635
423.859352	2583.423308
424.237866	2560.990173
424.616319	2562.670558
424.994712	2583.171250
425.373044	2572.332769
425.751314	2574.349231
426.129524	2582.499096
426.507673	2560.318019
426.885762	2578.802250
427.263789	2565.275154
427.641756	2566.199365
428.019662	2573.256981
428.397508	2550.067673
428.775292	2551.916096
429.153016	2570.484346
429.530679	2574.433250
429.908282	2584.935654
430.285824	2569.392096
430.663305	2572.248750
431.040726	2574.181192
431.418086	2557.461365
431.795385	2586.363981
432.172624	2560.990173
432.549802	2576.533731
432.926920	2571.324538
433.303977	2565.191135
433.680974	2572.752865
434.057910	2571.912673
434.434786	2561.746346
434.811601	2582.667135
435.188355	2575.777558
435.565050	2553.932558
435.941683	2562.586538
436.318257	2569.812192
436.694770	2561.830365
437.071222	2561.746346
437.447614	2579.642442
437.823946	2566.115346
438.200218	2574.601288
438.576429	2567.879750
438.952580	2555.192846
439.328670	2569.644154
439.704700	2576.533731
440.080670	2565.275154
440.456580	2566.703481
440.832429	2575.105404
441.208218	2582.667135
441.583947	2570.148269
441.959616	2578.634212
442.335224	2570.568365
442.710773	2572.248750
443.086261	2572.836885
443.461689	2557.881462
443.837057	2569.392096
444.212365	2580.986750
444.587612	2587.036135
444.962800	2578.382154
445.337927	2584.095462
445.712995	2578.970288
446.088002	2578.298135
446.462949	2576.113635
446.837837	2582.415077
447.212664	2584.431538
447.587431	2568.215827
447.962139	2573.256981
448.336786	2571.492577
448.711374	2565.359173
449.085901	2590.732981
449.460369	2567.543673
449.834776	2579.642442
450.209124	2567.963769
450.583412	2564.266923
450.957640	2577.289904
451.331808	2564.855058
451.705917	2565.695250
452.079965	2580.398615
452.453954	2572.920904
452.827883	2571.744635
453.201752	2568.383865
453.575562	2574.265212
453.949311	2589.808769
454.323001	2580.818712
454.696632	2580.482635
455.070202	2566.871519
455.443713	2579.810481
455.817164	2585.775846
456.190556	2594.261788
456.563888	2577.037846
456.937160	2568.635923
457.310373	2568.299846
457.683526	2579.978519
458.056619	2578.046077
458.429653	2584.347519
458.802628	2575.273442
459.175542	2581.742923
459.548398	2571.912673
459.921194	2586.868096
460.293930	2591.069058
460.666607	2587.288192
461.039224	2588.800538
461.411782	2580.650673
461.784280	2576.701769
462.156719	2583.171250
462.529099	2587.792308
462.901419	2590.817000
463.273680	2584.347519
463.645882	2576.365692
464.018024	2584.179481
464.390106	2579.558423
464.762130	2592.749442
465.134094	2579.894500
465.505999	2583.675365
465.877845	2598.294712
466.249631	2591.321115
466.621358	2581.154788
466.993026	2571.828654
467.364634	2613.166115
467.736184	2570.148269
468.107674	2582.247038
468.479105	2582.163019
468.850477	2594.597865
469.221790	2599.134904
469.593043	2598.882846
469.964238	2570.988462
470.335373	2578.130096
470.706449	2594.765904
471.077467	2591.321115
471.448425	2591.321115
471.819324	2585.943885
472.190164	2570.064250
472.560945	2600.479212
472.931667	2584.683596
473.302330	2591.069058
473.672934	2578.970288
474.043479	2594.681885
474.413965	2603.083808
474.784393	2581.574885
475.154761	2580.146558
475.525070	2599.891077
475.895321	2587.204173
476.265513	2605.436346
476.635645	2596.614327
477.005719	2600.983327
477.375734	2592.245327
477.745691	2569.056019
478.115588	2586.532019
478.485427	2583.423308
478.855207	2598.798827
479.224928	2595.858154
479.594591	2604.680173
479.964194	2596.950404
480.333739	2597.790596
480.703226	2606.696635
481.072653	2604.176058
481.442022	2599.386962
481.811333	2591.825231
482.180584	2599.470981
482.549777	2605.856442
482.918912	2591.405135
483.287988	2598.126673
483.657005	2599.555000
484.025964	2620.979904
484.394864	2599.975096
484.763706	2604.008019
485.132489	2601.739500
485.501213	2603.839981
485.869879	2609.301231
486.238487	2602.915769
486.607036	2601.991558
486.975527	2616.862962
487.343959	2603.839981
487.712333	2609.217212
488.080648	2605.100269
488.448905	2601.991558
488.817104	2612.998077
489.185244	2626.609192
489.553326	2610.729558
489.921350	2622.324212
490.289315	2620.559808
490.657222	2605.856442
491.025070	2616.946981
491.392861	2627.449385
491.760593	2625.853019
492.128267	2626.609192
492.495883	2609.301231
492.863440	2631.062212
493.230939	2616.106788
493.598380	2626.441154
493.965763	2621.315981
494.333088	2621.063923
494.700354	2626.777231
495.067563	2622.072154
495.434713	2604.008019
495.801805	2629.465846
496.168839	2618.879423
496.535815	2619.215500
496.902733	2615.266596
497.269593	2617.199038
497.636395	2624.592731
498.003139	2624.844788
498.369825	2634.338962
498.736453	2627.449385
499.103023	2625.432923
499.469535	2621.904115
499.835989	2615.350615
500.202385	2616.778942
500.568723	2617.031000
500.935003	2615.518654
501.301226	2624.508712
501.667390	2618.879423
502.033497	2622.912346
502.399546	2624.340673
502.765537	2619.551577
503.131470	2632.406519
503.497345	2617.787173
503.863163	2622.408231
504.228923	2622.912346
504.594625	2613.082096
504.960269	2631.230250
505.325856	2639.548154
505.691385	2613.166115
506.056856	2639.212077
506.422270	2628.457615
506.787625	2625.769000
507.152924	2630.894173
507.518164	2629.969962
507.883347	2633.330731
508.248472	2632.070442
508.613540	2628.289577
508.978550	2627.113308
509.343503	2631.482308
509.708398	2643.749115
510.073236	2620.895885
510.438016	2616.862962
510.802738	2622.408231
511.167403	2621.988135
511.532010	2642.740885
511.896561	2626.273115
512.261053	2624.508712
512.625488	2631.482308
512.989866	2642.992942
513.354186	2637.195615
513.718449	2618.291288
514.082655	2644.169212
514.446803	2634.338962
514.810894	2638.203846
515.174927	2640.136288
515.538904	2640.220308
515.902822	2630.138000
516.266684	2642.740885
516.630488	2643.413038
516.994235	2662.065308
517.357925	2655.763865
517.721558	2646.101654
518.085133	2655.511808
518.448651	2660.384923
518.812112	2635.515231
519.175516	2643.160981
519.538863	2646.101654
519.902152	2663.241577
520.265385	2667.610577
520.628560	2657.696308
520.991678	2659.964827
521.354739	2666.014212
521.717743	2676.936712
522.080690	2660.721000
522.443580	2659.208654
522.806413	2677.104750
523.169189	2660.384923
523.531908	2685.590692
523.894569	2680.885615
524.257174	2682.818058
524.619722	2700.714154
524.982213	2689.959692
525.344647	2707.015596
525.707025	2696.177115
526.069345	2707.603731
526.431608	2698.277596
526.793815	2709.788231
527.155964	2697.437404
527.518057	2711.972731
527.880093	2721.046808
528.242072	2720.122596
528.603995	2719.198385
528.965860	2734.237827
529.327669	2739.278981
529.689421	2743.647981
530.051117	2738.774865
530.412755	2752.217942
530.774337	2764.232692
531.135862	2752.638038
531.497331	2759.023500
531.858743	2786.329750
532.220098	2780.112327
532.581396	2787.422000
532.942638	2787.926115
533.303824	2791.622962
533.664953	2813.972077
534.026025	2811.115423
534.387040	2809.098962
534.747999	2836.153154
535.108902	2833.716596
535.469748	2849.344173
535.830537	2848.419962
536.191270	2879.171000
536.551947	2887.404885
536.912567	2891.857904
537.273131	2898.327385
537.633638	2907.149404
537.994089	2923.701192
538.354483	2926.557846
538.714821	2956.720750
539.075103	2967.643250
539.435328	2972.012250
539.795497	2984.447096
540.155609	3002.931327
540.515665	3021.163500
540.875665	3041.580173
541.235609	3057.375788
541.595496	3073.927577
541.955328	3080.817154
542.315102	3102.326077
542.674821	3119.466000
543.034483	3139.378558
543.394090	3160.215327
543.753640	3186.681385
544.113134	3206.930019
544.472571	3216.676250
544.831953	3241.713981
545.191278	3269.188269
545.550548	3295.990404
545.909761	3298.510981
546.268918	3330.354269
546.628019	3380.261692
546.987064	3396.309365
547.346053	3395.301135
547.704986	3459.743885
548.063863	3469.322077
548.422684	3514.608442
548.781449	3534.857077
549.140158	3558.886577
549.498811	3611.314577
549.857408	3640.973365
550.215949	3692.393135
550.574434	3694.997731
550.932864	3741.796442
551.291237	3814.893173
551.649555	3808.927808
552.007817	3889.250192
552.366022	3895.299577
552.724173	3947.811596
553.082267	3995.198442
553.440305	4070.227615
553.798288	4105.011577
554.156215	4157.943692
554.514086	4203.230058
554.871902	4245.659769
555.229661	4316.487981
555.587365	4334.384077
555.945014	4395.802135
556.302606	4461.421154
556.660143	4532.165346
557.017625	4590.642731
557.375050	4661.470942
557.732421	4727.510058
558.089735	4784.475096
558.446994	4845.893154
558.804197	4957.470692
559.161345	5031.239577
559.518437	5033.424077
559.875474	5112.150096
560.232455	5207.427904
560.589381	5252.294173
560.946251	5314.804481
561.303065	5455.368654
561.659825	5530.901942
562.016528	5570.895096
562.373177	5641.639288
562.729770	5723.726077
563.086307	5797.578981
563.442789	5923.103712
563.799216	5961.248442
564.155587	6057.030365
564.511904	6159.785885
564.868164	6250.778712
565.224370	6378.151865
565.580520	6411.255442
565.936615	6538.628596
566.292654	6579.798019
566.648638	6726.999712
567.004567	6813.035404
567.360441	6928.057731
567.716260	7001.070442
568.072023	7159.026596
568.427732	7231.619212
568.783385	7281.442615
569.138982	7427.552058
569.494525	7549.968077
569.850013	7649.278808
570.205445	7743.296327
570.560823	7839.246288
570.916145	7915.619769
571.271412	8048.370154
571.626625	8124.743635
571.981782	8226.658962
572.336884	8305.384981
572.691931	8449.646000
573.046923	8501.233808
573.401860	8651.544212
573.756743	8725.733192
574.111570	8849.241462
574.466342	8956.450000
574.821059	9084.327269
575.175722	9111.633519
575.530330	9233.209346
575.884882	9323.614038
576.239380	9432.923058
576.593823	9545.172750
576.948211	9659.522923
577.302544	9680.443712
577.656823	9815.294577
578.011047	9975.939346
578.365216	10062.395135
578.719330	10077.434577
579.073389	10153.808058
579.427394	10351.001192
579.781344	10433.508077
580.135239	10491.733404
580.489080	10583.818481
580.842866	10608.772192
581.196597	10828.230423
581.550273	10934.094654
581.903895	10995.428692
582.257463	11153.300827
582.610975	11158.594038
582.964434	11315.289904
583.317837	11305.459654
583.671186	11407.627038
584.024481	11586.756038
584.377721	11578.438135
584.730906	11753.618231
585.084037	11846.207423
585.437113	11877.882673
585.790135	12007.356308
586.143103	12018.782923
586.496016	12107.507231
586.848874	12252.944519
587.201679	12379.477481
587.554428	12320.916077
587.907124	12474.671269
588.259765	12480.972712
588.612352	12637.164462
588.964884	12566.000173
589.317362	12713.033827
589.669786	12839.986885
590.022155	12847.296558
590.374470	13039.112462
590.726731	13028.610058
591.078937	12967.780135
591.431090	13062.973923
591.783188	13091.120365
592.135232	13085.070981
592.487222	13272.013769
592.839157	13336.708577
593.191038	13341.581692
593.542866	13383.087192
593.894639	13252.353269
594.246358	13391.909212
594.598022	13467.358481
594.949633	13388.380404
595.301190	13519.366385
595.652692	13517.601981
596.004141	13688.077000
596.355535	13480.549500
596.706876	13553.562212
597.058162	13523.399308
597.409395	13731.262885
597.760573	13805.031769
598.111698	13763.610288
598.462768	13825.952558
598.813785	13924.339077
599.164748	13806.712154
599.515657	13923.330846
599.866511	13827.548923
600.217312	14050.199885
600.568060	13785.623327
600.918753	14027.766750
601.269392	14052.552423
601.619978	14021.633346
601.970510	14107.248942
602.320988	14214.961596
602.671412	14323.010327
603.021783	14279.992481
603.372100	14224.455769
603.722363	14288.898519
604.072572	14327.799423
604.422728	14353.677346
604.772830	14332.672538
605.122878	14362.247308
605.472872	14343.679058
605.822813	14467.355365
606.172701	14420.976750
606.522534	14507.768615
606.872314	14592.712058
607.222041	14554.567327
607.571714	14692.947000
607.921333	14496.005923
608.270899	14600.777904
608.620411	14686.813596
608.969870	14602.710346
609.319276	14598.257327
609.668627	14638.502538
610.017926	14750.164096
610.367171	14787.636673
610.716362	14781.167192
611.065500	14766.799904
611.414585	14775.621923
611.763616	14857.876750
612.112594	14744.198731
612.461518	14822.252596
612.810389	14878.125385
613.159207	14790.829404
613.507971	14753.356827
613.856682	14881.234096
614.205340	14846.450135
614.553945	15010.707731
614.902496	14748.231654
615.250994	14872.412077
615.599439	14822.588673
615.947830	14849.222769
616.296169	14759.406212
616.644454	14755.625346
616.992686	14746.383231
617.340864	14842.081135
617.688990	14639.762827
618.037063	14792.761846
618.385082	14700.844808
618.733048	14720.841385
619.080961	14689.502212
619.428821	14609.347865
619.776628	14591.703827
620.124382	14525.664712
620.472083	14490.376635
620.819731	14532.890365
621.167326	14363.255538
621.514868	14365.524058
621.862357	14177.909115
622.209793	14137.327827
622.557176	14030.959481
622.904506	13984.916942
623.251783	13818.222788
623.599007	13705.553000
623.946179	13656.401750
624.293297	13531.381135
624.640363	13356.033000
624.987376	13279.239423
625.334336	13137.667019
625.681243	13047.850462
626.028097	12948.287673
626.374899	12870.149788
626.721647	12736.559212
627.068343	12686.147673
627.414987	12540.458327
627.761577	12380.569731
628.108115	12400.230231
628.454600	12220.597115
628.801032	12182.032288
629.147412	12080.789115
629.493739	12021.387519
629.840014	11886.284596
630.186236	11875.446115
630.532405	11697.745442
630.878521	11674.640154
631.224585	11554.912750
631.570597	11375.363654
631.916556	11350.998077
632.262462	11293.865000
632.608316	11207.409212
632.954117	11115.072077
633.299866	11087.009654
633.645562	11006.939327
633.991206	10823.525346
634.336797	10666.325365
634.682336	10646.916923
635.027823	10489.464885
635.373257	10400.152442
635.718639	10288.910981
636.063968	10196.993942
636.409245	10026.434904
636.754470	9960.143731
637.099642	9863.437596
637.444762	9701.364500
637.789829	9650.784923
638.134845	9498.374038
638.479808	9416.119212
638.824719	9415.279019
639.169577	9233.461404
639.514383	9163.305346
639.859137	9025.597827
640.203839	9025.093712
640.548489	8872.430769
640.893086	8824.875885
641.237632	8721.868308
641.582125	8689.772962
641.926566	8622.641596
642.270955	8523.162827
642.615292	8484.766038
642.959576	8387.807846
643.303809	8355.796519
643.647990	8253.293058
643.992118	8219.097231
644.336195	8149.781365
644.680219	8116.425731
645.024192	8054.671596
645.368112	8077.440808
645.711981	8018.711365
646.055797	8056.351981
646.399562	7963.258673
646.743274	8042.908904
647.086935	8120.710712
647.430544	8024.676731
647.774101	7983.171231
648.117606	7971.912654
648.461059	7935.868404
648.804460	7840.422558
649.147810	7685.239038
649.491108	7621.300404
649.834354	7528.039058
650.177548	7353.867192
650.520690	7211.790673
650.863781	7112.059846
651.206820	7079.208327
651.549807	6971.075577
651.892742	6832.443846
652.235626	6733.217135
652.578458	6675.411904
652.921238	6561.145750
653.263967	6531.402942
653.606644	6452.508885
653.949269	6366.389173
654.291843	6303.626808
654.634365	6268.674808
654.976836	6195.157981
655.319255	6136.008442
655.661622	6067.112673
656.003938	5986.454212
656.346203	5954.358865
656.688416	5934.446308
657.030577	5858.156846
657.372687	5811.274115
657.714746	5774.137615
658.056753	5748.427731
658.398708	5648.864942
658.740612	5596.436942
659.082465	5581.985635
659.424266	5516.870731
659.766016	5484.439308
660.107715	5450.243481
660.449362	5389.413558
660.790958	5372.021577
661.132503	5334.969096
661.473996	5275.399462
661.815438	5268.425865
662.156829	5238.767077
662.498168	5174.240308
662.839456	5138.196058
663.180693	5119.039673
663.521879	5081.483077
663.863013	5058.293769
664.204097	5025.106173
664.545129	5008.806442
664.886110	4967.468981
665.227040	4941.170962
665.567918	4922.182615
665.908746	4893.027942
666.249522	4874.711750
666.590248	4861.100635
666.930922	4828.165096
667.271545	4796.237788
667.612118	4778.845808
667.952639	4737.088250
668.293109	4692.306000
668.633528	4652.312846
668.973896	4610.051173
669.314213	4573.586827
669.654480	4534.601904
669.994695	4507.127615
670.334859	4448.986308
670.674973	4438.147827
671.015035	4397.902615
671.355047	4374.797327
671.695008	4362.614538
672.034918	4305.229404
672.374777	4287.249288
672.714585	4266.412519
673.054342	4241.878904
673.394049	4229.023962
673.733705	4217.009212
674.073310	4173.319212
674.412864	4148.029423
674.752368	4119.798962
675.091820	4090.812327
675.431223	4053.423769
675.770574	4021.916558
676.109875	3963.355154
676.449125	3939.997808
676.788324	3936.889096
677.127473	3859.927481
677.466571	3841.275212
677.805619	3818.758058
678.144616	3787.082808
678.483562	3765.405846
678.822458	3732.050212
679.161303	3707.852673
679.500098	3675.589288
679.838842	3662.566308
680.177535	3642.989827
680.516179	3649.291269
680.854771	3625.681865
681.193314	3630.639000
681.531805	3672.648615
681.870247	3677.017615
682.208638	3722.808096
682.546978	3699.534769
682.885268	3718.187038
683.223508	3693.905481
683.561697	3649.039212
683.899836	3631.479192
684.237925	3605.097154
684.575963	3598.291596
684.913951	3551.072788
685.251889	3552.165038
685.589776	3538.805981
685.927614	3521.498019
686.265401	3540.738423
686.603137	3522.506250
686.940824	3532.420519
687.278460	3539.814212
687.616046	3541.242538
687.953582	3547.880058
688.291068	3541.326558
688.628504	3560.314904
688.965889	3541.914692
689.303224	3527.043288
689.640510	3511.247673
689.977745	3482.093000
690.314930	3437.058692
690.652065	3402.610808
690.989150	3365.894404
691.326185	3313.718462
691.663170	3313.298365
692.000105	3262.298692
692.336990	3232.975981
692.673825	3222.473577
693.010610	3204.325423
693.347345	3158.450923
693.684030	3130.220462
694.020665	3123.498923
694.357251	3099.301385
694.693786	3084.598019
695.030272	3070.482788
695.366707	3039.143615
695.703093	3038.639500
696.039429	3027.128865
696.375716	3018.222827
696.711952	3026.036615
697.048139	3008.896692
697.384276	3009.400808
697.720363	2990.328442
698.056400	2989.152173
698.392388	3004.443673
698.728326	2971.256077
699.064214	2980.246135
699.400053	2959.241327
699.735842	2975.877135
700.071581	2939.916904
700.407270	2937.312308
700.742910	2920.424442
701.078501	2912.106538
701.414042	2897.823269
701.749533	2891.437808
702.084974	2880.935404
702.420366	2875.726212
702.755709	2871.777308
703.091002	2862.283135
703.426246	2857.662077
703.761440	2854.385327
704.096584	2842.874692
704.431679	2834.556788
704.766725	2839.093827
705.101721	2822.121942
705.436668	2824.474481
705.771565	2815.568442
706.106413	2826.154865
706.441212	2810.275231
706.775961	2808.930923
707.110661	2807.838673
707.445311	2825.398692
707.779913	2816.744712
708.114465	2803.385654
708.448967	2800.781058
708.783421	2805.234077
709.117825	2808.510827
709.452180	2815.904519
709.786485	2830.019750
710.120742	2828.927500
710.454949	2833.632577
710.789107	2819.265288
711.123216	2851.360635
711.457275	2851.864750
711.791286	2853.209058
712.125247	2844.891154
712.459159	2842.958712
712.793023	2857.326000
713.126837	2850.772500
713.460602	2841.698423
713.794318	2843.966942
714.127985	2833.716596
714.461602	2827.919269
714.795171	2815.148346
715.128691	2800.781058
715.462162	2803.133596
715.795584	2784.649365
716.128957	2779.440173
716.462281	2773.558827
716.795556	2769.273846
717.128782	2740.959365
717.461960	2745.664442
717.795088	2732.221365
718.128167	2745.244346
718.461198	2736.422327
718.794180	2723.987481
719.127113	2725.919923
719.459997	2715.921635
719.792833	2709.284115
720.125619	2707.855788
720.458357	2709.620192
720.791046	2706.007365
721.123686	2699.453865
721.456278	2690.211750
721.788821	2697.689462
722.121315	2711.384596
722.453761	2687.271077
722.786158	2694.580750
723.118506	2692.228212
723.450805	2701.218269
723.783056	2681.893846
724.115259	2693.404481
724.447412	2682.734038
724.779518	2680.885615
725.111574	2685.674712
725.443582	2700.798173
725.775542	2689.455577
726.107453	2682.734038
726.439315	2694.328692
726.771129	2704.074923
727.102895	2696.597212
727.434612	2705.335212
727.766281	2689.875673
728.097901	2696.765250
728.429473	2681.389731
728.760996	2694.748788
729.092471	2700.966212
729.423897	2681.389731
729.755276	2692.060173
730.086606	2690.211750
730.417887	2682.397962
730.749120	2684.582462
731.080305	2697.941519
731.411442	2692.648308
731.742530	2698.697692
732.073570	2668.450769
732.404562	2711.132538
732.735506	2708.359904
733.066401	2696.513192
733.397249	2679.289250
733.728048	2687.859212
734.058798	2669.290962
734.389501	2671.055365
734.720156	2662.653442
735.050762	2656.940135
735.381320	2656.856115
735.711831	2665.846173
736.042293	2641.060500
736.372707	2647.277923
736.703073	2651.478885
737.033391	2636.355423
737.363661	2649.630462
737.693883	2649.966538
738.024056	2636.943558
738.354182	2668.450769
738.684260	2657.696308
739.014290	2663.241577
739.344272	2652.739173
739.674207	2657.024154
740.004093	2651.898981
740.333931	2661.897269
740.663722	2659.460712
740.993464	2657.528269
741.323159	2640.220308
741.652806	2648.622231
741.982405	2644.085192
742.311956	2643.329019
742.641460	2638.455904
742.970915	2652.823192
743.300323	2654.251519
743.629683	2637.195615
743.958996	2633.750827
744.288260	2636.187385
744.617477	2635.347192
744.946647	2631.986423
745.275768	2652.403096
745.604842	2629.465846
745.933869	2630.306038
746.262847	2636.271404
746.591778	2626.525173
746.920662	2627.785462
747.249498	2626.861250
747.578286	2635.263173
747.907027	2623.332442
748.235720	2621.484019
748.564365	2616.358846
748.892963	2620.643827
749.221514	2637.363654
749.550017	2631.566327
749.878473	2626.693212
750.206881	2637.195615
750.535242	2627.113308
750.863555	2622.324212
751.191821	2620.307750
751.520039	2626.357135
751.848210	2623.584500
752.176334	2614.090327
752.504411	2616.274827
752.832440	2617.703154
753.160421	2601.235385
753.488356	2632.658577
753.816243	2633.078673
754.144082	2600.731269
754.471875	2609.637308
754.799620	2613.166115
755.127318	2603.503904
755.454969	2605.604385
755.782572	2588.380442
756.110129	2615.854731
756.437638	2621.820096
756.765100	2605.688404
757.092515	2616.526885
757.419882	2626.777231
757.747203	2613.922288
758.074477	2599.723038
758.401703	2615.602673
758.728882	2624.508712
759.056014	2611.905827
759.383099	2614.342385
759.710138	2609.301231
760.037129	2614.174346
760.364073	2607.536827
760.690970	2614.594442
761.017820	2611.905827
761.344623	2609.805346
761.671379	2620.055692
761.998088	2607.704865
762.324751	2630.390058
762.651366	2625.096846
762.977935	2631.734365
763.304456	2637.111596
763.630931	2648.538212
763.957359	2645.933615
764.283740	2657.192192
764.610074	2635.263173
764.936362	2630.474077
765.262602	2625.096846
765.588796	2612.409942
765.914943	2618.711385
766.241044	2611.401712
766.567097	2606.528596
766.893104	2599.639019
767.219064	2612.409942
767.544978	2603.839981
767.870845	2591.909250
768.196665	2607.368788
768.522438	2596.446288
768.848165	2608.040942
769.173846	2604.092038
769.499479	2593.757673
769.825066	2597.034423
770.150607	2593.673654
770.476101	2596.698346
770.801548	2594.093750
771.126949	2603.335865
771.452303	2590.396904
771.777611	2583.087231
772.102872	2612.662000
772.428087	2577.205885
772.753256	2588.464462
773.078378	2597.538538
773.403453	2596.446288
773.728482	2603.755962
774.053465	2593.925712
774.378401	2588.296423
774.703291	2584.599577
775.028135	2590.312885
775.352932	2579.054308
775.677683	2587.288192
776.002388	2581.238808
776.327046	2591.741212
776.651658	2601.403423
776.976224	2591.909250
777.300743	2591.321115
777.625216	2590.396904
777.949643	2598.294712
778.274024	2587.372212
778.598359	2585.691827
778.922647	2596.446288
779.246889	2585.019673
779.571086	2602.495673
779.895236	2589.472692
780.219339	2590.648962
780.543397	2583.843404
780.867409	2598.882846
781.191374	2581.994981
781.515294	2590.901019
781.839167	2585.439769
782.162995	2585.187712
782.486776	2587.288192
782.810511	2596.698346
783.134201	2590.480923
783.457844	2598.630788
783.781441	2594.681885
784.104993	2602.159596
784.428498	2599.807058
784.751958	2589.556712
785.075372	2589.472692
785.398739	2593.085519
785.722061	2595.186000
786.045337	2577.037846
786.368568	2597.202462
786.691752	2593.841692
787.014891	2576.785788
787.337983	2582.667135
787.661030	2598.378731
787.984031	2590.985038
788.306987	2601.487442
788.629897	2599.050885
788.952760	2584.767615
789.275579	2594.681885
789.598351	2597.790596
789.921078	2585.439769
790.243759	2589.556712
790.566395	2584.851635
790.888984	2603.083808
791.211529	2589.892788
791.534027	2591.489154
791.856480	2582.835173
792.178888	2590.901019
792.501249	2589.136615
792.823566	2580.482635
793.145836	2575.189423
793.468062	2590.732981
793.790241	2588.632500
794.112375	2588.548481
794.434464	2582.499096
794.756507	2584.095462
795.078505	2588.884558
795.400457	2579.390385
795.722364	2591.321115
796.044226	2596.362269
796.366042	2581.154788
796.687812	2592.581404
797.009538	2582.583115
797.331218	2581.994981
797.652852	2591.321115
797.974442	2576.365692
798.295986	2591.657192
798.617484	2583.675365
798.938938	2585.691827
799.260346	2584.935654
799.581709	2588.632500
799.903026	2598.714808
800.224299	2589.892788
800.545526	2576.281673
800.866708	2588.716519
801.187845	2580.146558
801.508936	2581.406846
801.829983	2599.723038
802.150984	2586.784077
802.471940	2604.008019
802.792851	2582.079000
803.113717	2583.507327
803.434538	2584.851635
803.755314	2585.187712
804.076045	2596.530308
804.396731	2572.164731
804.717372	2592.413365
805.037967	2587.624269
805.358518	2597.622558
805.679024	2580.986750
805.999485	2584.011442
806.319901	2586.616038
806.640272	2592.245327
806.960598	2581.826942
807.280879	2579.810481
807.601115	2576.113635
807.921306	2585.355750
808.241453	2591.153077
808.561554	2579.978519
808.881611	2588.212404
809.201623	2589.052596
809.521590	2584.851635
809.841513	2588.800538
810.161390	2589.052596
810.481223	2580.230577
810.801011	2589.724750
811.120755	2569.560135
811.440453	2590.060827
811.760107	2591.153077
812.079716	2572.500808
812.399281	2589.388673
812.718801	2577.205885
813.038276	2588.884558
813.357707	2589.052596
813.677093	2592.833462
813.996434	2578.886269
814.315731	2582.499096
814.634983	2573.677077
814.954191	2573.004923
815.273354	2594.429827
815.592473	2585.607808
815.911547	2573.509038
816.230577	2592.749442
816.549562	2589.640731
816.868502	2591.069058
817.187399	2584.431538
817.506250	2592.245327
817.825058	2589.388673
818.143821	2566.619462
818.462539	2590.732981
818.781213	2592.917481
819.099843	2594.933942
819.418429	2586.784077
819.736970	2583.591346
820.055466	2604.176058
820.373919	2605.100269
820.692327	2600.563231
821.010691	2613.922288
821.329011	2598.042654
821.647286	2625.096846
821.965517	2649.630462
822.283704	2652.151038
822.601847	2682.061885
822.919945	2659.376692
823.237999	2668.786846
823.556010	2653.663385
823.873976	2630.222019
824.191897	2639.632173
824.509775	2629.213788
824.827609	2612.325923
825.145398	2612.998077
825.463144	2598.714808
825.780845	2612.830038
826.098502	2597.454519
826.416116	2609.889365
826.733685	2610.729558
827.051210	2610.309462
827.368692	2608.629077
827.686129	2612.830038
828.003522	2620.223731
828.320872	2598.210692
828.638177	2615.182577
828.955439	2599.302942
829.272656	2602.747731
829.589830	2602.747731
829.906960	2586.952115
830.224046	2595.858154
830.541088	2581.742923
830.858086	2591.237096
831.175041	2582.499096
831.491952	2591.573173
831.808819	2583.003212
832.125642	2594.933942
832.442421	2593.421596
832.759157	2587.456231
833.075849	2586.532019
833.392497	2599.975096
833.709101	2616.106788
834.025662	2611.905827
834.342179	2606.696635
834.658653	2596.110212
834.975083	2606.948692
835.291469	2604.092038
835.607811	2598.378731
835.924110	2597.622558
836.240366	2587.120154
836.556578	2600.731269
836.872746	2582.163019
837.188871	2597.874615
837.504952	2595.186000
837.820990	2573.593058
838.136984	2578.970288
838.452935	2588.716519
838.768842	2581.742923
839.084706	2584.431538
839.400526	2591.825231
839.716303	2597.790596
840.032037	2600.563231
840.347727	2587.120154
840.663373	2571.576596
840.978977	2586.616038
841.294537	2591.321115
841.610054	2586.448000
841.925527	2572.584827
842.240957	2588.044365
842.556344	2588.044365
842.871687	2587.204173
843.186987	2576.533731
843.502244	2566.787500
843.817458	2589.472692
844.132629	2577.037846
844.447756	2561.074192
844.762840	2588.632500
845.077881	2586.027904
845.392879	2583.843404
845.707833	2570.064250
846.022745	2576.449712
846.337613	2573.593058
846.652438	2578.802250
846.967221	2569.476115
847.281960	2589.304654
847.596656	2572.164731
847.911309	2576.365692
848.225919	2576.197654
848.540485	2592.581404
848.855009	2590.228865
849.169490	2573.088942
849.483928	2589.052596
849.798323	2583.423308
850.112675	2581.154788
850.426984	2579.138327
850.741251	2595.606096
851.055474	2574.517269
851.369654	2575.693538
851.683792	2584.431538
851.997887	2581.490865
852.311938	2583.339288
852.625947	2596.446288
852.939914	2575.861577
853.253837	2576.197654
853.567718	2589.136615
853.881555	2577.289904
854.195350	2586.027904
854.509103	2568.887981
854.822812	2567.123577
855.136479	2597.034423
855.450103	2579.810481
855.763685	2580.482635
856.077224	2595.101981
856.390720	2574.181192
856.704173	2570.064250
857.017584	2571.660615
857.330953	2576.197654
857.644278	2569.056019
857.957561	2596.446288
858.270802	2583.171250
858.584000	2576.449712
858.897155	2587.036135
859.210268	2591.237096
859.523339	2561.830365
859.836367	2581.826942
860.149352	2591.741212
860.462295	2589.556712
860.775195	2590.564942
861.088054	2582.667135
861.400869	2568.551904
861.713642	2585.859865
862.026373	2586.532019
862.339062	2585.103692
862.651708	2588.380442
862.964312	2566.199365
863.276873	2587.876327
863.589392	2582.583115
863.901869	2577.121865
864.214303	2579.558423
864.526696	2578.382154
864.839045	2572.416788
865.151353	2581.322827
865.463619	2584.263500
865.775842	2576.869808
866.088023	2580.902731
866.400162	2577.878038
866.712258	2586.952115
867.024313	2586.111923
867.336325	2584.767615
867.648296	2575.189423
867.960224	2583.255269
868.272110	2578.886269
868.583954	2570.652385
868.895755	2594.513846
869.207515	2576.449712
869.519233	2575.021385
869.830909	2566.619462
870.142542	2574.769327
870.454134	2581.322827
870.765684	2597.874615
871.077191	2578.970288
871.388657	2583.423308
871.700081	2582.583115
872.011463	2582.331058
872.322803	2597.706577
872.634101	2579.978519
872.945357	2590.060827
873.256571	2580.398615
873.567744	2583.591346
873.878874	2569.140038
874.189963	2575.189423
874.501010	2578.214115
874.812015	2599.555000
875.122979	2578.214115
875.433900	2593.001500
875.744780	2570.148269
876.055618	2573.761096
876.366415	2587.960346
876.677169	2593.505615
876.987882	2592.497385
877.298554	2586.195942
877.609183	2573.677077
877.919771	2578.886269
878.230317	2567.207596
878.540822	2567.123577
878.851285	2587.456231
879.161707	2603.924000
879.472087	2589.556712
879.782425	2589.976808
880.092722	2587.792308
880.402977	2607.872904
880.713191	2600.815288
881.023363	2620.727846
881.333494	2614.174346
881.643583	2611.485731
881.953631	2619.047462
882.263637	2611.317692
882.573602	2609.805346
882.883526	2618.291288
883.193408	2618.039231
883.503248	2609.133192
883.813048	2600.479212
884.122806	2613.418173
884.432522	2605.604385
884.742197	2601.067346
885.051831	2575.525500
885.361424	2596.530308
885.670975	2586.616038
885.980485	2578.634212
886.289954	2586.868096
886.599382	2583.591346
886.908768	2583.759385
887.218113	2583.927423
887.527417	2589.724750
887.836680	2572.668846
888.145901	2582.331058
888.455082	2577.121865
888.764221	2584.767615
889.073319	2589.808769
889.382376	2572.836885
889.691392	2578.970288
890.000366	2583.423308
890.309300	2598.210692
890.618193	2581.406846
890.927044	2582.163019
891.235855	2582.583115
891.544625	2582.667135
891.853353	2582.163019
892.162041	2584.935654
892.470687	2589.976808
892.779293	2588.548481
893.087858	2597.286481
893.396381	2596.194231
893.704864	2577.457942
894.013306	2591.237096
894.321707	2594.933942
894.630068	2582.247038
894.938387	2579.474404
895.246665	2601.403423
895.554903	2587.288192
895.863100	2590.732981
896.171256	2599.639019
896.479371	2584.347519
896.787446	2587.792308
897.095480	2573.845115
897.403473	2577.962058
897.711425	2575.105404
898.019336	2570.820423
898.327207	2580.986750
898.635038	2581.742923
898.942827	2582.919192
899.250576	2584.683596
899.558284	2578.382154
899.865952	2585.187712
900.173579	2561.410269
900.481165	2571.324538
900.788711	2576.365692
901.096216	2575.441481
901.403681	2593.421596
901.711105	2591.489154
902.018489	2573.593058
902.325832	2575.189423
902.633135	2570.652385
902.940397	2597.286481
903.247619	2593.925712
903.554800	2583.675365
903.861941	2586.195942
904.169041	2575.357462
904.476101	2596.950404
904.783121	2584.935654
905.090100	2605.772423
905.397039	2594.429827
905.703938	2584.599577
906.010796	2583.927423
906.317614	2582.583115
906.624391	2584.347519
906.931129	2580.482635
907.237826	2580.734692
907.544483	2587.036135
907.851099	2573.256981
908.157675	2585.523788
908.464211	2589.136615
908.770707	2592.497385
909.077163	2587.204173
909.383578	2579.558423
909.689954	2582.415077
909.996289	2572.920904
910.302584	2571.240519
910.608839	2587.288192
910.915054	2582.163019
911.221229	2595.858154
911.527363	2574.769327
911.833458	2578.382154
912.139513	2568.635923
912.445527	2578.214115
912.751502	2571.828654
913.057436	2578.970288
913.363331	2567.207596
913.669186	2580.650673
913.975000	2569.980231
914.280775	2594.345808
914.586510	2573.341000
914.892205	2593.421596
915.197859	2586.532019
915.503475	2589.220635
915.809050	2583.087231
916.114585	2599.386962
916.420081	2580.230577
916.725536	2584.095462
917.030952	2583.507327
917.336328	2587.792308
917.641665	2599.723038
917.946961	2587.708288
918.252218	2589.220635
918.557435	2585.523788
918.862612	2571.660615
919.167750	2578.298135
919.472848	2581.238808
919.777906	2587.708288
920.082925	2572.248750
920.387904	2592.413365
920.692843	2591.741212
920.997743	2570.064250
921.302603	2586.195942
921.607423	2601.319404
921.912204	2575.777558
922.216946	2569.896212
922.521647	2573.088942
922.826310	2596.950404
923.130932	2576.281673
923.435516	2580.062538
923.740059	2590.228865
924.044564	2571.996692
924.349028	2585.271731
924.653454	2575.693538
924.957840	2572.920904
925.262186	2568.383865
925.566493	2570.568365
925.870761	2588.800538
926.174989	2584.347519
926.479178	2571.576596
926.783328	2574.853346
927.087438	2564.855058
927.391509	2563.090654
927.695541	2575.525500
927.999533	2572.668846
928.303486	2571.324538
928.607400	2577.373923
928.911275	2579.558423
929.215110	2584.263500
929.518906	2564.098885
929.822663	2589.808769
930.126381	2583.339288
930.430060	2556.873231
930.733699	2571.576596
931.037299	2566.955538
931.340861	2572.248750
931.644383	2583.003212
931.947866	2584.347519
932.251309	2587.708288
932.554714	2593.925712
932.858080	2567.459654
933.161407	2583.255269
933.464694	2578.550192
933.767943	2582.583115
934.071153	2580.146558
934.374323	2578.550192
934.677455	2569.224058
934.980548	2589.304654
935.283602	2582.583115
935.586617	2583.255269
935.889593	2573.845115
936.192530	2572.332769
936.495428	2562.922615
936.798287	2582.163019
937.101108	2578.214115
937.403890	2591.405135
937.706632	2589.052596
938.009336	2582.499096
938.312002	2571.324538
938.614628	2572.584827
938.917216	2588.128385
939.219765	2574.013154
939.522275	2563.846827
939.824747	2581.322827
940.127179	2588.044365
940.429573	2579.726462
940.731929	2574.265212
941.034246	2569.140038
941.336524	2581.994981
941.638763	2569.560135
941.940964	2580.230577
942.243126	2580.986750
942.545250	2570.148269
942.847335	2579.726462
943.149381	2569.980231
943.451389	2586.700058
943.753359	2577.037846
944.055290	2587.372212
944.357182	2588.464462
944.659036	2591.741212
944.960851	2559.141750
945.262628	2567.795731
945.564367	2565.191135
945.866067	2579.726462
946.167729	2569.644154
946.469352	2580.314596
946.770937	2567.039558
947.072484	2565.359173
947.373992	2567.795731
947.675462	2568.215827
947.976893	2575.105404
948.278286	2588.968577
948.579641	2570.484346
948.880958	2569.812192
949.182236	2562.334481
949.483476	2575.357462
949.784678	2569.392096
950.085841	2577.794019
950.386967	2581.574885
950.688054	2584.347519
950.989103	2568.215827
951.290114	2565.359173
951.591087	2578.382154
951.892021	2567.291615
952.192917	2581.574885
952.493776	2567.207596
952.794596	2576.029615
953.095378	2580.062538
953.396122	2580.986750
953.696828	2568.047788
953.997496	2564.350942
954.298126	2585.607808
954.598718	2583.255269
954.899272	2561.242231
955.199788	2570.736404
955.500266	2584.683596
955.800706	2578.466173
956.101108	2576.533731
956.401472	2580.986750
956.701798	2583.927423
957.002087	2564.939077
957.302337	2586.616038
957.602550	2575.861577
957.902724	2573.761096
958.202861	2573.088942
958.502960	2584.347519
958.803022	2578.298135
959.103045	2577.625981
959.403031	2575.525500
959.702979	2562.250462
960.002889	2576.533731
960.302762	2575.945596
960.602596	2559.645865
960.902393	2565.695250
961.202153	2584.851635
961.501875	2572.752865
961.801559	2565.023096
962.101205	2568.887981
962.400814	2567.375635
962.700385	2559.981942
962.999918	2565.107115
963.299414	2554.604712
963.598873	2580.230577
963.898293	2587.204173
964.197677	2580.566654
964.497022	2571.408558
964.796331	2566.031327
965.095601	2564.518981
965.394835	2574.349231
965.694030	2579.054308
965.993189	2563.342712
966.292309	2581.154788
966.591393	2571.576596
966.890439	2558.133519
967.189447	2568.047788
967.488419	2570.904442
967.787353	2582.247038
968.086249	2560.738115
968.385108	2568.635923
968.683930	2567.291615
968.982714	2572.332769
969.281462	2574.181192
969.580172	2569.560135
969.878844	2570.652385
970.177480	2558.469596
970.476078	2575.609519
970.774639	2570.400327
971.073162	2580.482635
971.371649	2574.013154
971.670098	2584.179481
971.968510	2581.994981
972.266885	2579.474404
972.565223	2570.820423
972.863524	2581.826942
973.161788	2579.474404
973.460014	2576.365692
973.758204	2574.517269
974.056356	2570.148269
974.354471	2577.794019
974.652550	2575.609519
974.950591	2577.794019
975.248595	2586.784077
975.546563	2593.001500
975.844493	2579.558423
976.142386	2582.667135
976.440243	2564.939077
976.738062	2569.224058
977.035845	2572.500808
977.333590	2570.232288
977.631299	2571.996692
977.928971	2573.088942
978.226606	2552.168154
978.524204	2571.156500
978.821765	2572.248750
979.119290	2562.166442
979.416777	2577.541962
979.714228	2570.652385
980.011642	2563.930846
980.309020	2572.248750
980.606360	2573.761096
980.903664	2565.359173
981.200931	2582.499096
981.498162	2571.576596
981.795356	2569.728173
982.092513	2591.069058
982.389633	2576.953827
982.686717	2573.761096
982.983764	2582.583115
983.280775	2578.298135
983.577749	2570.400327
983.874686	2569.896212
984.171587	2578.970288
984.468451	2564.687019
984.765279	2574.265212
985.062070	2586.616038
985.358824	2574.013154
985.655543	2585.859865
985.952224	2585.103692
986.248869	2583.003212
986.545478	2557.125288
986.842050	2585.859865
987.138586	2554.604712
987.435086	2573.256981
987.731549	2573.845115
988.027975	2569.812192
988.324366	2568.803962
988.620719	2564.434962
988.917037	2570.820423
989.213318	2574.181192
989.509563	2579.474404
989.805772	2571.324538
990.101944	2568.131808
990.398080	2564.182904
990.694180	2573.845115
990.990244	2579.726462
991.286271	2577.037846
991.582262	2578.970288
991.878217	2580.986750
992.174136	2572.836885
992.470019	2569.308077
992.765865	2574.601288
993.061676	2583.255269
993.357450	2574.601288
993.653188	2571.828654
993.948890	2579.390385
994.244556	2569.224058
994.540186	2566.871519
994.835780	2580.818712
995.131337	2565.779269
995.426859	2574.517269
995.722345	2570.316308
996.017795	2573.425019
996.313208	2565.779269
996.608586	2559.897923
996.903928	2571.324538
997.199234	2585.103692
997.494504	2572.164731
997.789738	2566.871519
998.084936	2583.339288
998.380099	2558.805673
998.675225	2568.635923
998.970316	2566.199365
999.265371	2582.583115
999.560390	2571.492577
999.855373	2576.113635
1000.150320	2581.826942
1000.445232	2578.550192
1000.740108	2566.787500
1001.034948	2574.601288
1001.329752	2563.678788
1001.624521	2572.584827
1001.919254	2573.929135
1002.213951	2561.830365
1002.508613	2565.191135
1002.803239	2569.140038
1003.097829	2562.754577
1003.392384	2565.191135
1003.686903	2568.803962
1003.981386	2573.845115
1004.275834	2572.080712
1004.570246	2567.543673
1004.864623	2563.342712
1005.158964	2578.298135
1005.453270	2558.721654
1005.747540	2561.662327
1006.041775	2571.492577
1006.335974	2588.632500
1006.630138	2569.392096
1006.924266	2586.111923
1007.218359	2560.822135
1007.512416	2583.255269
1007.806438	2565.695250
1008.100425	2586.195942
1008.394376	2571.996692
1008.688292	2576.701769
1008.982172	2571.996692
1009.276017	2566.871519
1009.569827	2561.830365
1009.863602	2567.291615
1010.157341	2576.533731
1010.451045	2564.266923
1010.744714	2568.972000
1011.038347	2571.240519
1011.331945	2572.248750
1011.625508	2575.357462
1011.919036	2569.392096
1012.212528	2553.008346
1012.505986	2586.195942
1012.799408	2587.120154
1013.092795	2561.242231
1013.386147	2557.041269
1013.679464	2575.945596
1013.972745	2563.174673
1014.265992	2568.551904
1014.559204	2565.275154
1014.852380	2586.279962
1015.145521	2567.879750
1015.438628	2575.105404
1015.731699	2575.273442
1016.024736	2567.711712
1016.317737	2560.234000
1016.610703	2574.265212
1016.903635	2569.560135
1017.196531	2571.492577
1017.489393	2566.199365
1017.782219	2582.835173
1018.075011	2575.525500
1018.367768	2570.988462
1018.660490	2571.240519
1018.953177	2571.240519
1019.245829	2571.240519
