Dividing Wavelength (nm)	Counts (n)	Slit_number_10_of_a_total_of_40	
326.493990	2019.990346
326.888308	2019.990346
327.282561	2019.990346
327.676750	2009.655981
328.070874	2000.077788
328.464933	2030.576769
328.858929	2014.445077
329.252859	2042.675538
329.646726	2045.700231
330.040528	2062.083981
330.434265	2119.805192
330.827938	2098.380288
331.221547	2159.126192
331.615091	2157.613846
332.008571	2192.145750
332.401986	2201.471885
332.795338	2209.537731
333.188625	2237.516135
333.581847	2243.565519
333.975006	2270.535692
334.368100	2291.204423
334.761129	2318.174596
335.154095	2356.739423
335.546996	2364.049096
335.939833	2377.912269
336.332606	2382.701365
336.725315	2406.898904
337.117960	2394.800135
337.510540	2412.444173
337.903056	2422.022365
338.295508	2423.282654
338.687896	2444.203442
339.080220	2462.603654
339.472480	2464.368058
339.864676	2427.063519
340.256807	2427.819692
340.648875	2470.165385
341.040879	2461.595423
341.432818	2453.025462
341.824694	2459.074846
342.216506	2457.310442
342.608253	2453.025462
342.999937	2469.409212
343.391557	2454.537808
343.783113	2478.231231
344.174605	2456.302212
344.566033	2439.162288
344.957397	2443.699327
345.348697	2450.000769
345.739934	2443.195212
346.131106	2424.795000
346.522215	2443.447269
346.913260	2454.285750
347.304241	2430.844385
347.695159	2430.592327
348.086012	2420.005904
348.476802	2442.439038
348.867528	2437.902000
349.258191	2441.178750
349.648789	2404.378327
350.039324	2419.249731
350.429796	2413.704462
350.820203	2397.824827
351.210548	2442.439038
351.600828	2421.518250
351.991045	2442.691096
352.381198	2425.299115
352.771288	2437.397885
353.161314	2434.121135
353.551276	2442.186981
353.941175	2440.170519
354.331010	2405.638615
354.720782	2422.526481
355.110490	2432.860846
355.500135	2410.679769
355.889717	2418.745615
356.279235	2435.129365
356.668689	2430.340269
357.058080	2414.208577
357.447408	2412.948288
357.836672	2431.852615
358.225873	2404.882442
358.615010	2413.704462
359.004084	2403.874212
359.393095	2439.918462
359.782043	2452.521346
360.170927	2435.129365
360.559748	2387.994577
360.948505	2439.918462
361.337199	2412.948288
361.725830	2430.340269
362.114398	2430.088212
362.502903	2429.079981
362.891344	2424.038827
363.279722	2430.340269
363.668037	2437.649942
364.056289	2442.439038
364.444478	2439.666404
364.832603	2410.427712
365.220665	2436.893769
365.608665	2417.737385
365.996601	2428.323808
366.384474	2397.572769
366.772284	2429.079981
367.160031	2443.699327
367.547715	2423.030596
367.935336	2438.154058
368.322893	2444.959615
368.710388	2423.786769
369.097820	2434.877308
369.485189	2436.389654
369.872495	2432.860846
370.259738	2431.852615
370.646918	2444.707558
371.034035	2433.364962
371.421090	2447.732250
371.808081	2446.219904
372.195010	2446.471962
372.581875	2447.732250
372.968678	2449.244596
373.355418	2428.323808
373.742096	2435.381423
374.128710	2439.162288
374.515262	2396.816596
374.901751	2435.381423
375.288177	2447.732250
375.674540	2444.203442
376.060841	2441.178750
376.447079	2454.033692
376.833254	2430.592327
377.219367	2455.293981
377.605417	2443.699327
377.991404	2479.743577
378.377329	2448.992538
378.763191	2443.951385
379.148991	2440.674635
379.534727	2448.992538
379.920402	2439.162288
380.306013	2443.447269
380.691563	2461.091308
381.077049	2449.496654
381.462474	2436.389654
381.847835	2455.546038
382.233134	2445.211673
382.618371	2464.116000
383.003545	2447.732250
383.388657	2455.041923
383.773706	2446.976077
384.158693	2463.611885
384.543618	2461.847481
384.928480	2455.798096
385.313280	2447.480192
385.698017	2438.406115
386.082692	2446.724019
386.467305	2461.343365
386.851856	2444.203442
387.236344	2471.425673
387.620770	2463.863942
388.005133	2420.257962
388.389435	2434.625250
388.773674	2443.195212
389.157851	2438.910231
389.541965	2454.285750
389.926018	2468.148923
390.310008	2423.282654
390.693936	2433.617019
391.077802	2457.562500
391.461606	2460.335135
391.845348	2432.104673
392.229027	2443.951385
392.612645	2453.277519
392.996200	2450.252827
393.379694	2448.236365
393.763125	2448.992538
394.146494	2458.318673
394.529801	2436.893769
394.913047	2444.203442
395.296230	2474.954481
395.679351	2444.959615
396.062410	2450.504885
396.445408	2474.954481
396.828343	2450.504885
397.211217	2462.099538
397.594028	2459.578962
397.976778	2471.677731
398.359466	2427.567635
398.742092	2437.397885
399.124656	2453.529577
399.507158	2475.710654
399.889598	2451.765173
400.271977	2451.009000
400.654294	2449.496654
401.036549	2451.513115
401.418742	2474.198308
401.800874	2472.433904
402.182944	2467.896865
402.564952	2460.587192
402.946898	2457.310442
403.328783	2413.452404
403.710606	2471.677731
404.092367	2435.885538
404.474067	2473.442135
404.855705	2467.140692
405.237282	2454.537808
405.618797	2478.735346
406.000250	2429.584096
406.381642	2456.554269
406.762972	2431.600558
407.144240	2456.050154
407.525447	2476.718885
407.906593	2432.608788
408.287677	2473.946250
408.668700	2452.521346
409.049661	2471.677731
409.430560	2461.343365
409.811399	2456.554269
410.192176	2455.798096
410.572891	2449.748712
410.953545	2487.809423
411.334138	2436.893769
411.714669	2488.313538
412.095139	2472.181846
412.475547	2479.491519
412.855894	2451.513115
413.236180	2454.537808
413.616405	2446.471962
413.996568	2476.466827
414.376670	2473.946250
414.756711	2467.644808
415.136691	2469.913327
415.516609	2441.682865
415.896466	2461.091308
416.276262	2447.480192
416.655997	2468.400981
417.035670	2443.951385
417.415283	2468.400981
417.794834	2474.198308
418.174324	2478.231231
418.553753	2457.310442
418.933121	2482.768269
419.312428	2450.000769
419.691674	2475.962712
420.070859	2461.847481
420.449983	2455.041923
420.829045	2440.170519
421.208047	2463.107769
421.586988	2460.587192
421.965867	2474.954481
422.344686	2447.228135
422.723444	2475.458596
423.102141	2462.603654
423.480777	2477.727115
423.859352	2476.214769
424.237866	2471.677731
424.616319	2466.384519
424.994712	2497.891731
425.373044	2474.702423
425.751314	2457.814558
426.129524	2475.962712
426.507673	2462.603654
426.885762	2453.025462
427.263789	2468.148923
427.641756	2461.595423
428.019662	2453.529577
428.397508	2462.351596
428.775292	2454.033692
429.153016	2446.976077
429.530679	2491.590288
429.908282	2450.504885
430.285824	2484.784731
430.663305	2483.524442
431.040726	2483.524442
431.418086	2475.458596
431.795385	2459.831019
432.172624	2451.261058
432.549802	2461.595423
432.926920	2482.516212
433.303977	2461.091308
433.680974	2499.404077
434.057910	2440.926692
434.434786	2465.880404
434.811601	2496.883500
435.188355	2476.970942
435.565050	2487.557365
435.941683	2469.157154
436.318257	2484.280615
436.694770	2468.400981
437.071222	2453.025462
437.447614	2474.198308
437.823946	2477.727115
438.200218	2480.751808
438.576429	2460.587192
438.952580	2471.173615
439.328670	2483.524442
439.704700	2472.433904
440.080670	2458.570731
440.456580	2479.743577
440.832429	2467.896865
441.208218	2438.406115
441.583947	2488.565596
441.959616	2465.628346
442.335224	2483.524442
442.710773	2473.442135
443.086261	2483.776500
443.461689	2464.368058
443.837057	2466.132462
444.212365	2494.867038
444.587612	2471.425673
444.962800	2478.735346
445.337927	2472.685962
445.712995	2488.313538
446.088002	2484.532673
446.462949	2487.305308
446.837837	2499.404077
447.212664	2462.099538
447.587431	2479.995635
447.962139	2471.929788
448.336786	2501.420538
448.711374	2455.798096
449.085901	2487.809423
449.460369	2469.661269
449.834776	2482.516212
450.209124	2484.532673
450.583412	2478.483288
450.957640	2476.214769
451.331808	2473.694192
451.705917	2490.330000
452.079965	2508.730212
452.453954	2474.702423
452.827883	2478.231231
453.201752	2457.058385
453.575562	2486.297077
453.949311	2483.020327
454.323001	2485.036788
454.696632	2468.148923
455.070202	2475.710654
455.443713	2490.582058
455.817164	2509.738442
456.190556	2467.392750
456.563888	2499.908192
456.937160	2473.190077
457.310373	2494.614981
457.683526	2485.288846
458.056619	2477.727115
458.429653	2484.028558
458.802628	2482.516212
459.175542	2483.020327
459.548398	2478.483288
459.921194	2504.697288
460.293930	2494.110865
460.666607	2489.825885
461.039224	2497.891731
461.411782	2517.300173
461.784280	2483.272385
462.156719	2486.549135
462.529099	2502.680827
462.901419	2502.932885
463.273680	2488.565596
463.645882	2520.072808
464.018024	2492.598519
464.390106	2467.392750
464.762130	2510.746673
465.134094	2475.962712
465.505999	2508.478154
465.877845	2514.023423
466.249631	2520.576923
466.621358	2515.535769
466.993026	2526.878365
467.364634	2526.374250
467.736184	2540.741538
468.107674	2518.560462
468.479105	2533.683923
468.850477	2506.209635
469.221790	2531.919519
469.593043	2500.412308
469.964238	2523.601615
470.335373	2489.069712
470.706449	2499.404077
471.077467	2524.105731
471.448425	2522.593385
471.819324	2533.935981
472.190164	2536.960673
472.560945	2542.253885
472.931667	2540.489481
473.302330	2536.708615
473.672934	2492.598519
474.043479	2509.234327
474.413965	2538.977135
474.784393	2518.056346
475.154761	2519.316635
475.525070	2519.820750
475.895321	2528.138654
476.265513	2540.489481
476.635645	2519.316635
477.005719	2551.075904
477.375734	2530.911288
477.745691	2550.319731
478.115588	2515.283712
478.485427	2565.947308
478.855207	2545.782692
479.224928	2555.360885
479.594591	2551.075904
479.964194	2555.612942
480.333739	2569.728173
480.703226	2564.434962
481.072653	2558.889692
481.442022	2554.100596
481.811333	2565.695250
482.180584	2550.823846
482.549777	2562.670558
482.918912	2564.182904
483.287988	2544.774462
483.657005	2555.865000
484.025964	2562.418500
484.394864	2543.262115
484.763706	2564.939077
485.132489	2593.421596
485.501213	2559.393808
485.869879	2586.868096
486.238487	2591.657192
486.607036	2607.536827
486.975527	2586.111923
487.343959	2601.487442
487.712333	2590.396904
488.080648	2592.413365
488.448905	2610.057404
488.817104	2594.933942
489.185244	2591.405135
489.553326	2615.350615
489.921350	2593.421596
490.289315	2610.309462
490.657222	2635.011115
491.025070	2653.159269
491.392861	2652.655154
491.760593	2651.898981
492.128267	2665.510096
492.495883	2662.233346
492.863440	2659.208654
493.230939	2660.468942
493.598380	2667.274500
493.965763	2683.658250
494.333088	2664.501865
494.700354	2663.997750
495.067563	2676.096519
495.434713	2681.641788
495.801805	2714.661346
496.168839	2720.962788
496.535815	2715.165462
496.902733	2721.214846
497.269593	2728.272462
497.636395	2746.672673
498.003139	2751.965885
498.369825	2777.423712
498.736453	2789.774538
499.103023	2781.456635
499.469535	2816.996769
499.835989	2830.859942
500.202385	2865.139788
500.568723	2875.474154
500.935003	2905.973135
501.301226	2922.861000
501.667390	2960.165538
502.033497	3002.259173
502.399546	3037.799308
502.765537	3048.133673
503.131470	3079.640885
503.497345	3094.260231
503.863163	3157.526712
504.228923	3160.803462
504.594625	3190.798327
504.960269	3210.206769
505.325856	3295.150212
505.691385	3336.991788
506.056856	3353.879654
506.422270	3434.790173
506.787625	3474.615288
507.152924	3533.092673
507.518164	3612.238788
507.883347	3620.808750
508.248472	3732.470308
508.613540	3748.602000
508.978550	3888.746077
509.343503	3907.146288
509.708398	4000.659692
510.073236	4060.649423
510.438016	4142.820231
510.802738	4233.813058
511.167403	4363.874827
511.532010	4458.900577
511.896561	4566.781269
512.261053	4695.834808
512.625488	4791.868788
512.989866	4886.138365
513.354186	4997.547865
513.718449	5088.540692
514.082655	5219.106577
514.446803	5346.143654
514.810894	5477.213654
515.174927	5656.426673
515.538904	5758.510038
515.902822	5931.421615
516.266684	6034.009096
516.630488	6205.408327
516.994235	6363.700558
517.357925	6559.297327
517.721558	6740.022692
518.085133	6937.635923
518.448651	7124.914788
518.812112	7267.579442
519.175516	7399.153558
519.538863	7696.833692
519.902152	7840.758635
520.265385	8113.989173
520.628560	8321.180596
520.991678	8507.199173
521.354739	8694.730096
521.717743	8993.670519
522.080690	9148.938058
522.443580	9518.958750
522.806413	9774.293192
523.169189	9946.952712
523.531908	10218.922962
523.894569	10439.725500
524.257174	10675.147385
524.619722	10993.496250
524.982213	11206.737058
525.344647	11411.659962
525.707025	11707.323635
526.069345	12070.286712
526.431608	12297.894808
526.793815	12693.373327
527.155964	12808.815750
527.518057	13138.003096
527.880093	13375.693500
528.242072	13656.989885
528.603995	13969.793481
528.965860	14289.150577
529.327669	14526.084808
529.689421	14717.144538
530.051117	15003.482077
530.412755	15369.973962
530.774337	15626.316635
531.135862	15825.694269
531.497331	16234.783904
531.858743	16383.750000
532.220098	16882.068058
532.581396	17088.755365
532.942638	17311.574365
533.303824	17650.591962
533.664953	17906.682577
534.026025	18099.254654
534.387040	18559.512000
534.747999	18863.493577
535.108902	19253.174769
535.469748	19231.749865
535.830537	19550.350788
536.191270	20047.408558
536.551947	20133.864346
536.912567	20537.660769
537.273131	20838.617654
537.633638	20937.172212
537.994089	21464.224846
538.354483	21466.745423
538.714821	21938.345365
539.075103	22445.233385
539.435328	22643.098673
539.795497	22916.833327
540.155609	23145.197596
540.515665	23784.163846
540.875665	23791.473519
541.235609	24214.930442
541.595496	24434.724750
541.955328	25063.356635
542.315102	25071.674538
542.674821	25050.501692
543.034483	25548.063577
543.394090	25744.920635
543.753640	26008.068865
544.113134	26846.916865
544.472571	26564.108135
544.831953	27507.308019
545.191278	27326.330596
545.550548	27516.382096
545.909761	28101.912115
546.268918	28234.998577
546.628019	28862.118115
546.987064	28850.523462
547.346053	28787.256981
547.704986	29563.846731
548.063863	29562.082327
548.422684	29792.967173
548.781449	30089.639077
549.140158	30593.250346
549.498811	30640.889250
549.857408	30667.859423
550.215949	31320.940904
550.574434	31400.087019
550.932864	31636.013019
551.291237	32283.297173
551.649555	32186.002904
552.007817	32727.926942
552.366022	32575.432038
552.724173	32974.187308
553.082267	33433.436423
553.440305	34037.870769
553.798288	33704.398442
554.156215	34026.528173
554.514086	34389.995365
554.871902	34523.333885
555.229661	34674.820558
555.587365	34746.657000
555.945014	34907.217750
556.302606	34996.194115
556.660143	35674.229308
557.017625	35697.670673
557.375050	35825.968038
557.732421	36148.601885
558.089735	36297.567981
558.446994	36498.962077
558.804197	36992.238981
559.161345	37113.982846
559.518437	36569.034115
559.875474	37183.046654
560.232455	37199.430404
560.589381	37498.370827
560.946251	37309.831673
561.303065	38154.981115
561.659825	38122.465673
562.016528	37789.749519
562.373177	37867.887404
562.729770	38224.801096
563.086307	37900.402846
563.442789	38392.671519
563.799216	38574.657173
564.155587	38386.622135
564.511904	38636.411308
564.868164	38628.345462
565.224370	38818.396962
565.580520	38768.993654
565.936615	38956.524577
566.292654	38911.658308
566.648638	39058.607942
567.004567	39131.704673
567.360441	39038.191269
567.716260	38990.552365
568.072023	39269.832288
568.427732	39236.560673
568.783385	38897.291019
569.138982	39174.554481
569.494525	39162.203654
569.850013	39068.438192
570.205445	38993.577058
570.560823	39060.372346
570.916145	38812.599635
571.271412	38739.754962
571.626625	38505.341308
571.981782	38527.774442
572.336884	38193.041827
572.691931	38478.875250
573.046923	38009.039712
573.401860	37798.571538
573.756743	37765.299923
574.111570	37603.983000
574.466342	37322.434558
574.821059	37456.025135
575.175722	36991.482808
575.530330	36950.649462
575.884882	36587.182269
576.239380	36697.331481
576.593823	36369.908538
576.948211	36095.669769
577.302544	35734.471096
577.656823	35623.061596
578.011047	35847.645000
578.365216	35280.011077
578.719330	35091.219865
579.073389	34707.083942
579.427394	34661.461500
579.781344	34494.095192
580.135239	34028.040519
580.489080	33863.698904
580.842866	33302.870538
581.196597	33522.916904
581.550273	33178.101981
581.903895	32998.636904
582.257463	32972.927019
582.610975	32489.480365
582.964434	32343.538962
583.317837	32088.204519
583.671186	31704.572712
584.024481	31594.171442
584.377721	31140.215538
584.730906	31239.022154
585.084037	30955.205192
585.437113	30605.097058
585.790135	30353.291423
586.143103	29970.919904
586.496016	29873.373577
586.848874	29635.683173
587.201679	29477.643000
587.554428	28954.623288
587.907124	28877.241577
588.259765	28330.528442
588.612352	28485.039808
588.964884	27817.086923
589.317362	27737.940808
589.669786	27470.507596
590.022155	27118.887115
590.374470	27183.918000
590.726731	26684.591712
591.078937	26281.551462
591.431090	25937.240654
591.783188	25789.786904
592.135232	25315.918442
592.487222	25228.706481
592.839157	24991.772250
593.191038	24613.685712
593.542866	24342.723692
593.894639	23662.924096
594.246358	23652.841788
594.598022	23450.187404
594.949633	23088.736673
595.301190	22812.481442
595.652692	22516.061596
596.004141	22439.940173
596.355535	21685.279442
596.706876	21493.967654
597.058162	21241.657904
597.409395	21240.649673
597.760573	21091.179462
598.111698	20692.928308
598.462768	20537.156654
598.813785	20210.994000
599.164748	19770.901269
599.515657	19705.366269
599.866511	19448.519481
600.217312	19495.906327
600.568060	18748.051154
600.918753	18787.372154
601.269392	18617.737327
601.619978	18243.935769
601.970510	18130.509808
602.320988	18112.613712
602.671412	18033.719654
603.021783	17695.458231
603.372100	17328.966346
603.722363	17106.651462
604.072572	16968.019731
604.422728	16857.870519
604.772830	16627.741846
605.122878	16373.667692
605.472872	16230.498923
605.822813	16159.166596
606.172701	15927.273519
606.522534	15722.854731
606.872314	15681.517269
607.222041	15362.412231
607.571714	15294.608712
607.921333	14973.487212
608.270899	14852.751577
608.620411	14779.402788
608.969870	14596.156846
609.319276	14327.463346
609.668627	14272.010654
610.017926	14129.346000
610.367171	14087.000308
610.716362	13873.759500
611.065500	13706.645250
611.414585	13560.703846
611.763616	13482.565962
612.112594	13392.581365
612.461518	13223.954769
612.810389	13214.376577
613.159207	12916.192327
613.507971	12793.692288
613.856682	12785.122327
614.205340	12518.697346
614.553945	12588.013212
614.902496	12342.004904
615.250994	12266.891712
615.599439	12119.185904
615.947830	12105.826846
616.296169	11902.164231
616.644454	11833.856596
616.992686	11664.725885
617.340864	11663.969712
617.688990	11568.943962
618.037063	11479.715538
618.385082	11344.108500
618.733048	11291.428442
619.080961	11202.956192
619.428821	11027.524038
619.776628	10928.213308
620.124382	10801.680346
620.472083	10662.544500
620.819731	10608.100038
621.167326	10450.563981
621.514868	10299.329365
621.862357	10098.187327
622.209793	9969.889962
622.557176	9712.791115
622.904506	9531.561635
623.251783	9464.262231
623.599007	9261.859904
623.946179	9082.394827
624.293297	8998.459615
624.640363	8746.906038
624.987376	8663.474942
625.334336	8490.059250
625.681243	8370.331846
626.028097	8245.563288
626.374899	8122.055019
626.721647	8044.169192
627.068343	7977.625962
627.414987	7813.032288
627.761577	7648.438615
628.108115	7633.819269
628.454600	7494.683423
628.801032	7412.764673
629.147412	7317.486865
629.493739	7190.449788
629.840014	7134.492981
630.186236	7065.933288
630.532405	6951.751154
630.878521	6892.769654
631.224585	6850.676019
631.570597	6795.475385
631.916556	6669.446538
632.262462	6626.848788
632.608316	6535.351846
632.954117	6503.844635
633.299866	6447.131654
633.645562	6320.598692
633.991206	6265.650115
634.336797	6136.596577
634.682336	6029.472058
635.027823	5991.411346
635.373257	5921.339308
635.718639	5814.466846
636.063968	5686.673596
636.409245	5633.237365
636.754470	5557.115942
637.099642	5466.375173
637.444762	5356.730077
637.789829	5268.005769
638.134845	5238.515019
638.479808	5190.119942
638.824719	5091.061269
639.169577	5044.178538
639.514383	4974.610615
639.859137	4941.339000
640.203839	4909.075615
640.548489	4825.644519
640.893086	4794.893481
641.237632	4730.114654
641.582125	4723.813212
641.926566	4671.637269
642.270955	4603.833750
642.615292	4580.896500
642.959576	4544.600192
643.303809	4531.241135
643.647990	4471.251404
643.992118	4415.294596
644.336195	4404.204058
644.680219	4384.795615
645.024192	4357.321327
645.368112	4324.049712
645.711981	4305.145385
646.055797	4354.800750
646.399562	4342.954038
646.743274	4319.512673
647.086935	4331.611442
647.430544	4295.063077
647.774101	4319.764731
648.117606	4260.531173
648.461059	4296.827481
648.804460	4208.355231
649.147810	4178.612423
649.491108	4093.668981
649.834354	4081.570212
650.177548	4002.928212
650.520690	3925.546500
650.863781	3929.579423
651.206820	3902.609250
651.549807	3830.520750
651.892742	3830.268692
652.235626	3756.415788
652.578458	3741.040269
652.921238	3721.883885
653.263967	3712.305692
653.606644	3665.422962
653.949269	3642.989827
654.291843	3589.049481
654.634365	3606.945577
654.976836	3567.624577
655.319255	3558.802558
655.661622	3534.352962
656.003938	3526.539173
656.346203	3461.760346
656.688416	3499.821058
657.030577	3456.215077
657.372687	3415.129673
657.714746	3436.806635
658.056753	3429.749019
658.398708	3377.321019
658.740612	3369.507231
659.082465	3313.298365
659.424266	3353.375538
659.766016	3315.566885
660.107715	3295.150212
660.449362	3342.789115
660.790958	3304.728404
661.132503	3278.766462
661.473996	3262.382712
661.815438	3272.969135
662.156829	3273.221192
662.498168	3261.374481
662.839456	3247.511308
663.180693	3202.140923
663.521879	3207.434135
663.863013	3201.384750
664.204097	3196.847712
664.545129	3185.757173
664.886110	3166.600788
665.227040	3155.762308
665.567918	3166.600788
665.908746	3153.241731
666.249522	3167.104904
666.590248	3173.910462
666.930922	3124.759212
667.271545	3126.523615
667.612118	3126.019500
667.952639	3101.821962
668.293109	3094.512288
668.633528	3077.876481
668.973896	3092.495827
669.314213	3060.484500
669.654480	3095.268462
669.994695	3070.062692
670.334859	3066.785942
670.674973	3075.103846
671.015035	3032.254038
671.355047	3025.952596
671.695008	3004.275635
672.034918	3003.015346
672.374777	3017.634692
672.714585	2993.689212
673.054342	3010.072962
673.394049	2996.713904
673.733705	2989.656288
674.073310	3000.746827
674.412864	2971.508135
674.752368	2972.516365
675.091820	2933.951538
675.431223	2959.409365
675.770574	2921.600712
676.109875	2925.633635
676.449125	2899.419635
676.788324	2923.617173
677.127473	2892.866135
677.466571	2910.510173
677.805619	2890.849673
678.144616	2882.027654
678.483562	2865.895962
678.822458	2875.474154
679.161303	2876.230327
679.500098	2857.830115
679.838842	2867.156250
680.177535	2859.342462
680.516179	2847.243692
680.854771	2806.662404
681.193314	2835.649038
681.531805	2866.148019
681.870247	2839.177846
682.208638	2839.177846
682.546978	2849.512212
682.885268	2875.978269
683.223508	2847.243692
683.561697	2837.917558
683.899836	2836.657269
684.237925	2833.128462
684.575963	2829.599654
684.913951	2830.103769
685.251889	2827.583192
685.589776	2796.580096
685.927614	2807.670635
686.265401	2827.331135
686.603137	2806.662404
686.940824	2827.079077
687.278460	2799.100673
687.616046	2820.273519
687.953582	2854.301308
688.291068	2818.509115
688.628504	2802.881538
688.965889	2820.273519
689.303224	2822.289981
689.640510	2808.426808
689.977745	2770.114038
690.314930	2789.270423
690.652065	2772.634615
690.989150	2760.031731
691.326185	2753.478231
691.663170	2747.932962
692.000105	2735.078019
692.336990	2716.173692
692.673825	2698.529654
693.010610	2698.277596
693.347345	2686.682942
693.684030	2728.524519
694.020665	2706.595500
694.357251	2674.584173
694.693786	2679.877385
695.030272	2682.397962
695.366707	2663.745692
695.703093	2653.411327
696.039429	2676.096519
696.375716	2660.973058
696.711952	2673.575942
697.048139	2656.688077
697.384276	2655.427788
697.720363	2636.775519
698.056400	2657.696308
698.392388	2625.937038
698.728326	2618.879423
699.064214	2624.424692
699.400053	2632.238481
699.735842	2640.052269
700.071581	2654.167500
700.407270	2629.465846
700.742910	2631.230250
701.078501	2613.082096
701.414042	2607.032712
701.749533	2617.871192
702.084974	2620.139712
702.420366	2596.698346
702.755709	2626.693212
703.091002	2594.933942
703.426246	2590.901019
703.761440	2593.421596
704.096584	2585.103692
704.431679	2606.024481
704.766725	2577.541962
705.101721	2610.813577
705.436668	2578.046077
705.771565	2571.240519
706.106413	2589.892788
706.441212	2588.128385
706.775961	2579.306365
707.110661	2578.550192
707.445311	2609.805346
707.779913	2609.049173
708.114465	2582.835173
708.448967	2566.703481
708.783421	2601.487442
709.117825	2570.232288
709.452180	2594.681885
709.786485	2622.660288
710.120742	2594.429827
710.454949	2606.780654
710.789107	2611.569750
711.123216	2579.558423
711.457275	2586.868096
711.791286	2600.227154
712.125247	2578.298135
712.459159	2587.120154
712.793023	2597.454519
713.126837	2603.503904
713.460602	2580.818712
713.794318	2608.797115
714.127985	2581.070769
714.461602	2564.182904
714.795171	2570.988462
715.128691	2595.186000
715.462162	2565.695250
715.795584	2546.034750
716.128957	2574.517269
716.462281	2586.616038
716.795556	2550.571788
717.128782	2519.568692
717.461960	2562.922615
717.795088	2560.906154
718.128167	2560.402038
718.461198	2568.719942
718.794180	2562.670558
719.127113	2544.018288
719.459997	2518.308404
719.792833	2555.612942
720.125619	2533.431865
720.458357	2513.519308
720.791046	2547.042981
721.123686	2518.308404
721.456278	2518.308404
721.788821	2523.601615
722.121315	2534.692154
722.453761	2535.700385
722.786158	2534.188038
723.118506	2523.349558
723.450805	2525.618077
723.783056	2520.324865
724.115259	2519.568692
724.447412	2538.220962
724.779518	2547.799154
725.111574	2534.944212
725.443582	2513.519308
725.775542	2513.771365
726.107453	2512.763135
726.439315	2523.853673
726.771129	2542.253885
727.102895	2498.395846
727.434612	2536.708615
727.766281	2508.730212
728.097901	2537.212731
728.429473	2504.445231
728.760996	2553.596481
729.092471	2530.911288
729.423897	2493.606750
729.755276	2532.927750
730.086606	2521.081038
730.417887	2525.366019
730.749120	2535.196269
731.080305	2510.746673
731.411442	2518.308404
731.742530	2518.560462
732.073570	2542.001827
732.404562	2561.158212
732.735506	2546.790923
733.066401	2531.919519
733.397249	2545.782692
733.728048	2547.042981
734.058798	2538.977135
734.389501	2531.919519
734.720156	2542.505942
735.050762	2526.878365
735.381320	2522.593385
735.711831	2501.420538
736.042293	2519.064577
736.372707	2522.341327
736.703073	2533.431865
737.033391	2520.072808
737.363661	2497.639673
737.693883	2519.568692
738.024056	2510.242558
738.354182	2496.127327
738.684260	2518.560462
739.014290	2506.965808
739.344272	2524.609846
739.674207	2534.692154
740.004093	2505.453462
740.333931	2528.138654
740.663722	2498.143788
740.993464	2515.283712
741.323159	2506.965808
741.652806	2499.152019
741.982405	2533.683923
742.311956	2495.371154
742.641460	2511.754904
742.970915	2523.853673
743.300323	2496.127327
743.629683	2488.565596
743.958996	2521.837212
744.288260	2511.502846
744.617477	2513.015192
744.946647	2502.176712
745.275768	2512.763135
745.604842	2507.469923
745.933869	2532.171577
746.262847	2488.565596
746.591778	2498.143788
746.920662	2505.957577
747.249498	2526.122192
747.578286	2522.089269
747.907027	2520.324865
748.235720	2502.680827
748.564365	2483.272385
748.892963	2500.412308
749.221514	2494.614981
749.550017	2516.039885
749.878473	2494.362923
750.206881	2510.746673
750.535242	2503.184942
750.863555	2514.527538
751.191821	2488.313538
751.520039	2511.754904
751.848210	2484.028558
752.176334	2481.760038
752.504411	2509.234327
752.832440	2502.932885
753.160421	2482.516212
753.488356	2493.354692
753.816243	2501.672596
754.144082	2514.023423
754.471875	2521.837212
754.799620	2517.300173
755.127318	2498.647904
755.454969	2517.804288
755.782572	2486.297077
756.110129	2500.664365
756.437638	2492.346462
756.765100	2499.404077
757.092515	2499.404077
757.419882	2525.113962
757.747203	2515.283712
758.074477	2494.867038
758.401703	2484.532673
758.728882	2484.784731
759.056014	2509.234327
759.383099	2512.006962
759.710138	2485.288846
760.037129	2505.201404
760.364073	2502.680827
760.690970	2506.713750
761.017820	2485.036788
761.344623	2500.664365
761.671379	2490.582058
761.998088	2489.825885
762.324751	2512.763135
762.651366	2486.297077
762.977935	2500.664365
763.304456	2538.725077
763.630931	2537.968904
763.957359	2514.527538
764.283740	2493.102635
764.610074	2509.486385
764.936362	2519.316635
765.262602	2515.535769
765.588796	2500.664365
765.914943	2523.349558
766.241044	2516.291942
766.567097	2479.491519
766.893104	2505.957577
767.219064	2501.420538
767.544978	2491.086173
767.870845	2507.721981
768.196665	2505.453462
768.522438	2497.387615
768.848165	2500.916423
769.173846	2511.250788
769.499479	2498.395846
769.825066	2500.664365
770.150607	2496.631442
770.476101	2483.524442
770.801548	2493.102635
771.126949	2511.250788
771.452303	2501.168481
771.777611	2497.135558
772.102872	2465.376288
772.428087	2505.201404
772.753256	2482.012096
773.078378	2481.255923
773.403453	2481.003865
773.728482	2494.867038
774.053465	2490.582058
774.378401	2489.069712
774.703291	2490.834115
775.028135	2481.003865
775.352932	2466.636577
775.677683	2494.614981
776.002388	2488.565596
776.327046	2501.168481
776.651658	2499.908192
776.976224	2481.003865
777.300743	2488.313538
777.625216	2487.053250
777.949643	2480.247692
778.274024	2478.231231
778.598359	2468.653038
778.922647	2485.288846
779.246889	2499.404077
779.571086	2469.157154
779.895236	2484.280615
780.219339	2505.201404
780.543397	2508.982269
780.867409	2472.433904
781.191374	2490.077942
781.515294	2494.362923
781.839167	2453.529577
782.162995	2464.116000
782.486776	2492.598519
782.810511	2502.176712
783.134201	2480.751808
783.457844	2519.820750
783.781441	2488.061481
784.104993	2485.288846
784.428498	2491.086173
784.751958	2457.310442
785.075372	2483.020327
785.398739	2489.321769
785.722061	2459.326904
786.045337	2484.784731
786.368568	2485.792962
786.691752	2475.710654
787.014891	2497.387615
787.337983	2495.623212
787.661030	2492.850577
787.984031	2507.217865
788.306987	2523.601615
788.629897	2486.297077
788.952760	2487.557365
789.275579	2497.135558
789.598351	2487.053250
789.921078	2489.069712
790.243759	2472.181846
790.566395	2483.776500
790.888984	2486.297077
791.211529	2473.694192
791.534027	2503.941115
791.856480	2481.255923
792.178888	2494.110865
792.501249	2479.491519
792.823566	2478.231231
793.145836	2476.466827
793.468062	2483.776500
793.790241	2484.532673
794.112375	2500.916423
794.434464	2463.359827
794.756507	2468.653038
795.078505	2506.713750
795.400457	2461.343365
795.722364	2481.255923
796.044226	2492.346462
796.366042	2494.614981
796.687812	2472.938019
797.009538	2460.587192
797.331218	2486.045019
797.652852	2490.077942
797.974442	2516.796058
798.295986	2503.941115
798.617484	2480.751808
798.938938	2479.239462
799.260346	2469.409212
799.581709	2489.069712
799.903026	2503.437000
800.224299	2503.437000
800.545526	2490.077942
800.866708	2486.045019
801.187845	2511.754904
801.508936	2485.540904
801.829983	2460.335135
802.150984	2485.036788
802.471940	2507.469923
802.792851	2494.867038
803.113717	2508.730212
803.434538	2477.223000
803.755314	2492.094404
804.076045	2479.743577
804.396731	2480.247692
804.717372	2469.157154
805.037967	2485.036788
805.358518	2488.061481
805.679024	2500.160250
805.999485	2509.234327
806.319901	2482.012096
806.640272	2491.086173
806.960598	2474.198308
807.280879	2470.921558
807.601115	2485.792962
807.921306	2485.540904
808.241453	2481.507981
808.561554	2472.685962
808.881611	2475.710654
809.201623	2483.272385
809.521590	2460.839250
809.841513	2489.069712
810.161390	2500.916423
810.481223	2506.965808
810.801011	2495.119096
811.120755	2486.549135
811.440453	2502.932885
811.760107	2468.400981
812.079716	2492.598519
812.399281	2491.086173
812.718801	2458.822788
813.038276	2504.445231
813.357707	2480.751808
813.677093	2477.223000
813.996434	2495.623212
814.315731	2468.653038
814.634983	2501.672596
814.954191	2490.077942
815.273354	2487.305308
815.592473	2496.379385
815.911547	2465.880404
816.230577	2462.351596
816.549562	2481.507981
816.868502	2478.987404
817.187399	2487.305308
817.506250	2484.532673
817.825058	2486.297077
818.143821	2477.979173
818.462539	2478.231231
818.781213	2489.321769
819.099843	2504.445231
819.418429	2466.384519
819.736970	2505.453462
820.055466	2481.003865
820.373919	2516.291942
820.692327	2469.913327
821.010691	2481.003865
821.329011	2540.741538
821.647286	2550.067673
821.965517	2568.972000
822.283704	2614.846500
822.601847	2641.816673
822.919945	2644.085192
823.237999	2599.470981
823.556010	2605.016250
823.873976	2575.525500
824.191897	2591.405135
824.509775	2555.360885
824.827609	2536.456558
825.145398	2509.738442
825.463144	2517.300173
825.780845	2536.708615
826.098502	2537.464788
826.416116	2538.977135
826.733685	2540.741538
827.051210	2547.547096
827.368692	2553.848538
827.686129	2544.522404
828.003522	2533.683923
828.320872	2519.316635
828.638177	2524.609846
828.955439	2513.771365
829.272656	2519.568692
829.589830	2504.445231
829.906960	2491.338231
830.224046	2525.870135
830.541088	2501.924654
830.858086	2481.255923
831.175041	2475.206538
831.491952	2481.507981
831.808819	2514.275481
832.125642	2496.883500
832.442421	2496.127327
832.759157	2492.598519
833.075849	2484.784731
833.392497	2484.784731
833.709101	2525.113962
834.025662	2491.338231
834.342179	2493.102635
834.658653	2514.275481
834.975083	2512.259019
835.291469	2516.796058
835.607811	2482.516212
835.924110	2489.069712
836.240366	2495.623212
836.556578	2485.288846
836.872746	2467.896865
837.188871	2489.069712
837.504952	2498.395846
837.820990	2475.710654
838.136984	2505.201404
838.452935	2483.020327
838.768842	2472.433904
839.084706	2479.743577
839.400526	2497.891731
839.716303	2473.190077
840.032037	2485.792962
840.347727	2482.012096
840.663373	2484.028558
840.978977	2493.858808
841.294537	2508.730212
841.610054	2479.995635
841.925527	2489.069712
842.240957	2488.817654
842.556344	2486.801192
842.871687	2477.223000
843.186987	2457.058385
843.502244	2495.623212
843.817458	2491.842346
844.132629	2456.554269
844.447756	2456.050154
844.762840	2494.614981
845.077881	2481.760038
845.392879	2500.160250
845.707833	2480.499750
846.022745	2478.483288
846.337613	2484.028558
846.652438	2495.623212
846.967221	2476.214769
847.281960	2479.491519
847.596656	2483.020327
847.911309	2463.611885
848.225919	2476.718885
848.540485	2473.190077
848.855009	2492.094404
849.169490	2480.499750
849.483928	2474.954481
849.798323	2467.896865
850.112675	2498.395846
850.426984	2455.798096
850.741251	2484.280615
851.055474	2468.653038
851.369654	2485.036788
851.683792	2478.483288
851.997887	2482.264154
852.311938	2457.310442
852.625947	2452.521346
852.939914	2486.549135
853.253837	2484.784731
853.567718	2465.124231
853.881555	2469.409212
854.195350	2483.776500
854.509103	2467.140692
854.822812	2503.437000
855.136479	2468.400981
855.450103	2493.606750
855.763685	2476.466827
856.077224	2486.045019
856.390720	2476.970942
856.704173	2480.247692
857.017584	2458.822788
857.330953	2469.157154
857.644278	2473.946250
857.957561	2485.792962
858.270802	2494.867038
858.584000	2455.293981
858.897155	2473.694192
859.210268	2510.494615
859.523339	2491.086173
859.836367	2478.483288
860.149352	2477.475058
860.462295	2453.529577
860.775195	2488.817654
861.088054	2495.371154
861.400869	2499.908192
861.713642	2468.400981
862.026373	2478.483288
862.339062	2489.069712
862.651708	2494.614981
862.964312	2491.338231
863.276873	2458.066615
863.589392	2457.310442
863.901869	2489.825885
864.214303	2467.392750
864.526696	2470.417442
864.839045	2475.962712
865.151353	2451.009000
865.463619	2480.751808
865.775842	2472.685962
866.088023	2477.727115
866.400162	2476.214769
866.712258	2494.110865
867.024313	2478.987404
867.336325	2502.680827
867.648296	2462.855712
867.960224	2481.507981
868.272110	2483.272385
868.583954	2502.176712
868.895755	2468.400981
869.207515	2457.310442
869.519233	2461.091308
869.830909	2463.863942
870.142542	2477.475058
870.454134	2460.587192
870.765684	2484.280615
871.077191	2457.814558
871.388657	2466.636577
871.700081	2471.425673
872.011463	2490.582058
872.322803	2469.409212
872.634101	2460.335135
872.945357	2462.603654
873.256571	2481.255923
873.567744	2474.954481
873.878874	2475.962712
874.189963	2502.176712
874.501010	2474.198308
874.812015	2464.116000
875.122979	2491.590288
875.433900	2503.437000
875.744780	2479.743577
876.055618	2481.003865
876.366415	2478.483288
876.677169	2498.899962
876.987882	2469.157154
877.298554	2496.379385
877.609183	2471.929788
877.919771	2468.653038
878.230317	2482.264154
878.540822	2456.806327
878.851285	2483.272385
879.161707	2488.061481
879.472087	2505.453462
879.782425	2493.102635
880.092722	2477.979173
880.402977	2494.362923
880.713191	2508.730212
881.023363	2512.763135
881.333494	2571.744635
881.643583	2554.604712
881.953631	2547.295038
882.263637	2542.253885
882.573602	2536.204500
882.883526	2524.105731
883.193408	2548.051212
883.503248	2557.881462
883.813048	2514.275481
884.122806	2500.664365
884.432522	2512.259019
884.742197	2515.031654
885.051831	2514.527538
885.361424	2484.784731
885.670975	2505.453462
885.980485	2484.532673
886.289954	2495.623212
886.599382	2480.499750
886.908768	2501.924654
887.218113	2482.768269
887.527417	2517.048115
887.836680	2466.132462
888.145901	2492.598519
888.455082	2475.710654
888.764221	2471.425673
889.073319	2491.590288
889.382376	2467.392750
889.691392	2498.395846
890.000366	2465.376288
890.309300	2495.371154
890.618193	2471.425673
890.927044	2482.768269
891.235855	2478.987404
891.544625	2489.069712
891.853353	2478.987404
892.162041	2484.532673
892.470687	2496.883500
892.779293	2461.847481
893.087858	2469.409212
893.396381	2488.565596
893.704864	2469.409212
894.013306	2491.086173
894.321707	2463.863942
894.630068	2516.544000
894.938387	2497.135558
895.246665	2476.214769
895.554903	2471.929788
895.863100	2482.264154
896.171256	2507.721981
896.479371	2520.324865
896.787446	2484.280615
897.095480	2482.516212
897.403473	2487.557365
897.711425	2453.277519
898.019336	2468.905096
898.327207	2481.760038
898.635038	2510.242558
898.942827	2505.453462
899.250576	2470.417442
899.558284	2507.469923
899.865952	2483.776500
900.173579	2492.094404
900.481165	2478.735346
900.788711	2494.362923
901.096216	2467.644808
901.403681	2468.400981
901.711105	2494.362923
902.018489	2468.905096
902.325832	2474.450365
902.633135	2481.003865
902.940397	2475.458596
903.247619	2465.628346
903.554800	2497.387615
903.861941	2473.694192
904.169041	2483.272385
904.476101	2489.573827
904.783121	2477.727115
905.090100	2511.250788
905.397039	2493.354692
905.703938	2492.598519
906.010796	2511.754904
906.317614	2494.110865
906.624391	2483.272385
906.931129	2478.735346
907.237826	2507.469923
907.544483	2469.157154
907.851099	2491.086173
908.157675	2472.938019
908.464211	2486.297077
908.770707	2489.069712
909.077163	2475.710654
909.383578	2483.524442
909.689954	2494.362923
909.996289	2493.102635
910.302584	2500.160250
910.608839	2471.929788
910.915054	2487.305308
911.221229	2482.012096
911.527363	2485.288846
911.833458	2468.905096
912.139513	2482.516212
912.445527	2453.277519
912.751502	2495.875269
913.057436	2484.028558
913.363331	2465.376288
913.669186	2499.656135
913.975000	2493.606750
914.280775	2467.644808
914.586510	2447.228135
914.892205	2500.160250
915.197859	2486.297077
915.503475	2500.916423
915.809050	2496.631442
916.114585	2484.532673
916.420081	2479.491519
916.725536	2512.763135
917.030952	2505.957577
917.336328	2478.483288
917.641665	2497.639673
917.946961	2497.891731
918.252218	2525.366019
918.557435	2459.326904
918.862612	2501.420538
919.167750	2467.392750
919.472848	2503.689058
919.777906	2490.834115
920.082925	2492.850577
920.387904	2489.573827
920.692843	2482.768269
920.997743	2471.929788
921.302603	2482.264154
921.607423	2503.437000
921.912204	2476.718885
922.216946	2494.614981
922.521647	2484.280615
922.826310	2509.738442
923.130932	2462.351596
923.435516	2498.395846
923.740059	2495.119096
924.044564	2486.297077
924.349028	2452.521346
924.653454	2466.132462
924.957840	2478.735346
925.262186	2479.239462
925.566493	2489.321769
925.870761	2467.644808
926.174989	2471.173615
926.479178	2481.760038
926.783328	2488.061481
927.087438	2493.354692
927.391509	2470.669500
927.695541	2459.326904
927.999533	2464.872173
928.303486	2457.562500
928.607400	2463.863942
928.911275	2464.872173
929.215110	2470.669500
929.518906	2472.938019
929.822663	2472.181846
930.126381	2489.825885
930.430060	2478.735346
930.733699	2480.499750
931.037299	2488.817654
931.340861	2466.384519
931.644383	2481.255923
931.947866	2471.677731
932.251309	2468.653038
932.554714	2472.685962
932.858080	2496.379385
933.161407	2479.743577
933.464694	2462.351596
933.767943	2443.951385
934.071153	2487.305308
934.374323	2453.025462
934.677455	2494.614981
934.980548	2499.404077
935.283602	2473.694192
935.586617	2488.313538
935.889593	2484.784731
936.192530	2489.321769
936.495428	2474.954481
936.798287	2473.694192
937.101108	2459.831019
937.403890	2491.590288
937.706632	2493.354692
938.009336	2488.565596
938.312002	2495.623212
938.614628	2489.321769
938.917216	2465.880404
939.219765	2479.743577
939.522275	2489.321769
939.824747	2492.850577
940.127179	2458.822788
940.429573	2491.842346
940.731929	2491.842346
941.034246	2453.277519
941.336524	2478.483288
941.638763	2489.825885
941.940964	2482.264154
942.243126	2479.491519
942.545250	2495.371154
942.847335	2456.554269
943.149381	2480.499750
943.451389	2496.379385
943.753359	2489.573827
944.055290	2486.297077
944.357182	2458.066615
944.659036	2487.305308
944.960851	2476.214769
945.262628	2472.181846
945.564367	2487.809423
945.866067	2447.732250
946.167729	2474.702423
946.469352	2451.261058
946.770937	2483.524442
947.072484	2443.951385
947.373992	2486.801192
947.675462	2487.305308
947.976893	2464.368058
948.278286	2463.107769
948.579641	2485.540904
948.880958	2460.083077
949.182236	2479.743577
949.483476	2509.990500
949.784678	2468.653038
950.085841	2460.587192
950.386967	2452.773404
950.688054	2491.590288
950.989103	2481.760038
951.290114	2459.831019
951.591087	2475.206538
951.892021	2468.653038
952.192917	2482.768269
952.493776	2470.417442
952.794596	2481.255923
953.095378	2491.590288
953.396122	2455.041923
953.696828	2493.354692
953.997496	2452.773404
954.298126	2472.938019
954.598718	2461.847481
954.899272	2462.099538
955.199788	2457.310442
955.500266	2477.979173
955.800706	2463.107769
956.101108	2464.368058
956.401472	2476.718885
956.701798	2470.165385
957.002087	2473.442135
957.302337	2476.970942
957.602550	2456.050154
957.902724	2476.718885
958.202861	2454.789865
958.502960	2459.578962
958.803022	2440.674635
959.103045	2461.343365
959.403031	2467.140692
959.702979	2482.012096
960.002889	2456.806327
960.302762	2492.850577
960.602596	2465.124231
960.902393	2488.061481
961.202153	2475.458596
961.501875	2470.417442
961.801559	2457.562500
962.101205	2468.148923
962.400814	2500.916423
962.700385	2462.603654
962.999918	2471.929788
963.299414	2475.206538
963.598873	2443.447269
963.898293	2495.623212
964.197677	2469.661269
964.497022	2460.839250
964.796331	2457.058385
965.095601	2459.074846
965.394835	2440.170519
965.694030	2466.132462
965.993189	2485.288846
966.292309	2490.330000
966.591393	2455.041923
966.890439	2488.313538
967.189447	2461.847481
967.488419	2459.074846
967.787353	2469.913327
968.086249	2476.970942
968.385108	2479.491519
968.683930	2485.540904
968.982714	2483.524442
969.281462	2486.801192
969.580172	2497.135558
969.878844	2474.702423
970.177480	2481.255923
970.476078	2467.644808
970.774639	2479.743577
971.073162	2478.987404
971.371649	2485.036788
971.670098	2468.148923
971.968510	2467.140692
972.266885	2472.181846
972.565223	2464.116000
972.863524	2461.847481
973.161788	2461.595423
973.460014	2455.546038
973.758204	2488.061481
974.056356	2441.430808
974.354471	2470.921558
974.652550	2477.223000
974.950591	2453.277519
975.248595	2478.735346
975.546563	2456.554269
975.844493	2492.094404
976.142386	2468.653038
976.440243	2506.209635
976.738062	2464.620115
977.035845	2471.929788
977.333590	2485.288846
977.631299	2461.847481
977.928971	2456.302212
978.226606	2469.661269
978.524204	2466.888635
978.821765	2480.499750
979.119290	2478.231231
979.416777	2498.143788
979.714228	2463.611885
980.011642	2485.792962
980.309020	2481.255923
980.606360	2480.751808
980.903664	2477.979173
981.200931	2462.351596
981.498162	2450.252827
981.795356	2486.045019
982.092513	2489.321769
982.389633	2464.116000
982.686717	2450.504885
982.983764	2466.888635
983.280775	2477.979173
983.577749	2501.672596
983.874686	2489.573827
984.171587	2477.475058
984.468451	2473.694192
984.765279	2464.116000
985.062070	2491.338231
985.358824	2479.239462
985.655543	2486.801192
985.952224	2473.190077
986.248869	2474.450365
986.545478	2483.272385
986.842050	2476.970942
987.138586	2462.099538
987.435086	2434.121135
987.731549	2469.409212
988.027975	2469.409212
988.324366	2467.140692
988.620719	2486.549135
988.917037	2481.003865
989.213318	2468.400981
989.509563	2479.491519
989.805772	2489.573827
990.101944	2490.077942
990.398080	2450.000769
990.694180	2455.546038
990.990244	2459.326904
991.286271	2471.425673
991.582262	2479.995635
991.878217	2432.860846
992.174136	2461.595423
992.470019	2465.124231
992.765865	2471.929788
993.061676	2436.893769
993.357450	2470.921558
993.653188	2437.649942
993.948890	2485.540904
994.244556	2472.181846
994.540186	2475.458596
994.835780	2478.987404
995.131337	2448.488423
995.426859	2492.850577
995.722345	2471.929788
996.017795	2465.124231
996.313208	2493.858808
996.608586	2460.083077
996.903928	2487.557365
997.199234	2471.929788
997.494504	2458.066615
997.789738	2464.872173
998.084936	2488.565596
998.380099	2462.351596
998.675225	2461.343365
998.970316	2475.962712
999.265371	2467.392750
999.560390	2467.644808
999.855373	2454.285750
1000.150320	2471.677731
1000.445232	2470.417442
1000.740108	2492.598519
1001.034948	2465.628346
1001.329752	2454.033692
1001.624521	2472.685962
1001.919254	2462.351596
1002.213951	2448.992538
1002.508613	2464.116000
1002.803239	2465.124231
1003.097829	2473.442135
1003.392384	2455.293981
1003.686903	2458.318673
1003.981386	2481.255923
1004.275834	2474.702423
1004.570246	2459.578962
1004.864623	2473.946250
1005.158964	2478.231231
1005.453270	2483.776500
1005.747540	2416.729154
1006.041775	2468.905096
1006.335974	2459.578962
1006.630138	2454.285750
1006.924266	2472.938019
1007.218359	2473.694192
1007.512416	2482.264154
1007.806438	2463.359827
1008.100425	2475.962712
1008.394376	2468.400981
1008.688292	2470.165385
1008.982172	2467.140692
1009.276017	2468.400981
1009.569827	2458.318673
1009.863602	2430.592327
1010.157341	2475.962712
1010.451045	2475.458596
1010.744714	2473.442135
1011.038347	2451.765173
1011.331945	2501.672596
1011.625508	2461.595423
1011.919036	2456.050154
1012.212528	2502.680827
1012.505986	2451.765173
1012.799408	2469.661269
1013.092795	2471.929788
1013.386147	2442.943154
1013.679464	2451.513115
1013.972745	2454.285750
1014.265992	2465.628346
1014.559204	2478.483288
1014.852380	2441.178750
1015.145521	2448.236365
1015.438628	2469.913327
1015.731699	2456.050154
1016.024736	2488.061481
1016.317737	2458.822788
1016.610703	2443.951385
1016.903635	2490.330000
1017.196531	2465.628346
1017.489393	2476.718885
1017.782219	2443.951385
1018.075011	2479.491519
1018.367768	2472.938019
1018.660490	2468.148923
1018.953177	2468.148923
1019.245829	2468.148923
