Dividing Wavelength (nm)	Counts (n)	Slit_number_32_of_a_total_of_40	
326.493990	2042.700744
326.888308	2042.700744
327.282561	2042.700744
327.676750	2010.235713
328.070874	2012.857113
328.464933	2022.132837
328.858929	2031.358148
329.252859	2043.961033
329.646726	2054.950748
330.040528	2070.023798
330.434265	2093.213106
330.827938	2111.663729
331.221547	2133.542337
331.615091	2149.749646
332.008571	2168.049035
332.401986	2199.278983
332.795338	2217.200285
333.188625	2226.249156
333.581847	2251.631365
333.975006	2262.948756
334.368100	2288.986315
334.761129	2299.900413
335.154095	2317.292394
335.546996	2326.215237
335.939833	2349.354133
336.332606	2361.478108
336.725315	2367.905579
337.117960	2378.870088
337.510540	2393.388612
337.903056	2404.176681
338.295508	2406.193142
338.687896	2401.807338
339.080220	2416.426685
339.472480	2421.014135
339.864676	2411.990469
340.256807	2431.020825
340.648875	2428.651483
341.040879	2426.206523
341.432818	2438.456527
341.824694	2440.447783
342.216506	2429.458067
342.608253	2428.701894
342.999937	2429.206010
343.391557	2433.995106
343.783113	2429.130392
344.174605	2433.944694
344.566033	2426.357758
344.957397	2433.490990
345.348697	2421.316604
345.739934	2420.988929
346.131106	2414.359812
346.522215	2423.811975
346.913260	2415.519277
347.304241	2416.023392
347.695159	2415.216808
348.086012	2415.468865
348.476802	2408.864954
348.867528	2408.537279
349.258191	2401.580487
349.648789	2414.158165
350.039324	2398.152502
350.429796	2410.780592
350.820203	2399.614437
351.210548	2406.571229
351.600828	2399.185938
351.991045	2402.361865
352.381198	2399.261556
352.771288	2401.353635
353.161314	2405.512587
353.551276	2398.051679
353.941175	2411.561971
354.331010	2398.001267
354.720782	2396.388098
355.110490	2396.690567
355.500135	2406.520817
355.889717	2402.008985
356.279235	2401.983779
356.668689	2401.000754
357.058080	2410.478123
357.447408	2405.462175
357.836672	2398.354148
358.225873	2403.975035
358.615010	2403.470919
359.004084	2412.066087
359.393095	2408.839748
359.782043	2401.605692
360.170927	2406.999727
360.559748	2409.495098
360.948505	2412.544996
361.337199	2409.217835
361.725830	2404.000240
362.114398	2405.689027
362.502903	2403.092833
362.891344	2405.285735
363.279722	2411.335119
363.668037	2408.360838
364.056289	2419.350554
364.444478	2403.849006
364.832603	2417.233269
365.220665	2410.755387
365.608665	2415.468865
365.996601	2406.546023
366.384474	2414.989956
366.772284	2418.997673
367.160031	2417.157652
367.547715	2415.015162
367.935336	2415.998187
368.322893	2402.916392
368.710388	2407.680283
369.097820	2420.560431
369.485189	2411.587177
369.872495	2416.829977
370.259738	2420.963723
370.646918	2422.022365
371.034035	2409.747156
371.421090	2413.074317
371.808081	2422.677715
372.195010	2417.460121
372.581875	2408.965777
372.968678	2418.972467
373.355418	2421.165369
373.742096	2425.727613
374.128710	2415.796540
374.515262	2421.417427
374.901751	2421.266192
375.288177	2421.971954
375.674540	2415.695717
376.060841	2418.417940
376.447079	2422.753333
376.833254	2409.999213
377.219367	2420.283167
377.605417	2428.248190
377.991404	2419.249731
378.377329	2430.315063
378.763191	2422.526481
379.148991	2420.257962
379.534727	2424.064033
379.920402	2423.862387
380.306013	2417.586150
380.691563	2415.569688
381.077049	2431.625763
381.462474	2426.937490
381.847835	2422.602098
382.233134	2419.224525
382.618371	2418.291912
383.003545	2423.484300
383.388657	2421.341810
383.773706	2429.760537
384.158693	2420.888106
384.543618	2427.139137
384.928480	2431.121648
385.313280	2425.500762
385.698017	2428.525454
386.082692	2423.585123
386.467305	2429.458067
386.851856	2425.500762
387.236344	2423.610329
387.620770	2420.257962
388.005133	2425.097469
388.389435	2424.164856
388.773674	2417.888619
389.157851	2422.954979
389.541965	2425.702408
389.926018	2421.644279
390.310008	2427.340783
390.693936	2424.744588
391.077802	2427.895310
391.461606	2429.659713
391.845348	2423.232242
392.229027	2428.550660
392.612645	2428.248190
392.996200	2424.139650
393.379694	2431.751792
393.763125	2433.440579
394.146494	2432.079467
394.529801	2423.156625
394.913047	2431.121648
395.296230	2426.660227
395.679351	2433.087698
396.062410	2430.063006
396.445408	2430.995619
396.828343	2431.701381
397.211217	2427.819692
397.594028	2432.180290
397.976778	2427.996133
398.359466	2435.003337
398.742092	2435.633481
399.124656	2431.903027
399.507158	2431.046031
399.889598	2444.253854
400.271977	2428.979158
400.654294	2435.129365
401.036549	2430.037800
401.418742	2431.449323
401.800874	2432.281113
402.182944	2425.803231
402.564952	2428.399425
402.946898	2439.086671
403.328783	2437.297062
403.710606	2430.516710
404.092367	2431.146854
404.474067	2437.801177
404.855705	2433.163315
405.237282	2434.045517
405.618797	2430.567121
406.000250	2435.658687
406.381642	2432.432348
406.762972	2433.238933
407.144240	2433.138110
407.525447	2429.558890
407.906593	2430.415887
408.287677	2432.306319
408.668700	2434.625250
409.049661	2431.550146
409.430560	2439.263112
409.811399	2430.693150
410.192176	2436.918975
410.572891	2435.331012
410.953545	2435.305806
411.334138	2432.356731
411.714669	2437.902000
412.095139	2431.096442
412.475547	2438.784202
412.855894	2437.902000
413.236180	2438.280087
413.616405	2436.465271
413.996568	2439.086671
414.376670	2439.590787
414.756711	2438.355704
415.136691	2440.069696
415.516609	2437.902000
415.896466	2436.087185
416.276262	2440.825869
416.655997	2436.717329
417.035670	2442.917948
417.415283	2430.315063
417.794834	2433.869077
418.174324	2428.626277
418.553753	2440.346960
418.933121	2435.331012
419.312428	2442.968360
419.691674	2448.816098
420.070859	2435.986362
420.449983	2435.809921
420.829045	2447.001283
421.208047	2443.396858
421.586988	2427.945721
421.965867	2434.020312
422.344686	2438.885025
422.723444	2437.397885
423.102141	2439.792433
423.480777	2449.975563
423.859352	2445.186467
424.237866	2435.129365
424.616319	2441.783688
424.994712	2439.641198
425.373044	2436.918975
425.751314	2434.045517
426.129524	2442.060952
426.507673	2430.718356
426.885762	2439.263112
427.263789	2445.614965
427.641756	2444.329471
428.019662	2449.597477
428.397508	2434.726073
428.775292	2437.498708
429.153016	2439.162288
429.530679	2440.876281
429.908282	2438.708585
430.285824	2440.094902
430.663305	2445.085644
431.040726	2442.968360
431.418086	2443.875767
431.795385	2443.548092
432.172624	2447.051694
432.549802	2441.708071
432.926920	2442.313010
433.303977	2437.347473
433.680974	2442.313010
434.057910	2444.279060
434.434786	2440.523400
434.811601	2448.034719
435.188355	2441.708071
435.565050	2446.950871
435.941683	2443.346446
436.318257	2441.329985
436.694770	2436.137596
437.071222	2443.573298
437.447614	2448.589246
437.823946	2452.218877
438.200218	2448.942127
438.576429	2450.429267
438.952580	2448.261571
439.328670	2447.707044
439.704700	2444.707558
440.080670	2449.925152
440.456580	2440.422577
440.832429	2446.673608
441.208218	2447.001283
441.583947	2451.639144
441.959616	2455.949331
442.335224	2453.176696
442.710773	2448.085131
443.086261	2442.010540
443.461689	2441.632454
443.837057	2451.739967
444.212365	2455.596450
444.587612	2449.370625
444.962800	2445.539348
445.337927	2446.446756
445.712995	2445.766200
446.088002	2448.438012
446.462949	2450.933383
446.837837	2450.933383
447.212664	2449.068156
447.587431	2450.832560
447.962139	2453.706017
448.336786	2454.386573
448.711374	2439.893256
449.085901	2455.092335
449.460369	2452.017231
449.834776	2448.765687
450.209124	2439.868050
450.583412	2451.639144
450.957640	2438.330498
451.331808	2453.050667
451.705917	2444.001796
452.079965	2459.957048
452.453954	2439.943667
452.827883	2451.185440
453.201752	2444.102619
453.575562	2453.050667
453.949311	2454.159721
454.323001	2457.587706
454.696632	2448.841304
455.070202	2449.017744
455.443713	2438.481733
455.817164	2443.850562
456.190556	2445.110850
456.563888	2452.092848
456.937160	2444.556323
457.310373	2450.630913
457.683526	2456.201388
458.056619	2447.782662
458.429653	2449.244596
458.802628	2451.034206
459.175542	2450.958588
459.548398	2449.975563
459.921194	2440.851075
460.293930	2452.521346
460.666607	2454.537808
461.039224	2444.228648
461.411782	2448.916921
461.784280	2460.284723
462.156719	2442.691096
462.529099	2450.580502
462.901419	2449.017744
463.273680	2443.195212
463.645882	2443.951385
464.018024	2447.076900
464.390106	2444.833587
464.762130	2451.109823
465.134094	2447.429781
465.505999	2448.866510
465.877845	2455.268775
466.249631	2458.772377
466.621358	2460.814044
466.993026	2453.403548
467.364634	2452.823815
467.736184	2446.497167
468.107674	2451.412292
468.479105	2448.891715
468.850477	2450.580502
469.221790	2448.387600
469.593043	2445.993052
469.964238	2453.479165
470.335373	2451.286263
470.706449	2450.454473
471.077467	2451.487910
471.448425	2448.740481
471.819324	2449.773917
472.190164	2451.941613
472.560945	2443.623710
472.931667	2448.589246
473.302330	2449.295008
473.672934	2449.698300
474.043479	2457.184413
474.413965	2454.537808
474.784393	2452.924638
475.154761	2455.697273
475.525070	2452.168465
475.895321	2456.251800
476.265513	2457.285237
476.635645	2450.656119
477.005719	2454.991512
477.375734	2452.017231
477.745691	2449.521860
478.115588	2453.403548
478.485427	2455.924125
478.855207	2451.739967
479.224928	2454.361367
479.594591	2451.336675
479.964194	2447.807867
480.333739	2458.772377
480.703226	2452.596963
481.072653	2453.201902
481.442022	2454.411779
481.811333	2449.269802
482.180584	2448.412806
482.549777	2445.362908
482.918912	2451.765173
483.287988	2451.286263
483.657005	2449.950358
484.025964	2448.034719
484.394864	2466.661783
484.763706	2461.091308
485.132489	2458.217850
485.501213	2447.152517
485.869879	2446.396344
486.238487	2454.109310
486.607036	2451.891202
486.975527	2461.847481
487.343959	2453.932869
487.712333	2458.520319
488.080648	2450.303238
488.448905	2458.747171
488.817104	2462.754888
489.185244	2454.033692
489.553326	2454.109310
489.921350	2458.268262
490.289315	2448.438012
490.657222	2457.436471
491.025070	2459.604167
491.392861	2446.623196
491.760593	2448.387600
492.128267	2453.176696
492.495883	2456.503858
492.863440	2464.519292
493.230939	2449.799123
493.598380	2453.428754
493.965763	2449.118567
494.333088	2449.673094
494.700354	2453.680812
495.067563	2466.208079
495.434713	2450.983794
495.801805	2456.881944
496.168839	2459.528550
496.535815	2454.411779
496.902733	2449.345419
497.269593	2455.546038
497.636395	2457.058385
498.003139	2454.033692
498.369825	2460.435958
498.736453	2451.009000
499.103023	2454.210133
499.469535	2456.201388
499.835989	2454.764660
500.202385	2451.840790
500.568723	2450.807354
500.935003	2452.874227
501.301226	2449.698300
501.667390	2465.073819
502.033497	2450.429267
502.399546	2461.519806
502.765537	2450.605708
503.131470	2454.638631
503.497345	2454.789865
503.863163	2455.571244
504.228923	2452.546552
504.594625	2458.873200
504.960269	2460.259517
505.325856	2455.798096
505.691385	2451.185440
506.056856	2448.589246
506.422270	2458.772377
506.787625	2452.571758
507.152924	2457.083590
507.518164	2457.663323
507.883347	2462.729683
508.248472	2459.730196
508.613540	2456.655092
508.978550	2458.192644
509.343503	2455.823302
509.708398	2459.175669
510.073236	2454.865483
510.438016	2460.209106
510.802738	2466.888635
511.167403	2454.008487
511.532010	2465.099025
511.896561	2459.856225
512.261053	2453.655606
512.625488	2458.117027
512.989866	2453.882458
513.354186	2462.477625
513.718449	2454.663837
514.082655	2452.647375
514.446803	2460.940073
514.810894	2465.048613
515.174927	2462.931329
515.538904	2459.125258
515.902822	2466.913840
516.266684	2453.252313
516.630488	2459.125258
516.994235	2465.880404
517.357925	2460.360340
517.721558	2458.671554
518.085133	2457.864969
518.448651	2457.209619
518.812112	2454.991512
519.175516	2454.840277
519.538863	2458.772377
519.902152	2464.242029
520.265385	2458.117027
520.628560	2467.165898
520.991678	2452.042437
521.354739	2458.117027
521.717743	2461.570217
522.080690	2450.479679
522.443580	2454.764660
522.806413	2458.167438
523.169189	2464.972996
523.531908	2455.193158
523.894569	2461.645835
524.257174	2455.596450
524.619722	2464.620115
524.982213	2457.839763
525.344647	2453.882458
525.707025	2459.226081
526.069345	2454.890688
526.431608	2458.444702
526.793815	2453.882458
527.155964	2456.806327
527.518057	2462.250773
527.880093	2455.621656
528.242072	2462.906123
528.603995	2452.949844
528.965860	2452.168465
529.327669	2464.015177
529.689421	2459.326904
530.051117	2460.587192
530.412755	2454.159721
530.774337	2464.796556
531.135862	2466.510548
531.497331	2459.049640
531.858743	2445.211673
532.220098	2461.696246
532.581396	2456.352623
532.942638	2459.957048
533.303824	2451.462704
533.664953	2455.798096
534.026025	2458.142233
534.387040	2460.511575
534.747999	2463.259004
535.108902	2461.494600
535.469748	2449.874740
535.830537	2456.529063
536.191270	2453.781635
536.551947	2463.183387
536.912567	2456.781121
537.273131	2451.563527
537.633638	2449.017744
537.994089	2452.067642
538.354483	2458.293467
538.714821	2457.990998
539.075103	2449.773917
539.435328	2461.343365
539.795497	2452.496140
540.155609	2456.579475
540.515665	2454.865483
540.875665	2458.999229
541.235609	2461.897892
541.595496	2458.520319
541.955328	2460.637604
542.315102	2451.739967
542.674821	2461.343365
543.034483	2453.101079
543.394090	2457.260031
543.753640	2453.101079
544.113134	2463.712708
544.472571	2457.864969
544.831953	2460.839250
545.191278	2453.731223
545.550548	2459.780608
545.909761	2457.537294
546.268918	2452.092848
546.628019	2458.419496
546.987064	2464.191617
547.346053	2458.747171
547.704986	2455.697273
548.063863	2460.637604
548.422684	2463.183387
548.781449	2456.352623
549.140158	2454.109310
549.498811	2459.049640
549.857408	2449.925152
550.215949	2452.496140
550.574434	2460.536781
550.932864	2458.444702
551.291237	2463.939560
551.649555	2455.218363
552.007817	2458.091821
552.366022	2457.764146
552.724173	2452.596963
553.082267	2462.250773
553.440305	2459.024435
553.798288	2460.209106
554.156215	2465.099025
554.514086	2455.394804
554.871902	2453.731223
555.229661	2458.117027
555.587365	2459.931842
555.945014	2448.311983
556.302606	2452.218877
556.660143	2464.368058
557.017625	2459.604167
557.375050	2458.469908
557.732421	2448.311983
558.089735	2449.748712
558.446994	2460.461163
558.804197	2450.857765
559.161345	2460.788838
559.518437	2456.629887
559.875474	2450.555296
560.232455	2452.697787
560.589381	2451.765173
560.946251	2457.234825
561.303065	2456.806327
561.659825	2467.291927
562.016528	2462.225567
562.373177	2462.149950
562.729770	2457.335648
563.086307	2459.352110
563.442789	2461.141719
563.799216	2454.815071
564.155587	2456.503858
564.511904	2453.479165
564.868164	2458.268262
565.224370	2469.409212
565.580520	2453.252313
565.936615	2464.544498
566.292654	2457.285237
566.648638	2461.368571
567.004567	2462.452419
567.360441	2463.763119
567.716260	2461.847481
568.072023	2471.400467
568.427732	2461.015690
568.783385	2464.897379
569.138982	2459.452933
569.494525	2464.216823
569.850013	2455.243569
570.205445	2466.686988
570.560823	2457.688529
570.916145	2452.521346
571.271412	2457.411265
571.626625	2465.930815
571.981782	2468.174129
572.336884	2454.739454
572.691931	2458.595937
573.046923	2455.092335
573.401860	2459.755402
573.756743	2457.587706
574.111570	2453.050667
574.466342	2451.361881
574.821059	2456.478652
575.175722	2458.948817
575.530330	2457.890175
575.884882	2452.546552
576.239380	2461.721452
576.593823	2461.519806
576.948211	2456.150977
577.302544	2464.443675
577.656823	2457.990998
578.011047	2461.519806
578.365216	2461.671040
578.719330	2460.940073
579.073389	2459.881431
579.427394	2462.023921
579.781344	2456.125771
580.135239	2461.998715
580.489080	2458.192644
580.842866	2458.646348
581.196597	2463.485856
581.550273	2464.670527
581.903895	2457.587706
582.257463	2466.460137
582.610975	2458.923612
582.964434	2457.411265
583.317837	2460.814044
583.671186	2457.562500
584.024481	2462.301185
584.377721	2453.176696
584.730906	2457.890175
585.084037	2465.325877
585.437113	2460.637604
585.790135	2454.865483
586.143103	2463.712708
586.496016	2464.544498
586.848874	2459.704990
587.201679	2455.798096
587.554428	2459.352110
587.907124	2457.713735
588.259765	2458.016204
588.612352	2456.705504
588.964884	2458.495113
589.317362	2470.140179
589.669786	2459.578962
590.022155	2458.419496
590.374470	2457.764146
590.726731	2463.032152
591.078937	2448.538835
591.431090	2457.007973
591.783188	2460.688015
592.135232	2460.612398
592.487222	2458.646348
592.839157	2459.125258
593.191038	2465.527523
593.542866	2458.772377
593.894639	2459.679785
594.246358	2455.571244
594.598022	2449.647888
594.949633	2463.712708
595.301190	2450.656119
595.652692	2457.436471
596.004141	2456.302212
596.355535	2465.300671
596.706876	2457.436471
597.058162	2457.839763
597.409395	2456.302212
597.760573	2458.797583
598.111698	2457.335648
598.462768	2458.948817
598.813785	2458.873200
599.164748	2464.116000
599.515657	2459.654579
599.866511	2461.620629
600.217312	2462.528037
600.568060	2458.974023
600.918753	2467.821248
601.269392	2462.175156
601.619978	2458.721965
601.970510	2463.737913
602.320988	2463.511062
602.671412	2462.049127
603.021783	2459.301698
603.372100	2457.285237
603.722363	2458.570731
604.072572	2461.418983
604.422728	2455.041923
604.772830	2464.342852
605.122878	2467.317133
605.472872	2455.898919
605.822813	2467.241515
606.172701	2455.319187
606.522534	2457.890175
606.872314	2458.999229
607.222041	2459.074846
607.571714	2459.452933
607.921333	2457.738940
608.270899	2462.326390
608.620411	2454.084104
608.969870	2460.788838
609.319276	2459.074846
609.668627	2467.543985
610.017926	2453.453960
610.367171	2464.368058
610.716362	2455.092335
611.065500	2464.846967
611.414585	2460.738427
611.763616	2461.091308
612.112594	2453.706017
612.461518	2457.436471
612.810389	2459.730196
613.159207	2458.721965
613.507971	2459.100052
613.856682	2472.484315
614.205340	2448.715275
614.553945	2457.083590
614.902496	2464.090794
615.250994	2457.512088
615.599439	2461.998715
615.947830	2471.097998
616.296169	2456.982767
616.644454	2461.418983
616.992686	2461.721452
617.340864	2460.486369
617.688990	2460.057871
618.037063	2457.108796
618.385082	2462.603654
618.733048	2458.419496
619.080961	2463.158181
619.428821	2457.713735
619.776628	2458.721965
620.124382	2464.897379
620.472083	2455.142746
620.819731	2463.788325
621.167326	2459.024435
621.514868	2458.369085
621.862357	2449.320213
622.209793	2465.426700
622.557176	2455.672067
622.904506	2457.638117
623.251783	2461.066102
623.599007	2457.209619
623.946179	2464.141206
624.293297	2458.999229
624.640363	2457.108796
624.987376	2451.739967
625.334336	2451.513115
625.681243	2456.428240
626.028097	2454.386573
626.374899	2455.823302
626.721647	2465.577935
627.068343	2472.988431
627.414987	2461.444188
627.761577	2455.369598
628.108115	2463.359827
628.454600	2451.084617
628.801032	2461.116513
629.147412	2464.972996
629.493739	2470.921558
629.840014	2459.478138
630.186236	2463.485856
630.532405	2457.209619
630.878521	2460.360340
631.224585	2464.393263
631.570597	2454.436985
631.916556	2465.779581
632.262462	2462.956535
632.608316	2460.788838
632.954117	2465.401494
633.299866	2458.343879
633.645562	2457.789352
633.991206	2457.789352
634.336797	2467.367544
634.682336	2453.983281
635.027823	2463.435444
635.373257	2462.830506
635.718639	2449.244596
636.063968	2460.511575
636.409245	2450.958588
636.754470	2458.369085
637.099642	2456.478652
637.444762	2464.292440
637.789829	2451.790379
638.134845	2469.409212
638.479808	2452.496140
638.824719	2451.664350
639.169577	2460.133488
639.514383	2462.124744
639.859137	2459.957048
640.203839	2459.226081
640.548489	2463.334621
640.893086	2459.251287
641.237632	2461.166925
641.582125	2465.023408
641.926566	2456.503858
642.270955	2449.118567
642.615292	2457.209619
642.959576	2458.520319
643.303809	2446.320727
643.647990	2456.957562
643.992118	2452.445729
644.336195	2459.881431
644.680219	2457.209619
645.024192	2458.293467
645.368112	2459.805813
645.711981	2457.537294
646.055797	2456.907150
646.399562	2457.285237
646.743274	2454.638631
647.086935	2462.906123
647.430544	2456.529063
647.774101	2460.990485
648.117606	2458.469908
648.461059	2460.183900
648.804460	2468.123717
649.147810	2455.117540
649.491108	2465.401494
649.834354	2464.267235
650.177548	2458.469908
650.520690	2461.494600
650.863781	2457.638117
651.206820	2459.931842
651.549807	2455.016717
651.892742	2457.058385
652.235626	2459.377315
652.578458	2460.335135
652.921238	2455.268775
653.263967	2463.233798
653.606644	2460.057871
653.949269	2459.528550
654.291843	2453.403548
654.634365	2461.645835
654.976836	2458.419496
655.319255	2457.814558
655.661622	2467.392750
656.003938	2463.334621
656.346203	2461.570217
656.688416	2458.495113
657.030577	2465.754375
657.372687	2455.319187
657.714746	2464.998202
658.056753	2466.107256
658.398708	2454.462190
658.740612	2464.015177
659.082465	2455.167952
659.424266	2456.176183
659.766016	2457.108796
660.107715	2457.184413
660.449362	2442.363421
660.790958	2460.209106
661.132503	2452.244083
661.473996	2457.940587
661.815438	2465.073819
662.156829	2463.385033
662.498168	2457.663323
662.839456	2459.100052
663.180693	2460.587192
663.521879	2460.461163
663.863013	2450.227621
664.204097	2455.319187
664.545129	2461.545012
664.886110	2459.276492
665.227040	2446.320727
665.567918	2458.520319
665.908746	2456.503858
666.249522	2461.620629
666.590248	2454.689042
666.930922	2453.983281
667.271545	2456.907150
667.612118	2455.041923
667.952639	2463.259004
668.293109	2459.301698
668.633528	2460.032665
668.973896	2466.939046
669.314213	2456.024948
669.654480	2464.015177
669.994695	2461.469394
670.334859	2455.672067
670.674973	2452.092848
671.015035	2457.335648
671.355047	2459.982254
671.695008	2454.764660
672.034918	2470.593883
672.374777	2456.629887
672.714585	2462.074333
673.054342	2453.227108
673.394049	2463.511062
673.733705	2451.739967
674.073310	2456.655092
674.412864	2458.318673
674.752368	2454.008487
675.091820	2464.972996
675.431223	2460.284723
675.770574	2462.124744
676.109875	2465.477112
676.449125	2462.704477
676.788324	2459.125258
677.127473	2459.226081
677.466571	2455.873713
677.805619	2451.009000
678.144616	2464.846967
678.483562	2470.518265
678.822458	2459.957048
679.161303	2467.594396
679.500098	2458.621142
679.838842	2452.496140
680.177535	2460.536781
680.516179	2452.849021
680.854771	2467.468367
681.193314	2451.261058
681.531805	2460.637604
681.870247	2463.259004
682.208638	2460.234312
682.546978	2458.671554
682.885268	2454.033692
683.223508	2458.671554
683.561697	2456.655092
683.899836	2459.831019
684.237925	2460.814044
684.575963	2462.502831
684.913951	2461.368571
685.251889	2462.099538
685.589776	2457.688529
685.927614	2455.268775
686.265401	2454.663837
686.603137	2454.462190
686.940824	2459.326904
687.278460	2464.015177
687.616046	2453.882458
687.953582	2457.587706
688.291068	2459.326904
688.628504	2460.234312
688.965889	2459.856225
689.303224	2458.192644
689.640510	2461.141719
689.977745	2452.975050
690.314930	2453.882458
690.652065	2461.242542
690.989150	2455.798096
691.326185	2452.521346
691.663170	2467.115487
692.000105	2452.874227
692.336990	2461.418983
692.673825	2447.908690
693.010610	2458.091821
693.347345	2446.925665
693.684030	2457.738940
694.020665	2452.874227
694.357251	2450.126798
694.693786	2464.947790
695.030272	2459.906637
695.366707	2459.100052
695.703093	2455.898919
696.039429	2466.939046
696.375716	2459.024435
696.711952	2462.124744
697.048139	2457.864969
697.384276	2468.829479
697.720363	2461.066102
698.056400	2456.655092
698.392388	2460.839250
698.728326	2453.781635
699.064214	2459.503344
699.400053	2452.420523
699.735842	2447.253340
700.071581	2462.452419
700.407270	2452.949844
700.742910	2458.293467
701.078501	2463.611885
701.414042	2452.344906
701.749533	2454.058898
702.084974	2448.438012
702.420366	2461.469394
702.755709	2452.269288
703.091002	2463.788325
703.426246	2458.797583
703.761440	2453.958075
704.096584	2452.546552
704.431679	2457.411265
704.766725	2460.814044
705.101721	2455.798096
705.436668	2454.184927
705.771565	2456.932356
706.106413	2456.529063
706.441212	2452.546552
706.775961	2466.132462
707.110661	2455.268775
707.445311	2456.277006
707.779913	2457.234825
708.114465	2456.806327
708.448967	2458.570731
708.783421	2462.149950
709.117825	2458.369085
709.452180	2467.291927
709.786485	2454.084104
710.120742	2449.269802
710.454949	2450.782148
710.789107	2448.286777
711.123216	2452.949844
711.457275	2459.175669
711.791286	2460.965279
712.125247	2458.066615
712.459159	2456.478652
712.793023	2460.889662
713.126837	2451.563527
713.460602	2462.931329
713.794318	2455.268775
714.127985	2464.846967
714.461602	2453.378342
714.795171	2462.049127
715.128691	2455.268775
715.462162	2460.965279
715.795584	2451.034206
716.128957	2455.319187
716.462281	2456.604681
716.795556	2460.788838
717.128782	2457.058385
717.461960	2462.880917
717.795088	2459.150463
718.128167	2463.359827
718.461198	2459.931842
718.794180	2452.697787
719.127113	2455.167952
719.459997	2455.117540
719.792833	2450.378856
720.125619	2464.443675
720.458357	2460.889662
720.791046	2463.712708
721.123686	2457.638117
721.456278	2450.630913
721.788821	2461.015690
722.121315	2453.151490
722.453761	2453.983281
722.786158	2454.159721
723.118506	2455.974537
723.450805	2455.394804
723.783056	2460.561987
724.115259	2460.360340
724.447412	2458.797583
724.779518	2456.075360
725.111574	2455.369598
725.443582	2458.469908
725.775542	2465.552729
726.107453	2457.108796
726.439315	2457.537294
726.771129	2461.217337
727.102895	2449.345419
727.434612	2459.931842
727.766281	2447.354163
728.097901	2454.512602
728.429473	2457.965792
728.760996	2456.176183
729.092471	2447.757456
729.423897	2459.528550
729.755276	2463.385033
730.086606	2453.529577
730.417887	2458.318673
730.749120	2458.621142
731.080305	2457.713735
731.411442	2463.511062
731.742530	2454.310956
732.073570	2457.108796
732.404562	2456.806327
732.735506	2464.242029
733.066401	2450.555296
733.397249	2457.134002
733.728048	2457.083590
734.058798	2459.175669
734.389501	2461.292954
734.720156	2454.210133
735.050762	2455.293981
735.381320	2457.940587
735.711831	2453.882458
736.042293	2456.403035
736.372707	2446.471962
736.703073	2464.418469
737.033391	2453.378342
737.363661	2461.318160
737.693883	2455.344392
738.024056	2458.545525
738.354182	2461.494600
738.684260	2454.638631
739.014290	2450.882971
739.344272	2454.235338
739.674207	2453.025462
740.004093	2462.402008
740.333931	2459.276492
740.663722	2452.949844
740.993464	2455.495627
741.323159	2448.690069
741.652806	2468.022894
741.982405	2463.259004
742.311956	2463.964765
742.641460	2455.470421
742.970915	2451.891202
743.300323	2447.177723
743.629683	2454.361367
743.958996	2448.387600
744.288260	2453.327931
744.617477	2456.226594
744.946647	2460.839250
745.275768	2454.966306
745.604842	2460.108283
745.933869	2457.007973
746.262847	2461.242542
746.591778	2452.118054
746.920662	2458.621142
747.249498	2459.906637
747.578286	2461.040896
747.907027	2453.453960
748.235720	2445.715788
748.564365	2453.277519
748.892963	2459.831019
749.221514	2461.797069
749.550017	2451.916408
749.878473	2454.436985
750.206881	2457.890175
750.535242	2462.553242
750.863555	2458.974023
751.191821	2448.866510
751.520039	2450.756942
751.848210	2453.227108
752.176334	2460.083077
752.504411	2458.394290
752.832440	2453.176696
753.160421	2453.378342
753.488356	2459.100052
753.816243	2451.840790
754.144082	2458.268262
754.471875	2464.645321
754.799620	2459.629373
755.127318	2459.957048
755.454969	2459.704990
755.782572	2455.848508
756.110129	2450.832560
756.437638	2457.663323
756.765100	2457.360854
757.092515	2461.595423
757.419882	2453.756429
757.747203	2453.277519
758.074477	2448.085131
758.401703	2461.444188
758.728882	2457.461677
759.056014	2456.755915
759.383099	2453.605194
759.710138	2451.689556
760.037129	2452.218877
760.364073	2456.150977
760.690970	2446.522373
761.017820	2451.286263
761.344623	2452.672581
761.671379	2449.597477
761.998088	2451.185440
762.324751	2457.436471
762.651366	2456.604681
762.977935	2462.754888
763.304456	2448.185954
763.630931	2457.990998
763.957359	2459.125258
764.283740	2448.614452
764.610074	2449.723506
764.936362	2456.554269
765.262602	2453.277519
765.588796	2456.932356
765.914943	2456.352623
766.241044	2451.513115
766.567097	2449.068156
766.893104	2453.605194
767.219064	2459.578962
767.544978	2464.594910
767.870845	2453.050667
768.196665	2456.529063
768.522438	2454.386573
768.848165	2452.420523
769.173846	2455.445215
769.499479	2456.176183
769.825066	2450.807354
770.150607	2462.981740
770.476101	2445.085644
770.801548	2448.311983
771.126949	2455.999742
771.452303	2459.301698
771.777611	2461.141719
772.102872	2459.175669
772.428087	2462.326390
772.753256	2452.823815
773.078378	2462.704477
773.403453	2453.781635
773.728482	2450.756942
774.053465	2447.152517
774.378401	2452.975050
774.703291	2455.293981
775.028135	2456.251800
775.352932	2454.462190
775.677683	2458.747171
776.002388	2455.218363
776.327046	2462.225567
776.651658	2456.579475
776.976224	2458.167438
777.300743	2456.176183
777.625216	2446.371138
777.949643	2454.462190
778.274024	2450.076387
778.598359	2454.084104
778.922647	2451.185440
779.246889	2461.696246
779.571086	2452.874227
779.895236	2455.041923
780.219339	2460.385546
780.543397	2447.454987
780.867409	2451.714762
781.191374	2462.830506
781.515294	2453.882458
781.839167	2455.646862
782.162995	2453.958075
782.486776	2451.336675
782.810511	2459.755402
783.134201	2450.126798
783.457844	2449.647888
783.781441	2458.066615
784.104993	2451.790379
784.428498	2448.992538
784.751958	2443.321240
785.075372	2453.907663
785.398739	2464.015177
785.722061	2449.597477
786.045337	2458.469908
786.368568	2453.706017
786.691752	2455.445215
787.014891	2456.982767
787.337983	2458.066615
787.661030	2451.336675
787.984031	2457.965792
788.306987	2463.485856
788.629897	2456.226594
788.952760	2456.806327
789.275579	2448.639658
789.598351	2462.830506
789.921078	2446.245110
790.243759	2454.890688
790.566395	2458.142233
790.888984	2459.251287
791.211529	2457.764146
791.534027	2453.781635
791.856480	2454.563013
792.178888	2456.554269
792.501249	2452.118054
792.823566	2449.975563
793.145836	2455.470421
793.468062	2455.571244
793.790241	2454.789865
794.112375	2454.109310
794.434464	2457.386060
794.756507	2453.050667
795.078505	2448.614452
795.400457	2451.639144
795.722364	2452.420523
796.044226	2456.755915
796.366042	2453.504371
796.687812	2456.403035
797.009538	2457.285237
797.331218	2459.780608
797.652852	2444.253854
797.974442	2454.840277
798.295986	2449.799123
798.617484	2458.595937
798.938938	2457.814558
799.260346	2451.563527
799.581709	2449.597477
799.903026	2460.990485
800.224299	2442.464244
800.545526	2451.135029
800.866708	2453.302725
801.187845	2455.798096
801.508936	2457.864969
801.829983	2451.135029
802.150984	2451.462704
802.471940	2449.748712
802.792851	2458.948817
803.113717	2458.545525
803.434538	2452.924638
803.755314	2456.705504
804.076045	2454.512602
804.396731	2458.091821
804.717372	2451.361881
805.037967	2460.561987
805.358518	2457.209619
805.679024	2458.192644
805.999485	2456.604681
806.319901	2452.521346
806.640272	2456.075360
806.960598	2453.932869
807.280879	2460.209106
807.601115	2452.193671
807.921306	2458.293467
808.241453	2449.471448
808.561554	2446.698813
808.881611	2445.413319
809.201623	2453.025462
809.521590	2451.765173
809.841513	2454.941100
810.161390	2453.302725
810.481223	2457.260031
810.801011	2450.933383
811.120755	2449.899946
811.440453	2463.536267
811.760107	2447.681838
812.079716	2461.998715
812.399281	2453.252313
812.718801	2454.361367
813.038276	2460.158694
813.357707	2449.799123
813.677093	2450.605708
813.996434	2458.671554
814.315731	2454.411779
814.634983	2448.639658
814.954191	2453.101079
815.273354	2448.034719
815.592473	2459.125258
815.911547	2457.436471
816.230577	2447.555810
816.549562	2455.571244
816.868502	2452.118054
817.187399	2458.646348
817.506250	2454.588219
817.825058	2448.412806
818.143821	2455.520833
818.462539	2450.882971
818.781213	2448.513629
819.099843	2450.202415
819.418429	2448.185954
819.736970	2444.077413
820.055466	2458.394290
820.373919	2459.604167
820.692327	2456.881944
821.010691	2457.688529
821.329011	2450.882971
821.647286	2459.528550
821.965517	2454.966306
822.283704	2450.227621
822.601847	2454.184927
822.919945	2449.446242
823.237999	2459.856225
823.556010	2455.823302
823.873976	2458.999229
824.191897	2446.572785
824.509775	2447.807867
824.827609	2451.739967
825.145398	2440.321754
825.463144	2447.959102
825.780845	2443.749738
826.098502	2454.714248
826.416116	2452.092848
826.733685	2449.345419
827.051210	2455.167952
827.368692	2457.436471
827.686129	2456.554269
828.003522	2443.497681
828.320872	2465.225054
828.638177	2450.933383
828.955439	2457.713735
829.272656	2451.613938
829.589830	2457.209619
829.906960	2456.680298
830.224046	2456.554269
830.541088	2454.310956
830.858086	2457.688529
831.175041	2454.563013
831.491952	2458.873200
831.808819	2467.191104
832.125642	2454.689042
832.442421	2462.301185
832.759157	2452.798610
833.075849	2450.933383
833.392497	2453.680812
833.709101	2454.386573
834.025662	2449.647888
834.342179	2451.563527
834.658653	2454.991512
834.975083	2455.571244
835.291469	2462.880917
835.607811	2449.320213
835.924110	2450.605708
836.240366	2459.427727
836.556578	2454.613425
836.872746	2455.420010
837.188871	2451.109823
837.504952	2450.076387
837.820990	2446.623196
838.136984	2446.799637
838.452935	2451.840790
838.768842	2453.756429
839.084706	2442.161775
839.400526	2453.327931
839.716303	2454.764660
840.032037	2451.286263
840.347727	2446.169492
840.663373	2449.874740
840.978977	2451.941613
841.294537	2450.756942
841.610054	2458.570731
841.925527	2451.487910
842.240957	2461.620629
842.556344	2449.925152
842.871687	2451.084617
843.186987	2454.008487
843.502244	2451.059412
843.817458	2461.166925
844.132629	2446.421550
844.447756	2452.370112
844.762840	2447.757456
845.077881	2453.050667
845.392879	2459.478138
845.707833	2455.369598
846.022745	2459.578962
846.337613	2449.370625
846.652438	2449.194185
846.967221	2455.949331
847.281960	2453.176696
847.596656	2453.428754
847.911309	2452.067642
848.225919	2457.007973
848.540485	2456.730710
848.855009	2456.403035
849.169490	2459.503344
849.483928	2452.143260
849.798323	2447.026488
850.112675	2458.621142
850.426984	2443.674121
850.741251	2467.493573
851.055474	2449.572271
851.369654	2454.991512
851.683792	2452.168465
851.997887	2450.882971
852.311938	2454.487396
852.625947	2450.252827
852.939914	2446.043463
853.253837	2451.487910
853.567718	2459.503344
853.881555	2453.378342
854.195350	2456.226594
854.509103	2447.328958
854.822812	2455.798096
855.136479	2462.250773
855.450103	2440.800663
855.763685	2451.865996
856.077224	2452.344906
856.390720	2455.041923
856.704173	2451.412292
857.017584	2452.949844
857.330953	2453.983281
857.644278	2448.034719
857.957561	2448.412806
858.270802	2458.444702
858.584000	2456.100565
858.897155	2450.051181
859.210268	2453.025462
859.523339	2457.209619
859.836367	2455.949331
860.149352	2453.302725
860.462295	2452.849021
860.775195	2449.824329
861.088054	2451.109823
861.400869	2455.470421
861.713642	2444.052208
862.026373	2458.142233
862.339062	2452.042437
862.651708	2455.445215
862.964312	2448.513629
863.276873	2453.353137
863.589392	2456.201388
863.901869	2453.126285
864.214303	2448.790892
864.526696	2454.386573
864.839045	2452.118054
865.151353	2453.050667
865.463619	2453.781635
865.775842	2453.857252
866.088023	2451.639144
866.400162	2449.194185
866.712258	2457.663323
867.024313	2448.816098
867.336325	2451.437498
867.648296	2456.428240
867.960224	2454.058898
868.272110	2449.647888
868.583954	2457.688529
868.895755	2457.184413
869.207515	2451.916408
869.519233	2464.620115
869.830909	2446.724019
870.142542	2454.739454
870.454134	2456.806327
870.765684	2451.689556
871.077191	2453.252313
871.388657	2448.538835
871.700081	2448.740481
872.011463	2452.798610
872.322803	2446.320727
872.634101	2449.572271
872.945357	2455.142746
873.256571	2457.461677
873.567744	2451.689556
873.878874	2444.606735
874.189963	2455.470421
874.501010	2451.941613
874.812015	2441.783688
875.122979	2457.789352
875.433900	2446.774431
875.744780	2445.715788
876.055618	2448.841304
876.366415	2451.689556
876.677169	2457.537294
876.987882	2447.984308
877.298554	2455.898919
877.609183	2444.833587
877.919771	2461.973510
878.230317	2453.428754
878.540822	2449.421037
878.851285	2462.402008
879.161707	2448.589246
879.472087	2449.673094
879.782425	2451.639144
880.092722	2449.849535
880.402977	2446.471962
880.713191	2463.107769
881.023363	2448.261571
881.333494	2464.015177
881.643583	2447.984308
881.953631	2455.798096
882.263637	2448.664863
882.573602	2453.075873
882.883526	2453.907663
883.193408	2451.387087
883.503248	2460.259517
883.813048	2453.378342
884.122806	2456.327417
884.432522	2450.404062
884.742197	2444.581529
885.051831	2451.261058
885.361424	2458.822788
885.670975	2451.336675
885.980485	2452.722992
886.289954	2462.553242
886.599382	2447.606221
886.908768	2447.328958
887.218113	2459.906637
887.527417	2453.453960
887.836680	2451.891202
888.145901	2444.606735
888.455082	2448.438012
888.764221	2452.949844
889.073319	2451.336675
889.382376	2453.075873
889.691392	2455.672067
890.000366	2453.781635
890.309300	2447.001283
890.618193	2455.369598
890.927044	2458.974023
891.235855	2443.976590
891.544625	2453.302725
891.853353	2452.042437
892.162041	2452.269288
892.470687	2454.991512
892.779293	2449.547065
893.087858	2451.009000
893.396381	2449.748712
893.704864	2460.183900
894.013306	2456.176183
894.321707	2450.605708
894.630068	2452.143260
894.938387	2461.721452
895.246665	2455.369598
895.554903	2448.236365
895.863100	2450.479679
896.171256	2447.681838
896.479371	2447.480192
896.787446	2454.109310
897.095480	2442.817125
897.403473	2451.311469
897.711425	2454.840277
898.019336	2459.528550
898.327207	2451.664350
898.635038	2453.101079
898.942827	2451.588733
899.250576	2456.529063
899.558284	2454.966306
899.865952	2453.731223
900.173579	2456.050154
900.481165	2456.201388
900.788711	2449.572271
901.096216	2448.387600
901.403681	2453.706017
901.711105	2451.765173
902.018489	2455.722479
902.325832	2444.631940
902.633135	2451.613938
902.940397	2454.613425
903.247619	2443.951385
903.554800	2439.868050
903.861941	2455.016717
904.169041	2457.461677
904.476101	2451.538321
904.783121	2456.176183
905.090100	2452.622169
905.397039	2456.680298
905.703938	2445.186467
906.010796	2452.798610
906.317614	2443.699327
906.624391	2459.402521
906.931129	2456.327417
907.237826	2449.521860
907.544483	2456.932356
907.851099	2452.571758
908.157675	2453.453960
908.464211	2456.932356
908.770707	2453.252313
909.077163	2456.302212
909.383578	2446.572785
909.689954	2448.085131
909.996289	2459.150463
910.302584	2442.691096
910.608839	2454.235338
910.915054	2456.655092
911.221229	2453.857252
911.527363	2450.051181
911.833458	2456.806327
912.139513	2451.412292
912.445527	2453.378342
912.751502	2450.278033
913.057436	2456.125771
913.363331	2454.436985
913.669186	2440.321754
913.975000	2452.748198
914.280775	2448.538835
914.586510	2455.117540
914.892205	2451.513115
915.197859	2445.161262
915.503475	2452.395317
915.809050	2451.941613
916.114585	2444.682352
916.420081	2440.851075
916.725536	2453.907663
917.030952	2449.799123
917.336328	2453.126285
917.641665	2447.253340
917.946961	2448.664863
918.252218	2446.522373
918.557435	2435.431835
918.862612	2446.648402
919.167750	2446.320727
919.472848	2442.766713
919.777906	2452.596963
920.082925	2453.731223
920.387904	2448.664863
920.692843	2443.396858
920.997743	2452.370112
921.302603	2446.093875
921.607423	2453.151490
921.912204	2444.505912
922.216946	2452.218877
922.521647	2453.907663
922.826310	2451.235852
923.130932	2458.822788
923.435516	2449.042950
923.740059	2456.176183
924.044564	2453.201902
924.349028	2448.589246
924.653454	2450.076387
924.957840	2451.613938
925.262186	2448.211160
925.566493	2452.370112
925.870761	2457.965792
926.174989	2449.219390
926.479178	2453.832046
926.783328	2454.840277
927.087438	2452.168465
927.391509	2448.614452
927.695541	2454.941100
927.999533	2458.268262
928.303486	2449.017744
928.607400	2448.639658
928.911275	2451.135029
929.215110	2449.647888
929.518906	2455.823302
929.822663	2458.117027
930.126381	2447.858279
930.430060	2455.898919
930.733699	2444.682352
931.037299	2448.589246
931.340861	2453.781635
931.644383	2447.908690
931.947866	2450.278033
932.251309	2448.211160
932.554714	2459.931842
932.858080	2450.454473
933.161407	2447.127312
933.464694	2441.329985
933.767943	2444.682352
934.071153	2445.236879
934.374323	2450.202415
934.677455	2451.966819
934.980548	2454.084104
935.283602	2450.051181
935.586617	2457.033179
935.889593	2447.253340
936.192530	2451.487910
936.495428	2452.143260
936.798287	2448.866510
937.101108	2451.336675
937.403890	2446.698813
937.706632	2449.622683
938.009336	2454.991512
938.312002	2446.673608
938.614628	2444.833587
938.917216	2448.261571
939.219765	2456.579475
939.522275	2448.765687
939.824747	2455.873713
940.127179	2448.185954
940.429573	2453.000256
940.731929	2445.035233
941.034246	2441.128338
941.336524	2446.799637
941.638763	2456.428240
941.940964	2453.327931
942.243126	2454.109310
942.545250	2458.091821
942.847335	2447.908690
943.149381	2452.269288
943.451389	2456.251800
943.753359	2446.824842
944.055290	2447.328958
944.357182	2450.000769
944.659036	2448.866510
944.960851	2453.706017
945.262628	2454.386573
945.564367	2456.024948
945.866067	2451.941613
946.167729	2451.563527
946.469352	2445.110850
946.770937	2454.462190
947.072484	2450.807354
947.373992	2447.228135
947.675462	2454.941100
947.976893	2449.143773
948.278286	2455.092335
948.579641	2443.850562
948.880958	2441.884512
949.182236	2449.345419
949.483476	2449.219390
949.784678	2445.589760
950.085841	2447.152517
950.386967	2450.580502
950.688054	2449.748712
950.989103	2447.631427
951.290114	2446.850048
951.591087	2446.799637
951.892021	2448.286777
952.192917	2448.236365
952.493776	2451.311469
952.794596	2451.311469
953.095378	2439.842844
953.396122	2454.134515
953.696828	2451.563527
953.997496	2451.613938
954.298126	2449.975563
954.598718	2440.674635
954.899272	2450.152004
955.199788	2450.756942
955.500266	2447.581015
955.800706	2451.210646
956.101108	2449.773917
956.401472	2441.859306
956.701798	2446.900460
957.002087	2451.311469
957.302337	2443.018771
957.602550	2445.791406
957.902724	2447.026488
958.202861	2453.453960
958.502960	2443.749738
958.803022	2443.976590
959.103045	2446.950871
959.403031	2449.597477
959.702979	2446.396344
960.002889	2453.832046
960.302762	2450.202415
960.602596	2457.386060
960.902393	2455.974537
961.202153	2446.018258
961.501875	2448.185954
961.801559	2456.226594
962.101205	2452.622169
962.400814	2455.848508
962.700385	2443.976590
962.999918	2450.882971
963.299414	2444.934410
963.598873	2453.605194
963.898293	2440.069696
964.197677	2447.681838
964.497022	2440.422577
964.796331	2452.924638
965.095601	2453.151490
965.394835	2441.355190
965.694030	2451.160235
965.993189	2453.680812
966.292309	2448.790892
966.591393	2449.017744
966.890439	2445.211673
967.189447	2461.091308
967.488419	2450.378856
967.787353	2445.211673
968.086249	2448.513629
968.385108	2454.134515
968.683930	2455.798096
968.982714	2448.185954
969.281462	2452.924638
969.580172	2449.269802
969.878844	2450.782148
970.177480	2453.227108
970.476078	2449.219390
970.774639	2443.674121
971.073162	2440.901487
971.371649	2448.236365
971.670098	2449.017744
971.968510	2448.261571
972.266885	2448.236365
972.565223	2450.479679
972.863524	2450.832560
973.161788	2455.520833
973.460014	2456.302212
973.758204	2443.800150
974.056356	2449.748712
974.354471	2451.865996
974.652550	2450.378856
974.950591	2449.421037
975.248595	2446.824842
975.546563	2454.008487
975.844493	2447.933896
976.142386	2441.909717
976.440243	2449.370625
976.738062	2436.540888
977.035845	2441.279573
977.333590	2450.807354
977.631299	2450.731737
977.928971	2446.950871
978.226606	2453.025462
978.524204	2451.563527
978.821765	2450.353650
979.119290	2452.823815
979.416777	2453.882458
979.714228	2454.764660
980.011642	2452.445729
980.309020	2445.892229
980.606360	2453.504371
980.903664	2447.076900
981.200931	2456.075360
981.498162	2444.077413
981.795356	2440.271342
982.092513	2450.807354
982.389633	2449.471448
982.686717	2452.395317
982.983764	2449.799123
983.280775	2448.488423
983.577749	2446.497167
983.874686	2448.664863
984.171587	2445.337702
984.468451	2445.236879
984.765279	2444.808381
985.062070	2446.749225
985.358824	2448.412806
985.655543	2449.698300
985.952224	2447.177723
986.248869	2451.588733
986.545478	2444.178237
986.842050	2442.313010
987.138586	2457.411265
987.435086	2449.824329
987.731549	2450.756942
988.027975	2444.304265
988.324366	2438.406115
988.620719	2451.538321
988.917037	2448.891715
989.213318	2454.512602
989.509563	2451.513115
989.805772	2445.791406
990.101944	2444.455500
990.398080	2451.840790
990.694180	2452.344906
990.990244	2444.808381
991.286271	2450.933383
991.582262	2447.732250
991.878217	2455.546038
992.174136	2459.125258
992.470019	2452.042437
992.765865	2450.908177
993.061676	2445.085644
993.357450	2451.034206
993.653188	2447.102106
993.948890	2460.940073
994.244556	2444.984821
994.540186	2454.890688
994.835780	2441.052721
995.131337	2446.396344
995.426859	2446.925665
995.722345	2447.959102
996.017795	2454.966306
996.313208	2441.203956
996.608586	2450.681325
996.903928	2444.228648
997.199234	2444.102619
997.494504	2451.664350
997.789738	2450.605708
998.084936	2441.103133
998.380099	2449.899946
998.675225	2439.540375
998.970316	2457.537294
999.265371	2447.933896
999.560390	2443.321240
999.855373	2449.244596
1000.150320	2455.470421
1000.445232	2444.480706
1000.740108	2447.328958
1001.034948	2452.445729
1001.329752	2440.346960
1001.624521	2454.991512
1001.919254	2443.800150
1002.213951	2448.740481
1002.508613	2442.489450
1002.803239	2452.748198
1003.097829	2446.875254
1003.392384	2446.270315
1003.686903	2444.228648
1003.981386	2452.344906
1004.275834	2451.689556
1004.570246	2443.522887
1004.864623	2445.867023
1005.158964	2449.975563
1005.453270	2448.740481
1005.747540	2439.565581
1006.041775	2445.060438
1006.335974	2445.438525
1006.630138	2449.068156
1006.924266	2452.370112
1007.218359	2455.344392
1007.512416	2447.984308
1007.806438	2445.161262
1008.100425	2442.993565
1008.394376	2445.488937
1008.688292	2449.068156
1008.982172	2448.286777
1009.276017	2445.337702
1009.569827	2441.279573
1009.863602	2447.732250
1010.157341	2438.960642
1010.451045	2454.915894
1010.744714	2450.479679
1011.038347	2456.554269
1011.331945	2446.446756
1011.625508	2453.227108
1011.919036	2444.228648
1012.212528	2445.312496
1012.505986	2458.898406
1012.799408	2447.807867
1013.092795	2449.068156
1013.386147	2448.740481
1013.679464	2444.984821
1013.972745	2440.296548
1014.265992	2450.504885
1014.559204	2454.134515
1014.852380	2451.891202
1015.145521	2445.085644
1015.438628	2446.824842
1015.731699	2441.077927
1016.024736	2446.749225
1016.317737	2447.681838
1016.610703	2449.723506
1016.903635	2445.136056
1017.196531	2446.799637
1017.489393	2447.883485
1017.782219	2450.000769
1018.075011	2443.321240
1018.367768	2439.389140
1018.660490	2445.740994
1018.953177	2445.740994
1019.245829	2445.740994
