Dividing Wavelength (nm)	Counts (n)	Slit_number_2_of_a_total_of_40	
326.493990	2043.431712
326.888308	2043.431712
327.282561	2043.431712
327.676750	2035.869981
328.070874	2021.250635
328.464933	2023.771212
328.858929	2029.316481
329.252859	2070.906000
329.646726	2042.171423
330.040528	2069.393654
330.434265	2075.190981
330.827938	2105.437904
331.221547	2138.205404
331.615091	2165.175577
332.008571	2155.093269
332.401986	2206.765096
332.795338	2207.521269
333.188625	2260.201327
333.581847	2267.763058
333.975006	2292.716769
334.368100	2289.692077
334.761129	2303.807308
335.154095	2336.322750
335.546996	2348.421519
335.939833	2338.339212
336.332606	2369.342308
336.725315	2374.635519
337.117960	2404.882442
337.510540	2405.638615
337.903056	2399.337173
338.295508	2422.022365
338.687896	2443.699327
339.080220	2409.419481
339.472480	2432.104673
339.864676	2443.195212
340.256807	2459.326904
340.648875	2431.096442
341.040879	2433.364962
341.432818	2419.753846
341.824694	2426.055288
342.216506	2440.422577
342.608253	2446.976077
342.999937	2461.847481
343.391557	2426.055288
343.783113	2423.030596
344.174605	2449.244596
344.566033	2417.989442
344.957397	2420.005904
345.348697	2422.778538
345.739934	2436.893769
346.131106	2426.307346
346.522215	2424.290885
346.913260	2437.397885
347.304241	2433.112904
347.695159	2435.381423
348.086012	2453.529577
348.476802	2429.332038
348.867528	2416.225038
349.258191	2413.704462
349.648789	2415.972981
350.039324	2411.435942
350.429796	2405.638615
350.820203	2432.356731
351.210548	2432.860846
351.600828	2400.597462
351.991045	2421.014135
352.381198	2438.154058
352.771288	2415.216808
353.161314	2404.126269
353.551276	2425.803231
353.941175	2401.857750
354.331010	2435.129365
354.720782	2427.063519
355.110490	2427.819692
355.500135	2412.696231
355.889717	2452.269288
356.279235	2412.192115
356.668689	2429.836154
357.058080	2403.370096
357.447408	2436.389654
357.836672	2426.307346
358.225873	2388.750750
358.615010	2407.403019
359.004084	2406.142731
359.393095	2418.997673
359.782043	2413.452404
360.170927	2426.811462
360.559748	2426.559404
360.948505	2418.997673
361.337199	2447.480192
361.725830	2446.219904
362.114398	2403.370096
362.502903	2437.145827
362.891344	2436.641712
363.279722	2431.600558
363.668037	2429.584096
364.056289	2411.940058
364.444478	2442.943154
364.832603	2405.638615
365.220665	2427.819692
365.608665	2408.663308
365.996601	2409.671538
366.384474	2438.406115
366.772284	2434.877308
367.160031	2410.931827
367.547715	2429.332038
367.935336	2407.655077
368.322893	2415.720923
368.710388	2453.529577
369.097820	2419.753846
369.485189	2436.893769
369.872495	2434.877308
370.259738	2415.216808
370.646918	2433.364962
371.034035	2437.145827
371.421090	2431.852615
371.808081	2434.877308
372.195010	2443.951385
372.581875	2439.414346
372.968678	2427.567635
373.355418	2434.625250
373.742096	2439.666404
374.128710	2458.066615
374.515262	2421.770308
374.901751	2419.753846
375.288177	2430.844385
375.674540	2443.699327
376.060841	2432.860846
376.447079	2423.786769
376.833254	2436.641712
377.219367	2434.877308
377.605417	2450.000769
377.991404	2407.655077
378.377329	2438.406115
378.763191	2431.348500
379.148991	2462.099538
379.534727	2431.600558
379.920402	2463.611885
380.306013	2439.414346
380.691563	2449.748712
381.077049	2423.786769
381.462474	2450.252827
381.847835	2424.038827
382.233134	2432.104673
382.618371	2435.633481
383.003545	2441.178750
383.388657	2414.964750
383.773706	2421.770308
384.158693	2444.203442
384.543618	2433.869077
384.928480	2424.290885
385.313280	2466.636577
385.698017	2411.688000
386.082692	2450.504885
386.467305	2453.781635
386.851856	2441.934923
387.236344	2423.786769
387.620770	2444.959615
388.005133	2427.063519
388.389435	2451.513115
388.773674	2416.225038
389.157851	2422.274423
389.541965	2448.992538
389.926018	2445.211673
390.310008	2449.496654
390.693936	2450.756942
391.077802	2435.381423
391.461606	2425.803231
391.845348	2425.299115
392.229027	2428.575865
392.612645	2437.902000
392.996200	2414.460635
393.379694	2440.926692
393.763125	2440.170519
394.146494	2437.902000
394.529801	2447.480192
394.913047	2461.343365
395.296230	2447.480192
395.679351	2442.943154
396.062410	2468.400981
396.445408	2456.302212
396.828343	2424.795000
397.211217	2450.000769
397.594028	2461.847481
397.976778	2447.480192
398.359466	2440.674635
398.742092	2439.414346
399.124656	2454.789865
399.507158	2458.318673
399.889598	2426.307346
400.271977	2444.707558
400.654294	2452.269288
401.036549	2429.332038
401.418742	2447.732250
401.800874	2420.005904
402.182944	2452.773404
402.564952	2447.228135
402.946898	2448.488423
403.328783	2454.537808
403.710606	2409.671538
404.092367	2460.083077
404.474067	2424.290885
404.855705	2463.359827
405.237282	2441.430808
405.618797	2448.740481
406.000250	2445.967846
406.381642	2428.827923
406.762972	2436.641712
407.144240	2465.880404
407.525447	2437.145827
407.906593	2441.934923
408.287677	2445.463731
408.668700	2445.463731
409.049661	2428.323808
409.430560	2464.620115
409.811399	2427.819692
410.192176	2457.058385
410.572891	2434.121135
410.953545	2455.041923
411.334138	2449.244596
411.714669	2453.277519
412.095139	2445.715788
412.475547	2475.710654
412.855894	2450.000769
413.236180	2474.450365
413.616405	2455.546038
413.996568	2464.368058
414.376670	2454.789865
414.756711	2419.753846
415.136691	2466.636577
415.516609	2468.905096
415.896466	2467.392750
416.276262	2441.178750
416.655997	2453.781635
417.035670	2451.765173
417.415283	2486.801192
417.794834	2457.058385
418.174324	2470.165385
418.553753	2454.537808
418.933121	2449.244596
419.312428	2470.669500
419.691674	2467.896865
420.070859	2438.910231
420.449983	2422.022365
420.829045	2445.715788
421.208047	2446.219904
421.586988	2475.710654
421.965867	2446.976077
422.344686	2485.540904
422.723444	2444.455500
423.102141	2420.257962
423.480777	2467.896865
423.859352	2414.712692
424.237866	2464.368058
424.616319	2459.831019
424.994712	2468.148923
425.373044	2483.272385
425.751314	2430.088212
426.129524	2452.269288
426.507673	2455.798096
426.885762	2475.710654
427.263789	2457.814558
427.641756	2472.181846
428.019662	2468.400981
428.397508	2461.343365
428.775292	2447.732250
429.153016	2443.951385
429.530679	2463.359827
429.908282	2459.326904
430.285824	2431.600558
430.663305	2465.628346
431.040726	2432.356731
431.418086	2444.959615
431.795385	2461.595423
432.172624	2445.967846
432.549802	2454.789865
432.926920	2456.554269
433.303977	2470.669500
433.680974	2453.277519
434.057910	2468.653038
434.434786	2461.847481
434.811601	2464.368058
435.188355	2447.732250
435.565050	2442.943154
435.941683	2465.880404
436.318257	2456.302212
436.694770	2473.694192
437.071222	2453.277519
437.447614	2479.995635
437.823946	2434.877308
438.200218	2476.214769
438.576429	2453.781635
438.952580	2446.219904
439.328670	2457.310442
439.704700	2463.359827
440.080670	2479.743577
440.456580	2447.984308
440.832429	2460.335135
441.208218	2461.595423
441.583947	2475.206538
441.959616	2471.677731
442.335224	2456.050154
442.710773	2462.351596
443.086261	2471.677731
443.461689	2460.335135
443.837057	2444.203442
444.212365	2450.000769
444.587612	2463.107769
444.962800	2456.050154
445.337927	2479.743577
445.712995	2468.653038
446.088002	2442.943154
446.462949	2454.285750
446.837837	2452.017231
447.212664	2484.532673
447.587431	2452.269288
447.962139	2468.148923
448.336786	2432.608788
448.711374	2469.409212
449.085901	2478.231231
449.460369	2483.272385
449.834776	2458.066615
450.209124	2449.748712
450.583412	2454.033692
450.957640	2464.872173
451.331808	2452.017231
451.705917	2456.806327
452.079965	2468.148923
452.453954	2454.537808
452.827883	2484.532673
453.201752	2494.110865
453.575562	2465.124231
453.949311	2429.332038
454.323001	2469.157154
454.696632	2441.178750
455.070202	2464.620115
455.443713	2472.938019
455.817164	2450.000769
456.190556	2464.620115
456.563888	2468.653038
456.937160	2456.050154
457.310373	2479.239462
457.683526	2472.433904
458.056619	2484.532673
458.429653	2446.724019
458.802628	2461.595423
459.175542	2472.938019
459.548398	2478.483288
459.921194	2467.896865
460.293930	2464.368058
460.666607	2471.173615
461.039224	2458.570731
461.411782	2458.822788
461.784280	2473.694192
462.156719	2458.318673
462.529099	2488.061481
462.901419	2450.756942
463.273680	2486.297077
463.645882	2445.715788
464.018024	2468.905096
464.390106	2477.223000
464.762130	2457.310442
465.134094	2473.190077
465.505999	2470.165385
465.877845	2472.433904
466.249631	2468.905096
466.621358	2455.293981
466.993026	2477.979173
467.364634	2445.967846
467.736184	2470.165385
468.107674	2451.261058
468.479105	2468.653038
468.850477	2481.003865
469.221790	2473.442135
469.593043	2466.132462
469.964238	2474.702423
470.335373	2466.888635
470.706449	2472.181846
471.077467	2458.822788
471.448425	2476.466827
471.819324	2467.140692
472.190164	2453.529577
472.560945	2455.546038
472.931667	2509.486385
473.302330	2457.814558
473.672934	2467.140692
474.043479	2472.181846
474.413965	2471.929788
474.784393	2457.814558
475.154761	2504.445231
475.525070	2465.880404
475.895321	2460.839250
476.265513	2476.718885
476.635645	2465.628346
477.005719	2472.938019
477.375734	2465.628346
477.745691	2466.132462
478.115588	2450.756942
478.485427	2475.710654
478.855207	2483.272385
479.224928	2472.433904
479.594591	2470.165385
479.964194	2452.017231
480.333739	2489.573827
480.703226	2468.905096
481.072653	2463.107769
481.442022	2472.938019
481.811333	2455.041923
482.180584	2448.488423
482.549777	2469.157154
482.918912	2480.499750
483.287988	2470.669500
483.657005	2443.447269
484.025964	2454.537808
484.394864	2479.239462
484.763706	2487.053250
485.132489	2485.288846
485.501213	2467.644808
485.869879	2469.157154
486.238487	2467.140692
486.607036	2460.083077
486.975527	2453.529577
487.343959	2477.727115
487.712333	2472.181846
488.080648	2476.214769
488.448905	2470.165385
488.817104	2498.647904
489.185244	2492.346462
489.553326	2472.181846
489.921350	2458.318673
490.289315	2494.867038
490.657222	2470.921558
491.025070	2453.277519
491.392861	2478.735346
491.760593	2455.546038
492.128267	2465.880404
492.495883	2456.554269
492.863440	2472.433904
493.230939	2455.041923
493.598380	2465.628346
493.965763	2483.020327
494.333088	2485.792962
494.700354	2472.685962
495.067563	2463.107769
495.434713	2486.297077
495.801805	2466.636577
496.168839	2457.562500
496.535815	2469.157154
496.902733	2494.110865
497.269593	2470.165385
497.636395	2477.727115
498.003139	2462.099538
498.369825	2457.058385
498.736453	2485.036788
499.103023	2460.587192
499.469535	2469.157154
499.835989	2469.913327
500.202385	2477.223000
500.568723	2482.768269
500.935003	2476.466827
501.301226	2462.351596
501.667390	2439.918462
502.033497	2475.710654
502.399546	2466.132462
502.765537	2454.033692
503.131470	2485.036788
503.497345	2474.702423
503.863163	2486.297077
504.228923	2454.033692
504.594625	2488.817654
504.960269	2473.946250
505.325856	2464.116000
505.691385	2448.992538
506.056856	2457.310442
506.422270	2471.173615
506.787625	2473.946250
507.152924	2480.247692
507.518164	2490.330000
507.883347	2468.653038
508.248472	2487.809423
508.613540	2464.116000
508.978550	2473.190077
509.343503	2484.028558
509.708398	2474.198308
510.073236	2463.359827
510.438016	2472.938019
510.802738	2486.801192
511.167403	2476.970942
511.532010	2479.743577
511.896561	2453.529577
512.261053	2445.715788
512.625488	2489.321769
512.989866	2502.680827
513.354186	2468.148923
513.718449	2480.751808
514.082655	2476.718885
514.446803	2466.636577
514.810894	2484.028558
515.174927	2475.962712
515.538904	2485.792962
515.902822	2472.433904
516.266684	2481.255923
516.630488	2466.636577
516.994235	2466.132462
517.357925	2499.152019
517.721558	2472.685962
518.085133	2467.896865
518.448651	2477.223000
518.812112	2484.280615
519.175516	2476.214769
519.538863	2468.905096
519.902152	2481.255923
520.265385	2497.891731
520.628560	2457.562500
520.991678	2491.086173
521.354739	2466.888635
521.717743	2475.710654
522.080690	2466.384519
522.443580	2473.190077
522.806413	2465.880404
523.169189	2485.540904
523.531908	2492.346462
523.894569	2471.677731
524.257174	2481.507981
524.619722	2465.628346
524.982213	2494.110865
525.344647	2480.499750
525.707025	2486.297077
526.069345	2447.732250
526.431608	2499.656135
526.793815	2487.809423
527.155964	2500.160250
527.518057	2472.433904
527.880093	2480.751808
528.242072	2478.231231
528.603995	2505.705519
528.965860	2471.929788
529.327669	2497.639673
529.689421	2459.578962
530.051117	2490.330000
530.412755	2483.524442
530.774337	2492.094404
531.135862	2481.760038
531.497331	2481.760038
531.858743	2458.318673
532.220098	2482.264154
532.581396	2468.653038
532.942638	2518.812519
533.303824	2481.760038
533.664953	2476.214769
534.026025	2441.430808
534.387040	2462.603654
534.747999	2507.974038
535.108902	2456.050154
535.469748	2477.727115
535.830537	2487.305308
536.191270	2490.582058
536.551947	2470.165385
536.912567	2460.839250
537.273131	2472.938019
537.633638	2457.310442
537.994089	2468.400981
538.354483	2489.825885
538.714821	2450.252827
539.075103	2474.198308
539.435328	2471.425673
539.795497	2468.653038
540.155609	2459.578962
540.515665	2516.544000
540.875665	2490.834115
541.235609	2466.132462
541.595496	2500.916423
541.955328	2468.905096
542.315102	2483.272385
542.674821	2479.239462
543.034483	2490.330000
543.394090	2496.379385
543.753640	2472.685962
544.113134	2488.061481
544.472571	2481.255923
544.831953	2484.028558
545.191278	2468.148923
545.550548	2494.614981
545.909761	2481.255923
546.268918	2501.672596
546.628019	2474.198308
546.987064	2457.814558
547.346053	2457.310442
547.704986	2488.565596
548.063863	2473.694192
548.422684	2491.086173
548.781449	2483.272385
549.140158	2471.173615
549.498811	2486.801192
549.857408	2459.831019
550.215949	2502.932885
550.574434	2474.702423
550.932864	2464.368058
551.291237	2477.223000
551.649555	2454.537808
552.007817	2472.433904
552.366022	2480.751808
552.724173	2463.359827
553.082267	2476.970942
553.440305	2465.376288
553.798288	2481.507981
554.156215	2500.664365
554.514086	2478.987404
554.871902	2473.946250
555.229661	2482.768269
555.587365	2464.368058
555.945014	2472.433904
556.302606	2472.685962
556.660143	2460.335135
557.017625	2487.305308
557.375050	2459.831019
557.732421	2490.582058
558.089735	2476.718885
558.446994	2459.578962
558.804197	2475.710654
559.161345	2480.247692
559.518437	2487.305308
559.875474	2451.513115
560.232455	2504.445231
560.589381	2476.466827
560.946251	2480.247692
561.303065	2459.831019
561.659825	2465.628346
562.016528	2484.784731
562.373177	2489.321769
562.729770	2482.768269
563.086307	2471.929788
563.442789	2473.694192
563.799216	2469.157154
564.155587	2499.908192
564.511904	2479.239462
564.868164	2454.285750
565.224370	2493.102635
565.580520	2462.603654
565.936615	2486.297077
566.292654	2492.094404
566.648638	2474.954481
567.004567	2483.272385
567.360441	2465.628346
567.716260	2490.330000
568.072023	2466.132462
568.427732	2492.598519
568.783385	2472.685962
569.138982	2481.003865
569.494525	2456.302212
569.850013	2459.578962
570.205445	2501.168481
570.560823	2484.784731
570.916145	2494.614981
571.271412	2475.206538
571.626625	2476.718885
571.981782	2472.938019
572.336884	2442.943154
572.691931	2459.326904
573.046923	2458.318673
573.401860	2462.099538
573.756743	2455.798096
574.111570	2487.809423
574.466342	2488.061481
574.821059	2482.264154
575.175722	2471.425673
575.530330	2482.012096
575.884882	2448.992538
576.239380	2457.814558
576.593823	2467.644808
576.948211	2459.326904
577.302544	2456.554269
577.656823	2474.702423
578.011047	2461.091308
578.365216	2510.242558
578.719330	2490.077942
579.073389	2494.110865
579.427394	2469.661269
579.781344	2466.636577
580.135239	2498.899962
580.489080	2482.012096
580.842866	2498.899962
581.196597	2472.181846
581.550273	2481.255923
581.903895	2470.921558
582.257463	2467.896865
582.610975	2465.880404
582.964434	2455.798096
583.317837	2491.842346
583.671186	2479.239462
584.024481	2457.562500
584.377721	2457.310442
584.730906	2460.839250
585.084037	2453.277519
585.437113	2484.280615
585.790135	2475.962712
586.143103	2469.409212
586.496016	2493.606750
586.848874	2481.507981
587.201679	2474.450365
587.554428	2476.466827
587.907124	2473.442135
588.259765	2467.896865
588.612352	2492.850577
588.964884	2468.148923
589.317362	2500.664365
589.669786	2467.896865
590.022155	2494.110865
590.374470	2500.160250
590.726731	2484.280615
591.078937	2467.392750
591.431090	2465.376288
591.783188	2469.409212
592.135232	2472.938019
592.487222	2485.036788
592.839157	2456.806327
593.191038	2443.195212
593.542866	2501.924654
593.894639	2466.636577
594.246358	2479.491519
594.598022	2462.099538
594.949633	2482.768269
595.301190	2478.735346
595.652692	2510.494615
596.004141	2468.653038
596.355535	2474.954481
596.706876	2448.236365
597.058162	2478.231231
597.409395	2485.036788
597.760573	2494.614981
598.111698	2493.858808
598.462768	2503.184942
598.813785	2455.546038
599.164748	2470.165385
599.515657	2456.806327
599.866511	2489.321769
600.217312	2508.982269
600.568060	2481.255923
600.918753	2498.395846
601.269392	2490.582058
601.619978	2475.458596
601.970510	2487.809423
602.320988	2493.354692
602.671412	2450.000769
603.021783	2488.565596
603.372100	2447.984308
603.722363	2470.165385
604.072572	2472.938019
604.422728	2497.639673
604.772830	2491.338231
605.122878	2452.017231
605.472872	2482.264154
605.822813	2474.702423
606.172701	2487.305308
606.522534	2477.979173
606.872314	2488.817654
607.222041	2466.132462
607.571714	2457.058385
607.921333	2458.066615
608.270899	2492.094404
608.620411	2487.809423
608.969870	2450.252827
609.319276	2478.483288
609.668627	2484.784731
610.017926	2474.954481
610.367171	2479.491519
610.716362	2472.433904
611.065500	2476.214769
611.414585	2464.620115
611.763616	2471.173615
612.112594	2473.946250
612.461518	2470.669500
612.810389	2496.127327
613.159207	2464.872173
613.507971	2500.412308
613.856682	2464.620115
614.205340	2491.590288
614.553945	2487.305308
614.902496	2467.644808
615.250994	2442.691096
615.599439	2462.603654
615.947830	2467.896865
616.296169	2474.198308
616.644454	2456.806327
616.992686	2467.644808
617.340864	2463.611885
617.688990	2472.181846
618.037063	2471.677731
618.385082	2476.970942
618.733048	2461.847481
619.080961	2493.102635
619.428821	2452.269288
619.776628	2482.012096
620.124382	2472.181846
620.472083	2462.855712
620.819731	2457.562500
621.167326	2464.620115
621.514868	2463.863942
621.862357	2485.792962
622.209793	2482.768269
622.557176	2467.644808
622.904506	2505.957577
623.251783	2479.743577
623.599007	2464.872173
623.946179	2464.368058
624.293297	2467.896865
624.640363	2496.127327
624.987376	2472.181846
625.334336	2459.326904
625.681243	2474.198308
626.028097	2464.872173
626.374899	2469.913327
626.721647	2487.557365
627.068343	2463.611885
627.414987	2472.685962
627.761577	2482.516212
628.108115	2445.967846
628.454600	2466.888635
628.801032	2474.198308
629.147412	2471.677731
629.493739	2501.420538
629.840014	2461.595423
630.186236	2471.929788
630.532405	2474.702423
630.878521	2447.984308
631.224585	2479.491519
631.570597	2476.466827
631.916556	2487.557365
632.262462	2485.792962
632.608316	2474.450365
632.954117	2508.478154
633.299866	2465.880404
633.645562	2476.970942
633.991206	2476.718885
634.336797	2456.302212
634.682336	2477.979173
635.027823	2496.127327
635.373257	2471.173615
635.718639	2476.718885
636.063968	2445.715788
636.409245	2490.582058
636.754470	2459.074846
637.099642	2471.929788
637.444762	2468.148923
637.789829	2453.781635
638.134845	2494.362923
638.479808	2487.305308
638.824719	2466.636577
639.169577	2463.359827
639.514383	2466.384519
639.859137	2464.368058
640.203839	2478.231231
640.548489	2472.433904
640.893086	2476.970942
641.237632	2492.346462
641.582125	2487.809423
641.926566	2465.628346
642.270955	2452.521346
642.615292	2460.839250
642.959576	2474.450365
643.303809	2474.954481
643.647990	2477.727115
643.992118	2502.176712
644.336195	2472.181846
644.680219	2476.214769
645.024192	2470.921558
645.368112	2493.606750
645.711981	2464.368058
646.055797	2472.181846
646.399562	2468.905096
646.743274	2478.483288
647.086935	2486.549135
647.430544	2470.921558
647.774101	2473.442135
648.117606	2477.727115
648.461059	2484.784731
648.804460	2477.727115
649.147810	2486.549135
649.491108	2460.335135
649.834354	2476.718885
650.177548	2463.359827
650.520690	2488.565596
650.863781	2463.359827
651.206820	2515.787827
651.549807	2467.644808
651.892742	2499.152019
652.235626	2468.148923
652.578458	2448.992538
652.921238	2487.557365
653.263967	2490.077942
653.606644	2468.400981
653.949269	2487.305308
654.291843	2468.148923
654.634365	2472.433904
654.976836	2451.513115
655.319255	2467.644808
655.661622	2466.888635
656.003938	2450.252827
656.346203	2468.905096
656.688416	2471.425673
657.030577	2476.970942
657.372687	2467.140692
657.714746	2476.214769
658.056753	2498.395846
658.398708	2454.285750
658.740612	2475.206538
659.082465	2477.979173
659.424266	2457.058385
659.766016	2449.748712
660.107715	2470.165385
660.449362	2447.480192
660.790958	2451.261058
661.132503	2494.614981
661.473996	2477.475058
661.815438	2454.285750
662.156829	2461.595423
662.498168	2488.817654
662.839456	2481.255923
663.180693	2491.338231
663.521879	2495.119096
663.863013	2465.880404
664.204097	2475.710654
664.545129	2507.469923
664.886110	2462.855712
665.227040	2475.962712
665.567918	2473.946250
665.908746	2478.987404
666.249522	2481.760038
666.590248	2471.929788
666.930922	2469.409212
667.271545	2478.987404
667.612118	2475.458596
667.952639	2461.595423
668.293109	2483.776500
668.633528	2495.119096
668.973896	2476.970942
669.314213	2471.677731
669.654480	2472.938019
669.994695	2453.781635
670.334859	2496.127327
670.674973	2475.206538
671.015035	2463.359827
671.355047	2454.789865
671.695008	2502.932885
672.034918	2483.020327
672.374777	2469.157154
672.714585	2495.623212
673.054342	2464.872173
673.394049	2476.214769
673.733705	2476.970942
674.073310	2459.578962
674.412864	2472.181846
674.752368	2478.987404
675.091820	2467.644808
675.431223	2457.310442
675.770574	2485.540904
676.109875	2488.313538
676.449125	2464.872173
676.788324	2464.620115
677.127473	2477.223000
677.466571	2468.653038
677.805619	2466.888635
678.144616	2474.954481
678.483562	2475.206538
678.822458	2485.288846
679.161303	2488.817654
679.500098	2493.858808
679.838842	2493.606750
680.177535	2467.392750
680.516179	2490.834115
680.854771	2476.214769
681.193314	2465.124231
681.531805	2480.499750
681.870247	2468.653038
682.208638	2480.751808
682.546978	2462.099538
682.885268	2478.987404
683.223508	2458.066615
683.561697	2462.603654
683.899836	2489.321769
684.237925	2479.995635
684.575963	2457.562500
684.913951	2476.466827
685.251889	2499.656135
685.589776	2458.318673
685.927614	2492.850577
686.265401	2461.847481
686.603137	2485.036788
686.940824	2458.066615
687.278460	2493.102635
687.616046	2490.077942
687.953582	2466.636577
688.291068	2493.102635
688.628504	2455.293981
688.965889	2483.020327
689.303224	2461.091308
689.640510	2477.223000
689.977745	2509.738442
690.314930	2485.540904
690.652065	2506.461692
690.989150	2469.661269
691.326185	2478.987404
691.663170	2461.847481
692.000105	2480.247692
692.336990	2465.880404
692.673825	2478.735346
693.010610	2484.028558
693.347345	2497.639673
693.684030	2467.644808
694.020665	2475.206538
694.357251	2466.132462
694.693786	2471.677731
695.030272	2465.124231
695.366707	2464.116000
695.703093	2485.288846
696.039429	2478.735346
696.375716	2455.798096
696.711952	2465.880404
697.048139	2455.293981
697.384276	2486.801192
697.720363	2456.806327
698.056400	2486.297077
698.392388	2453.277519
698.728326	2469.157154
699.064214	2483.020327
699.400053	2461.091308
699.735842	2475.206538
700.071581	2485.036788
700.407270	2463.359827
700.742910	2467.140692
701.078501	2474.198308
701.414042	2481.003865
701.749533	2479.491519
702.084974	2463.611885
702.420366	2458.570731
702.755709	2480.247692
703.091002	2465.628346
703.426246	2465.628346
703.761440	2494.614981
704.096584	2486.549135
704.431679	2456.302212
704.766725	2467.896865
705.101721	2452.017231
705.436668	2472.433904
705.771565	2455.293981
706.106413	2469.913327
706.441212	2471.425673
706.775961	2471.425673
707.110661	2467.140692
707.445311	2481.760038
707.779913	2464.368058
708.114465	2462.099538
708.448967	2458.822788
708.783421	2475.206538
709.117825	2465.880404
709.452180	2479.239462
709.786485	2459.831019
710.120742	2463.359827
710.454949	2477.223000
710.789107	2474.198308
711.123216	2472.938019
711.457275	2470.417442
711.791286	2456.806327
712.125247	2476.214769
712.459159	2477.979173
712.793023	2444.959615
713.126837	2452.017231
713.460602	2469.409212
713.794318	2469.661269
714.127985	2444.455500
714.461602	2451.765173
714.795171	2497.639673
715.128691	2488.313538
715.462162	2460.083077
715.795584	2463.863942
716.128957	2450.252827
716.462281	2490.077942
716.795556	2464.872173
717.128782	2474.450365
717.461960	2465.124231
717.795088	2495.371154
718.128167	2477.475058
718.461198	2463.611885
718.794180	2487.053250
719.127113	2453.781635
719.459997	2466.384519
719.792833	2485.792962
720.125619	2467.896865
720.458357	2473.190077
720.791046	2436.893769
721.123686	2478.231231
721.456278	2478.735346
721.788821	2472.181846
722.121315	2481.507981
722.453761	2493.858808
722.786158	2454.285750
723.118506	2482.264154
723.450805	2476.970942
723.783056	2472.433904
724.115259	2470.165385
724.447412	2471.173615
724.779518	2482.516212
725.111574	2453.781635
725.443582	2506.461692
725.775542	2440.926692
726.107453	2478.483288
726.439315	2483.272385
726.771129	2476.970942
727.102895	2443.699327
727.434612	2474.702423
727.766281	2473.442135
728.097901	2503.437000
728.429473	2482.516212
728.760996	2468.653038
729.092471	2479.743577
729.423897	2493.606750
729.755276	2477.727115
730.086606	2467.896865
730.417887	2472.938019
730.749120	2469.409212
731.080305	2461.595423
731.411442	2482.264154
731.742530	2454.285750
732.073570	2487.809423
732.404562	2473.946250
732.735506	2497.891731
733.066401	2467.896865
733.397249	2456.554269
733.728048	2490.834115
734.058798	2463.863942
734.389501	2470.669500
734.720156	2487.305308
735.050762	2454.033692
735.381320	2467.896865
735.711831	2476.466827
736.042293	2472.938019
736.372707	2483.776500
736.703073	2453.025462
737.033391	2465.124231
737.363661	2500.160250
737.693883	2463.107769
738.024056	2479.491519
738.354182	2466.384519
738.684260	2493.102635
739.014290	2451.513115
739.344272	2484.280615
739.674207	2481.507981
740.004093	2478.987404
740.333931	2493.102635
740.663722	2446.724019
740.993464	2480.247692
741.323159	2463.107769
741.652806	2487.809423
741.982405	2463.611885
742.311956	2495.119096
742.641460	2459.831019
742.970915	2475.962712
743.300323	2469.913327
743.629683	2482.516212
743.958996	2468.400981
744.288260	2489.573827
744.617477	2472.938019
744.946647	2469.661269
745.275768	2483.020327
745.604842	2459.074846
745.933869	2443.195212
746.262847	2487.557365
746.591778	2482.516212
746.920662	2475.710654
747.249498	2480.499750
747.578286	2477.475058
747.907027	2464.116000
748.235720	2469.913327
748.564365	2466.384519
748.892963	2477.979173
749.221514	2474.702423
749.550017	2484.028558
749.878473	2472.433904
750.206881	2486.549135
750.535242	2487.809423
750.863555	2465.628346
751.191821	2476.214769
751.520039	2475.710654
751.848210	2472.181846
752.176334	2448.236365
752.504411	2465.628346
752.832440	2466.888635
753.160421	2458.822788
753.488356	2475.710654
753.816243	2472.938019
754.144082	2467.896865
754.471875	2469.661269
754.799620	2467.644808
755.127318	2460.587192
755.454969	2476.214769
755.782572	2475.206538
756.110129	2480.499750
756.437638	2489.069712
756.765100	2482.264154
757.092515	2423.786769
757.419882	2475.458596
757.747203	2460.335135
758.074477	2473.442135
758.401703	2489.573827
758.728882	2464.620115
759.056014	2479.743577
759.383099	2458.318673
759.710138	2475.206538
760.037129	2451.261058
760.364073	2473.694192
760.690970	2469.157154
761.017820	2476.718885
761.344623	2495.875269
761.671379	2488.313538
761.998088	2486.549135
762.324751	2450.252827
762.651366	2438.910231
762.977935	2474.702423
763.304456	2478.987404
763.630931	2477.475058
763.957359	2464.116000
764.283740	2488.565596
764.610074	2470.165385
764.936362	2464.368058
765.262602	2488.565596
765.588796	2468.148923
765.914943	2474.450365
766.241044	2468.400981
766.567097	2482.264154
766.893104	2499.404077
767.219064	2456.806327
767.544978	2465.880404
767.870845	2489.825885
768.196665	2478.483288
768.522438	2475.710654
768.848165	2476.718885
769.173846	2484.028558
769.499479	2476.970942
769.825066	2464.620115
770.150607	2491.086173
770.476101	2468.148923
770.801548	2475.962712
771.126949	2459.578962
771.452303	2464.116000
771.777611	2437.145827
772.102872	2478.483288
772.428087	2476.214769
772.753256	2501.420538
773.078378	2460.083077
773.403453	2455.546038
773.728482	2452.521346
774.053465	2498.647904
774.378401	2501.420538
774.703291	2460.839250
775.028135	2465.628346
775.352932	2454.537808
775.677683	2473.442135
776.002388	2486.801192
776.327046	2495.875269
776.651658	2465.880404
776.976224	2473.190077
777.300743	2451.009000
777.625216	2497.135558
777.949643	2488.061481
778.274024	2484.532673
778.598359	2442.439038
778.922647	2474.702423
779.246889	2477.979173
779.571086	2469.661269
779.895236	2465.880404
780.219339	2479.995635
780.543397	2477.727115
780.867409	2445.967846
781.191374	2485.540904
781.515294	2478.231231
781.839167	2461.343365
782.162995	2458.318673
782.486776	2462.099538
782.810511	2488.313538
783.134201	2480.751808
783.457844	2486.801192
783.781441	2461.595423
784.104993	2485.288846
784.428498	2459.578962
784.751958	2472.685962
785.075372	2473.442135
785.398739	2483.020327
785.722061	2487.557365
786.045337	2474.954481
786.368568	2451.009000
786.691752	2449.496654
787.014891	2483.524442
787.337983	2450.504885
787.661030	2475.710654
787.984031	2491.086173
788.306987	2477.223000
788.629897	2466.636577
788.952760	2471.425673
789.275579	2470.165385
789.598351	2475.206538
789.921078	2473.946250
790.243759	2472.433904
790.566395	2469.157154
790.888984	2476.718885
791.211529	2464.116000
791.534027	2482.768269
791.856480	2467.140692
792.178888	2483.020327
792.501249	2450.756942
792.823566	2475.962712
793.145836	2450.000769
793.468062	2487.557365
793.790241	2467.392750
794.112375	2457.058385
794.434464	2452.521346
794.756507	2472.685962
795.078505	2481.760038
795.400457	2447.480192
795.722364	2502.932885
796.044226	2486.801192
796.366042	2469.157154
796.687812	2456.050154
797.009538	2473.190077
797.331218	2468.905096
797.652852	2477.727115
797.974442	2473.442135
798.295986	2484.028558
798.617484	2462.603654
798.938938	2482.768269
799.260346	2489.573827
799.581709	2472.433904
799.903026	2481.507981
800.224299	2466.888635
800.545526	2461.595423
800.866708	2471.677731
801.187845	2460.587192
801.508936	2449.244596
801.829983	2458.318673
802.150984	2486.297077
802.471940	2476.718885
802.792851	2494.362923
803.113717	2448.992538
803.434538	2433.364962
803.755314	2472.685962
804.076045	2444.959615
804.396731	2462.855712
804.717372	2436.893769
805.037967	2483.524442
805.358518	2491.842346
805.679024	2464.620115
805.999485	2450.756942
806.319901	2465.124231
806.640272	2458.318673
806.960598	2490.582058
807.280879	2472.181846
807.601115	2470.417442
807.921306	2481.507981
808.241453	2479.995635
808.561554	2463.359827
808.881611	2474.450365
809.201623	2456.554269
809.521590	2472.938019
809.841513	2471.929788
810.161390	2467.140692
810.481223	2474.198308
810.801011	2478.231231
811.120755	2455.041923
811.440453	2489.069712
811.760107	2491.842346
812.079716	2478.483288
812.399281	2459.326904
812.718801	2478.735346
813.038276	2443.447269
813.357707	2461.091308
813.677093	2476.970942
813.996434	2476.214769
814.315731	2465.628346
814.634983	2459.074846
814.954191	2477.727115
815.273354	2474.954481
815.592473	2493.354692
815.911547	2482.768269
816.230577	2488.061481
816.549562	2472.685962
816.868502	2470.669500
817.187399	2485.792962
817.506250	2486.549135
817.825058	2454.789865
818.143821	2459.074846
818.462539	2480.499750
818.781213	2452.017231
819.099843	2492.598519
819.418429	2454.033692
819.736970	2484.784731
820.055466	2464.872173
820.373919	2463.359827
820.692327	2481.003865
821.010691	2486.297077
821.329011	2500.412308
821.647286	2481.003865
821.965517	2487.305308
822.283704	2492.094404
822.601847	2490.834115
822.919945	2493.858808
823.237999	2491.842346
823.556010	2477.223000
823.873976	2486.297077
824.191897	2468.400981
824.509775	2486.045019
824.827609	2467.896865
825.145398	2458.570731
825.463144	2507.974038
825.780845	2458.822788
826.098502	2471.425673
826.416116	2471.929788
826.733685	2482.768269
827.051210	2483.776500
827.368692	2473.442135
827.686129	2474.450365
828.003522	2469.913327
828.320872	2451.261058
828.638177	2471.677731
828.955439	2472.181846
829.272656	2449.244596
829.589830	2461.847481
829.906960	2457.058385
830.224046	2488.061481
830.541088	2473.694192
830.858086	2481.255923
831.175041	2497.639673
831.491952	2454.789865
831.808819	2481.003865
832.125642	2482.516212
832.442421	2463.863942
832.759157	2470.669500
833.075849	2461.847481
833.392497	2484.028558
833.709101	2480.499750
834.025662	2458.822788
834.342179	2474.198308
834.658653	2502.680827
834.975083	2464.872173
835.291469	2457.058385
835.607811	2487.053250
835.924110	2450.756942
836.240366	2471.173615
836.556578	2485.036788
836.872746	2449.496654
837.188871	2478.735346
837.504952	2455.798096
837.820990	2458.570731
838.136984	2456.050154
838.452935	2461.847481
838.768842	2478.483288
839.084706	2474.702423
839.400526	2462.099538
839.716303	2457.814558
840.032037	2486.801192
840.347727	2447.480192
840.663373	2450.756942
840.978977	2475.710654
841.294537	2492.598519
841.610054	2461.091308
841.925527	2444.455500
842.240957	2441.934923
842.556344	2484.280615
842.871687	2465.124231
843.186987	2480.751808
843.502244	2478.735346
843.817458	2496.127327
844.132629	2472.181846
844.447756	2476.214769
844.762840	2479.743577
845.077881	2457.562500
845.392879	2472.181846
845.707833	2454.285750
846.022745	2480.751808
846.337613	2445.211673
846.652438	2471.173615
846.967221	2454.033692
847.281960	2474.702423
847.596656	2473.694192
847.911309	2448.992538
848.225919	2456.302212
848.540485	2466.888635
848.855009	2464.620115
849.169490	2461.847481
849.483928	2483.776500
849.798323	2478.231231
850.112675	2456.554269
850.426984	2467.644808
850.741251	2464.368058
851.055474	2458.066615
851.369654	2470.165385
851.683792	2481.507981
851.997887	2484.784731
852.311938	2459.578962
852.625947	2470.921558
852.939914	2472.181846
853.253837	2468.400981
853.567718	2464.368058
853.881555	2473.694192
854.195350	2463.863942
854.509103	2476.718885
854.822812	2445.463731
855.136479	2457.814558
855.450103	2472.938019
855.763685	2452.521346
856.077224	2457.562500
856.390720	2445.211673
856.704173	2447.984308
857.017584	2496.127327
857.330953	2470.165385
857.644278	2481.003865
857.957561	2474.198308
858.270802	2470.669500
858.584000	2481.255923
858.897155	2453.025462
859.210268	2477.727115
859.523339	2480.751808
859.836367	2470.165385
860.149352	2465.880404
860.462295	2478.735346
860.775195	2459.578962
861.088054	2473.694192
861.400869	2448.740481
861.713642	2475.206538
862.026373	2456.554269
862.339062	2445.715788
862.651708	2451.513115
862.964312	2435.633481
863.276873	2464.116000
863.589392	2475.206538
863.901869	2477.475058
864.214303	2458.822788
864.526696	2457.310442
864.839045	2467.392750
865.151353	2460.083077
865.463619	2465.880404
865.775842	2459.074846
866.088023	2477.727115
866.400162	2489.825885
866.712258	2463.611885
867.024313	2478.483288
867.336325	2458.570731
867.648296	2466.636577
867.960224	2462.351596
868.272110	2459.326904
868.583954	2466.636577
868.895755	2467.140692
869.207515	2456.554269
869.519233	2473.190077
869.830909	2517.300173
870.142542	2488.565596
870.454134	2481.760038
870.765684	2480.247692
871.077191	2455.798096
871.388657	2479.491519
871.700081	2435.885538
872.011463	2461.343365
872.322803	2458.066615
872.634101	2476.466827
872.945357	2455.546038
873.256571	2458.822788
873.567744	2482.768269
873.878874	2463.863942
874.189963	2471.677731
874.501010	2475.710654
874.812015	2499.908192
875.122979	2458.822788
875.433900	2469.661269
875.744780	2473.946250
876.055618	2469.913327
876.366415	2447.984308
876.677169	2479.995635
876.987882	2494.614981
877.298554	2462.603654
877.609183	2492.094404
877.919771	2465.628346
878.230317	2468.400981
878.540822	2454.033692
878.851285	2476.718885
879.161707	2468.905096
879.472087	2470.921558
879.782425	2443.195212
880.092722	2471.425673
880.402977	2478.987404
880.713191	2471.425673
881.023363	2485.036788
881.333494	2502.428769
881.643583	2472.938019
881.953631	2464.872173
882.263637	2471.173615
882.573602	2485.036788
882.883526	2477.223000
883.193408	2488.817654
883.503248	2471.173615
883.813048	2471.677731
884.122806	2461.595423
884.432522	2460.083077
884.742197	2499.152019
885.051831	2505.705519
885.361424	2491.590288
885.670975	2462.603654
885.980485	2476.214769
886.289954	2463.359827
886.599382	2436.137596
886.908768	2480.751808
887.218113	2448.992538
887.527417	2466.636577
887.836680	2457.058385
888.145901	2475.962712
888.455082	2477.223000
888.764221	2493.354692
889.073319	2472.685962
889.382376	2490.330000
889.691392	2464.368058
890.000366	2459.074846
890.309300	2467.896865
890.618193	2473.190077
890.927044	2473.190077
891.235855	2477.727115
891.544625	2469.913327
891.853353	2481.003865
892.162041	2456.302212
892.470687	2495.119096
892.779293	2462.855712
893.087858	2491.842346
893.396381	2469.409212
893.704864	2472.685962
894.013306	2445.211673
894.321707	2489.573827
894.630068	2462.099538
894.938387	2466.888635
895.246665	2477.727115
895.554903	2493.858808
895.863100	2481.507981
896.171256	2455.041923
896.479371	2463.863942
896.787446	2465.628346
897.095480	2442.186981
897.403473	2491.590288
897.711425	2478.735346
898.019336	2455.293981
898.327207	2466.888635
898.635038	2461.343365
898.942827	2472.433904
899.250576	2455.546038
899.558284	2470.165385
899.865952	2472.433904
900.173579	2464.116000
900.481165	2454.285750
900.788711	2454.789865
901.096216	2476.214769
901.403681	2451.009000
901.711105	2447.480192
902.018489	2457.310442
902.325832	2446.471962
902.633135	2468.653038
902.940397	2447.480192
903.247619	2474.450365
903.554800	2453.781635
903.861941	2476.970942
904.169041	2445.967846
904.476101	2494.362923
904.783121	2468.148923
905.090100	2460.083077
905.397039	2486.549135
905.703938	2439.414346
906.010796	2469.913327
906.317614	2471.425673
906.624391	2476.214769
906.931129	2467.140692
907.237826	2473.442135
907.544483	2474.702423
907.851099	2504.949346
908.157675	2479.995635
908.464211	2458.822788
908.770707	2470.921558
909.077163	2463.107769
909.383578	2473.694192
909.689954	2462.351596
909.996289	2457.310442
910.302584	2467.392750
910.608839	2465.880404
910.915054	2458.822788
911.221229	2485.036788
911.527363	2458.318673
911.833458	2430.340269
912.139513	2444.707558
912.445527	2476.214769
912.751502	2449.748712
913.057436	2456.554269
913.363331	2473.694192
913.669186	2470.921558
913.975000	2456.554269
914.280775	2441.934923
914.586510	2431.852615
914.892205	2495.875269
915.197859	2462.351596
915.503475	2459.326904
915.809050	2464.872173
916.114585	2478.987404
916.420081	2501.420538
916.725536	2465.880404
917.030952	2455.798096
917.336328	2473.190077
917.641665	2482.768269
917.946961	2473.190077
918.252218	2469.157154
918.557435	2475.458596
918.862612	2486.801192
919.167750	2454.789865
919.472848	2479.995635
919.777906	2479.995635
920.082925	2501.420538
920.387904	2479.743577
920.692843	2483.272385
920.997743	2450.504885
921.302603	2460.839250
921.607423	2458.570731
921.912204	2473.946250
922.216946	2491.086173
922.521647	2491.590288
922.826310	2463.107769
923.130932	2486.045019
923.435516	2470.669500
923.740059	2475.206538
924.044564	2475.710654
924.349028	2486.549135
924.653454	2473.442135
924.957840	2439.414346
925.262186	2466.888635
925.566493	2433.364962
925.870761	2464.872173
926.174989	2468.653038
926.479178	2473.946250
926.783328	2461.847481
927.087438	2477.475058
927.391509	2462.351596
927.695541	2453.529577
927.999533	2442.691096
928.303486	2455.546038
928.607400	2481.003865
928.911275	2443.447269
929.215110	2469.913327
929.518906	2457.310442
929.822663	2466.636577
930.126381	2452.773404
930.430060	2451.513115
930.733699	2470.417442
931.037299	2479.491519
931.340861	2455.798096
931.644383	2463.611885
931.947866	2459.578962
932.251309	2445.715788
932.554714	2460.839250
932.858080	2471.425673
933.161407	2436.641712
933.464694	2449.496654
933.767943	2477.979173
934.071153	2475.206538
934.374323	2450.756942
934.677455	2474.702423
934.980548	2455.293981
935.283602	2467.896865
935.586617	2468.905096
935.889593	2468.905096
936.192530	2461.091308
936.495428	2482.264154
936.798287	2428.827923
937.101108	2460.335135
937.403890	2454.285750
937.706632	2453.529577
938.009336	2477.979173
938.312002	2458.318673
938.614628	2459.831019
938.917216	2478.231231
939.219765	2458.822788
939.522275	2450.756942
939.824747	2479.743577
940.127179	2462.351596
940.429573	2474.198308
940.731929	2480.499750
941.034246	2461.847481
941.336524	2472.433904
941.638763	2469.913327
941.940964	2440.422577
942.243126	2472.938019
942.545250	2444.455500
942.847335	2464.872173
943.149381	2461.847481
943.451389	2481.003865
943.753359	2442.691096
944.055290	2444.203442
944.357182	2449.496654
944.659036	2478.231231
944.960851	2469.661269
945.262628	2471.425673
945.564367	2444.707558
945.866067	2470.165385
946.167729	2456.554269
946.469352	2487.305308
946.770937	2463.611885
947.072484	2463.359827
947.373992	2481.003865
947.675462	2466.132462
947.976893	2471.929788
948.278286	2467.140692
948.579641	2479.995635
948.880958	2464.620115
949.182236	2478.987404
949.483476	2477.475058
949.784678	2464.116000
950.085841	2429.079981
950.386967	2480.247692
950.688054	2470.165385
950.989103	2465.880404
951.290114	2460.839250
951.591087	2474.450365
951.892021	2462.351596
952.192917	2468.905096
952.493776	2466.132462
952.794596	2458.318673
953.095378	2448.740481
953.396122	2466.132462
953.696828	2456.806327
953.997496	2471.929788
954.298126	2488.817654
954.598718	2448.992538
954.899272	2488.565596
955.199788	2479.491519
955.500266	2455.798096
955.800706	2476.970942
956.101108	2450.504885
956.401472	2482.264154
956.701798	2460.587192
957.002087	2472.938019
957.302337	2454.537808
957.602550	2468.148923
957.902724	2465.880404
958.202861	2431.096442
958.502960	2459.578962
958.803022	2460.083077
959.103045	2434.625250
959.403031	2460.587192
959.702979	2475.710654
960.002889	2457.058385
960.302762	2471.173615
960.602596	2481.255923
960.902393	2442.439038
961.202153	2470.921558
961.501875	2504.949346
961.801559	2443.195212
962.101205	2475.962712
962.400814	2442.439038
962.700385	2458.318673
962.999918	2458.822788
963.299414	2434.121135
963.598873	2473.946250
963.898293	2485.792962
964.197677	2449.496654
964.497022	2444.455500
964.796331	2459.326904
965.095601	2446.976077
965.394835	2485.036788
965.694030	2447.984308
965.993189	2471.173615
966.292309	2468.653038
966.591393	2467.896865
966.890439	2439.918462
967.189447	2447.984308
967.488419	2454.537808
967.787353	2469.409212
968.086249	2452.017231
968.385108	2466.888635
968.683930	2460.587192
968.982714	2471.677731
969.281462	2506.461692
969.580172	2449.496654
969.878844	2461.847481
970.177480	2433.364962
970.476078	2447.732250
970.774639	2443.195212
971.073162	2454.285750
971.371649	2457.814558
971.670098	2461.595423
971.968510	2485.540904
972.266885	2459.831019
972.565223	2475.206538
972.863524	2456.302212
973.161788	2463.359827
973.460014	2446.471962
973.758204	2462.099538
974.056356	2451.261058
974.354471	2472.938019
974.652550	2448.488423
974.950591	2452.773404
975.248595	2453.277519
975.546563	2461.595423
975.844493	2440.170519
976.142386	2484.280615
976.440243	2468.400981
976.738062	2462.099538
977.035845	2446.724019
977.333590	2465.124231
977.631299	2446.219904
977.928971	2483.776500
978.226606	2455.798096
978.524204	2481.760038
978.821765	2467.644808
979.119290	2448.992538
979.416777	2477.727115
979.714228	2472.181846
980.011642	2441.934923
980.309020	2493.102635
980.606360	2459.074846
980.903664	2479.995635
981.200931	2434.877308
981.498162	2434.877308
981.795356	2465.124231
982.092513	2461.091308
982.389633	2447.984308
982.686717	2455.798096
982.983764	2441.682865
983.280775	2449.244596
983.577749	2456.302212
983.874686	2446.219904
984.171587	2444.707558
984.468451	2478.987404
984.765279	2447.228135
985.062070	2479.995635
985.358824	2447.984308
985.655543	2438.658173
985.952224	2456.050154
986.248869	2497.387615
986.545478	2454.033692
986.842050	2459.831019
987.138586	2444.959615
987.435086	2494.110865
987.731549	2460.335135
988.027975	2453.529577
988.324366	2462.855712
988.620719	2467.644808
988.917037	2446.471962
989.213318	2462.351596
989.509563	2469.913327
989.805772	2455.798096
990.101944	2457.562500
990.398080	2464.116000
990.694180	2448.992538
990.990244	2449.496654
991.286271	2461.091308
991.582262	2454.033692
991.878217	2478.987404
992.174136	2460.083077
992.470019	2474.954481
992.765865	2463.611885
993.061676	2485.036788
993.357450	2456.806327
993.653188	2442.439038
993.948890	2484.532673
994.244556	2460.083077
994.540186	2459.074846
994.835780	2474.198308
995.131337	2459.831019
995.426859	2477.727115
995.722345	2452.521346
996.017795	2461.343365
996.313208	2468.400981
996.608586	2458.822788
996.903928	2464.368058
997.199234	2459.831019
997.494504	2427.315577
997.789738	2488.313538
998.084936	2455.546038
998.380099	2474.954481
998.675225	2473.190077
998.970316	2462.351596
999.265371	2483.524442
999.560390	2449.244596
999.855373	2460.587192
1000.150320	2457.058385
1000.445232	2459.074846
1000.740108	2474.954481
1001.034948	2485.288846
1001.329752	2459.326904
1001.624521	2459.326904
1001.919254	2468.148923
1002.213951	2456.050154
1002.508613	2437.902000
1002.803239	2469.409212
1003.097829	2463.863942
1003.392384	2490.330000
1003.686903	2450.504885
1003.981386	2459.831019
1004.275834	2446.219904
1004.570246	2457.310442
1004.864623	2455.293981
1005.158964	2476.718885
1005.453270	2443.195212
1005.747540	2445.967846
1006.041775	2470.417442
1006.335974	2443.195212
1006.630138	2498.647904
1006.924266	2457.310442
1007.218359	2466.384519
1007.512416	2459.578962
1007.806438	2458.318673
1008.100425	2481.255923
1008.394376	2442.943154
1008.688292	2445.715788
1008.982172	2456.302212
1009.276017	2475.458596
1009.569827	2453.277519
1009.863602	2462.603654
1010.157341	2458.822788
1010.451045	2461.595423
1010.744714	2461.847481
1011.038347	2453.781635
1011.331945	2438.406115
1011.625508	2456.806327
1011.919036	2457.562500
1012.212528	2459.831019
1012.505986	2465.376288
1012.799408	2473.190077
1013.092795	2451.765173
1013.386147	2479.239462
1013.679464	2461.091308
1013.972745	2479.995635
1014.265992	2447.480192
1014.559204	2482.012096
1014.852380	2462.099538
1015.145521	2492.850577
1015.438628	2443.699327
1015.731699	2483.524442
1016.024736	2472.181846
1016.317737	2470.921558
1016.610703	2471.677731
1016.903635	2483.020327
1017.196531	2476.466827
1017.489393	2483.272385
1017.782219	2476.718885
1018.075011	2467.140692
1018.367768	2441.178750
1018.660490	2477.475058
1018.953177	2477.475058
1019.245829	2477.475058
