Dividing Wavelength (nm)	Counts (n)	Slit_number_1_of_a_total_of_40	
326.493990	2049.405479
326.888308	2049.405479
327.282561	2049.405479
327.676750	2019.612260
328.070874	2026.846315
328.464933	2040.079344
328.858929	2038.264529
329.252859	2056.790769
329.646726	2064.251677
330.040528	2076.854562
330.434265	2097.472881
330.827938	2117.057763
331.221547	2135.357152
331.615091	2157.563435
332.008571	2177.879285
332.401986	2201.723942
332.795338	2216.242465
333.188625	2229.651935
333.581847	2263.301637
333.975006	2281.525408
334.368100	2304.664304
334.761129	2315.553196
335.154095	2324.022335
335.546996	2339.901969
335.939833	2356.865452
336.332606	2370.905065
336.725315	2372.770292
337.117960	2388.549104
337.510540	2399.185938
337.903056	2407.655077
338.295508	2412.620613
338.687896	2416.804771
339.080220	2424.845412
339.472480	2429.407656
339.864676	2428.550660
340.256807	2441.229162
340.648875	2436.868563
341.040879	2432.583583
341.432818	2447.076900
341.824694	2438.053235
342.216506	2445.841817
342.608253	2446.572785
342.999937	2445.514142
343.391557	2448.009513
343.783113	2442.791919
344.174605	2437.297062
344.566033	2439.389140
344.957397	2432.155085
345.348697	2433.314550
345.739934	2436.364448
346.131106	2427.164342
346.522215	2424.845412
346.913260	2425.021852
347.304241	2431.928233
347.695159	2415.216808
348.086012	2424.139650
348.476802	2417.737385
348.867528	2412.645819
349.258191	2415.972981
349.648789	2410.881415
350.039324	2406.898904
350.429796	2416.804771
350.820203	2414.914338
351.210548	2416.225038
351.600828	2418.947262
351.991045	2407.806312
352.381198	2416.678742
352.771288	2407.705488
353.161314	2410.478123
353.551276	2401.151988
353.941175	2426.710638
354.331010	2415.922569
354.720782	2413.704462
355.110490	2412.847465
355.500135	2409.217835
355.889717	2410.704975
356.279235	2412.948288
356.668689	2417.813002
357.058080	2414.687487
357.447408	2416.880388
357.836672	2419.804258
358.225873	2413.553227
358.615010	2413.401992
359.004084	2413.376787
359.393095	2416.729154
359.782043	2413.754873
360.170927	2413.729667
360.559748	2425.248704
360.948505	2417.535738
361.337199	2417.636562
361.725830	2412.797054
362.114398	2418.594381
362.502903	2417.939031
362.891344	2419.199319
363.279722	2418.342323
363.668037	2415.216808
364.056289	2426.105700
364.444478	2423.358271
364.832603	2426.559404
365.220665	2426.786256
365.608665	2421.316604
365.996601	2421.871131
366.384474	2424.618560
366.772284	2425.828437
367.160031	2420.157138
367.547715	2424.114444
367.935336	2418.191088
368.322893	2421.367015
368.710388	2422.576892
369.097820	2425.752819
369.485189	2414.208577
369.872495	2426.282140
370.259738	2425.904054
370.646918	2427.164342
371.034035	2425.954465
371.421090	2425.702408
371.808081	2426.256935
372.195010	2429.483273
372.581875	2427.164342
372.968678	2428.248190
373.355418	2432.961669
373.742096	2429.609302
374.128710	2424.114444
374.515262	2422.022365
374.901751	2429.886565
375.288177	2429.508479
375.674540	2426.156112
376.060841	2440.170519
376.447079	2439.540375
376.833254	2428.323808
377.219367	2435.507452
377.605417	2429.634508
377.991404	2429.130392
378.377329	2430.063006
378.763191	2432.709612
379.148991	2437.397885
379.534727	2428.147367
379.920402	2430.793973
380.306013	2430.289858
380.691563	2439.565581
381.077049	2431.247677
381.462474	2430.214240
381.847835	2428.979158
382.233134	2436.414860
382.618371	2431.197265
383.003545	2434.726073
383.388657	2426.433375
383.773706	2432.356731
384.158693	2430.239446
384.543618	2431.046031
384.928480	2445.665377
385.313280	2434.675662
385.698017	2429.256421
386.082692	2436.061979
386.467305	2438.859819
386.851856	2427.970927
387.236344	2435.583069
387.620770	2438.305292
388.005133	2438.658173
388.389435	2438.607762
388.773674	2436.994592
389.157851	2435.910744
389.541965	2431.953438
389.926018	2437.322267
390.310008	2453.529577
390.693936	2435.759510
391.077802	2438.380910
391.461606	2443.951385
391.845348	2440.876281
392.229027	2438.103646
392.612645	2439.615992
392.996200	2447.555810
393.379694	2437.851588
393.763125	2437.397885
394.146494	2435.154571
394.529801	2435.406629
394.913047	2431.600558
395.296230	2448.967333
395.679351	2433.138110
396.062410	2432.104673
396.445408	2439.515169
396.828343	2444.707558
397.211217	2442.590273
397.594028	2443.724533
397.976778	2438.859819
398.359466	2439.540375
398.742092	2445.740994
399.124656	2436.364448
399.507158	2442.136569
399.889598	2440.271342
400.271977	2438.885025
400.654294	2434.751279
401.036549	2437.145827
401.418742	2444.279060
401.800874	2443.296035
402.182944	2445.564554
402.564952	2445.816612
402.946898	2446.396344
403.328783	2441.229162
403.710606	2446.673608
404.092367	2437.498708
404.474067	2448.337188
404.855705	2442.867537
405.237282	2450.882971
405.618797	2444.354677
406.000250	2438.985848
406.381642	2450.504885
406.762972	2443.522887
407.144240	2436.288831
407.525447	2444.581529
407.906593	2438.935437
408.287677	2454.260544
408.668700	2449.093362
409.049661	2447.102106
409.430560	2440.977104
409.811399	2442.791919
410.192176	2450.681325
410.572891	2438.154058
410.953545	2446.547579
411.334138	2446.295521
411.714669	2447.328958
412.095139	2446.875254
412.475547	2455.621656
412.855894	2448.992538
413.236180	2453.605194
413.616405	2440.498194
413.996568	2447.177723
414.376670	2446.371138
414.756711	2444.228648
415.136691	2453.353137
415.516609	2450.731737
415.896466	2445.085644
416.276262	2448.841304
416.655997	2458.041410
417.035670	2452.496140
417.415283	2449.042950
417.794834	2449.219390
418.174324	2447.480192
418.553753	2446.572785
418.933121	2450.605708
419.312428	2450.479679
419.691674	2452.420523
420.070859	2452.773404
420.449983	2445.640171
420.829045	2448.135542
421.208047	2450.252827
421.586988	2447.959102
421.965867	2458.066615
422.344686	2459.478138
422.723444	2452.395317
423.102141	2450.404062
423.480777	2452.042437
423.859352	2446.648402
424.237866	2450.504885
424.616319	2448.110337
424.994712	2464.569704
425.373044	2450.202415
425.751314	2448.337188
426.129524	2448.488423
426.507673	2456.428240
426.885762	2451.513115
427.263789	2447.454987
427.641756	2448.311983
428.019662	2456.453446
428.397508	2449.244596
428.775292	2457.058385
429.153016	2451.916408
429.530679	2456.453446
429.908282	2456.302212
430.285824	2454.789865
430.663305	2452.370112
431.040726	2457.663323
431.418086	2449.547065
431.795385	2456.024948
432.172624	2443.245623
432.549802	2458.419496
432.926920	2448.438012
433.303977	2451.941613
433.680974	2458.066615
434.057910	2456.277006
434.434786	2447.782662
434.811601	2454.411779
435.188355	2454.890688
435.565050	2448.866510
435.941683	2451.513115
436.318257	2452.975050
436.694770	2451.790379
437.071222	2453.504371
437.447614	2456.806327
437.823946	2460.688015
438.200218	2459.629373
438.576429	2459.377315
438.952580	2451.109823
439.328670	2453.176696
439.704700	2464.821762
440.080670	2461.721452
440.456580	2458.117027
440.832429	2458.772377
441.208218	2458.646348
441.583947	2457.587706
441.959616	2453.025462
442.335224	2457.789352
442.710773	2466.006433
443.086261	2453.554783
443.461689	2455.016717
443.837057	2460.763633
444.212365	2458.646348
444.587612	2449.143773
444.962800	2452.874227
445.337927	2457.537294
445.712995	2447.328958
446.088002	2456.982767
446.462949	2452.647375
446.837837	2459.780608
447.212664	2454.739454
447.587431	2459.478138
447.962139	2455.041923
448.336786	2456.024948
448.711374	2451.462704
449.085901	2470.266208
449.460369	2449.698300
449.834776	2459.906637
450.209124	2458.772377
450.583412	2460.788838
450.957640	2460.385546
451.331808	2462.275979
451.705917	2461.192131
452.079965	2461.897892
452.453954	2449.950358
452.827883	2458.041410
453.201752	2457.940587
453.575562	2465.628346
453.949311	2453.227108
454.323001	2457.234825
454.696632	2455.193158
455.070202	2463.359827
455.443713	2464.695733
455.817164	2456.226594
456.190556	2458.469908
456.563888	2454.411779
456.937160	2459.074846
457.310373	2452.269288
457.683526	2446.597990
458.056619	2458.394290
458.429653	2460.536781
458.802628	2462.099538
459.175542	2461.469394
459.548398	2456.125771
459.921194	2454.436985
460.293930	2464.519292
460.666607	2469.333594
461.039224	2468.274952
461.411782	2467.972483
461.784280	2461.897892
462.156719	2458.192644
462.529099	2464.569704
462.901419	2454.689042
463.273680	2462.301185
463.645882	2457.915381
464.018024	2451.790379
464.390106	2448.085131
464.762130	2464.670527
465.134094	2460.814044
465.505999	2455.092335
465.877845	2463.309415
466.249631	2459.049640
466.621358	2455.445215
466.993026	2466.006433
467.364634	2467.443162
467.736184	2462.830506
468.107674	2453.529577
468.479105	2466.208079
468.850477	2457.360854
469.221790	2461.267748
469.593043	2472.307875
469.964238	2464.494087
470.335373	2469.257977
470.706449	2462.023921
471.077467	2455.646862
471.448425	2461.116513
471.819324	2455.747685
472.190164	2462.477625
472.560945	2460.839250
472.931667	2463.259004
473.302330	2456.100565
473.672934	2460.133488
474.043479	2459.024435
474.413965	2466.535754
474.784393	2460.133488
475.154761	2465.149437
475.525070	2472.307875
475.895321	2469.384006
476.265513	2459.452933
476.635645	2463.485856
477.005719	2476.189563
477.375734	2465.199848
477.745691	2465.124231
478.115588	2462.729683
478.485427	2455.117540
478.855207	2459.831019
479.224928	2464.191617
479.594591	2457.839763
479.964194	2463.183387
480.333739	2462.175156
480.703226	2460.914867
481.072653	2462.654065
481.442022	2462.074333
481.811333	2458.117027
482.180584	2454.789865
482.549777	2460.284723
482.918912	2463.763119
483.287988	2458.999229
483.657005	2461.217337
484.025964	2464.846967
484.394864	2465.225054
484.763706	2462.704477
485.132489	2467.796042
485.501213	2464.468881
485.869879	2470.543471
486.238487	2467.745631
486.607036	2466.686988
486.975527	2461.393777
487.343959	2463.158181
487.712333	2465.729169
488.080648	2464.544498
488.448905	2466.485342
488.817104	2469.157154
489.185244	2468.980713
489.553326	2462.502831
489.921350	2460.612398
490.289315	2460.486369
490.657222	2465.451906
491.025070	2473.845427
491.392861	2468.123717
491.760593	2472.660756
492.128267	2471.904583
492.495883	2468.678244
492.863440	2473.870633
493.230939	2459.452933
493.598380	2475.206538
493.965763	2461.570217
494.333088	2464.569704
494.700354	2464.368058
495.067563	2468.274952
495.434713	2478.079996
495.801805	2468.653038
496.168839	2463.032152
496.535815	2471.476085
496.902733	2462.301185
497.269593	2466.384519
497.636395	2462.250773
498.003139	2474.878863
498.369825	2456.277006
498.736453	2472.761579
499.103023	2465.552729
499.469535	2463.485856
499.835989	2458.117027
500.202385	2472.207052
500.568723	2458.117027
500.935003	2459.730196
501.301226	2460.839250
501.667390	2467.770837
502.033497	2460.133488
502.399546	2458.747171
502.765537	2471.375262
503.131470	2470.316619
503.497345	2467.140692
503.863163	2467.443162
504.228923	2467.493573
504.594625	2466.939046
504.960269	2472.837196
505.325856	2469.333594
505.691385	2459.427727
506.056856	2466.762606
506.422270	2470.341825
506.787625	2468.224540
507.152924	2474.147896
507.518164	2462.553242
507.883347	2468.022894
508.248472	2465.477112
508.613540	2465.653552
508.978550	2468.400981
509.343503	2467.417956
509.708398	2469.636063
510.073236	2456.655092
510.438016	2470.039356
510.802738	2458.747171
511.167403	2465.325877
511.532010	2468.123717
511.896561	2468.703450
512.261053	2459.276492
512.625488	2476.970942
512.989866	2461.897892
513.354186	2470.140179
513.718449	2462.250773
514.082655	2469.484829
514.446803	2465.376288
514.810894	2458.999229
515.174927	2471.753348
515.538904	2469.535240
515.902822	2475.004892
516.266684	2463.309415
516.630488	2459.654579
516.994235	2460.561987
517.357925	2460.612398
517.721558	2469.207565
518.085133	2468.955508
518.448651	2464.821762
518.812112	2472.837196
519.175516	2463.561473
519.538863	2460.688015
519.902152	2469.484829
520.265385	2471.828965
520.628560	2464.998202
520.991678	2462.956535
521.354739	2462.729683
521.717743	2472.685962
522.080690	2471.450879
522.443580	2467.770837
522.806413	2467.468367
523.169189	2474.198308
523.531908	2468.879890
523.894569	2470.089767
524.257174	2464.746144
524.619722	2473.442135
524.982213	2470.997175
525.344647	2464.443675
525.707025	2463.586679
526.069345	2463.082563
526.431608	2471.753348
526.793815	2470.266208
527.155964	2467.039869
527.518057	2471.224027
527.880093	2469.484829
528.242072	2462.906123
528.603995	2472.257463
528.965860	2470.593883
529.327669	2473.971456
529.689421	2470.896352
530.051117	2477.953967
530.412755	2465.174642
530.774337	2472.660756
531.135862	2474.173102
531.497331	2469.358800
531.858743	2474.349542
532.220098	2465.048613
532.581396	2469.131948
532.942638	2466.334108
533.303824	2477.071765
533.664953	2472.358287
534.026025	2470.014150
534.387040	2469.711681
534.747999	2466.359313
535.108902	2470.140179
535.469748	2463.284210
535.830537	2466.913840
536.191270	2469.762092
536.551947	2469.283183
536.912567	2457.864969
537.273131	2462.427213
537.633638	2461.292954
537.994089	2474.652012
538.354483	2465.956021
538.714821	2466.384519
539.075103	2471.375262
539.435328	2470.820735
539.795497	2478.861375
540.155609	2473.442135
540.515665	2468.728656
540.875665	2466.586165
541.235609	2465.603140
541.595496	2475.559419
541.955328	2475.055304
542.315102	2465.628346
542.674821	2465.325877
543.034483	2477.147383
543.394090	2473.870633
543.753640	2467.493573
544.113134	2466.863429
544.472571	2458.974023
544.831953	2464.040383
545.191278	2472.509521
545.550548	2472.156640
545.909761	2475.357773
546.268918	2456.453446
546.628019	2467.947277
546.987064	2468.804273
547.346053	2474.122690
547.704986	2475.282156
548.063863	2473.341312
548.422684	2467.417956
548.781449	2471.753348
549.140158	2463.284210
549.498811	2465.905610
549.857408	2471.728142
550.215949	2467.115487
550.574434	2458.974023
550.932864	2471.350056
551.291237	2472.257463
551.649555	2473.442135
552.007817	2464.620115
552.366022	2468.527010
552.724173	2474.929275
553.082267	2469.610858
553.440305	2478.155613
553.798288	2457.738940
554.156215	2476.290387
554.514086	2466.762606
554.871902	2467.695219
555.229661	2467.871660
555.587365	2466.409725
555.945014	2473.139665
556.302606	2465.779581
556.660143	2471.728142
557.017625	2469.434417
557.375050	2471.929788
557.732421	2473.820221
558.089735	2470.719912
558.446994	2462.981740
558.804197	2472.559933
559.161345	2467.291927
559.518437	2465.376288
559.875474	2468.274952
560.232455	2470.719912
560.589381	2472.055817
560.946251	2469.711681
561.303065	2467.140692
561.659825	2473.492546
562.016528	2474.374748
562.373177	2469.056331
562.729770	2468.224540
563.086307	2465.325877
563.442789	2471.173615
563.799216	2476.366004
564.155587	2466.107256
564.511904	2471.299644
564.868164	2480.575367
565.224370	2468.451392
565.580520	2464.393263
565.936615	2472.307875
566.292654	2468.174129
566.648638	2467.846454
567.004567	2465.981227
567.360441	2471.702937
567.716260	2461.192131
568.072023	2475.509008
568.427732	2469.031125
568.783385	2470.593883
569.138982	2465.023408
569.494525	2475.534213
569.850013	2463.989971
570.205445	2469.762092
570.560823	2463.989971
570.916145	2468.426187
571.271412	2466.434931
571.626625	2468.879890
571.981782	2461.318160
572.336884	2469.182360
572.691931	2468.879890
573.046923	2476.441621
573.401860	2460.335135
573.756743	2463.107769
574.111570	2470.140179
574.466342	2470.745117
574.821059	2471.299644
575.175722	2469.661269
575.530330	2471.627319
575.884882	2462.301185
576.239380	2465.225054
576.593823	2466.107256
576.948211	2466.434931
577.302544	2473.442135
577.656823	2466.939046
578.011047	2468.148923
578.365216	2462.351596
578.719330	2470.871146
579.073389	2466.233285
579.427394	2480.096458
579.781344	2468.804273
580.135239	2476.945737
580.489080	2464.620115
580.842866	2474.853658
581.196597	2470.341825
581.550273	2470.241002
581.903895	2471.627319
582.257463	2471.803760
582.610975	2467.417956
582.964434	2472.660756
583.317837	2472.408698
583.671186	2473.416929
584.024481	2477.827938
584.377721	2470.190590
584.730906	2465.325877
585.084037	2467.644808
585.437113	2473.215283
585.790135	2472.534727
586.143103	2467.039869
586.496016	2465.073819
586.848874	2470.971969
587.201679	2462.149950
587.554428	2463.662296
587.907124	2467.770837
588.259765	2473.139665
588.612352	2459.831019
588.964884	2475.004892
589.317362	2467.367544
589.669786	2474.097485
590.022155	2469.762092
590.374470	2463.158181
590.726731	2462.931329
591.078937	2468.653038
591.431090	2466.838223
591.783188	2473.064048
592.135232	2476.618062
592.487222	2469.031125
592.839157	2466.989458
593.191038	2464.166412
593.542866	2467.140692
593.894639	2468.653038
594.246358	2476.542444
594.598022	2467.443162
594.949633	2469.762092
595.301190	2470.165385
595.652692	2471.803760
596.004141	2463.914354
596.355535	2472.131435
596.706876	2466.560960
597.058162	2467.720425
597.409395	2468.854685
597.760573	2468.905096
598.111698	2469.686475
598.462768	2472.862402
598.813785	2467.997688
599.164748	2468.400981
599.515657	2466.283696
599.866511	2476.164358
600.217312	2466.056844
600.568060	2468.123717
600.918753	2481.911273
601.269392	2474.223513
601.619978	2462.351596
601.970510	2475.534213
602.320988	2474.349542
602.671412	2473.442135
603.021783	2464.242029
603.372100	2470.190590
603.722363	2476.013123
604.072572	2474.652012
604.422728	2476.366004
604.772830	2470.845940
605.122878	2465.023408
605.472872	2471.602113
605.822813	2466.182873
606.172701	2470.997175
606.522534	2471.980200
606.872314	2464.443675
607.222041	2474.273925
607.571714	2470.971969
607.921333	2467.065075
608.270899	2465.905610
608.620411	2459.226081
608.969870	2476.265181
609.319276	2478.054790
609.668627	2474.223513
610.017926	2477.802733
610.367171	2472.685962
610.716362	2468.955508
611.065500	2466.560960
611.414585	2469.862915
611.763616	2472.711167
612.112594	2459.906637
612.461518	2471.450879
612.810389	2466.636577
613.159207	2471.854171
613.507971	2470.997175
613.856682	2465.199848
614.205340	2463.284210
614.553945	2460.965279
614.902496	2469.711681
615.250994	2469.207565
615.599439	2471.627319
615.947830	2469.711681
616.296169	2463.964765
616.644454	2470.795529
616.992686	2469.358800
617.340864	2465.804787
617.688990	2472.610344
618.037063	2462.931329
618.385082	2475.483802
618.733048	2470.417442
619.080961	2471.224027
619.428821	2464.846967
619.776628	2475.256950
620.124382	2467.569190
620.472083	2472.811990
620.819731	2467.543985
621.167326	2470.467854
621.514868	2474.929275
621.862357	2467.947277
622.209793	2462.452419
622.557176	2471.299644
622.904506	2472.459110
623.251783	2462.578448
623.599007	2474.803246
623.946179	2467.846454
624.293297	2474.828452
624.640363	2470.820735
624.987376	2461.822275
625.334336	2466.686988
625.681243	2463.637090
626.028097	2470.669500
626.374899	2475.786271
626.721647	2461.469394
627.068343	2466.082050
627.414987	2472.282669
627.761577	2471.954994
628.108115	2472.484315
628.454600	2465.577935
628.801032	2475.433390
629.147412	2475.307362
629.493739	2460.688015
629.840014	2462.099538
630.186236	2471.324850
630.532405	2466.107256
630.878521	2462.376802
631.224585	2468.980713
631.570597	2470.896352
631.916556	2467.745631
632.262462	2468.199335
632.608316	2470.745117
632.954117	2475.433390
633.299866	2469.938533
633.645562	2466.460137
633.991206	2463.435444
634.336797	2473.946250
634.682336	2475.609831
635.027823	2468.930302
635.373257	2467.745631
635.718639	2467.191104
636.063968	2475.004892
636.409245	2470.417442
636.754470	2469.661269
637.099642	2471.627319
637.444762	2472.307875
637.789829	2465.376288
638.134845	2477.701910
638.479808	2470.241002
638.824719	2475.685448
639.169577	2467.241515
639.514383	2472.307875
639.859137	2461.469394
640.203839	2471.274438
640.548489	2469.837710
640.893086	2464.594910
641.237632	2462.200362
641.582125	2469.560446
641.926566	2466.712194
642.270955	2470.795529
642.615292	2471.728142
642.959576	2475.559419
643.303809	2466.031638
643.647990	2466.964252
643.992118	2468.854685
644.336195	2467.594396
644.680219	2470.971969
645.024192	2473.467340
645.368112	2473.341312
645.711981	2464.242029
646.055797	2464.821762
646.399562	2467.468367
646.743274	2472.811990
647.086935	2477.021354
647.430544	2466.989458
647.774101	2467.745631
648.117606	2469.409212
648.461059	2471.123204
648.804460	2468.955508
649.147810	2459.100052
649.491108	2467.140692
649.834354	2464.594910
650.177548	2465.527523
650.520690	2468.678244
650.863781	2462.326390
651.206820	2473.366517
651.549807	2466.384519
651.892742	2466.888635
652.235626	2468.274952
652.578458	2468.022894
652.921238	2470.114973
653.263967	2467.972483
653.606644	2468.829479
653.949269	2463.385033
654.291843	2473.190077
654.634365	2462.452419
654.976836	2464.191617
655.319255	2473.114460
655.661622	2464.821762
656.003938	2474.904069
656.346203	2469.711681
656.688416	2480.978660
657.030577	2467.039869
657.372687	2474.425160
657.714746	2462.477625
658.056753	2476.340798
658.398708	2477.223000
658.740612	2466.056844
659.082465	2467.569190
659.424266	2473.769810
659.766016	2466.737400
660.107715	2464.443675
660.449362	2466.132462
660.790958	2473.694192
661.132503	2466.787812
661.473996	2463.939560
661.815438	2471.047587
662.156829	2462.175156
662.498168	2482.415388
662.839456	2475.483802
663.180693	2466.132462
663.521879	2471.854171
663.863013	2474.324337
664.204097	2461.368571
664.545129	2473.240488
664.886110	2463.989971
665.227040	2470.467854
665.567918	2467.417956
665.908746	2476.088740
666.249522	2471.173615
666.590248	2472.736373
666.930922	2464.141206
667.271545	2473.164871
667.612118	2471.576908
667.952639	2468.980713
668.293109	2469.459623
668.633528	2468.930302
668.973896	2468.426187
669.314213	2468.426187
669.654480	2459.402521
669.994695	2465.250260
670.334859	2469.409212
670.674973	2469.837710
671.015035	2470.392237
671.355047	2469.157154
671.695008	2471.198821
672.034918	2467.670013
672.374777	2472.433904
672.714585	2467.115487
673.054342	2468.577421
673.394049	2475.912300
673.733705	2463.410238
674.073310	2468.627833
674.412864	2471.627319
674.752368	2473.719398
675.091820	2470.770323
675.431223	2476.718885
675.770574	2467.065075
676.109875	2466.813017
676.449125	2470.719912
676.788324	2462.074333
677.127473	2468.653038
677.466571	2467.896865
677.805619	2472.307875
678.144616	2468.148923
678.483562	2473.190077
678.822458	2462.553242
679.161303	2474.500777
679.500098	2467.896865
679.838842	2466.334108
680.177535	2465.426700
680.516179	2469.963738
680.854771	2466.888635
681.193314	2463.889148
681.531805	2465.930815
681.870247	2471.123204
682.208638	2465.199848
682.546978	2474.979687
682.885268	2466.989458
683.223508	2472.938019
683.561697	2465.048613
683.899836	2464.720938
684.237925	2465.527523
684.575963	2469.384006
684.913951	2482.516212
685.251889	2469.358800
685.589776	2462.099538
685.927614	2472.081023
686.265401	2469.938533
686.603137	2466.535754
686.940824	2466.485342
687.278460	2472.433904
687.616046	2464.368058
687.953582	2469.661269
688.291068	2469.157154
688.628504	2470.089767
688.965889	2470.266208
689.303224	2459.125258
689.640510	2474.097485
689.977745	2465.451906
690.314930	2471.022381
690.652065	2469.384006
690.989150	2460.889662
691.326185	2468.148923
691.663170	2461.494600
692.000105	2471.879377
692.336990	2470.417442
692.673825	2465.779581
693.010610	2458.797583
693.347345	2464.519292
693.684030	2470.341825
694.020665	2459.125258
694.357251	2471.476085
694.693786	2459.301698
695.030272	2468.148923
695.366707	2461.847481
695.703093	2474.853658
696.039429	2471.652525
696.375716	2466.989458
696.711952	2465.073819
697.048139	2470.593883
697.384276	2471.551702
697.720363	2463.259004
698.056400	2465.653552
698.392388	2471.954994
698.728326	2460.335135
699.064214	2468.829479
699.400053	2479.138638
699.735842	2467.191104
700.071581	2466.434931
700.407270	2468.930302
700.742910	2470.921558
701.078501	2470.341825
701.414042	2470.644294
701.749533	2470.316619
702.084974	2471.274438
702.420366	2466.838223
702.755709	2461.343365
703.091002	2469.787298
703.426246	2460.561987
703.761440	2474.752835
704.096584	2465.678758
704.431679	2476.970942
704.766725	2466.460137
705.101721	2463.359827
705.436668	2473.139665
705.771565	2463.914354
706.106413	2463.611885
706.441212	2463.813531
706.775961	2463.082563
707.110661	2469.560446
707.445311	2467.922071
707.779913	2467.972483
708.114465	2473.139665
708.448967	2466.258490
708.783421	2472.534727
709.117825	2473.593369
709.452180	2464.947790
709.786485	2466.107256
710.120742	2472.282669
710.454949	2466.510548
710.789107	2471.602113
711.123216	2458.268262
711.457275	2470.593883
711.791286	2465.351083
712.125247	2467.518779
712.459159	2470.871146
712.793023	2469.409212
713.126837	2471.602113
713.460602	2475.055304
713.794318	2475.710654
714.127985	2470.946763
714.461602	2473.744604
714.795171	2471.854171
715.128691	2465.275465
715.462162	2473.240488
715.795584	2469.913327
716.128957	2467.115487
716.462281	2465.174642
716.795556	2466.535754
717.128782	2469.081537
717.461960	2471.375262
717.795088	2470.619088
718.128167	2476.265181
718.461198	2468.350569
718.794180	2469.005919
719.127113	2463.813531
719.459997	2458.293467
719.792833	2472.660756
720.125619	2469.434417
720.458357	2469.308388
720.791046	2470.871146
721.123686	2466.233285
721.456278	2465.628346
721.788821	2471.274438
722.121315	2471.954994
722.453761	2464.544498
722.786158	2471.375262
723.118506	2462.880917
723.450805	2469.131948
723.783056	2464.821762
724.115259	2464.065588
724.447412	2464.065588
724.779518	2478.584112
725.111574	2467.241515
725.443582	2465.804787
725.775542	2464.771350
726.107453	2470.971969
726.439315	2470.719912
726.771129	2468.627833
727.102895	2466.409725
727.434612	2467.065075
727.766281	2461.519806
728.097901	2467.972483
728.429473	2467.972483
728.760996	2470.669500
729.092471	2469.711681
729.423897	2472.358287
729.755276	2459.100052
730.086606	2469.005919
730.417887	2468.098512
730.749120	2464.922585
731.080305	2472.282669
731.411442	2469.837710
731.742530	2468.779067
732.073570	2468.048100
732.404562	2468.249746
732.735506	2461.771863
733.066401	2471.778554
733.397249	2461.444188
733.728048	2466.409725
734.058798	2466.208079
734.389501	2468.073306
734.720156	2468.073306
735.050762	2464.720938
735.381320	2460.083077
735.711831	2464.468881
736.042293	2464.897379
736.372707	2465.703963
736.703073	2472.988431
737.033391	2467.417956
737.363661	2462.351596
737.693883	2479.567137
738.024056	2468.829479
738.354182	2461.040896
738.684260	2458.091821
739.014290	2459.957048
739.344272	2473.593369
739.674207	2472.408698
740.004093	2463.410238
740.333931	2467.644808
740.663722	2465.124231
740.993464	2465.225054
741.323159	2469.535240
741.652806	2472.358287
741.982405	2470.467854
742.311956	2474.626806
742.641460	2463.536267
742.970915	2470.190590
743.300323	2463.788325
743.629683	2466.208079
743.958996	2464.216823
744.288260	2458.772377
744.617477	2460.461163
744.946647	2466.913840
745.275768	2463.813531
745.604842	2472.232258
745.933869	2465.477112
746.262847	2468.905096
746.591778	2469.106742
746.920662	2464.418469
747.249498	2468.728656
747.578286	2460.839250
747.907027	2466.006433
748.235720	2464.771350
748.564365	2465.199848
748.892963	2462.427213
749.221514	2463.964765
749.550017	2463.006946
749.878473	2463.359827
750.206881	2464.191617
750.535242	2462.906123
750.863555	2470.316619
751.191821	2468.779067
751.520039	2464.443675
751.848210	2462.906123
752.176334	2468.022894
752.504411	2462.603654
752.832440	2470.241002
753.160421	2470.392237
753.488356	2470.165385
753.816243	2469.610858
754.144082	2466.838223
754.471875	2456.730710
754.799620	2461.545012
755.127318	2469.182360
755.454969	2468.930302
755.782572	2464.393263
756.110129	2462.855712
756.437638	2467.090281
756.765100	2468.577421
757.092515	2473.618575
757.419882	2468.123717
757.747203	2465.678758
758.074477	2470.619088
758.401703	2463.712708
758.728882	2462.628860
759.056014	2469.661269
759.383099	2469.157154
759.710138	2467.065075
760.037129	2458.948817
760.364073	2462.906123
760.690970	2465.477112
761.017820	2472.207052
761.344623	2467.317133
761.671379	2462.275979
761.998088	2477.676704
762.324751	2468.980713
762.651366	2469.005919
762.977935	2462.477625
763.304456	2458.495113
763.630931	2468.779067
763.957359	2467.594396
764.283740	2469.736887
764.610074	2469.787298
764.936362	2464.645321
765.262602	2460.864456
765.588796	2465.552729
765.914943	2465.149437
766.241044	2472.988431
766.567097	2461.746658
766.893104	2466.737400
767.219064	2467.367544
767.544978	2471.274438
767.870845	2470.946763
768.196665	2462.402008
768.522438	2469.384006
768.848165	2478.911787
769.173846	2464.544498
769.499479	2465.275465
769.825066	2466.460137
770.150607	2466.712194
770.476101	2458.772377
770.801548	2470.543471
771.126949	2464.191617
771.452303	2465.275465
771.777611	2465.174642
772.102872	2471.954994
772.428087	2463.057358
772.753256	2468.300158
773.078378	2472.383492
773.403453	2464.594910
773.728482	2467.770837
774.053465	2471.551702
774.378401	2468.829479
774.703291	2460.990485
775.028135	2458.091821
775.352932	2462.528037
775.677683	2469.938533
776.002388	2463.662296
776.327046	2462.023921
776.651658	2460.007460
776.976224	2459.528550
777.300743	2467.947277
777.625216	2472.131435
777.949643	2470.266208
778.274024	2464.771350
778.598359	2463.561473
778.922647	2473.467340
779.246889	2465.477112
779.571086	2461.292954
779.895236	2456.907150
780.219339	2468.678244
780.543397	2467.720425
780.867409	2463.737913
781.191374	2471.097998
781.515294	2456.403035
781.839167	2473.618575
782.162995	2462.603654
782.486776	2469.762092
782.810511	2466.359313
783.134201	2468.073306
783.457844	2472.685962
783.781441	2463.813531
784.104993	2463.158181
784.428498	2467.216310
784.751958	2463.334621
785.075372	2469.610858
785.398739	2464.116000
785.722061	2466.082050
786.045337	2461.116513
786.368568	2470.568677
786.691752	2468.098512
787.014891	2463.838737
787.337983	2469.686475
787.661030	2468.627833
787.984031	2464.695733
788.306987	2464.368058
788.629897	2476.895325
788.952760	2467.493573
789.275579	2468.930302
789.598351	2468.300158
789.921078	2465.325877
790.243759	2464.947790
790.566395	2467.796042
790.888984	2467.065075
791.211529	2466.510548
791.534027	2463.485856
791.856480	2455.420010
792.178888	2464.972996
792.501249	2459.452933
792.823566	2459.150463
793.145836	2455.672067
793.468062	2459.578962
793.790241	2467.594396
794.112375	2470.871146
794.434464	2471.904583
794.756507	2471.350056
795.078505	2466.888635
795.400457	2466.359313
795.722364	2463.964765
796.044226	2460.158694
796.366042	2461.570217
796.687812	2463.233798
797.009538	2469.005919
797.331218	2470.316619
797.652852	2464.922585
797.974442	2474.122690
798.295986	2461.242542
798.617484	2464.292440
798.938938	2465.426700
799.260346	2464.846967
799.581709	2466.233285
799.903026	2466.132462
800.224299	2464.796556
800.545526	2466.762606
800.866708	2458.243056
801.187845	2467.670013
801.508936	2470.039356
801.829983	2466.611371
802.150984	2465.124231
802.471940	2460.133488
802.792851	2468.375775
803.113717	2465.653552
803.434538	2458.520319
803.755314	2468.879890
804.076045	2469.787298
804.396731	2463.485856
804.717372	2459.452933
805.037967	2471.753348
805.358518	2465.225054
805.679024	2470.341825
805.999485	2464.191617
806.319901	2455.016717
806.640272	2459.200875
806.960598	2462.502831
807.280879	2457.461677
807.601115	2462.427213
807.921306	2457.486883
808.241453	2464.771350
808.561554	2458.117027
808.881611	2458.419496
809.201623	2467.821248
809.521590	2461.217337
809.841513	2466.939046
810.161390	2464.040383
810.481223	2462.301185
810.801011	2470.114973
811.120755	2464.519292
811.440453	2462.528037
811.760107	2464.872173
812.079716	2470.014150
812.399281	2463.586679
812.718801	2467.342338
813.038276	2464.972996
813.357707	2470.140179
813.677093	2470.619088
813.996434	2458.999229
814.315731	2458.444702
814.634983	2457.461677
814.954191	2462.477625
815.273354	2461.746658
815.592473	2463.637090
815.911547	2466.056844
816.230577	2471.249233
816.549562	2463.132975
816.868502	2468.602627
817.187399	2466.082050
817.506250	2466.712194
817.825058	2460.788838
818.143821	2462.074333
818.462539	2457.638117
818.781213	2471.627319
819.099843	2465.225054
819.418429	2465.073819
819.736970	2470.871146
820.055466	2464.922585
820.373919	2464.720938
820.692327	2468.955508
821.010691	2457.587706
821.329011	2462.502831
821.647286	2461.494600
821.965517	2463.763119
822.283704	2465.401494
822.601847	2467.115487
822.919945	2466.182873
823.237999	2466.006433
823.556010	2470.367031
823.873976	2463.183387
824.191897	2466.964252
824.509775	2464.569704
824.827609	2467.392750
825.145398	2464.191617
825.463144	2472.988431
825.780845	2469.056331
826.098502	2464.292440
826.416116	2470.493060
826.733685	2463.611885
827.051210	2462.502831
827.368692	2463.813531
827.686129	2474.904069
828.003522	2461.671040
828.320872	2460.133488
828.638177	2468.451392
828.955439	2469.888121
829.272656	2464.141206
829.589830	2462.376802
829.906960	2466.283696
830.224046	2455.999742
830.541088	2467.014663
830.858086	2456.478652
831.175041	2467.493573
831.491952	2463.107769
831.808819	2469.131948
832.125642	2473.946250
832.442421	2462.654065
832.759157	2463.410238
833.075849	2458.167438
833.392497	2468.325363
833.709101	2467.342338
834.025662	2467.670013
834.342179	2465.804787
834.658653	2460.234312
834.975083	2466.611371
835.291469	2472.938019
835.607811	2467.796042
835.924110	2463.611885
836.240366	2463.334621
836.556578	2466.611371
836.872746	2464.191617
837.188871	2462.427213
837.504952	2466.334108
837.820990	2462.427213
838.136984	2455.495627
838.452935	2474.021867
838.768842	2469.106742
839.084706	2469.257977
839.400526	2467.392750
839.716303	2463.586679
840.032037	2455.898919
840.347727	2472.055817
840.663373	2454.638631
840.978977	2470.140179
841.294537	2472.837196
841.610054	2466.939046
841.925527	2462.855712
842.240957	2464.443675
842.556344	2471.123204
842.871687	2460.814044
843.186987	2467.014663
843.502244	2460.763633
843.817458	2466.712194
844.132629	2462.754888
844.447756	2453.050667
844.762840	2467.443162
845.077881	2462.023921
845.392879	2473.013637
845.707833	2465.300671
846.022745	2468.400981
846.337613	2468.829479
846.652438	2459.856225
846.967221	2463.511062
847.281960	2467.720425
847.596656	2460.662810
847.911309	2470.341825
848.225919	2462.023921
848.540485	2478.130408
848.855009	2467.821248
849.169490	2464.695733
849.483928	2460.234312
849.798323	2458.847994
850.112675	2454.033692
850.426984	2465.149437
850.741251	2467.443162
851.055474	2460.561987
851.369654	2461.998715
851.683792	2468.980713
851.997887	2460.763633
852.311938	2458.066615
852.625947	2463.737913
852.939914	2459.200875
853.253837	2464.116000
853.567718	2463.107769
853.881555	2467.039869
854.195350	2469.005919
854.509103	2464.972996
854.822812	2464.494087
855.136479	2466.384519
855.450103	2461.166925
855.763685	2464.972996
856.077224	2458.469908
856.390720	2458.923612
856.704173	2460.284723
857.017584	2455.470421
857.330953	2472.660756
857.644278	2464.393263
857.957561	2463.637090
858.270802	2460.158694
858.584000	2458.797583
858.897155	2471.728142
859.210268	2462.351596
859.523339	2459.427727
859.836367	2460.940073
860.149352	2463.662296
860.462295	2467.266721
860.775195	2465.502317
861.088054	2460.637604
861.400869	2455.495627
861.713642	2469.585652
862.026373	2468.501804
862.339062	2470.946763
862.651708	2453.605194
862.964312	2465.225054
863.276873	2465.199848
863.589392	2461.696246
863.901869	2466.208079
864.214303	2459.604167
864.526696	2465.351083
864.839045	2471.980200
865.151353	2465.779581
865.463619	2465.930815
865.775842	2461.217337
866.088023	2465.401494
866.400162	2458.495113
866.712258	2462.855712
867.024313	2466.283696
867.336325	2469.182360
867.648296	2461.973510
867.960224	2465.376288
868.272110	2460.259517
868.583954	2460.637604
868.895755	2456.604681
869.207515	2469.535240
869.519233	2460.435958
869.830909	2455.495627
870.142542	2468.199335
870.454134	2457.537294
870.765684	2468.980713
871.077191	2462.704477
871.388657	2457.335648
871.700081	2461.116513
872.011463	2456.781121
872.322803	2458.293467
872.634101	2467.014663
872.945357	2461.822275
873.256571	2465.502317
873.567744	2463.586679
873.878874	2468.426187
874.189963	2464.418469
874.501010	2465.653552
874.812015	2458.066615
875.122979	2463.410238
875.433900	2454.563013
875.744780	2449.547065
876.055618	2464.821762
876.366415	2470.114973
876.677169	2463.208592
876.987882	2465.552729
877.298554	2457.688529
877.609183	2462.477625
877.919771	2453.832046
878.230317	2462.654065
878.540822	2462.956535
878.851285	2463.637090
879.161707	2461.948304
879.472087	2470.871146
879.782425	2466.636577
880.092722	2456.302212
880.402977	2457.814558
880.713191	2470.568677
881.023363	2452.344906
881.333494	2457.411265
881.643583	2464.846967
881.953631	2462.200362
882.263637	2466.082050
882.573602	2465.225054
882.883526	2462.402008
883.193408	2460.259517
883.503248	2462.704477
883.813048	2448.059925
884.122806	2461.116513
884.432522	2463.183387
884.742197	2466.661783
885.051831	2461.116513
885.361424	2462.780094
885.670975	2460.259517
885.980485	2460.083077
886.289954	2458.318673
886.599382	2467.518779
886.908768	2464.771350
887.218113	2458.570731
887.527417	2458.570731
887.836680	2453.655606
888.145901	2465.880404
888.455082	2455.067129
888.764221	2461.015690
889.073319	2461.494600
889.382376	2459.301698
889.691392	2466.535754
890.000366	2464.947790
890.309300	2468.602627
890.618193	2469.232771
890.927044	2459.578962
891.235855	2460.561987
891.544625	2462.906123
891.853353	2460.637604
892.162041	2467.644808
892.470687	2463.107769
892.779293	2460.360340
893.087858	2464.393263
893.396381	2465.981227
893.704864	2467.191104
894.013306	2458.419496
894.321707	2466.258490
894.630068	2458.394290
894.938387	2460.435958
895.246665	2459.251287
895.554903	2455.798096
895.863100	2461.292954
896.171256	2460.284723
896.479371	2469.081537
896.787446	2463.284210
897.095480	2453.101079
897.403473	2467.720425
897.711425	2471.249233
898.019336	2462.477625
898.327207	2451.437498
898.635038	2467.191104
898.942827	2456.024948
899.250576	2470.770323
899.558284	2457.587706
899.865952	2461.923098
900.173579	2459.881431
900.481165	2464.393263
900.788711	2461.570217
901.096216	2455.067129
901.403681	2457.839763
901.711105	2468.753862
902.018489	2463.611885
902.325832	2458.847994
902.633135	2461.948304
902.940397	2454.815071
903.247619	2453.756429
903.554800	2472.207052
903.861941	2468.022894
904.169041	2470.165385
904.476101	2458.570731
904.783121	2462.049127
905.090100	2465.376288
905.397039	2459.957048
905.703938	2464.216823
906.010796	2461.620629
906.317614	2470.140179
906.624391	2466.132462
906.931129	2461.192131
907.237826	2466.787812
907.544483	2458.923612
907.851099	2456.579475
908.157675	2465.174642
908.464211	2461.015690
908.770707	2462.679271
909.077163	2463.057358
909.383578	2466.636577
909.689954	2470.291413
909.996289	2463.763119
910.302584	2463.838737
910.608839	2454.638631
910.915054	2459.301698
911.221229	2461.318160
911.527363	2468.829479
911.833458	2465.779581
912.139513	2469.787298
912.445527	2460.083077
912.751502	2458.495113
913.057436	2467.140692
913.363331	2461.847481
913.669186	2459.805813
913.975000	2463.284210
914.280775	2462.754888
914.586510	2463.334621
914.892205	2463.712708
915.197859	2458.948817
915.503475	2465.527523
915.809050	2465.325877
916.114585	2458.192644
916.420081	2462.452419
916.725536	2467.241515
917.030952	2457.486883
917.336328	2459.352110
917.641665	2451.840790
917.946961	2455.495627
918.252218	2454.411779
918.557435	2458.394290
918.862612	2462.603654
919.167750	2459.856225
919.472848	2466.107256
919.777906	2458.847994
920.082925	2461.292954
920.387904	2459.931842
920.692843	2462.578448
920.997743	2460.788838
921.302603	2461.998715
921.607423	2461.066102
921.912204	2462.679271
922.216946	2460.763633
922.521647	2468.400981
922.826310	2455.142746
923.130932	2457.713735
923.435516	2460.284723
923.740059	2468.854685
924.044564	2460.158694
924.349028	2461.066102
924.653454	2460.763633
924.957840	2469.963738
925.262186	2457.411265
925.566493	2465.829992
925.870761	2461.797069
926.174989	2466.535754
926.479178	2464.191617
926.783328	2458.495113
927.087438	2466.308902
927.391509	2467.796042
927.695541	2469.762092
927.999533	2460.083077
928.303486	2469.056331
928.607400	2451.336675
928.911275	2471.249233
929.215110	2464.695733
929.518906	2463.737913
929.822663	2458.847994
930.126381	2459.074846
930.430060	2463.763119
930.733699	2464.746144
931.037299	2455.621656
931.340861	2466.308902
931.644383	2455.420010
931.947866	2463.485856
932.251309	2452.344906
932.554714	2465.275465
932.858080	2465.930815
933.161407	2447.001283
933.464694	2461.519806
933.767943	2461.570217
934.071153	2462.628860
934.374323	2457.990998
934.677455	2467.619602
934.980548	2463.410238
935.283602	2462.225567
935.586617	2456.327417
935.889593	2460.057871
936.192530	2460.032665
936.495428	2458.016204
936.798287	2455.520833
937.101108	2465.905610
937.403890	2463.611885
937.706632	2460.511575
938.009336	2454.411779
938.312002	2455.344392
938.614628	2452.773404
938.917216	2455.243569
939.219765	2465.250260
939.522275	2459.755402
939.824747	2460.990485
940.127179	2468.073306
940.429573	2464.594910
940.731929	2452.722992
941.034246	2471.576908
941.336524	2460.788838
941.638763	2453.857252
941.940964	2470.064562
942.243126	2457.814558
942.545250	2466.359313
942.847335	2454.462190
943.149381	2455.470421
943.451389	2458.117027
943.753359	2464.645321
944.055290	2461.393777
944.357182	2456.150977
944.659036	2464.317646
944.960851	2464.418469
945.262628	2463.233798
945.564367	2465.804787
945.866067	2459.049640
946.167729	2460.763633
946.469352	2459.578962
946.770937	2463.359827
947.072484	2464.116000
947.373992	2459.578962
947.675462	2469.686475
947.976893	2455.117540
948.278286	2469.988944
948.579641	2452.975050
948.880958	2457.209619
949.182236	2463.107769
949.483476	2458.394290
949.784678	2453.756429
950.085841	2458.696760
950.386967	2454.739454
950.688054	2466.913840
950.989103	2460.889662
951.290114	2464.695733
951.591087	2458.923612
951.892021	2465.804787
952.192917	2456.781121
952.493776	2468.829479
952.794596	2462.452419
953.095378	2460.108283
953.396122	2462.528037
953.696828	2468.022894
953.997496	2459.629373
954.298126	2459.150463
954.598718	2460.763633
954.899272	2459.049640
955.199788	2463.889148
955.500266	2459.654579
955.800706	2453.252313
956.101108	2456.529063
956.401472	2456.881944
956.701798	2460.057871
957.002087	2465.250260
957.302337	2457.965792
957.602550	2459.150463
957.902724	2468.476598
958.202861	2461.267748
958.502960	2455.924125
958.803022	2455.394804
959.103045	2460.914867
959.403031	2457.789352
959.702979	2453.428754
960.002889	2467.241515
960.302762	2454.966306
960.602596	2460.309929
960.902393	2464.821762
961.202153	2453.075873
961.501875	2468.476598
961.801559	2450.756942
962.101205	2458.016204
962.400814	2454.638631
962.700385	2461.343365
962.999918	2460.335135
963.299414	2455.344392
963.598873	2460.284723
963.898293	2461.519806
964.197677	2451.714762
964.497022	2455.142746
964.796331	2455.016717
965.095601	2458.621142
965.394835	2456.629887
965.694030	2455.697273
965.993189	2454.789865
966.292309	2453.731223
966.591393	2469.787298
966.890439	2458.721965
967.189447	2460.914867
967.488419	2455.646862
967.787353	2458.495113
968.086249	2456.503858
968.385108	2465.073819
968.683930	2459.982254
968.982714	2461.519806
969.281462	2456.352623
969.580172	2457.764146
969.878844	2461.393777
970.177480	2453.882458
970.476078	2467.266721
970.774639	2460.183900
971.073162	2463.813531
971.371649	2457.512088
971.670098	2461.242542
971.968510	2460.713221
972.266885	2463.082563
972.565223	2458.923612
972.863524	2458.495113
973.161788	2462.729683
973.460014	2451.613938
973.758204	2468.627833
974.056356	2458.747171
974.354471	2459.251287
974.652550	2468.930302
974.950591	2457.764146
975.248595	2461.872687
975.546563	2465.250260
975.844493	2463.158181
976.142386	2459.478138
976.440243	2453.101079
976.738062	2459.175669
977.035845	2445.942640
977.333590	2451.059412
977.631299	2459.024435
977.928971	2460.612398
978.226606	2457.461677
978.524204	2458.948817
978.821765	2450.580502
979.119290	2463.511062
979.416777	2464.771350
979.714228	2457.915381
980.011642	2459.780608
980.309020	2458.117027
980.606360	2461.696246
980.903664	2459.301698
981.200931	2460.335135
981.498162	2458.444702
981.795356	2462.654065
982.092513	2461.444188
982.389633	2455.898919
982.686717	2463.586679
982.983764	2459.881431
983.280775	2457.058385
983.577749	2461.570217
983.874686	2457.285237
984.171587	2463.410238
984.468451	2462.200362
984.765279	2458.974023
985.062070	2458.444702
985.358824	2463.611885
985.655543	2466.586165
985.952224	2457.033179
986.248869	2460.007460
986.545478	2465.678758
986.842050	2462.099538
987.138586	2451.563527
987.435086	2454.411779
987.731549	2465.023408
988.027975	2455.974537
988.324366	2456.327417
988.620719	2452.017231
988.917037	2462.023921
989.213318	2454.865483
989.509563	2461.998715
989.805772	2453.277519
990.101944	2457.864969
990.398080	2454.361367
990.694180	2453.075873
990.990244	2448.160748
991.286271	2462.628860
991.582262	2465.451906
991.878217	2457.159208
992.174136	2458.117027
992.470019	2460.234312
992.765865	2460.309929
993.061676	2456.755915
993.357450	2455.621656
993.653188	2456.478652
993.948890	2463.586679
994.244556	2458.621142
994.540186	2457.688529
994.835780	2460.990485
995.131337	2455.949331
995.426859	2462.805300
995.722345	2455.546038
996.017795	2451.361881
996.313208	2456.377829
996.608586	2459.452933
996.903928	2458.545525
997.199234	2467.443162
997.494504	2460.713221
997.789738	2447.328958
998.084936	2465.351083
998.380099	2460.259517
998.675225	2465.199848
998.970316	2451.487910
999.265371	2468.577421
999.560390	2467.342338
999.855373	2461.015690
1000.150320	2460.435958
1000.445232	2465.703963
1000.740108	2460.209106
1001.034948	2461.948304
1001.329752	2467.670013
1001.624521	2465.477112
1001.919254	2456.831533
1002.213951	2461.343365
1002.508613	2462.049127
1002.803239	2454.815071
1003.097829	2460.007460
1003.392384	2458.595937
1003.686903	2456.428240
1003.981386	2457.864969
1004.275834	2462.225567
1004.570246	2458.696760
1004.864623	2460.284723
1005.158964	2464.746144
1005.453270	2464.720938
1005.747540	2458.268262
1006.041775	2462.023921
1006.335974	2456.503858
1006.630138	2448.211160
1006.924266	2454.966306
1007.218359	2454.386573
1007.512416	2452.470935
1007.806438	2453.327931
1008.100425	2456.075360
1008.394376	2450.933383
1008.688292	2460.158694
1008.982172	2454.537808
1009.276017	2463.813531
1009.569827	2450.378856
1009.863602	2453.907663
1010.157341	2452.924638
1010.451045	2472.055817
1010.744714	2455.394804
1011.038347	2458.066615
1011.331945	2449.950358
1011.625508	2455.243569
1011.919036	2457.083590
1012.212528	2460.486369
1012.505986	2467.443162
1012.799408	2453.126285
1013.092795	2453.504371
1013.386147	2453.579988
1013.679464	2463.006946
1013.972745	2454.361367
1014.265992	2452.193671
1014.559204	2463.334621
1014.852380	2450.126798
1015.145521	2468.274952
1015.438628	2462.427213
1015.731699	2454.966306
1016.024736	2457.814558
1016.317737	2456.478652
1016.610703	2449.042950
1016.903635	2461.847481
1017.196531	2455.722479
1017.489393	2450.656119
1017.782219	2457.638117
1018.075011	2458.621142
1018.367768	2458.444702
1018.660490	2463.611885
1018.953177	2463.611885
1019.245829	2463.611885
