Dividing Wavelength (nm)	Counts (n)	Slit_number_27_of_a_total_of_40	
326.493990	2036.273273
326.888308	2036.273273
327.282561	2036.273273
327.676750	2018.225942
328.070874	2018.225942
328.464933	2023.191479
328.858929	2038.869467
329.252859	2037.886442
329.646726	2057.874617
330.040528	2072.393140
330.434265	2094.170925
330.827938	2111.688935
331.221547	2129.660648
331.615091	2154.563948
332.008571	2169.788233
332.401986	2190.280523
332.795338	2211.402958
333.188625	2230.382902
333.581847	2249.463669
333.975006	2270.081988
334.368100	2283.441046
334.761129	2304.235806
335.154095	2320.846408
335.546996	2335.364931
335.939833	2342.220900
336.332606	2361.780577
336.725315	2378.920500
337.117960	2385.045502
337.510540	2391.901471
337.903056	2404.832031
338.295508	2400.194169
338.687896	2415.620100
339.080220	2425.828437
339.472480	2420.232756
339.864676	2434.524427
340.256807	2428.525454
340.648875	2434.650456
341.040879	2435.003337
341.432818	2435.608275
341.824694	2444.858792
342.216506	2439.817638
342.608253	2440.019285
342.999937	2433.793460
343.391557	2432.835640
343.783113	2437.549119
344.174605	2434.474015
344.566033	2428.096956
344.957397	2424.240473
345.348697	2414.813515
345.739934	2424.668971
346.131106	2421.039340
346.522215	2422.728127
346.913260	2422.501275
347.304241	2417.863413
347.695159	2415.393248
348.086012	2425.929260
348.476802	2410.881415
348.867528	2415.141190
349.258191	2398.732235
349.648789	2418.569175
350.039324	2400.572256
350.429796	2409.394275
350.820203	2412.721437
351.210548	2411.057856
351.600828	2408.890160
351.991045	2408.738925
352.381198	2414.158165
352.771288	2401.580487
353.161314	2400.244581
353.551276	2401.756927
353.941175	2392.481204
354.331010	2409.469892
354.720782	2408.234810
355.110490	2406.495612
355.500135	2405.789850
355.889717	2410.326888
356.279235	2407.730694
356.668689	2403.672565
357.058080	2412.469379
357.447408	2412.444173
357.836672	2402.336660
358.225873	2407.579460
358.615010	2408.814542
359.004084	2412.368556
359.393095	2421.114958
359.782043	2418.090265
360.170927	2412.192115
360.559748	2414.712692
360.948505	2422.551687
361.337199	2411.940058
361.725830	2415.191602
362.114398	2412.141704
362.502903	2419.274937
362.891344	2411.788823
363.279722	2423.811975
363.668037	2410.276477
364.056289	2417.787796
364.444478	2422.148394
364.832603	2409.343863
365.220665	2424.946235
365.608665	2416.956006
365.996601	2415.645306
366.384474	2420.888106
366.772284	2419.199319
367.160031	2421.619073
367.547715	2417.939031
367.935336	2426.080494
368.322893	2424.240473
368.710388	2418.871644
369.097820	2418.191088
369.485189	2415.544483
369.872495	2422.022365
370.259738	2419.930287
370.646918	2422.450863
371.034035	2421.644279
371.421090	2429.810948
371.808081	2418.115471
372.195010	2423.963210
372.581875	2426.559404
372.968678	2427.315577
373.355418	2429.206010
373.742096	2425.601585
374.128710	2422.072777
374.515262	2427.315577
374.901751	2426.433375
375.288177	2432.331525
375.674540	2427.794487
376.060841	2440.498194
376.447079	2440.346960
376.833254	2442.741508
377.219367	2452.244083
377.605417	2454.563013
377.991404	2457.537294
378.377329	2467.518779
378.763191	2469.888121
379.148991	2491.489465
379.534727	2507.243071
379.920402	2520.224042
380.306013	2534.087215
380.691563	2549.966850
381.077049	2571.064079
381.462474	2600.504417
381.847835	2627.348562
382.233134	2656.889723
382.618371	2683.658250
383.003545	2717.307952
383.388657	2757.284302
383.773706	2795.647483
384.158693	2831.540498
384.543618	2874.768392
384.928480	2911.165523
385.313280	2959.132102
385.698017	3002.057527
386.082692	3060.232442
386.467305	3089.193871
386.851856	3144.117242
387.236344	3214.542162
387.620770	3238.512848
388.005133	3288.848769
388.389435	3349.115763
388.773674	3387.604973
389.157851	3447.922379
389.541965	3511.592152
389.926018	3514.919313
390.310008	3588.041250
390.693936	3638.881287
391.077802	3689.746529
391.461606	3736.326790
391.845348	3776.051083
392.229027	3813.053152
392.612645	3893.182292
392.996200	3926.630348
393.379694	3988.888598
393.763125	4052.684400
394.146494	4072.647369
394.529801	4098.659723
394.913047	4187.636088
395.296230	4164.749250
395.679351	4172.008512
396.062410	4229.679312
396.445408	4170.546577
396.828343	4185.191129
397.211217	4203.742575
397.594028	4126.612921
397.976778	4152.398423
398.359466	4153.885563
398.742092	4111.691106
399.124656	4098.206019
399.507158	4114.539358
399.889598	4071.412287
400.271977	4072.849015
400.654294	4026.924104
401.036549	4013.186960
401.418742	3958.213177
401.800874	3967.640135
402.182944	3930.386008
402.564952	3938.477060
402.946898	3835.788756
403.328783	3782.579377
403.710606	3757.071138
404.092367	3731.613312
404.474067	3719.716188
404.855705	3617.884881
405.237282	3534.327756
405.618797	3532.311294
406.000250	3498.838033
406.381642	3477.917244
406.762972	3394.511354
407.144240	3308.458858
407.525447	3265.356992
407.906593	3201.561190
408.287677	3169.171777
408.668700	3115.231431
409.049661	3068.096642
409.430560	3011.182015
409.811399	2973.373362
410.192176	2941.563681
410.572891	2892.034344
410.953545	2875.751417
411.334138	2816.568271
411.714669	2799.604788
412.095139	2744.933475
412.475547	2725.071329
412.855894	2687.842408
413.236180	2676.197342
413.616405	2641.640233
413.996568	2632.062040
414.376670	2607.259563
414.756711	2585.154104
415.136691	2573.786302
415.516609	2562.846998
415.896466	2550.395348
416.276262	2538.750283
416.655997	2535.045035
417.035670	2524.105731
417.415283	2529.928263
417.794834	2514.376304
418.174324	2504.596465
418.553753	2501.823831
418.933121	2502.706033
419.312428	2497.564056
419.691674	2492.875783
420.070859	2492.825371
420.449983	2488.464773
420.829045	2486.700369
421.208047	2477.727115
421.586988	2479.819194
421.965867	2480.348515
422.344686	2478.105202
422.723444	2477.046560
423.102141	2484.759525
423.480777	2475.559419
423.859352	2466.586165
424.237866	2477.399440
424.616319	2465.073819
424.994712	2470.089767
425.373044	2470.190590
425.751314	2466.132462
426.129524	2448.488423
426.507673	2462.805300
426.885762	2462.427213
427.263789	2461.973510
427.641756	2472.862402
428.019662	2466.208079
428.397508	2463.158181
428.775292	2462.981740
429.153016	2466.006433
429.530679	2463.435444
429.908282	2458.797583
430.285824	2460.940073
430.663305	2467.468367
431.040726	2467.997688
431.418086	2459.704990
431.795385	2459.957048
432.172624	2459.755402
432.549802	2466.586165
432.926920	2456.352623
433.303977	2469.535240
433.680974	2463.763119
434.057910	2466.031638
434.434786	2463.637090
434.811601	2464.443675
435.188355	2458.898406
435.565050	2458.797583
435.941683	2458.142233
436.318257	2467.745631
436.694770	2461.519806
437.071222	2468.955508
437.447614	2460.486369
437.823946	2461.015690
438.200218	2463.006946
438.576429	2461.570217
438.952580	2461.242542
439.328670	2458.444702
439.704700	2457.990998
440.080670	2462.452419
440.456580	2452.395317
440.832429	2464.090794
441.208218	2464.746144
441.583947	2468.249746
441.959616	2460.385546
442.335224	2464.922585
442.710773	2464.720938
443.086261	2470.241002
443.461689	2464.897379
443.837057	2471.123204
444.212365	2462.351596
444.587612	2460.763633
444.962800	2454.134515
445.337927	2463.939560
445.712995	2456.201388
446.088002	2463.763119
446.462949	2460.083077
446.837837	2468.980713
447.212664	2465.401494
447.587431	2473.769810
447.962139	2465.477112
448.336786	2466.485342
448.711374	2467.846454
449.085901	2469.560446
449.460369	2472.559933
449.834776	2468.829479
450.209124	2469.636063
450.583412	2464.443675
450.957640	2468.753862
451.331808	2479.920017
451.705917	2464.393263
452.079965	2472.333081
452.453954	2460.914867
452.827883	2465.124231
453.201752	2463.057358
453.575562	2468.476598
453.949311	2472.106229
454.323001	2472.081023
454.696632	2464.292440
455.070202	2470.997175
455.443713	2470.543471
455.817164	2471.501290
456.190556	2470.946763
456.563888	2472.055817
456.937160	2472.862402
457.310373	2479.743577
457.683526	2467.216310
458.056619	2471.249233
458.429653	2470.039356
458.802628	2470.064562
459.175542	2471.954994
459.548398	2474.147896
459.921194	2474.752835
460.293930	2476.618062
460.666607	2477.323823
461.039224	2474.223513
461.411782	2474.349542
461.784280	2476.366004
462.156719	2466.964252
462.529099	2468.653038
462.901419	2472.938019
463.273680	2473.542958
463.645882	2471.803760
464.018024	2467.695219
464.390106	2471.224027
464.762130	2470.971969
465.134094	2484.381438
465.505999	2474.475571
465.877845	2487.607777
466.249631	2495.522388
466.621358	2481.129894
466.993026	2485.414875
467.364634	2487.154073
467.736184	2478.105202
468.107674	2485.288846
468.479105	2475.987917
468.850477	2481.860862
469.221790	2474.929275
469.593043	2469.862915
469.964238	2471.123204
470.335373	2468.854685
470.706449	2480.449338
471.077467	2471.526496
471.448425	2486.927221
471.819324	2479.516725
472.190164	2491.086173
472.560945	2475.962712
472.931667	2469.484829
473.302330	2472.887608
473.672934	2477.298617
474.043479	2475.509008
474.413965	2478.886581
474.784393	2472.685962
475.154761	2473.921044
475.525070	2479.189050
475.895321	2484.129381
476.265513	2488.792448
476.635645	2478.760552
477.005719	2472.912813
477.375734	2480.777013
477.745691	2476.189563
478.115588	2483.826912
478.485427	2476.239975
478.855207	2489.120123
479.224928	2486.045019
479.594591	2479.718371
479.964194	2479.869606
480.333739	2480.046046
480.703226	2490.506440
481.072653	2490.027531
481.442022	2487.809423
481.811333	2491.413848
482.180584	2483.650471
482.549777	2493.606750
482.918912	2487.028044
483.287988	2487.834629
483.657005	2477.273412
484.025964	2486.750781
484.394864	2481.558392
484.763706	2483.751294
485.132489	2478.458083
485.501213	2491.086173
485.869879	2484.734319
486.238487	2489.246152
486.607036	2480.197281
486.975527	2481.583598
487.343959	2485.188023
487.712333	2482.717858
488.080648	2484.406644
488.448905	2475.609831
488.817104	2476.214769
489.185244	2485.969402
489.553326	2485.692138
489.921350	2490.330000
490.289315	2487.431337
490.657222	2480.600573
491.025070	2482.314565
491.392861	2489.220946
491.760593	2492.800165
492.128267	2485.112406
492.495883	2487.078456
492.863440	2492.270844
493.230939	2491.212202
493.598380	2483.978146
493.965763	2479.466313
494.333088	2478.886581
494.700354	2480.751808
495.067563	2483.852117
495.434713	2472.963225
495.801805	2482.768269
496.168839	2478.684935
496.535815	2477.777527
496.902733	2481.860862
497.269593	2482.112919
497.636395	2484.784731
498.003139	2486.145842
498.369825	2478.130408
498.736453	2477.172588
499.103023	2477.273412
499.469535	2481.432363
499.835989	2480.953454
500.202385	2483.398413
500.568723	2471.400467
500.935003	2485.868579
501.301226	2473.845427
501.667390	2480.827425
502.033497	2483.423619
502.399546	2479.163844
502.765537	2478.735346
503.131470	2481.255923
503.497345	2488.187510
503.863163	2483.423619
504.228923	2478.306848
504.594625	2488.691625
504.960269	2475.357773
505.325856	2482.768269
505.691385	2479.189050
506.056856	2485.188023
506.422270	2482.818681
506.787625	2490.632469
507.152924	2482.869092
507.518164	2475.433390
507.883347	2480.398927
508.248472	2468.325363
508.613540	2482.869092
508.978550	2480.172075
509.343503	2474.021867
509.708398	2480.398927
510.073236	2479.970429
510.438016	2484.457056
510.802738	2485.969402
511.167403	2473.946250
511.532010	2484.078969
511.896561	2473.795015
512.261053	2484.255410
512.625488	2484.633496
512.989866	2471.526496
513.354186	2483.196767
513.718449	2478.004379
514.082655	2480.701396
514.446803	2480.348515
514.810894	2469.308388
515.174927	2483.423619
515.538904	2479.466313
515.902822	2476.517238
516.266684	2482.339771
516.630488	2486.019813
516.994235	2468.678244
517.357925	2471.576908
517.721558	2483.020327
518.085133	2477.626292
518.448651	2479.793988
518.812112	2472.005406
519.175516	2480.726602
519.538863	2477.147383
519.902152	2479.063021
520.265385	2478.206025
520.628560	2482.717858
520.991678	2473.542958
521.354739	2474.198308
521.717743	2480.524956
522.080690	2483.675677
522.443580	2478.054790
522.806413	2476.088740
523.169189	2472.786785
523.531908	2473.215283
523.894569	2491.237408
524.257174	2481.785244
524.619722	2478.634523
524.982213	2485.263640
525.344647	2476.592856
525.707025	2482.339771
526.069345	2471.148410
526.431608	2472.988431
526.793815	2479.920017
527.155964	2481.281129
527.518057	2471.047587
527.880093	2475.357773
528.242072	2484.028558
528.603995	2469.081537
528.965860	2480.121663
529.327669	2479.516725
529.689421	2475.987917
530.051117	2477.273412
530.412755	2481.129894
530.774337	2485.137612
531.135862	2479.844400
531.497331	2480.751808
531.858743	2478.407671
532.220098	2484.457056
532.581396	2485.061994
532.942638	2475.181333
533.303824	2482.012096
533.664953	2480.877837
534.026025	2472.786785
534.387040	2471.097998
534.747999	2472.081023
535.108902	2478.130408
535.469748	2479.113433
535.830537	2467.317133
536.191270	2474.828452
536.551947	2475.609831
536.912567	2470.442648
537.273131	2469.535240
537.633638	2472.333081
537.994089	2474.324337
538.354483	2471.778554
538.714821	2469.535240
539.075103	2478.886581
539.435328	2483.600060
539.795497	2476.794502
540.155609	2482.037302
540.515665	2473.618575
540.875665	2482.213742
541.235609	2475.635037
541.595496	2480.247692
541.955328	2473.013637
542.315102	2478.609317
542.674821	2472.509521
543.034483	2473.240488
543.394090	2469.862915
543.753640	2475.382979
544.113134	2478.609317
544.472571	2474.929275
544.831953	2476.668473
545.191278	2479.945223
545.550548	2484.078969
545.909761	2479.642754
546.268918	2474.727629
546.628019	2477.248206
546.987064	2478.458083
547.346053	2472.660756
547.704986	2478.735346
548.063863	2471.450879
548.422684	2474.147896
548.781449	2473.820221
549.140158	2477.626292
549.498811	2467.821248
549.857408	2472.660756
550.215949	2477.575881
550.574434	2477.550675
550.932864	2471.249233
551.291237	2475.735860
551.649555	2476.920531
552.007817	2472.207052
552.366022	2479.667960
552.724173	2471.047587
553.082267	2470.291413
553.440305	2479.567137
553.798288	2473.240488
554.156215	2473.316106
554.514086	2476.693679
554.871902	2476.340798
555.229661	2468.249746
555.587365	2469.081537
555.945014	2470.518265
556.302606	2473.719398
556.660143	2475.685448
557.017625	2484.053763
557.375050	2475.786271
557.732421	2477.979173
558.089735	2473.694192
558.446994	2479.390696
558.804197	2478.684935
559.161345	2471.954994
559.518437	2476.945737
559.875474	2472.938019
560.232455	2470.770323
560.589381	2484.557879
560.946251	2467.846454
561.303065	2468.653038
561.659825	2477.298617
562.016528	2482.415388
562.373177	2476.870119
562.729770	2474.828452
563.086307	2479.667960
563.442789	2476.920531
563.799216	2472.307875
564.155587	2479.718371
564.511904	2477.878350
564.868164	2468.678244
565.224370	2470.770323
565.580520	2473.467340
565.936615	2472.660756
566.292654	2473.870633
566.648638	2477.525469
567.004567	2488.590802
567.360441	2481.029071
567.716260	2473.290900
568.072023	2473.467340
568.427732	2473.795015
568.783385	2483.776500
569.138982	2473.139665
569.494525	2472.484315
569.850013	2472.887608
570.205445	2477.122177
570.560823	2475.458596
570.916145	2477.248206
571.271412	2470.568677
571.626625	2473.996662
571.981782	2475.861888
572.336884	2480.197281
572.691931	2474.601600
573.046923	2478.962198
573.401860	2472.761579
573.756743	2473.795015
574.111570	2473.013637
574.466342	2474.626806
574.821059	2473.895838
575.175722	2476.970942
575.530330	2477.021354
575.884882	2468.501804
576.239380	2474.576394
576.593823	2469.812504
576.948211	2463.032152
577.302544	2483.726088
577.656823	2464.519292
578.011047	2471.476085
578.365216	2475.004892
578.719330	2475.080510
579.073389	2476.970942
579.427394	2474.853658
579.781344	2473.013637
580.135239	2477.827938
580.489080	2469.056331
580.842866	2475.887094
581.196597	2479.214256
581.550273	2474.399954
581.903895	2469.762092
582.257463	2468.552215
582.610975	2474.047073
582.964434	2460.814044
583.317837	2474.626806
583.671186	2471.022381
584.024481	2470.089767
584.377721	2470.619088
584.730906	2478.962198
585.084037	2468.476598
585.437113	2465.225054
585.790135	2473.164871
586.143103	2477.727115
586.496016	2472.912813
586.848874	2472.534727
587.201679	2484.935965
587.554428	2476.567650
587.907124	2481.760038
588.259765	2472.938019
588.612352	2473.240488
588.964884	2484.658702
589.317362	2470.014150
589.669786	2473.366517
590.022155	2474.173102
590.374470	2478.180819
590.726731	2471.854171
591.078937	2472.559933
591.431090	2468.400981
591.783188	2482.264154
592.135232	2476.996148
592.487222	2477.550675
592.839157	2472.282669
593.191038	2465.678758
593.542866	2470.719912
593.894639	2469.484829
594.246358	2469.434417
594.598022	2475.433390
594.949633	2479.390696
595.301190	2467.367544
595.652692	2474.349542
596.004141	2469.257977
596.355535	2471.224027
596.706876	2480.323310
597.058162	2462.200362
597.409395	2481.381952
597.760573	2470.568677
598.111698	2475.710654
598.462768	2469.157154
598.813785	2471.123204
599.164748	2468.602627
599.515657	2477.399440
599.866511	2474.450365
600.217312	2463.737913
600.568060	2478.987404
600.918753	2466.107256
601.269392	2476.794502
601.619978	2475.231744
601.970510	2471.249233
602.320988	2477.651498
602.671412	2464.947790
603.021783	2475.559419
603.372100	2477.853144
603.722363	2471.224027
604.072572	2471.954994
604.422728	2477.248206
604.772830	2483.574854
605.122878	2469.585652
605.472872	2466.661783
605.822813	2468.552215
606.172701	2475.685448
606.522534	2469.056331
606.872314	2476.315592
607.222041	2475.433390
607.571714	2478.533700
607.921333	2475.332567
608.270899	2468.527010
608.620411	2469.938533
608.969870	2472.786785
609.319276	2477.197794
609.668627	2468.602627
610.017926	2477.979173
610.367171	2476.517238
610.716362	2473.265694
611.065500	2477.122177
611.414585	2481.886067
611.763616	2474.576394
612.112594	2473.240488
612.461518	2470.467854
612.810389	2478.987404
613.159207	2472.635550
613.507971	2476.718885
613.856682	2475.660242
614.205340	2475.685448
614.553945	2476.013123
614.902496	2471.627319
615.250994	2472.736373
615.599439	2479.214256
615.947830	2468.905096
616.296169	2475.937506
616.644454	2475.584625
616.992686	2471.224027
617.340864	2462.780094
617.688990	2473.190077
618.037063	2478.357260
618.385082	2473.517752
618.733048	2471.627319
619.080961	2474.475571
619.428821	2477.475058
619.776628	2474.248719
620.124382	2476.542444
620.472083	2471.954994
620.819731	2468.400981
621.167326	2478.584112
621.514868	2467.090281
621.862357	2471.803760
622.209793	2477.827938
622.557176	2472.282669
622.904506	2465.855198
623.251783	2475.483802
623.599007	2476.517238
623.946179	2468.779067
624.293297	2479.088227
624.640363	2466.586165
624.987376	2467.796042
625.334336	2474.525983
625.681243	2470.896352
626.028097	2459.427727
626.374899	2469.106742
626.721647	2475.761065
627.068343	2471.249233
627.414987	2472.887608
627.761577	2466.384519
628.108115	2460.965279
628.454600	2473.643781
628.801032	2477.802733
629.147412	2467.871660
629.493739	2469.938533
629.840014	2475.962712
630.186236	2469.358800
630.532405	2475.509008
630.878521	2472.358287
631.224585	2478.836169
631.570597	2465.930815
631.916556	2475.181333
632.262462	2472.837196
632.608316	2469.686475
632.954117	2476.643267
633.299866	2478.004379
633.645562	2474.702423
633.991206	2470.896352
634.336797	2471.753348
634.682336	2471.602113
635.027823	2476.366004
635.373257	2475.458596
635.718639	2465.981227
636.063968	2474.853658
636.409245	2466.056844
636.754470	2472.131435
637.099642	2474.727629
637.444762	2472.307875
637.789829	2476.139152
638.134845	2471.904583
638.479808	2466.308902
638.824719	2473.542958
639.169577	2463.107769
639.514383	2471.123204
639.859137	2471.929788
640.203839	2466.308902
640.548489	2470.568677
640.893086	2471.097998
641.237632	2472.761579
641.582125	2473.845427
641.926566	2472.938019
642.270955	2473.114460
642.615292	2464.443675
642.959576	2472.811990
643.303809	2474.878863
643.647990	2478.483288
643.992118	2466.964252
644.336195	2470.316619
644.680219	2469.283183
645.024192	2470.669500
645.368112	2466.056844
645.711981	2461.545012
646.055797	2467.796042
646.399562	2470.241002
646.743274	2460.662810
647.086935	2466.460137
647.430544	2466.182873
647.774101	2466.460137
648.117606	2477.575881
648.461059	2466.661783
648.804460	2476.567650
649.147810	2472.131435
649.491108	2467.468367
649.834354	2478.735346
650.177548	2472.912813
650.520690	2464.141206
650.863781	2465.981227
651.206820	2477.953967
651.549807	2468.098512
651.892742	2473.316106
652.235626	2469.938533
652.578458	2474.475571
652.921238	2473.215283
653.263967	2473.971456
653.606644	2474.349542
653.949269	2471.072792
654.291843	2467.871660
654.634365	2472.610344
654.976836	2466.359313
655.319255	2467.090281
655.661622	2472.559933
656.003938	2463.788325
656.346203	2470.341825
656.688416	2470.215796
657.030577	2463.259004
657.372687	2474.601600
657.714746	2469.888121
658.056753	2472.786785
658.398708	2470.619088
658.740612	2464.670527
659.082465	2465.754375
659.424266	2474.828452
659.766016	2460.083077
660.107715	2466.913840
660.449362	2460.990485
660.790958	2466.636577
661.132503	2476.794502
661.473996	2467.922071
661.815438	2469.459623
662.156829	2470.341825
662.498168	2461.368571
662.839456	2473.467340
663.180693	2460.940073
663.521879	2476.366004
663.863013	2466.863429
664.204097	2465.905610
664.545129	2464.292440
664.886110	2476.038329
665.227040	2469.988944
665.567918	2464.670527
665.908746	2474.551188
666.249522	2468.174129
666.590248	2468.678244
666.930922	2471.501290
667.271545	2462.654065
667.612118	2475.761065
667.952639	2471.148410
668.293109	2470.518265
668.633528	2469.963738
668.973896	2469.081537
669.314213	2466.031638
669.654480	2472.585138
669.994695	2463.309415
670.334859	2467.922071
670.674973	2474.122690
671.015035	2465.351083
671.355047	2467.039869
671.695008	2467.770837
672.034918	2471.047587
672.374777	2475.156127
672.714585	2468.451392
673.054342	2465.502317
673.394049	2469.938533
673.733705	2471.576908
674.073310	2476.693679
674.412864	2469.081537
674.752368	2472.156640
675.091820	2463.838737
675.431223	2469.409212
675.770574	2472.736373
676.109875	2461.595423
676.449125	2464.216823
676.788324	2459.125258
677.127473	2469.711681
677.466571	2463.989971
677.805619	2465.401494
678.144616	2457.436471
678.483562	2468.123717
678.822458	2461.671040
679.161303	2476.315592
679.500098	2458.721965
679.838842	2474.147896
680.177535	2466.258490
680.516179	2466.586165
680.854771	2467.367544
681.193314	2469.056331
681.531805	2478.735346
681.870247	2468.905096
682.208638	2467.115487
682.546978	2458.217850
682.885268	2463.233798
683.223508	2465.351083
683.561697	2470.644294
683.899836	2468.199335
684.237925	2469.409212
684.575963	2464.116000
684.913951	2466.258490
685.251889	2470.493060
685.589776	2468.073306
685.927614	2461.192131
686.265401	2459.326904
686.603137	2470.291413
686.940824	2462.124744
687.278460	2471.299644
687.616046	2462.780094
687.953582	2457.007973
688.291068	2466.611371
688.628504	2473.265694
688.965889	2477.727115
689.303224	2471.047587
689.640510	2471.702937
689.977745	2467.291927
690.314930	2457.386060
690.652065	2465.628346
690.989150	2465.905610
691.326185	2471.904583
691.663170	2465.502317
692.000105	2476.189563
692.336990	2468.879890
692.673825	2474.425160
693.010610	2464.998202
693.347345	2469.434417
693.684030	2461.066102
694.020665	2457.159208
694.357251	2454.411779
694.693786	2460.309929
695.030272	2462.099538
695.366707	2466.611371
695.703093	2463.359827
696.039429	2457.512088
696.375716	2467.392750
696.711952	2459.679785
697.048139	2467.392750
697.384276	2467.392750
697.720363	2464.670527
698.056400	2461.973510
698.392388	2464.242029
698.728326	2471.576908
699.064214	2466.308902
699.400053	2459.175669
699.735842	2464.872173
700.071581	2455.697273
700.407270	2461.292954
700.742910	2465.981227
701.078501	2462.805300
701.414042	2461.217337
701.749533	2457.461677
702.084974	2470.971969
702.420366	2458.318673
702.755709	2459.831019
703.091002	2463.586679
703.426246	2470.467854
703.761440	2463.939560
704.096584	2472.433904
704.431679	2455.546038
704.766725	2472.837196
705.101721	2459.679785
705.436668	2465.603140
705.771565	2458.999229
706.106413	2461.847481
706.441212	2463.158181
706.775961	2469.232771
707.110661	2472.081023
707.445311	2469.182360
707.779913	2465.426700
708.114465	2462.049127
708.448967	2468.199335
708.783421	2459.654579
709.117825	2461.998715
709.452180	2470.215796
709.786485	2463.637090
710.120742	2456.302212
710.454949	2461.570217
710.789107	2456.403035
711.123216	2450.681325
711.457275	2468.577421
711.791286	2464.317646
712.125247	2462.326390
712.459159	2461.897892
712.793023	2471.652525
713.126837	2457.789352
713.460602	2465.628346
713.794318	2461.721452
714.127985	2464.166412
714.461602	2466.939046
714.795171	2474.626806
715.128691	2460.360340
715.462162	2465.376288
715.795584	2464.947790
716.128957	2456.730710
716.462281	2461.040896
716.795556	2470.669500
717.128782	2457.612912
717.461960	2470.114973
717.795088	2463.838737
718.128167	2475.987917
718.461198	2462.124744
718.794180	2460.435958
719.127113	2464.267235
719.459997	2465.880404
719.792833	2463.334621
720.125619	2455.369598
720.458357	2463.158181
720.791046	2465.023408
721.123686	2472.635550
721.456278	2468.022894
721.788821	2457.159208
722.121315	2459.478138
722.453761	2468.123717
722.786158	2458.016204
723.118506	2465.779581
723.450805	2461.242542
723.783056	2461.141719
724.115259	2463.788325
724.447412	2460.309929
724.779518	2463.511062
725.111574	2462.981740
725.443582	2463.183387
725.775542	2462.225567
726.107453	2463.284210
726.439315	2465.855198
726.771129	2466.157667
727.102895	2456.327417
727.434612	2459.654579
727.766281	2460.133488
728.097901	2456.377829
728.429473	2459.251287
728.760996	2468.728656
729.092471	2467.191104
729.423897	2466.636577
729.755276	2461.091308
730.086606	2466.485342
730.417887	2460.788838
730.749120	2459.957048
731.080305	2465.225054
731.411442	2464.393263
731.742530	2465.502317
732.073570	2463.813531
732.404562	2467.695219
732.735506	2465.577935
733.066401	2468.224540
733.397249	2454.840277
733.728048	2463.662296
734.058798	2458.772377
734.389501	2464.670527
734.720156	2463.914354
735.050762	2460.158694
735.381320	2465.678758
735.711831	2457.612912
736.042293	2466.712194
736.372707	2457.386060
736.703073	2459.452933
737.033391	2460.561987
737.363661	2453.983281
737.693883	2462.250773
738.024056	2464.141206
738.354182	2457.512088
738.684260	2457.587706
739.014290	2467.997688
739.344272	2462.502831
739.674207	2462.830506
740.004093	2461.166925
740.333931	2465.099025
740.663722	2463.763119
740.993464	2459.528550
741.323159	2465.099025
741.652806	2468.300158
741.982405	2465.124231
742.311956	2469.131948
742.641460	2463.611885
742.970915	2465.073819
743.300323	2468.501804
743.629683	2454.512602
743.958996	2463.032152
744.288260	2461.444188
744.617477	2459.200875
744.946647	2466.107256
745.275768	2459.679785
745.604842	2455.041923
745.933869	2462.780094
746.262847	2454.361367
746.591778	2460.083077
746.920662	2462.855712
747.249498	2465.956021
747.578286	2464.746144
747.907027	2459.251287
748.235720	2465.401494
748.564365	2469.610858
748.892963	2465.930815
749.221514	2466.434931
749.550017	2461.141719
749.878473	2462.654065
750.206881	2464.418469
750.535242	2457.537294
750.863555	2457.537294
751.191821	2457.386060
751.520039	2466.787812
751.848210	2454.487396
752.176334	2453.932869
752.504411	2463.410238
752.832440	2465.048613
753.160421	2464.468881
753.488356	2457.587706
753.816243	2463.410238
754.144082	2460.612398
754.471875	2471.425673
754.799620	2466.661783
755.127318	2460.410752
755.454969	2459.679785
755.782572	2460.713221
756.110129	2460.461163
756.437638	2464.746144
756.765100	2461.393777
757.092515	2473.442135
757.419882	2455.193158
757.747203	2463.637090
758.074477	2461.923098
758.401703	2458.394290
758.728882	2464.141206
759.056014	2457.184413
759.383099	2467.619602
759.710138	2449.950358
760.037129	2456.125771
760.364073	2455.596450
760.690970	2445.589760
761.017820	2449.673094
761.344623	2460.864456
761.671379	2465.451906
761.998088	2456.579475
762.324751	2463.611885
762.651366	2456.251800
762.977935	2467.493573
763.304456	2465.779581
763.630931	2462.376802
763.957359	2467.619602
764.283740	2458.545525
764.610074	2468.022894
764.936362	2454.512602
765.262602	2463.233798
765.588796	2457.184413
765.914943	2463.057358
766.241044	2461.192131
766.567097	2463.359827
766.893104	2462.931329
767.219064	2459.578962
767.544978	2450.328444
767.870845	2462.477625
768.196665	2457.713735
768.522438	2468.426187
768.848165	2460.083077
769.173846	2468.905096
769.499479	2461.519806
769.825066	2465.502317
770.150607	2456.881944
770.476101	2467.140692
770.801548	2454.310956
771.126949	2463.586679
771.452303	2468.627833
771.777611	2457.108796
772.102872	2466.636577
772.428087	2458.520319
772.753256	2458.016204
773.078378	2462.679271
773.403453	2461.166925
773.728482	2454.260544
774.053465	2465.048613
774.378401	2465.527523
774.703291	2454.663837
775.028135	2460.234312
775.352932	2467.140692
775.677683	2465.527523
776.002388	2460.511575
776.327046	2459.528550
776.651658	2461.393777
776.976224	2455.470421
777.300743	2467.014663
777.625216	2462.427213
777.949643	2463.208592
778.274024	2456.806327
778.598359	2458.696760
778.922647	2464.746144
779.246889	2454.966306
779.571086	2461.418983
779.895236	2463.763119
780.219339	2457.789352
780.543397	2461.822275
780.867409	2458.948817
781.191374	2460.688015
781.515294	2458.898406
781.839167	2457.209619
782.162995	2456.579475
782.486776	2456.150977
782.810511	2462.074333
783.134201	2466.913840
783.457844	2456.806327
783.781441	2458.974023
784.104993	2460.839250
784.428498	2458.545525
784.751958	2463.838737
785.075372	2452.596963
785.398739	2458.142233
785.722061	2460.587192
786.045337	2468.980713
786.368568	2457.234825
786.691752	2456.655092
787.014891	2458.444702
787.337983	2461.494600
787.661030	2460.133488
787.984031	2461.217337
788.306987	2462.427213
788.629897	2458.822788
788.952760	2462.830506
789.275579	2466.560960
789.598351	2452.748198
789.921078	2460.662810
790.243759	2455.142746
790.566395	2465.174642
790.888984	2461.771863
791.211529	2467.619602
791.534027	2462.376802
791.856480	2453.252313
792.178888	2458.948817
792.501249	2454.487396
792.823566	2454.663837
793.145836	2456.503858
793.468062	2461.494600
793.790241	2455.949331
794.112375	2460.032665
794.434464	2461.066102
794.756507	2459.478138
795.078505	2465.628346
795.400457	2465.199848
795.722364	2453.479165
796.044226	2466.384519
796.366042	2466.082050
796.687812	2464.695733
797.009538	2459.982254
797.331218	2469.031125
797.652852	2456.781121
797.974442	2460.637604
798.295986	2455.873713
798.617484	2462.275979
798.938938	2456.201388
799.260346	2460.385546
799.581709	2449.219390
799.903026	2461.242542
800.224299	2459.100052
800.545526	2463.006946
800.866708	2457.436471
801.187845	2462.402008
801.508936	2457.789352
801.829983	2461.645835
802.150984	2465.225054
802.471940	2463.410238
802.792851	2457.814558
803.113717	2458.873200
803.434538	2464.242029
803.755314	2463.132975
804.076045	2461.797069
804.396731	2452.949844
804.717372	2465.225054
805.037967	2465.477112
805.358518	2458.570731
805.679024	2454.638631
805.999485	2456.705504
806.319901	2458.394290
806.640272	2455.445215
806.960598	2463.611885
807.280879	2460.763633
807.601115	2460.561987
807.921306	2463.838737
808.241453	2463.284210
808.561554	2455.016717
808.881611	2459.957048
809.201623	2453.680812
809.521590	2459.604167
809.841513	2453.025462
810.161390	2458.419496
810.481223	2453.353137
810.801011	2466.762606
811.120755	2452.067642
811.440453	2466.485342
811.760107	2467.115487
812.079716	2463.712708
812.399281	2473.618575
812.718801	2453.680812
813.038276	2457.764146
813.357707	2455.167952
813.677093	2458.318673
813.996434	2461.545012
814.315731	2452.118054
814.634983	2464.242029
814.954191	2463.032152
815.273354	2462.754888
815.592473	2458.621142
815.911547	2459.125258
816.230577	2460.763633
816.549562	2461.645835
816.868502	2461.570217
817.187399	2457.058385
817.506250	2459.377315
817.825058	2459.957048
818.143821	2460.536781
818.462539	2462.528037
818.781213	2462.452419
819.099843	2458.772377
819.418429	2456.529063
819.736970	2456.730710
820.055466	2474.652012
820.373919	2458.268262
820.692327	2455.949331
821.010691	2464.065588
821.329011	2461.671040
821.647286	2464.998202
821.965517	2472.761579
822.283704	2474.702423
822.601847	2476.391210
822.919945	2466.208079
823.237999	2465.048613
823.556010	2468.400981
823.873976	2468.174129
824.191897	2467.518779
824.509775	2462.250773
824.827609	2465.829992
825.145398	2455.798096
825.463144	2463.435444
825.780845	2471.551702
826.098502	2465.477112
826.416116	2472.081023
826.733685	2466.611371
827.051210	2469.157154
827.368692	2465.956021
827.686129	2467.468367
828.003522	2463.561473
828.320872	2465.099025
828.638177	2469.384006
828.955439	2458.091821
829.272656	2462.175156
829.589830	2458.822788
829.906960	2460.738427
830.224046	2456.226594
830.541088	2463.485856
830.858086	2449.143773
831.175041	2463.914354
831.491952	2453.579988
831.808819	2459.503344
832.125642	2455.520833
832.442421	2460.057871
832.759157	2456.075360
833.075849	2464.922585
833.392497	2457.839763
833.709101	2462.956535
834.025662	2463.712708
834.342179	2469.081537
834.658653	2456.554269
834.975083	2465.477112
835.291469	2472.383492
835.607811	2460.032665
835.924110	2459.704990
836.240366	2464.116000
836.556578	2452.496140
836.872746	2466.258490
837.188871	2456.050154
837.504952	2469.182360
837.820990	2454.840277
838.136984	2464.040383
838.452935	2460.612398
838.768842	2457.890175
839.084706	2459.150463
839.400526	2457.738940
839.716303	2461.242542
840.032037	2458.343879
840.347727	2449.496654
840.663373	2462.679271
840.978977	2450.605708
841.294537	2460.234312
841.610054	2459.679785
841.925527	2461.948304
842.240957	2462.931329
842.556344	2452.874227
842.871687	2459.200875
843.186987	2454.739454
843.502244	2460.057871
843.817458	2460.788838
844.132629	2455.747685
844.447756	2454.689042
844.762840	2452.949844
845.077881	2460.914867
845.392879	2458.318673
845.707833	2454.966306
846.022745	2462.351596
846.337613	2461.343365
846.652438	2457.184413
846.967221	2460.032665
847.281960	2449.824329
847.596656	2468.879890
847.911309	2462.477625
848.225919	2462.805300
848.540485	2463.183387
848.855009	2455.293981
849.169490	2459.503344
849.483928	2461.998715
849.798323	2452.244083
850.112675	2455.470421
850.426984	2457.638117
850.741251	2460.864456
851.055474	2457.360854
851.369654	2457.486883
851.683792	2456.932356
851.997887	2455.420010
852.311938	2457.512088
852.625947	2451.009000
852.939914	2460.057871
853.253837	2453.126285
853.567718	2465.073819
853.881555	2449.143773
854.195350	2454.462190
854.509103	2458.671554
854.822812	2450.429267
855.136479	2453.655606
855.450103	2454.941100
855.763685	2459.200875
856.077224	2452.798610
856.390720	2450.378856
856.704173	2454.613425
857.017584	2450.807354
857.330953	2461.923098
857.644278	2458.923612
857.957561	2456.377829
858.270802	2458.268262
858.584000	2456.150977
858.897155	2458.646348
859.210268	2456.327417
859.523339	2465.048613
859.836367	2447.933896
860.149352	2460.183900
860.462295	2458.621142
860.775195	2455.319187
861.088054	2450.832560
861.400869	2452.823815
861.713642	2455.722479
862.026373	2455.798096
862.339062	2460.435958
862.651708	2450.152004
862.964312	2465.829992
863.276873	2458.595937
863.589392	2456.755915
863.901869	2447.253340
864.214303	2452.521346
864.526696	2454.764660
864.839045	2465.552729
865.151353	2454.764660
865.463619	2456.957562
865.775842	2455.445215
866.088023	2455.672067
866.400162	2454.310956
866.712258	2452.596963
867.024313	2453.151490
867.336325	2459.100052
867.648296	2461.973510
867.960224	2451.034206
868.272110	2457.209619
868.583954	2456.201388
868.895755	2460.209106
869.207515	2458.268262
869.519233	2462.326390
869.830909	2461.797069
870.142542	2452.748198
870.454134	2446.724019
870.765684	2455.067129
871.077191	2459.654579
871.388657	2453.706017
871.700081	2455.445215
872.011463	2453.201902
872.322803	2454.008487
872.634101	2456.024948
872.945357	2447.833073
873.256571	2461.872687
873.567744	2461.166925
873.878874	2460.889662
874.189963	2460.183900
874.501010	2453.630400
874.812015	2460.839250
875.122979	2458.444702
875.433900	2456.529063
875.744780	2460.335135
876.055618	2455.394804
876.366415	2454.361367
876.677169	2455.974537
876.987882	2461.318160
877.298554	2449.219390
877.609183	2456.529063
877.919771	2462.754888
878.230317	2457.134002
878.540822	2459.604167
878.851285	2458.974023
879.161707	2467.291927
879.472087	2459.301698
879.782425	2458.747171
880.092722	2462.553242
880.402977	2462.805300
880.713191	2454.537808
881.023363	2455.571244
881.333494	2461.318160
881.643583	2466.334108
881.953631	2460.713221
882.263637	2470.341825
882.573602	2477.122177
882.883526	2462.427213
883.193408	2466.334108
883.503248	2456.226594
883.813048	2462.175156
884.122806	2459.931842
884.432522	2461.292954
884.742197	2463.838737
885.051831	2461.192131
885.361424	2457.310442
885.670975	2461.393777
885.980485	2461.872687
886.289954	2460.335135
886.599382	2463.284210
886.908768	2459.730196
887.218113	2456.277006
887.527417	2452.748198
887.836680	2453.958075
888.145901	2454.512602
888.455082	2451.714762
888.764221	2455.344392
889.073319	2446.169492
889.382376	2459.982254
889.691392	2444.505912
890.000366	2461.217337
890.309300	2451.387087
890.618193	2455.747685
890.927044	2457.612912
891.235855	2456.125771
891.544625	2458.318673
891.853353	2457.108796
892.162041	2452.874227
892.470687	2463.385033
892.779293	2453.453960
893.087858	2449.547065
893.396381	2459.251287
893.704864	2453.453960
894.013306	2457.234825
894.321707	2457.764146
894.630068	2456.529063
894.938387	2462.250773
895.246665	2454.109310
895.554903	2460.914867
895.863100	2455.117540
896.171256	2459.982254
896.479371	2450.051181
896.787446	2450.076387
897.095480	2462.326390
897.403473	2455.898919
897.711425	2455.873713
898.019336	2458.621142
898.327207	2453.025462
898.635038	2459.427727
898.942827	2460.057871
899.250576	2456.831533
899.558284	2460.864456
899.865952	2451.815585
900.173579	2461.091308
900.481165	2465.930815
900.788711	2451.538321
901.096216	2457.083590
901.403681	2459.478138
901.711105	2454.008487
902.018489	2457.083590
902.325832	2449.496654
902.633135	2452.899433
902.940397	2460.662810
903.247619	2450.429267
903.554800	2456.604681
903.861941	2463.788325
904.169041	2458.217850
904.476101	2462.603654
904.783121	2450.782148
905.090100	2453.781635
905.397039	2456.629887
905.703938	2455.571244
906.010796	2457.890175
906.317614	2454.966306
906.624391	2457.940587
906.931129	2465.603140
907.237826	2454.714248
907.544483	2453.403548
907.851099	2452.445729
908.157675	2453.025462
908.464211	2462.855712
908.770707	2453.126285
909.077163	2459.125258
909.383578	2453.327931
909.689954	2454.235338
909.996289	2444.329471
910.302584	2456.478652
910.608839	2451.009000
910.915054	2450.530090
911.221229	2451.664350
911.527363	2457.310442
911.833458	2450.152004
912.139513	2454.815071
912.445527	2453.428754
912.751502	2461.015690
913.057436	2450.000769
913.363331	2451.865996
913.669186	2450.656119
913.975000	2454.638631
914.280775	2453.428754
914.586510	2456.453446
914.892205	2456.680298
915.197859	2457.990998
915.503475	2454.563013
915.809050	2455.949331
916.114585	2466.031638
916.420081	2458.570731
916.725536	2460.259517
917.030952	2459.805813
917.336328	2453.529577
917.641665	2459.881431
917.946961	2449.421037
918.252218	2455.697273
918.557435	2442.615479
918.862612	2451.135029
919.167750	2454.689042
919.472848	2444.833587
919.777906	2457.436471
920.082925	2459.427727
920.387904	2461.469394
920.692843	2455.546038
920.997743	2453.428754
921.302603	2454.436985
921.607423	2450.530090
921.912204	2457.386060
922.216946	2451.185440
922.521647	2453.353137
922.826310	2458.646348
923.130932	2452.395317
923.435516	2454.714248
923.740059	2456.579475
924.044564	2451.311469
924.349028	2462.679271
924.653454	2449.748712
924.957840	2446.824842
925.262186	2455.319187
925.566493	2449.899946
925.870761	2455.092335
926.174989	2455.142746
926.479178	2446.774431
926.783328	2454.991512
927.087438	2450.101592
927.391509	2450.782148
927.695541	2456.503858
927.999533	2457.335648
928.303486	2459.049640
928.607400	2456.226594
928.911275	2455.924125
929.215110	2455.697273
929.518906	2456.957562
929.822663	2450.605708
930.126381	2452.118054
930.430060	2459.125258
930.733699	2452.546552
931.037299	2453.731223
931.340861	2457.083590
931.644383	2456.201388
931.947866	2452.118054
932.251309	2447.177723
932.554714	2452.269288
932.858080	2448.564040
933.161407	2454.638631
933.464694	2450.605708
933.767943	2448.790892
934.071153	2462.023921
934.374323	2458.621142
934.677455	2457.890175
934.980548	2457.360854
935.283602	2453.504371
935.586617	2457.007973
935.889593	2451.739967
936.192530	2458.343879
936.495428	2457.990998
936.798287	2456.856738
937.101108	2454.235338
937.403890	2455.924125
937.706632	2446.522373
938.009336	2451.689556
938.312002	2445.892229
938.614628	2452.168465
938.917216	2462.729683
939.219765	2457.360854
939.522275	2454.361367
939.824747	2461.847481
940.127179	2452.571758
940.429573	2461.822275
940.731929	2451.538321
941.034246	2456.050154
941.336524	2447.253340
941.638763	2452.546552
941.940964	2450.630913
942.243126	2449.874740
942.545250	2455.470421
942.847335	2452.924638
943.149381	2451.437498
943.451389	2456.781121
943.753359	2459.906637
944.055290	2455.949331
944.357182	2458.066615
944.659036	2453.101079
944.960851	2447.177723
945.262628	2457.814558
945.564367	2454.235338
945.866067	2452.244083
946.167729	2448.664863
946.469352	2459.352110
946.770937	2452.521346
947.072484	2453.630400
947.373992	2454.663837
947.675462	2459.478138
947.976893	2451.462704
948.278286	2454.739454
948.579641	2442.262598
948.880958	2451.160235
949.182236	2459.578962
949.483476	2457.083590
949.784678	2465.225054
950.085841	2456.403035
950.386967	2452.244083
950.688054	2455.621656
950.989103	2456.629887
951.290114	2456.503858
951.591087	2453.327931
951.892021	2452.672581
952.192917	2450.731737
952.493776	2457.688529
952.794596	2448.463217
953.095378	2458.243056
953.396122	2448.513629
953.696828	2450.983794
953.997496	2453.428754
954.298126	2446.169492
954.598718	2454.689042
954.899272	2459.654579
955.199788	2455.067129
955.500266	2449.446242
955.800706	2453.680812
956.101108	2453.680812
956.401472	2455.092335
956.701798	2461.645835
957.002087	2450.101592
957.302337	2454.210133
957.602550	2440.145313
957.902724	2447.202929
958.202861	2448.967333
958.502960	2446.446756
958.803022	2451.185440
959.103045	2448.715275
959.403031	2456.277006
959.702979	2458.217850
960.002889	2454.537808
960.302762	2455.898919
960.602596	2451.084617
960.902393	2454.815071
961.202153	2455.016717
961.501875	2443.522887
961.801559	2457.134002
962.101205	2458.621142
962.400814	2451.992025
962.700385	2451.387087
962.999918	2447.328958
963.299414	2456.554269
963.598873	2440.573812
963.898293	2445.841817
964.197677	2456.881944
964.497022	2454.865483
964.796331	2452.218877
965.095601	2457.411265
965.394835	2449.748712
965.694030	2456.604681
965.993189	2446.925665
966.292309	2454.663837
966.591393	2446.900460
966.890439	2448.311983
967.189447	2455.672067
967.488419	2449.723506
967.787353	2456.932356
968.086249	2444.052208
968.385108	2456.554269
968.683930	2445.388113
968.982714	2448.740481
969.281462	2452.218877
969.580172	2445.362908
969.878844	2455.873713
970.177480	2458.797583
970.476078	2453.302725
970.774639	2456.478652
971.073162	2450.378856
971.371649	2456.428240
971.670098	2444.430294
971.968510	2447.707044
972.266885	2455.193158
972.565223	2444.606735
972.863524	2451.487910
973.161788	2451.739967
973.460014	2453.655606
973.758204	2455.092335
974.056356	2452.622169
974.354471	2450.504885
974.652550	2458.444702
974.950591	2458.243056
975.248595	2452.622169
975.546563	2454.084104
975.844493	2455.646862
976.142386	2457.638117
976.440243	2449.723506
976.738062	2452.092848
977.035845	2449.269802
977.333590	2451.311469
977.631299	2458.419496
977.928971	2448.085131
978.226606	2445.514142
978.524204	2457.058385
978.821765	2450.983794
979.119290	2450.378856
979.416777	2448.992538
979.714228	2454.411779
980.011642	2444.077413
980.309020	2446.396344
980.606360	2454.613425
980.903664	2452.496140
981.200931	2449.572271
981.498162	2451.538321
981.795356	2456.352623
982.092513	2448.362394
982.389633	2452.748198
982.686717	2450.933383
982.983764	2446.093875
983.280775	2458.495113
983.577749	2451.210646
983.874686	2451.235852
984.171587	2457.789352
984.468451	2444.984821
984.765279	2456.100565
985.062070	2447.833073
985.358824	2459.503344
985.655543	2447.354163
985.952224	2455.596450
986.248869	2453.428754
986.545478	2453.529577
986.842050	2459.251287
987.138586	2455.646862
987.435086	2456.352623
987.731549	2446.824842
988.027975	2456.302212
988.324366	2453.403548
988.620719	2452.773404
988.917037	2453.025462
989.213318	2451.135029
989.509563	2456.503858
989.805772	2450.756942
990.101944	2449.773917
990.398080	2453.680812
990.694180	2451.462704
990.990244	2446.144287
991.286271	2444.077413
991.582262	2454.512602
991.878217	2457.713735
992.174136	2454.714248
992.470019	2463.561473
992.765865	2450.025975
993.061676	2448.765687
993.357450	2447.505398
993.653188	2443.447269
993.948890	2455.193158
994.244556	2456.529063
994.540186	2452.319700
994.835780	2462.628860
995.131337	2448.337188
995.426859	2457.512088
995.722345	2448.034719
996.017795	2450.404062
996.313208	2455.848508
996.608586	2457.007973
996.903928	2450.555296
997.199234	2452.521346
997.494504	2450.404062
997.789738	2462.376802
998.084936	2456.428240
998.380099	2458.293467
998.675225	2457.512088
998.970316	2451.286263
999.265371	2462.074333
999.560390	2449.345419
999.855373	2447.656633
1000.150320	2449.622683
1000.445232	2451.286263
1000.740108	2441.229162
1001.034948	2454.739454
1001.329752	2452.244083
1001.624521	2450.076387
1001.919254	2454.789865
1002.213951	2452.949844
1002.508613	2451.109823
1002.803239	2450.152004
1003.097829	2453.630400
1003.392384	2447.429781
1003.686903	2450.152004
1003.981386	2452.319700
1004.275834	2458.747171
1004.570246	2446.345933
1004.864623	2455.167952
1005.158964	2456.730710
1005.453270	2455.041923
1005.747540	2452.420523
1006.041775	2454.588219
1006.335974	2446.572785
1006.630138	2451.664350
1006.924266	2455.772890
1007.218359	2450.580502
1007.512416	2448.715275
1007.806438	2456.302212
1008.100425	2446.547579
1008.394376	2450.404062
1008.688292	2451.765173
1008.982172	2449.068156
1009.276017	2452.672581
1009.569827	2454.361367
1009.863602	2451.261058
1010.157341	2453.378342
1010.451045	2449.698300
1010.744714	2453.000256
1011.038347	2458.595937
1011.331945	2460.511575
1011.625508	2450.454473
1011.919036	2454.613425
1012.212528	2445.236879
1012.505986	2450.025975
1012.799408	2450.404062
1013.092795	2454.487396
1013.386147	2449.824329
1013.679464	2451.336675
1013.972745	2456.781121
1014.265992	2451.992025
1014.559204	2449.597477
1014.852380	2450.832560
1015.145521	2458.873200
1015.438628	2449.899946
1015.731699	2448.438012
1016.024736	2454.764660
1016.317737	2455.470421
1016.610703	2443.900973
1016.903635	2447.051694
1017.196531	2446.345933
1017.489393	2458.091821
1017.782219	2453.000256
1018.075011	2448.160748
1018.367768	2451.815585
1018.660490	2456.050154
1018.953177	2456.050154
1019.245829	2456.050154
