Dividing Wavelength (nm)	Counts (n)	Slit_number_24_of_a_total_of_40	
326.493990	2133.668365
326.888308	2133.668365
327.282561	2133.668365
327.676750	2106.698192
328.070874	2121.149500
328.464933	2113.923846
328.858929	2144.254788
329.252859	2149.800058
329.646726	2167.108019
330.040528	2168.200269
330.434265	2198.951308
330.827938	2220.124154
331.221547	2229.198231
331.615091	2259.529173
332.008571	2262.721904
332.401986	2295.237346
332.795338	2323.971923
333.188625	2329.517192
333.581847	2338.591269
333.975006	2378.752462
334.368100	2407.319000
334.761129	2407.655077
335.154095	2425.467154
335.546996	2459.747000
335.939833	2437.817981
336.332606	2469.241173
336.725315	2484.616692
337.117960	2488.229519
337.510540	2504.865327
337.903056	2506.545712
338.295508	2530.407173
338.687896	2524.861904
339.080220	2533.599904
339.472480	2534.104019
339.864676	2533.851962
340.256807	2543.682212
340.648875	2548.723365
341.040879	2540.237423
341.432818	2526.374250
341.824694	2543.850250
342.216506	2545.110538
342.608253	2546.958962
342.999937	2530.155115
343.391557	2542.085846
343.783113	2537.212731
344.174605	2532.507654
344.566033	2533.599904
344.957397	2551.411981
345.348697	2531.499423
345.739934	2542.589962
346.131106	2539.565269
346.522215	2526.542288
346.913260	2519.736731
347.304241	2526.458269
347.695159	2532.507654
348.086012	2526.290231
348.476802	2512.090981
348.867528	2521.249077
349.258191	2526.962385
349.648789	2520.913000
350.039324	2516.544000
350.429796	2504.613269
350.820203	2530.659231
351.210548	2515.955865
351.600828	2523.517596
351.991045	2501.588577
352.381198	2499.572115
352.771288	2502.260731
353.161314	2511.082750
353.551276	2510.914712
353.941175	2505.957577
354.331010	2501.168481
354.720782	2512.931173
355.110490	2500.328288
355.500135	2513.351269
355.889717	2507.806000
356.279235	2498.479865
356.668689	2504.277192
357.058080	2515.955865
357.447408	2510.158538
357.836672	2515.367731
358.225873	2519.148596
358.615010	2500.748385
359.004084	2531.499423
359.393095	2500.916423
359.782043	2524.021712
360.170927	2515.619788
360.559748	2517.384192
360.948505	2518.980558
361.337199	2529.230904
361.725830	2514.275481
362.114398	2525.029942
362.502903	2527.802577
362.891344	2505.789538
363.279722	2516.039885
363.668037	2517.300173
364.056289	2521.165058
364.444478	2526.374250
364.832603	2522.593385
365.220665	2532.507654
365.608665	2532.927750
365.996601	2529.903058
366.384474	2540.069385
366.772284	2525.113962
367.160031	2511.838923
367.547715	2527.130423
367.935336	2520.492904
368.322893	2534.440096
368.710388	2541.161635
369.097820	2535.532346
369.485189	2506.797769
369.872495	2517.552231
370.259738	2541.329673
370.646918	2517.216154
371.034035	2528.390712
371.421090	2509.906481
371.808081	2543.514173
372.195010	2531.247365
372.581875	2527.886596
372.968678	2507.217865
373.355418	2543.682212
373.742096	2521.837212
374.128710	2524.609846
374.515262	2534.776173
374.901751	2516.207923
375.288177	2525.029942
375.674540	2530.071096
376.060841	2530.155115
376.447079	2526.710327
376.833254	2534.776173
377.219367	2538.977135
377.605417	2527.886596
377.991404	2528.726788
378.377329	2543.010058
378.763191	2548.891404
379.148991	2527.634538
379.534727	2522.509365
379.920402	2536.372538
380.306013	2525.366019
380.691563	2527.634538
381.077049	2533.515885
381.462474	2537.884885
381.847835	2551.832077
382.233134	2525.954154
382.618371	2530.071096
383.003545	2535.700385
383.388657	2539.145173
383.773706	2545.866712
384.158693	2524.441808
384.543618	2538.052923
384.928480	2538.220962
385.313280	2518.728500
385.698017	2541.329673
386.082692	2541.917808
386.467305	2547.463077
386.851856	2542.421923
387.236344	2543.262115
387.620770	2555.444904
388.005133	2535.868423
388.389435	2543.010058
388.773674	2551.916096
389.157851	2538.641058
389.541965	2558.889692
389.926018	2554.436673
390.310008	2545.446615
390.693936	2567.627692
391.077802	2581.658904
391.461606	2586.279962
391.845348	2590.732981
392.229027	2590.480923
392.612645	2612.998077
392.996200	2602.495673
393.379694	2625.348904
393.763125	2637.867769
394.146494	2637.783750
394.529801	2667.610577
394.913047	2672.147615
395.296230	2682.986096
395.679351	2698.529654
396.062410	2723.819442
396.445408	2728.104423
396.828343	2753.394212
397.211217	2765.577000
397.594028	2765.829058
397.976778	2792.547173
398.359466	2827.247115
398.742092	2832.036212
399.124656	2853.293077
399.507158	2852.788962
399.889598	2877.826692
400.271977	2932.691250
400.654294	2928.490288
401.036549	2950.755385
401.418742	2977.473500
401.800874	3018.894981
402.182944	3016.794500
402.564952	3073.087385
402.946898	3058.720096
403.328783	3081.657346
403.710606	3137.110038
404.092367	3142.487269
404.474067	3182.396404
404.855705	3203.065135
405.237282	3217.348404
405.618797	3241.209865
406.000250	3288.428673
406.381642	3311.197885
406.762972	3330.018192
407.144240	3316.071000
407.525447	3343.041173
407.906593	3334.219154
408.287677	3362.197558
408.668700	3388.411558
409.049661	3386.227058
409.430560	3387.151269
409.811399	3386.059019
410.192176	3395.889269
410.572891	3410.172538
410.953545	3424.623846
411.334138	3384.630692
411.714669	3424.455808
412.095139	3342.116962
412.475547	3369.255173
412.855894	3348.082327
413.236180	3347.746250
413.616405	3309.769558
413.996568	3320.608038
414.376670	3277.086077
414.756711	3253.140596
415.136691	3242.050058
415.516609	3239.697519
415.896466	3234.320288
416.276262	3197.603885
416.655997	3198.023981
417.035670	3171.389885
417.415283	3177.355250
417.794834	3165.088442
418.174324	3119.970115
418.553753	3090.143288
418.933121	3076.448154
419.312428	3037.379212
419.691674	2996.797923
420.070859	2978.649769
420.449983	2949.243038
420.829045	2925.465596
421.208047	2908.493712
421.586988	2887.320865
421.965867	2865.223808
422.344686	2837.749519
422.723444	2810.527288
423.102141	2773.474808
423.480777	2786.329750
423.859352	2753.730288
424.237866	2740.539269
424.616319	2734.405865
424.994712	2709.116077
425.373044	2702.814635
425.751314	2681.977865
426.129524	2662.065308
426.507673	2653.159269
426.885762	2640.892462
427.263789	2627.701442
427.641756	2632.742596
428.019662	2613.586212
428.397508	2606.780654
428.775292	2624.844788
429.153016	2589.724750
429.530679	2582.835173
429.908282	2598.294712
430.285824	2597.454519
430.663305	2585.103692
431.040726	2579.222346
431.418086	2587.792308
431.795385	2574.517269
432.172624	2580.734692
432.549802	2579.222346
432.926920	2580.398615
433.303977	2568.887981
433.680974	2567.543673
434.057910	2578.382154
434.434786	2565.779269
434.811601	2566.031327
435.188355	2578.802250
435.565050	2568.215827
435.941683	2572.584827
436.318257	2563.006635
436.694770	2550.403750
437.071222	2572.668846
437.447614	2588.800538
437.823946	2575.441481
438.200218	2559.225769
438.576429	2576.197654
438.952580	2565.023096
439.328670	2560.318019
439.704700	2559.645865
440.080670	2557.209308
440.456580	2572.668846
440.832429	2554.688731
441.208218	2564.939077
441.583947	2560.990173
441.959616	2566.199365
442.335224	2556.033038
442.710773	2554.436673
443.086261	2554.352654
443.461689	2569.560135
443.837057	2550.235712
444.212365	2577.541962
444.587612	2549.479538
444.962800	2564.266923
445.337927	2565.359173
445.712995	2567.207596
446.088002	2581.070769
446.462949	2575.693538
446.837837	2566.619462
447.212664	2570.988462
447.587431	2572.920904
447.962139	2566.367404
448.336786	2566.703481
448.711374	2578.466173
449.085901	2555.949019
449.460369	2576.029615
449.834776	2559.813904
450.209124	2572.584827
450.583412	2548.639346
450.957640	2559.729885
451.331808	2568.719942
451.705917	2549.563558
452.079965	2547.631115
452.453954	2561.578308
452.827883	2562.502519
453.201752	2575.945596
453.575562	2557.797442
453.949311	2576.953827
454.323001	2568.131808
454.696632	2568.215827
455.070202	2565.191135
455.443713	2570.820423
455.817164	2569.392096
456.190556	2564.014865
456.563888	2570.736404
456.937160	2573.509038
457.310373	2562.586538
457.683526	2568.383865
458.056619	2554.520692
458.429653	2559.897923
458.802628	2546.622885
459.175542	2552.084135
459.548398	2564.603000
459.921194	2562.166442
460.293930	2561.914385
460.666607	2563.342712
461.039224	2573.341000
461.411782	2557.125288
461.784280	2564.687019
462.156719	2572.164731
462.529099	2556.117058
462.901419	2575.693538
463.273680	2563.258692
463.645882	2566.787500
464.018024	2579.726462
464.390106	2559.393808
464.762130	2561.830365
465.134094	2574.097173
465.505999	2563.174673
465.877845	2557.041269
466.249631	2580.734692
466.621358	2563.090654
466.993026	2574.433250
467.364634	2586.700058
467.736184	2576.869808
468.107674	2576.449712
468.479105	2560.149981
468.850477	2568.383865
469.221790	2557.125288
469.593043	2565.863288
469.964238	2582.079000
470.335373	2562.250462
470.706449	2569.476115
471.077467	2566.031327
471.448425	2566.619462
471.819324	2564.014865
472.190164	2565.275154
472.560945	2564.098885
472.931667	2573.593058
473.302330	2569.392096
473.672934	2586.363981
474.043479	2560.149981
474.413965	2572.752865
474.784393	2564.014865
475.154761	2576.113635
475.525070	2577.121865
475.895321	2574.517269
476.265513	2558.217538
476.635645	2569.140038
477.005719	2561.830365
477.375734	2564.939077
477.745691	2567.459654
478.115588	2565.695250
478.485427	2577.457942
478.855207	2564.182904
479.224928	2578.970288
479.594591	2574.685308
479.964194	2560.318019
480.333739	2582.835173
480.703226	2557.713423
481.072653	2576.029615
481.442022	2588.380442
481.811333	2566.871519
482.180584	2564.266923
482.549777	2573.341000
482.918912	2563.090654
483.287988	2561.074192
483.657005	2585.103692
484.025964	2568.047788
484.394864	2574.769327
484.763706	2568.551904
485.132489	2558.973712
485.501213	2583.591346
485.869879	2582.751154
486.238487	2563.258692
486.607036	2573.425019
486.975527	2583.843404
487.343959	2569.812192
487.712333	2566.199365
488.080648	2580.230577
488.448905	2578.718231
488.817104	2571.156500
489.185244	2580.986750
489.553326	2568.131808
489.921350	2586.027904
490.289315	2577.037846
490.657222	2583.843404
491.025070	2577.457942
491.392861	2580.398615
491.760593	2585.439769
492.128267	2584.011442
492.495883	2571.744635
492.863440	2584.179481
493.230939	2585.439769
493.598380	2559.645865
493.965763	2567.543673
494.333088	2570.400327
494.700354	2581.994981
495.067563	2578.298135
495.434713	2564.266923
495.801805	2589.136615
496.168839	2568.551904
496.535815	2583.087231
496.902733	2565.863288
497.269593	2563.342712
497.636395	2585.103692
498.003139	2575.609519
498.369825	2556.453135
498.736453	2572.752865
499.103023	2572.500808
499.469535	2571.156500
499.835989	2575.441481
500.202385	2575.525500
500.568723	2582.499096
500.935003	2551.243942
501.301226	2588.044365
501.667390	2565.275154
502.033497	2591.153077
502.399546	2573.425019
502.765537	2559.729885
503.131470	2565.107115
503.497345	2579.978519
503.863163	2570.232288
504.228923	2589.808769
504.594625	2589.472692
504.960269	2580.818712
505.325856	2569.308077
505.691385	2579.558423
506.056856	2571.324538
506.422270	2573.677077
506.787625	2574.097173
507.152924	2574.769327
507.518164	2570.400327
507.883347	2580.230577
508.248472	2575.861577
508.613540	2580.650673
508.978550	2572.500808
509.343503	2588.884558
509.708398	2585.019673
510.073236	2583.339288
510.438016	2569.140038
510.802738	2572.668846
511.167403	2572.668846
511.532010	2573.845115
511.896561	2576.449712
512.261053	2573.845115
512.625488	2574.937365
512.989866	2582.079000
513.354186	2583.423308
513.718449	2581.910962
514.082655	2583.507327
514.446803	2596.362269
514.810894	2570.904442
515.174927	2581.658904
515.538904	2582.331058
515.902822	2571.912673
516.266684	2583.675365
516.630488	2570.820423
516.994235	2578.382154
517.357925	2579.642442
517.721558	2586.279962
518.085133	2574.601288
518.448651	2567.207596
518.812112	2588.716519
519.175516	2569.896212
519.538863	2586.784077
519.902152	2587.540250
520.265385	2588.632500
520.628560	2581.322827
520.991678	2592.581404
521.354739	2576.533731
521.717743	2579.642442
522.080690	2573.256981
522.443580	2579.894500
522.806413	2558.301558
523.169189	2590.985038
523.531908	2592.917481
523.894569	2602.075577
524.257174	2580.902731
524.619722	2569.392096
524.982213	2577.457942
525.344647	2586.784077
525.707025	2580.566654
526.069345	2578.802250
526.431608	2568.299846
526.793815	2578.802250
527.155964	2569.980231
527.518057	2571.576596
527.880093	2572.836885
528.242072	2584.515558
528.603995	2579.810481
528.965860	2573.845115
529.327669	2580.398615
529.689421	2589.136615
530.051117	2573.845115
530.412755	2586.784077
530.774337	2588.128385
531.135862	2585.187712
531.497331	2587.204173
531.858743	2570.904442
532.220098	2574.013154
532.581396	2582.919192
532.942638	2571.240519
533.303824	2565.107115
533.664953	2570.736404
534.026025	2581.910962
534.387040	2577.710000
534.747999	2584.011442
535.108902	2572.920904
535.469748	2583.339288
535.830537	2568.719942
536.191270	2578.466173
536.551947	2576.029615
536.912567	2593.673654
537.273131	2591.237096
537.633638	2581.658904
537.994089	2586.279962
538.354483	2577.205885
538.714821	2584.431538
539.075103	2582.667135
539.435328	2556.285096
539.795497	2584.683596
540.155609	2591.237096
540.515665	2580.314596
540.875665	2572.332769
541.235609	2588.464462
541.595496	2585.691827
541.955328	2574.601288
542.315102	2578.718231
542.674821	2580.230577
543.034483	2589.388673
543.394090	2575.105404
543.753640	2578.550192
544.113134	2567.459654
544.472571	2574.769327
544.831953	2575.945596
545.191278	2583.087231
545.550548	2580.986750
545.909761	2590.985038
546.268918	2571.576596
546.628019	2582.667135
546.987064	2576.113635
547.346053	2581.994981
547.704986	2582.835173
548.063863	2566.619462
548.422684	2584.431538
548.781449	2580.986750
549.140158	2575.273442
549.498811	2594.513846
549.857408	2574.769327
550.215949	2579.558423
550.574434	2579.306365
550.932864	2577.037846
551.291237	2581.322827
551.649555	2582.583115
552.007817	2585.355750
552.366022	2579.558423
552.724173	2566.199365
553.082267	2581.070769
553.440305	2566.787500
553.798288	2596.110212
554.156215	2588.884558
554.514086	2567.963769
554.871902	2580.482635
555.229661	2592.833462
555.587365	2564.939077
555.945014	2580.650673
556.302606	2593.589635
556.660143	2590.312885
557.017625	2581.658904
557.375050	2579.894500
557.732421	2582.583115
558.089735	2583.507327
558.446994	2570.736404
558.804197	2581.322827
559.161345	2572.416788
559.518437	2583.003212
559.875474	2574.769327
560.232455	2596.110212
560.589381	2573.593058
560.946251	2586.532019
561.303065	2582.919192
561.659825	2571.660615
562.016528	2566.703481
562.373177	2578.718231
562.729770	2589.136615
563.086307	2590.732981
563.442789	2589.976808
563.799216	2588.128385
564.155587	2580.314596
564.511904	2589.136615
564.868164	2579.390385
565.224370	2587.540250
565.580520	2562.754577
565.936615	2563.258692
566.292654	2567.207596
566.648638	2571.576596
567.004567	2583.255269
567.360441	2583.927423
567.716260	2585.943885
568.072023	2587.792308
568.427732	2579.558423
568.783385	2575.021385
569.138982	2578.802250
569.494525	2594.093750
569.850013	2590.480923
570.205445	2555.528923
570.560823	2590.985038
570.916145	2573.172962
571.271412	2586.784077
571.626625	2585.103692
571.981782	2569.140038
572.336884	2572.668846
572.691931	2585.943885
573.046923	2576.701769
573.401860	2585.607808
573.756743	2572.164731
574.111570	2580.902731
574.466342	2591.069058
574.821059	2580.902731
575.175722	2578.466173
575.530330	2573.425019
575.884882	2579.894500
576.239380	2575.525500
576.593823	2583.591346
576.948211	2587.876327
577.302544	2585.019673
577.656823	2585.103692
578.011047	2584.851635
578.365216	2587.036135
578.719330	2576.029615
579.073389	2594.681885
579.427394	2570.148269
579.781344	2586.448000
580.135239	2580.398615
580.489080	2580.734692
580.842866	2587.120154
581.196597	2587.456231
581.550273	2576.869808
581.903895	2575.357462
582.257463	2580.314596
582.610975	2564.098885
582.964434	2590.901019
583.317837	2570.484346
583.671186	2590.480923
584.024481	2576.785788
584.377721	2563.342712
584.730906	2574.265212
585.084037	2580.986750
585.437113	2585.943885
585.790135	2562.922615
586.143103	2577.541962
586.496016	2586.784077
586.848874	2589.220635
587.201679	2575.441481
587.554428	2592.665423
587.907124	2573.004923
588.259765	2595.186000
588.612352	2585.271731
588.964884	2585.943885
589.317362	2588.632500
589.669786	2571.828654
590.022155	2580.482635
590.374470	2575.189423
590.726731	2575.609519
591.078937	2578.802250
591.431090	2584.263500
591.783188	2579.558423
592.135232	2578.970288
592.487222	2570.568365
592.839157	2550.655808
593.191038	2594.093750
593.542866	2568.383865
593.894639	2571.744635
594.246358	2564.434962
594.598022	2573.929135
594.949633	2577.121865
595.301190	2580.230577
595.652692	2573.425019
596.004141	2567.711712
596.355535	2581.238808
596.706876	2587.120154
597.058162	2577.205885
597.409395	2559.225769
597.760573	2580.482635
598.111698	2586.448000
598.462768	2585.187712
598.813785	2577.710000
599.164748	2569.980231
599.515657	2584.515558
599.866511	2589.640731
600.217312	2582.331058
600.568060	2566.619462
600.918753	2588.128385
601.269392	2568.803962
601.619978	2579.810481
601.970510	2579.642442
602.320988	2566.283385
602.671412	2577.205885
603.021783	2594.681885
603.372100	2584.095462
603.722363	2589.976808
604.072572	2584.263500
604.422728	2579.474404
604.772830	2576.617750
605.122878	2562.754577
605.472872	2580.314596
605.822813	2574.181192
606.172701	2571.240519
606.522534	2580.482635
606.872314	2575.861577
607.222041	2573.509038
607.571714	2589.976808
607.921333	2575.777558
608.270899	2567.207596
608.620411	2579.222346
608.969870	2596.614327
609.319276	2578.298135
609.668627	2582.499096
610.017926	2561.914385
610.367171	2592.245327
610.716362	2577.962058
611.065500	2567.291615
611.414585	2574.685308
611.763616	2572.836885
612.112594	2563.510750
612.461518	2572.920904
612.810389	2573.004923
613.159207	2579.558423
613.507971	2583.171250
613.856682	2574.097173
614.205340	2577.710000
614.553945	2576.701769
614.902496	2573.593058
615.250994	2580.986750
615.599439	2577.289904
615.947830	2572.920904
616.296169	2573.509038
616.644454	2577.037846
616.992686	2571.492577
617.340864	2558.637635
617.688990	2557.461365
618.037063	2571.660615
618.385082	2578.046077
618.733048	2579.390385
619.080961	2576.617750
619.428821	2572.752865
619.776628	2576.785788
620.124382	2579.642442
620.472083	2580.734692
620.819731	2581.154788
621.167326	2579.558423
621.514868	2576.449712
621.862357	2579.894500
622.209793	2573.761096
622.557176	2569.980231
622.904506	2580.314596
623.251783	2584.347519
623.599007	2580.062538
623.946179	2588.884558
624.293297	2572.752865
624.640363	2562.334481
624.987376	2561.494288
625.334336	2561.830365
625.681243	2573.341000
626.028097	2572.248750
626.374899	2573.929135
626.721647	2576.785788
627.068343	2566.871519
627.414987	2592.749442
627.761577	2571.324538
628.108115	2576.449712
628.454600	2593.169538
628.801032	2575.945596
629.147412	2565.863288
629.493739	2577.962058
629.840014	2575.777558
630.186236	2571.240519
630.532405	2575.777558
630.878521	2583.759385
631.224585	2573.677077
631.570597	2571.492577
631.916556	2587.792308
632.262462	2583.507327
632.608316	2575.861577
632.954117	2582.415077
633.299866	2580.986750
633.645562	2574.181192
633.991206	2573.677077
634.336797	2580.314596
634.682336	2574.181192
635.027823	2585.943885
635.373257	2574.433250
635.718639	2576.365692
636.063968	2575.273442
636.409245	2569.224058
636.754470	2586.279962
637.099642	2566.871519
637.444762	2580.902731
637.789829	2564.771038
638.134845	2576.701769
638.479808	2582.163019
638.824719	2577.625981
639.169577	2577.121865
639.514383	2585.103692
639.859137	2569.056019
640.203839	2577.541962
640.548489	2571.828654
640.893086	2571.828654
641.237632	2561.578308
641.582125	2576.029615
641.926566	2575.189423
642.270955	2577.373923
642.615292	2570.988462
642.959576	2580.566654
643.303809	2574.517269
643.647990	2582.331058
643.992118	2578.718231
644.336195	2561.410269
644.680219	2563.090654
645.024192	2576.113635
645.368112	2563.930846
645.711981	2578.634212
646.055797	2574.769327
646.399562	2570.232288
646.743274	2562.166442
647.086935	2571.744635
647.430544	2592.161308
647.774101	2582.499096
648.117606	2578.886269
648.461059	2577.457942
648.804460	2587.624269
649.147810	2569.140038
649.491108	2565.107115
649.834354	2569.476115
650.177548	2570.988462
650.520690	2585.943885
650.863781	2574.349231
651.206820	2586.868096
651.549807	2573.845115
651.892742	2564.771038
652.235626	2575.609519
652.578458	2572.248750
652.921238	2570.484346
653.263967	2576.617750
653.606644	2574.181192
653.949269	2571.576596
654.291843	2590.985038
654.634365	2564.939077
654.976836	2577.121865
655.319255	2555.192846
655.661622	2559.309788
656.003938	2554.604712
656.346203	2578.970288
656.688416	2571.996692
657.030577	2573.761096
657.372687	2577.037846
657.714746	2564.771038
658.056753	2568.299846
658.398708	2577.373923
658.740612	2574.265212
659.082465	2572.668846
659.424266	2578.382154
659.766016	2580.566654
660.107715	2583.507327
660.449362	2573.341000
660.790958	2582.919192
661.132503	2585.187712
661.473996	2570.736404
661.815438	2582.835173
662.156829	2579.222346
662.498168	2569.308077
662.839456	2572.332769
663.180693	2578.802250
663.521879	2577.710000
663.863013	2570.064250
664.204097	2576.449712
664.545129	2571.996692
664.886110	2577.625981
665.227040	2569.140038
665.567918	2568.887981
665.908746	2561.242231
666.249522	2574.601288
666.590248	2568.635923
666.930922	2589.304654
667.271545	2567.711712
667.612118	2574.601288
667.952639	2571.156500
668.293109	2571.996692
668.633528	2566.283385
668.973896	2573.425019
669.314213	2572.416788
669.654480	2564.855058
669.994695	2558.805673
670.334859	2580.650673
670.674973	2573.929135
671.015035	2570.820423
671.355047	2574.433250
671.695008	2571.996692
672.034918	2562.250462
672.374777	2579.054308
672.714585	2570.064250
673.054342	2572.248750
673.394049	2573.929135
673.733705	2564.855058
674.073310	2583.339288
674.412864	2572.668846
674.752368	2588.968577
675.091820	2568.215827
675.431223	2581.070769
675.770574	2570.064250
676.109875	2594.765904
676.449125	2575.441481
676.788324	2564.687019
677.127473	2571.576596
677.466571	2567.627692
677.805619	2561.914385
678.144616	2564.771038
678.483562	2568.383865
678.822458	2572.668846
679.161303	2570.232288
679.500098	2578.718231
679.838842	2564.687019
680.177535	2569.056019
680.516179	2564.014865
680.854771	2587.204173
681.193314	2580.902731
681.531805	2577.205885
681.870247	2575.777558
682.208638	2575.105404
682.546978	2575.861577
682.885268	2580.230577
683.223508	2570.736404
683.561697	2566.955538
683.899836	2577.962058
684.237925	2568.972000
684.575963	2583.759385
684.913951	2580.314596
685.251889	2584.179481
685.589776	2563.678788
685.927614	2586.195942
686.265401	2581.742923
686.603137	2574.265212
686.940824	2576.785788
687.278460	2586.700058
687.616046	2578.886269
687.953582	2576.113635
688.291068	2588.632500
688.628504	2577.457942
688.965889	2565.023096
689.303224	2575.861577
689.640510	2560.318019
689.977745	2564.098885
690.314930	2581.154788
690.652065	2575.861577
690.989150	2584.095462
691.326185	2568.887981
691.663170	2579.978519
692.000105	2561.914385
692.336990	2564.266923
692.673825	2568.887981
693.010610	2578.298135
693.347345	2576.533731
693.684030	2572.248750
694.020665	2574.013154
694.357251	2583.087231
694.693786	2575.777558
695.030272	2580.986750
695.366707	2570.148269
695.703093	2573.761096
696.039429	2569.728173
696.375716	2578.046077
696.711952	2574.013154
697.048139	2570.148269
697.384276	2563.342712
697.720363	2569.224058
698.056400	2579.306365
698.392388	2576.029615
698.728326	2571.156500
699.064214	2569.224058
699.400053	2572.836885
699.735842	2568.887981
700.071581	2569.476115
700.407270	2564.687019
700.742910	2575.525500
701.078501	2575.357462
701.414042	2571.240519
701.749533	2576.029615
702.084974	2566.955538
702.420366	2586.700058
702.755709	2574.685308
703.091002	2579.054308
703.426246	2574.517269
703.761440	2577.205885
704.096584	2576.785788
704.431679	2571.912673
704.766725	2564.014865
705.101721	2564.687019
705.436668	2574.265212
705.771565	2574.769327
706.106413	2573.929135
706.441212	2571.660615
706.775961	2579.894500
707.110661	2577.121865
707.445311	2561.998404
707.779913	2560.990173
708.114465	2568.215827
708.448967	2571.996692
708.783421	2575.693538
709.117825	2582.919192
709.452180	2568.803962
709.786485	2568.467885
710.120742	2561.746346
710.454949	2573.004923
710.789107	2572.920904
711.123216	2583.255269
711.457275	2568.719942
711.791286	2574.265212
712.125247	2569.392096
712.459159	2564.939077
712.793023	2578.214115
713.126837	2580.566654
713.460602	2568.635923
713.794318	2562.334481
714.127985	2556.957250
714.461602	2584.263500
714.795171	2548.555327
715.128691	2585.187712
715.462162	2577.710000
715.795584	2570.904442
716.128957	2557.461365
716.462281	2581.154788
716.795556	2575.525500
717.128782	2577.205885
717.461960	2565.443192
717.795088	2577.037846
718.128167	2552.924327
718.461198	2565.443192
718.794180	2558.973712
719.127113	2575.021385
719.459997	2550.739827
719.792833	2576.617750
720.125619	2562.838596
720.458357	2567.711712
720.791046	2553.680500
721.123686	2564.518981
721.456278	2569.728173
721.788821	2573.509038
722.121315	2576.029615
722.453761	2565.611231
722.786158	2566.787500
723.118506	2552.672269
723.450805	2578.886269
723.783056	2593.421596
724.115259	2564.518981
724.447412	2568.383865
724.779518	2581.154788
725.111574	2568.467885
725.443582	2564.014865
725.775542	2574.013154
726.107453	2568.887981
726.439315	2572.584827
726.771129	2586.195942
727.102895	2575.525500
727.434612	2575.441481
727.766281	2574.517269
728.097901	2561.830365
728.429473	2583.255269
728.760996	2567.123577
729.092471	2572.500808
729.423897	2570.400327
729.755276	2560.654096
730.086606	2567.627692
730.417887	2553.848538
730.749120	2565.779269
731.080305	2558.973712
731.411442	2576.785788
731.742530	2576.617750
732.073570	2577.710000
732.404562	2583.675365
732.735506	2563.930846
733.066401	2580.986750
733.397249	2555.612942
733.728048	2574.181192
734.058798	2567.207596
734.389501	2569.728173
734.720156	2573.845115
735.050762	2555.612942
735.381320	2570.400327
735.711831	2567.879750
736.042293	2566.115346
736.372707	2569.392096
736.703073	2572.752865
737.033391	2572.584827
737.363661	2566.115346
737.693883	2565.359173
738.024056	2581.658904
738.354182	2562.670558
738.684260	2562.166442
739.014290	2574.097173
739.344272	2571.240519
739.674207	2573.845115
740.004093	2568.047788
740.333931	2565.023096
740.663722	2566.619462
740.993464	2565.779269
741.323159	2570.484346
741.652806	2560.065962
741.982405	2570.148269
742.311956	2572.668846
742.641460	2580.398615
742.970915	2563.846827
743.300323	2571.744635
743.629683	2560.402038
743.958996	2564.098885
744.288260	2572.080712
744.617477	2571.912673
744.946647	2561.074192
745.275768	2566.115346
745.604842	2572.584827
745.933869	2581.910962
746.262847	2573.845115
746.591778	2560.402038
746.920662	2572.584827
747.249498	2569.140038
747.578286	2577.710000
747.907027	2561.074192
748.235720	2566.199365
748.564365	2571.072481
748.892963	2564.603000
749.221514	2578.718231
749.550017	2578.382154
749.878473	2573.172962
750.206881	2569.728173
750.535242	2578.634212
750.863555	2577.878038
751.191821	2562.838596
751.520039	2548.303269
751.848210	2570.064250
752.176334	2576.029615
752.504411	2579.978519
752.832440	2567.963769
753.160421	2572.836885
753.488356	2558.217538
753.816243	2560.486058
754.144082	2564.182904
754.471875	2573.677077
754.799620	2562.922615
755.127318	2570.904442
755.454969	2569.224058
755.782572	2569.056019
756.110129	2577.037846
756.437638	2588.884558
756.765100	2583.339288
757.092515	2560.402038
757.419882	2559.981942
757.747203	2556.957250
758.074477	2568.972000
758.401703	2578.886269
758.728882	2548.723365
759.056014	2561.998404
759.383099	2576.785788
759.710138	2569.392096
760.037129	2578.634212
760.364073	2583.087231
760.690970	2575.105404
761.017820	2578.298135
761.344623	2565.191135
761.671379	2567.291615
761.998088	2570.400327
762.324751	2563.426731
762.651366	2569.560135
762.977935	2580.146558
763.304456	2578.466173
763.630931	2567.123577
763.957359	2581.070769
764.283740	2572.500808
764.610074	2582.079000
764.936362	2586.279962
765.262602	2577.205885
765.588796	2588.716519
765.914943	2552.000115
766.241044	2569.728173
766.567097	2560.149981
766.893104	2567.795731
767.219064	2579.726462
767.544978	2578.298135
767.870845	2553.848538
768.196665	2566.955538
768.522438	2571.576596
768.848165	2571.240519
769.173846	2567.291615
769.499479	2566.871519
769.825066	2573.593058
770.150607	2560.906154
770.476101	2561.494288
770.801548	2550.571788
771.126949	2579.810481
771.452303	2560.486058
771.777611	2560.065962
772.102872	2569.140038
772.428087	2582.583115
772.753256	2562.166442
773.078378	2568.972000
773.403453	2576.953827
773.728482	2574.349231
774.053465	2563.426731
774.378401	2560.149981
774.703291	2565.779269
775.028135	2553.848538
775.352932	2568.635923
775.677683	2567.291615
776.002388	2568.719942
776.327046	2567.627692
776.651658	2565.275154
776.976224	2556.033038
777.300743	2561.914385
777.625216	2557.209308
777.949643	2571.492577
778.274024	2564.350942
778.598359	2564.603000
778.922647	2574.769327
779.246889	2563.510750
779.571086	2563.006635
779.895236	2579.978519
780.219339	2575.189423
780.543397	2573.761096
780.867409	2577.794019
781.191374	2580.566654
781.515294	2569.140038
781.839167	2578.214115
782.162995	2577.541962
782.486776	2560.318019
782.810511	2578.046077
783.134201	2578.802250
783.457844	2573.677077
783.781441	2570.316308
784.104993	2559.309788
784.428498	2580.398615
784.751958	2558.553615
785.075372	2572.668846
785.398739	2566.199365
785.722061	2565.779269
786.045337	2576.617750
786.368568	2570.988462
786.691752	2564.687019
787.014891	2563.090654
787.337983	2568.215827
787.661030	2561.746346
787.984031	2560.234000
788.306987	2570.484346
788.629897	2577.121865
788.952760	2573.256981
789.275579	2587.960346
789.598351	2564.687019
789.921078	2562.418500
790.243759	2562.670558
790.566395	2577.962058
790.888984	2561.074192
791.211529	2571.828654
791.534027	2566.955538
791.856480	2556.033038
792.178888	2559.813904
792.501249	2560.486058
792.823566	2564.603000
793.145836	2564.350942
793.468062	2573.761096
793.790241	2576.449712
794.112375	2558.973712
794.434464	2564.687019
794.756507	2560.149981
795.078505	2572.164731
795.400457	2571.576596
795.722364	2559.309788
796.044226	2567.543673
796.366042	2572.668846
796.687812	2564.434962
797.009538	2557.461365
797.331218	2573.425019
797.652852	2575.861577
797.974442	2564.266923
798.295986	2556.285096
798.617484	2564.014865
798.938938	2562.082423
799.260346	2562.502519
799.581709	2570.232288
799.903026	2573.172962
800.224299	2565.779269
800.545526	2553.176385
800.866708	2561.494288
801.187845	2552.168154
801.508936	2560.234000
801.829983	2563.594769
802.150984	2560.990173
802.471940	2583.591346
802.792851	2570.820423
803.113717	2550.907865
803.434538	2580.986750
803.755314	2577.794019
804.076045	2558.889692
804.396731	2563.846827
804.717372	2557.545385
805.037967	2572.416788
805.358518	2560.738115
805.679024	2552.756288
805.999485	2566.115346
806.319901	2560.402038
806.640272	2576.197654
806.960598	2574.181192
807.280879	2560.149981
807.601115	2559.813904
807.921306	2560.486058
808.241453	2560.570077
808.561554	2568.635923
808.881611	2561.494288
809.201623	2548.051212
809.521590	2566.451423
809.841513	2567.291615
810.161390	2575.525500
810.481223	2559.141750
810.801011	2563.510750
811.120755	2568.215827
811.440453	2569.812192
811.760107	2570.400327
812.079716	2565.023096
812.399281	2567.039558
812.718801	2556.789212
813.038276	2565.695250
813.357707	2571.324538
813.677093	2564.182904
813.996434	2560.906154
814.315731	2559.477827
814.634983	2571.072481
814.954191	2555.108827
815.273354	2568.887981
815.592473	2565.695250
815.911547	2570.316308
816.230577	2562.166442
816.549562	2565.947308
816.868502	2578.634212
817.187399	2567.375635
817.506250	2571.576596
817.825058	2561.662327
818.143821	2563.678788
818.462539	2558.301558
818.781213	2568.803962
819.099843	2571.492577
819.418429	2575.777558
819.736970	2578.718231
820.055466	2567.795731
820.373919	2561.998404
820.692327	2577.205885
821.010691	2590.396904
821.329011	2572.248750
821.647286	2582.079000
821.965517	2593.253558
822.283704	2597.202462
822.601847	2604.764192
822.919945	2597.118442
823.237999	2609.469269
823.556010	2589.892788
823.873976	2590.228865
824.191897	2589.136615
824.509775	2582.499096
824.827609	2572.668846
825.145398	2577.710000
825.463144	2603.587923
825.780845	2568.215827
826.098502	2576.953827
826.416116	2570.988462
826.733685	2584.935654
827.051210	2581.574885
827.368692	2582.415077
827.686129	2577.373923
828.003522	2576.281673
828.320872	2575.189423
828.638177	2574.853346
828.955439	2582.751154
829.272656	2574.433250
829.589830	2583.759385
829.906960	2565.779269
830.224046	2576.533731
830.541088	2553.092365
830.858086	2559.057731
831.175041	2563.258692
831.491952	2562.586538
831.808819	2568.887981
832.125642	2555.192846
832.442421	2562.502519
832.759157	2574.937365
833.075849	2562.166442
833.392497	2579.390385
833.709101	2576.617750
834.025662	2578.634212
834.342179	2567.123577
834.658653	2576.197654
834.975083	2573.256981
835.291469	2579.558423
835.607811	2560.570077
835.924110	2578.802250
836.240366	2572.416788
836.556578	2576.701769
836.872746	2569.476115
837.188871	2562.838596
837.504952	2574.769327
837.820990	2577.205885
838.136984	2564.939077
838.452935	2582.667135
838.768842	2566.535442
839.084706	2576.365692
839.400526	2572.416788
839.716303	2558.889692
840.032037	2576.953827
840.347727	2568.719942
840.663373	2590.480923
840.978977	2582.247038
841.294537	2563.930846
841.610054	2568.047788
841.925527	2554.352654
842.240957	2565.275154
842.556344	2575.357462
842.871687	2560.065962
843.186987	2557.965481
843.502244	2560.570077
843.817458	2556.789212
844.132629	2576.029615
844.447756	2568.719942
844.762840	2556.537154
845.077881	2551.748058
845.392879	2549.815615
845.707833	2575.441481
846.022745	2574.853346
846.337613	2580.398615
846.652438	2569.056019
846.967221	2556.285096
847.281960	2575.357462
847.596656	2556.201077
847.911309	2551.243942
848.225919	2574.265212
848.540485	2554.772750
848.855009	2551.159923
849.169490	2569.812192
849.483928	2561.830365
849.798323	2561.914385
850.112675	2559.141750
850.426984	2567.627692
850.741251	2546.202788
851.055474	2557.293327
851.369654	2564.182904
851.683792	2557.965481
851.997887	2556.621173
852.311938	2553.764519
852.625947	2555.949019
852.939914	2571.744635
853.253837	2568.803962
853.567718	2570.484346
853.881555	2574.265212
854.195350	2555.865000
854.509103	2565.023096
854.822812	2561.746346
855.136479	2581.994981
855.450103	2570.736404
855.763685	2573.929135
856.077224	2554.100596
856.390720	2575.021385
856.704173	2575.189423
857.017584	2547.379058
857.330953	2567.207596
857.644278	2558.973712
857.957561	2569.644154
858.270802	2573.929135
858.584000	2561.578308
858.897155	2568.467885
859.210268	2561.746346
859.523339	2563.090654
859.836367	2549.143462
860.149352	2557.965481
860.462295	2560.486058
860.775195	2572.500808
861.088054	2568.131808
861.400869	2559.141750
861.713642	2567.207596
862.026373	2529.566981
862.339062	2563.762808
862.651708	2568.887981
862.964312	2571.324538
863.276873	2548.555327
863.589392	2557.293327
863.901869	2548.135231
864.214303	2568.551904
864.526696	2564.350942
864.839045	2575.777558
865.151353	2567.627692
865.463619	2562.334481
865.775842	2551.327962
866.088023	2559.477827
866.400162	2580.062538
866.712258	2581.070769
867.024313	2557.797442
867.336325	2552.420212
867.648296	2566.787500
867.960224	2562.838596
868.272110	2577.878038
868.583954	2564.350942
868.895755	2548.219250
869.207515	2553.260404
869.519233	2583.423308
869.830909	2558.133519
870.142542	2569.224058
870.454134	2556.873231
870.765684	2570.652385
871.077191	2546.286808
871.388657	2563.930846
871.700081	2547.042981
872.011463	2562.502519
872.322803	2571.492577
872.634101	2573.088942
872.945357	2571.744635
873.256571	2564.350942
873.567744	2560.065962
873.878874	2570.820423
874.189963	2566.535442
874.501010	2564.098885
874.812015	2558.553615
875.122979	2565.527212
875.433900	2560.149981
875.744780	2553.176385
876.055618	2561.158212
876.366415	2577.457942
876.677169	2577.878038
876.987882	2573.509038
877.298554	2563.090654
877.609183	2580.818712
877.919771	2560.486058
878.230317	2556.873231
878.540822	2564.182904
878.851285	2583.171250
879.161707	2557.209308
879.472087	2575.357462
879.782425	2576.365692
880.092722	2578.298135
880.402977	2592.581404
880.713191	2560.654096
881.023363	2578.718231
881.333494	2574.013154
881.643583	2572.332769
881.953631	2581.406846
882.263637	2582.499096
882.573602	2579.222346
882.883526	2590.312885
883.193408	2578.718231
883.503248	2585.439769
883.813048	2581.154788
884.122806	2572.584827
884.432522	2579.810481
884.742197	2574.265212
885.051831	2580.734692
885.361424	2566.283385
885.670975	2559.897923
885.980485	2556.705192
886.289954	2563.678788
886.599382	2564.182904
886.908768	2564.855058
887.218113	2566.535442
887.527417	2554.100596
887.836680	2554.436673
888.145901	2571.576596
888.455082	2563.678788
888.764221	2556.873231
889.073319	2557.125288
889.382376	2558.217538
889.691392	2569.980231
890.000366	2572.920904
890.309300	2553.344423
890.618193	2573.761096
890.927044	2563.342712
891.235855	2557.797442
891.544625	2558.385577
891.853353	2560.822135
892.162041	2565.191135
892.470687	2567.543673
892.779293	2571.828654
893.087858	2579.642442
893.396381	2560.318019
893.704864	2559.981942
894.013306	2567.627692
894.321707	2574.013154
894.630068	2557.545385
894.938387	2566.115346
895.246665	2564.098885
895.554903	2577.962058
895.863100	2551.664038
896.171256	2586.027904
896.479371	2570.316308
896.787446	2554.520692
897.095480	2573.004923
897.403473	2570.400327
897.711425	2568.635923
898.019336	2566.031327
898.327207	2578.634212
898.635038	2574.013154
898.942827	2564.098885
899.250576	2568.047788
899.558284	2572.584827
899.865952	2564.603000
900.173579	2562.922615
900.481165	2561.158212
900.788711	2553.092365
901.096216	2563.510750
901.403681	2551.075904
901.711105	2574.685308
902.018489	2587.960346
902.325832	2563.510750
902.633135	2555.865000
902.940397	2577.289904
903.247619	2540.489481
903.554800	2566.451423
903.861941	2572.080712
904.169041	2566.367404
904.476101	2565.275154
904.783121	2572.584827
905.090100	2576.869808
905.397039	2564.266923
905.703938	2571.072481
906.010796	2585.775846
906.317614	2555.612942
906.624391	2570.484346
906.931129	2576.449712
907.237826	2574.685308
907.544483	2566.871519
907.851099	2552.756288
908.157675	2568.972000
908.464211	2571.912673
908.770707	2551.411981
909.077163	2557.881462
909.383578	2561.410269
909.689954	2562.334481
909.996289	2570.820423
910.302584	2566.451423
910.608839	2571.324538
910.915054	2561.914385
911.221229	2560.234000
911.527363	2556.369115
911.833458	2568.551904
912.139513	2568.803962
912.445527	2568.131808
912.751502	2572.836885
913.057436	2561.158212
913.363331	2559.981942
913.669186	2571.072481
913.975000	2552.588250
914.280775	2577.121865
914.586510	2569.140038
914.892205	2562.418500
915.197859	2557.881462
915.503475	2578.550192
915.809050	2572.836885
916.114585	2569.560135
916.420081	2558.049500
916.725536	2562.082423
917.030952	2565.107115
917.336328	2561.998404
917.641665	2577.205885
917.946961	2579.390385
918.252218	2571.156500
918.557435	2568.887981
918.862612	2577.373923
919.167750	2563.426731
919.472848	2571.744635
919.777906	2567.375635
920.082925	2575.273442
920.387904	2557.797442
920.692843	2560.234000
920.997743	2561.242231
921.302603	2555.276865
921.607423	2562.670558
921.912204	2560.149981
922.216946	2583.087231
922.521647	2554.688731
922.826310	2553.428442
923.130932	2568.803962
923.435516	2571.828654
923.740059	2552.084135
924.044564	2567.039558
924.349028	2565.107115
924.653454	2554.520692
924.957840	2558.301558
925.262186	2552.420212
925.566493	2556.369115
925.870761	2557.545385
926.174989	2566.955538
926.479178	2548.219250
926.783328	2562.838596
927.087438	2572.164731
927.391509	2563.510750
927.695541	2569.560135
927.999533	2569.980231
928.303486	2550.403750
928.607400	2555.276865
928.911275	2558.301558
929.215110	2551.916096
929.518906	2551.496000
929.822663	2553.512462
930.126381	2550.655808
930.430060	2550.823846
930.733699	2566.367404
931.037299	2557.881462
931.340861	2557.293327
931.644383	2555.865000
931.947866	2564.182904
932.251309	2548.639346
932.554714	2563.342712
932.858080	2553.428442
933.161407	2560.822135
933.464694	2543.178096
933.767943	2561.578308
934.071153	2549.647577
934.374323	2582.079000
934.677455	2556.201077
934.980548	2558.049500
935.283602	2562.418500
935.586617	2569.224058
935.889593	2557.041269
936.192530	2560.149981
936.495428	2551.411981
936.798287	2549.395519
937.101108	2564.603000
937.403890	2579.642442
937.706632	2568.803962
938.009336	2565.191135
938.312002	2561.326250
938.614628	2556.285096
938.917216	2563.174673
939.219765	2553.596481
939.522275	2554.016577
939.824747	2570.568365
940.127179	2570.820423
940.429573	2566.031327
940.731929	2565.695250
941.034246	2557.125288
941.336524	2571.324538
941.638763	2564.771038
941.940964	2549.647577
942.243126	2547.211019
942.545250	2550.487769
942.847335	2569.224058
943.149381	2556.705192
943.451389	2571.576596
943.753359	2569.728173
944.055290	2562.586538
944.357182	2562.502519
944.659036	2559.813904
944.960851	2563.762808
945.262628	2566.199365
945.564367	2555.865000
945.866067	2559.561846
946.167729	2557.125288
946.469352	2556.873231
946.770937	2567.375635
947.072484	2549.227481
947.373992	2556.201077
947.675462	2566.367404
947.976893	2577.625981
948.278286	2562.502519
948.579641	2554.436673
948.880958	2555.780981
949.182236	2554.688731
949.483476	2569.560135
949.784678	2555.108827
950.085841	2577.962058
950.386967	2543.262115
950.688054	2560.234000
950.989103	2566.115346
951.290114	2551.664038
951.591087	2563.762808
951.892021	2550.151692
952.192917	2573.761096
952.493776	2564.603000
952.794596	2560.570077
953.095378	2554.856769
953.396122	2561.830365
953.696828	2559.729885
953.997496	2561.746346
954.298126	2562.586538
954.598718	2560.234000
954.899272	2553.260404
955.199788	2563.762808
955.500266	2567.963769
955.800706	2558.805673
956.101108	2571.828654
956.401472	2555.528923
956.701798	2574.769327
957.002087	2558.973712
957.302337	2550.907865
957.602550	2562.502519
957.902724	2553.344423
958.202861	2542.253885
958.502960	2542.253885
958.803022	2546.874942
959.103045	2549.983654
959.403031	2544.438385
959.702979	2561.158212
960.002889	2547.547096
960.302762	2555.360885
960.602596	2559.897923
960.902393	2552.924327
961.202153	2566.619462
961.501875	2562.166442
961.801559	2562.082423
962.101205	2560.402038
962.400814	2562.922615
962.700385	2570.484346
962.999918	2551.832077
963.299414	2568.299846
963.598873	2547.547096
963.898293	2557.629404
964.197677	2556.201077
964.497022	2564.855058
964.796331	2568.719942
965.095601	2540.825558
965.394835	2551.580019
965.694030	2569.476115
965.993189	2563.930846
966.292309	2550.655808
966.591393	2556.453135
966.890439	2563.258692
967.189447	2571.072481
967.488419	2558.889692
967.787353	2555.865000
968.086249	2559.141750
968.385108	2550.235712
968.683930	2553.512462
968.982714	2557.293327
969.281462	2543.262115
969.580172	2554.016577
969.878844	2570.148269
970.177480	2553.764519
970.476078	2559.141750
970.774639	2557.881462
971.073162	2557.377346
971.371649	2554.688731
971.670098	2572.248750
971.968510	2551.832077
972.266885	2580.818712
972.565223	2556.957250
972.863524	2562.334481
973.161788	2539.985365
973.460014	2567.795731
973.758204	2546.034750
974.056356	2547.547096
974.354471	2551.159923
974.652550	2556.873231
974.950591	2545.866712
975.248595	2559.057731
975.546563	2559.225769
975.844493	2560.990173
976.142386	2559.057731
976.440243	2557.293327
976.738062	2567.039558
977.035845	2557.125288
977.333590	2547.799154
977.631299	2564.687019
977.928971	2570.904442
978.226606	2566.535442
978.524204	2557.545385
978.821765	2561.662327
979.119290	2561.242231
979.416777	2561.158212
979.714228	2561.746346
980.011642	2570.064250
980.309020	2558.217538
980.606360	2557.545385
980.903664	2570.652385
981.200931	2565.527212
981.498162	2552.000115
981.795356	2547.295038
982.092513	2547.127000
982.389633	2549.983654
982.686717	2556.033038
982.983764	2556.621173
983.280775	2568.972000
983.577749	2565.695250
983.874686	2564.350942
984.171587	2563.090654
984.468451	2559.561846
984.765279	2569.392096
985.062070	2551.411981
985.358824	2565.611231
985.655543	2566.703481
985.952224	2545.026519
986.248869	2567.711712
986.545478	2574.433250
986.842050	2551.748058
987.138586	2562.250462
987.435086	2552.420212
987.731549	2558.301558
988.027975	2564.434962
988.324366	2555.024808
988.620719	2552.588250
988.917037	2548.975423
989.213318	2574.517269
989.509563	2550.403750
989.805772	2576.029615
990.101944	2560.822135
990.398080	2556.033038
990.694180	2549.143462
990.990244	2555.444904
991.286271	2561.914385
991.582262	2555.780981
991.878217	2549.647577
992.174136	2552.504231
992.470019	2579.894500
992.765865	2551.916096
993.061676	2549.983654
993.357450	2553.008346
993.653188	2562.838596
993.948890	2557.545385
994.244556	2557.545385
994.540186	2558.721654
994.835780	2568.047788
995.131337	2565.107115
995.426859	2550.991885
995.722345	2561.578308
996.017795	2563.258692
996.313208	2557.881462
996.608586	2546.706904
996.903928	2567.207596
997.199234	2550.655808
997.494504	2558.721654
997.789738	2557.209308
998.084936	2557.461365
998.380099	2564.855058
998.675225	2559.057731
998.970316	2564.182904
999.265371	2561.662327
999.560390	2546.958962
999.855373	2567.459654
1000.150320	2560.906154
1000.445232	2548.975423
1000.740108	2571.324538
1001.034948	2551.411981
1001.329752	2556.789212
1001.624521	2558.721654
1001.919254	2550.487769
1002.213951	2568.551904
1002.508613	2571.996692
1002.803239	2558.721654
1003.097829	2566.031327
1003.392384	2550.403750
1003.686903	2561.746346
1003.981386	2545.362596
1004.275834	2560.149981
1004.570246	2557.965481
1004.864623	2564.014865
1005.158964	2548.975423
1005.453270	2567.627692
1005.747540	2553.848538
1006.041775	2558.721654
1006.335974	2553.764519
1006.630138	2564.182904
1006.924266	2560.570077
1007.218359	2555.360885
1007.512416	2532.591673
1007.806438	2553.428442
1008.100425	2566.619462
1008.394376	2555.108827
1008.688292	2559.057731
1008.982172	2565.443192
1009.276017	2543.934269
1009.569827	2569.308077
1009.863602	2560.654096
1010.157341	2579.222346
1010.451045	2555.024808
1010.744714	2554.856769
1011.038347	2553.596481
1011.331945	2552.672269
1011.625508	2558.637635
1011.919036	2566.703481
1012.212528	2576.281673
1012.505986	2564.098885
1012.799408	2553.428442
1013.092795	2564.350942
1013.386147	2563.258692
1013.679464	2552.084135
1013.972745	2549.647577
1014.265992	2564.518981
1014.559204	2555.865000
1014.852380	2551.159923
1015.145521	2566.535442
1015.438628	2552.504231
1015.731699	2549.059442
1016.024736	2548.639346
1016.317737	2563.006635
1016.610703	2547.631115
1016.903635	2559.561846
1017.196531	2572.920904
1017.489393	2545.194558
1017.782219	2563.090654
1018.075011	2544.354365
1018.367768	2549.815615
1018.660490	2542.001827
1018.953177	2542.001827
1019.245829	2542.001827
