Dividing Wavelength (nm)	Counts (n)	Slit_number_29_of_a_total_of_40	
326.493990	2138.205404
326.888308	2138.205404
327.282561	2138.205404
327.676750	2130.475635
328.070874	2119.553135
328.464933	2118.208827
328.858929	2133.500327
329.252859	2149.379962
329.646726	2164.755481
330.040528	2177.274346
330.434265	2188.364885
330.827938	2210.461942
331.221547	2237.180058
331.615091	2267.426981
332.008571	2276.501058
332.401986	2296.665673
332.795338	2308.260327
333.188625	2340.103615
333.581847	2349.429750
333.975006	2365.981538
334.368100	2394.212000
334.761129	2429.668115
335.154095	2434.961327
335.546996	2434.037115
335.939833	2460.251115
336.332606	2455.209962
336.725315	2476.634865
337.117960	2489.657846
337.510540	2492.514500
337.903056	2501.000442
338.295508	2514.863615
338.687896	2528.558750
339.080220	2531.835500
339.472480	2529.482962
339.864676	2535.616365
340.256807	2548.723365
340.648875	2535.868423
341.040879	2548.975423
341.432818	2542.926038
341.824694	2547.211019
342.216506	2550.487769
342.608253	2534.608135
342.999937	2539.733308
343.391557	2540.153404
343.783113	2535.952442
344.174605	2540.069385
344.566033	2535.700385
344.957397	2544.522404
345.348697	2531.247365
345.739934	2539.733308
346.131106	2521.417115
346.522215	2519.904769
346.913260	2530.323154
347.304241	2529.566981
347.695159	2518.980558
348.086012	2522.257308
348.476802	2506.797769
348.867528	2520.492904
349.258191	2510.326577
349.648789	2520.997019
350.039324	2511.418827
350.429796	2524.357788
350.820203	2517.384192
351.210548	2513.099212
351.600828	2521.837212
351.991045	2498.479865
352.381198	2502.092692
352.771288	2513.519308
353.161314	2503.857096
353.551276	2521.753192
353.941175	2506.881788
354.331010	2517.048115
354.720782	2520.997019
355.110490	2501.336519
355.500135	2504.613269
355.889717	2511.082750
356.279235	2528.054635
356.668689	2521.921231
357.058080	2490.414019
357.447408	2527.634538
357.836672	2507.974038
358.225873	2530.407173
358.615010	2504.445231
359.004084	2503.689058
359.393095	2497.135558
359.782043	2511.838923
360.170927	2517.720269
360.559748	2509.738442
360.948505	2512.595096
361.337199	2525.534058
361.725830	2514.527538
362.114398	2510.662654
362.502903	2520.492904
362.891344	2521.165058
363.279722	2522.341327
363.668037	2523.097500
364.056289	2516.544000
364.444478	2521.585154
364.832603	2521.753192
365.220665	2537.044692
365.608665	2526.626308
365.996601	2517.636250
366.384474	2526.458269
366.772284	2522.593385
367.160031	2512.175000
367.547715	2533.263827
367.935336	2513.015192
368.322893	2524.105731
368.710388	2533.095788
369.097820	2529.651000
369.485189	2541.665750
369.872495	2543.682212
370.259738	2523.181519
370.646918	2518.980558
371.034035	2522.089269
371.421090	2538.304981
371.808081	2526.038173
372.195010	2526.710327
372.581875	2527.046404
372.968678	2540.153404
373.355418	2533.683923
373.742096	2557.713423
374.128710	2541.749769
374.515262	2530.911288
374.901751	2545.950731
375.288177	2538.557038
375.674540	2541.833788
376.060841	2548.387288
376.447079	2551.496000
376.833254	2549.143462
377.219367	2560.906154
377.605417	2545.950731
377.991404	2564.014865
378.377329	2565.107115
378.763191	2575.273442
379.148991	2564.098885
379.534727	2580.818712
379.920402	2588.464462
380.306013	2588.632500
380.691563	2584.011442
381.077049	2594.513846
381.462474	2610.645538
381.847835	2610.729558
382.233134	2619.299519
382.618371	2627.197327
383.003545	2630.726135
383.388657	2638.707962
383.773706	2646.269692
384.158693	2645.933615
384.543618	2647.025865
384.928480	2653.999462
385.313280	2665.005981
385.698017	2673.239865
386.082692	2668.954885
386.467305	2691.388019
386.851856	2685.590692
387.236344	2693.908596
387.620770	2693.404481
388.005133	2700.966212
388.389435	2708.695981
388.773674	2705.083154
389.157851	2709.788231
389.541965	2711.300577
389.926018	2711.300577
390.310008	2701.050231
390.693936	2704.158942
391.077802	2690.547827
391.461606	2702.226500
391.845348	2698.949750
392.229027	2703.150712
392.612645	2685.842750
392.996200	2684.498442
393.379694	2680.213462
393.763125	2693.908596
394.146494	2679.541308
394.529801	2673.491923
394.913047	2656.352000
395.296230	2648.202135
395.679351	2651.562904
396.062410	2649.798500
396.445408	2634.254942
396.828343	2631.482308
397.211217	2624.004596
397.594028	2616.946981
397.976778	2602.495673
398.359466	2593.505615
398.742092	2614.174346
399.124656	2593.421596
399.507158	2577.794019
399.889598	2592.329346
400.271977	2585.103692
400.654294	2567.123577
401.036549	2569.896212
401.418742	2559.225769
401.800874	2575.105404
402.182944	2567.291615
402.564952	2548.555327
402.946898	2545.950731
403.328783	2552.252173
403.710606	2546.202788
404.092367	2553.428442
404.474067	2561.074192
404.855705	2550.823846
405.237282	2549.395519
405.618797	2563.342712
406.000250	2541.245654
406.381642	2548.387288
406.762972	2539.817327
407.144240	2549.059442
407.525447	2545.446615
407.906593	2533.431865
408.287677	2561.242231
408.668700	2550.403750
409.049661	2555.612942
409.430560	2539.649288
409.811399	2545.950731
410.192176	2537.632827
410.572891	2553.260404
410.953545	2551.580019
411.334138	2560.990173
411.714669	2558.973712
412.095139	2538.220962
412.475547	2552.252173
412.855894	2547.883173
413.236180	2544.186327
413.616405	2538.725077
413.996568	2552.420212
414.376670	2560.906154
414.756711	2552.000115
415.136691	2556.705192
415.516609	2549.059442
415.896466	2544.354365
416.276262	2553.176385
416.655997	2558.301558
417.035670	2554.268635
417.415283	2559.561846
417.794834	2543.850250
418.174324	2544.522404
418.553753	2562.922615
418.933121	2545.278577
419.312428	2546.034750
419.691674	2556.705192
420.070859	2535.868423
420.449983	2540.489481
420.829045	2547.127000
421.208047	2561.746346
421.586988	2545.362596
421.965867	2560.486058
422.344686	2536.372538
422.723444	2553.932558
423.102141	2568.131808
423.480777	2542.337904
423.859352	2552.924327
424.237866	2540.321442
424.616319	2551.496000
424.994712	2545.950731
425.373044	2555.360885
425.751314	2544.438385
426.129524	2559.057731
426.507673	2551.327962
426.885762	2555.696962
427.263789	2563.342712
427.641756	2553.512462
428.019662	2559.897923
428.397508	2553.008346
428.775292	2545.950731
429.153016	2554.184615
429.530679	2548.639346
429.908282	2551.664038
430.285824	2562.670558
430.663305	2553.848538
431.040726	2548.807385
431.418086	2559.309788
431.795385	2548.219250
432.172624	2554.016577
432.549802	2556.957250
432.926920	2540.825558
433.303977	2557.797442
433.680974	2566.535442
434.057910	2559.393808
434.434786	2572.332769
434.811601	2556.033038
435.188355	2547.967192
435.565050	2554.940788
435.941683	2556.033038
436.318257	2560.234000
436.694770	2562.670558
437.071222	2552.000115
437.447614	2561.914385
437.823946	2552.168154
438.200218	2561.242231
438.576429	2541.329673
438.952580	2561.074192
439.328670	2555.865000
439.704700	2553.848538
440.080670	2559.309788
440.456580	2558.049500
440.832429	2557.377346
441.208218	2538.725077
441.583947	2555.108827
441.959616	2557.545385
442.335224	2558.301558
442.710773	2556.453135
443.086261	2563.174673
443.461689	2567.627692
443.837057	2562.502519
444.212365	2555.696962
444.587612	2546.454846
444.962800	2558.889692
445.337927	2552.672269
445.712995	2545.614654
446.088002	2561.158212
446.462949	2548.975423
446.837837	2555.108827
447.212664	2561.242231
447.587431	2554.352654
447.962139	2561.158212
448.336786	2561.326250
448.711374	2564.771038
449.085901	2556.201077
449.460369	2558.805673
449.834776	2575.441481
450.209124	2548.303269
450.583412	2560.149981
450.957640	2561.074192
451.331808	2556.117058
451.705917	2561.830365
452.079965	2565.107115
452.453954	2557.797442
452.827883	2565.107115
453.201752	2553.260404
453.575562	2565.107115
453.949311	2560.570077
454.323001	2557.461365
454.696632	2556.033038
455.070202	2574.601288
455.443713	2559.477827
455.817164	2581.406846
456.190556	2550.991885
456.563888	2558.973712
456.937160	2549.143462
457.310373	2550.235712
457.683526	2560.570077
458.056619	2550.067673
458.429653	2551.832077
458.802628	2555.528923
459.175542	2565.527212
459.548398	2551.748058
459.921194	2562.922615
460.293930	2560.570077
460.666607	2562.418500
461.039224	2579.474404
461.411782	2571.912673
461.784280	2568.887981
462.156719	2564.603000
462.529099	2554.688731
462.901419	2545.446615
463.273680	2562.502519
463.645882	2573.677077
464.018024	2559.561846
464.390106	2564.350942
464.762130	2572.500808
465.134094	2574.349231
465.505999	2561.494288
465.877845	2575.777558
466.249631	2555.612942
466.621358	2556.117058
466.993026	2560.570077
467.364634	2589.640731
467.736184	2564.855058
468.107674	2574.349231
468.479105	2576.113635
468.850477	2576.113635
469.221790	2549.059442
469.593043	2569.560135
469.964238	2567.711712
470.335373	2571.576596
470.706449	2564.182904
471.077467	2567.207596
471.448425	2567.207596
471.819324	2559.897923
472.190164	2562.586538
472.560945	2559.225769
472.931667	2561.074192
473.302330	2551.664038
473.672934	2577.037846
474.043479	2579.978519
474.413965	2572.584827
474.784393	2571.324538
475.154761	2573.761096
475.525070	2565.191135
475.895321	2575.021385
476.265513	2570.316308
476.635645	2560.149981
477.005719	2568.972000
477.375734	2557.797442
477.745691	2570.148269
478.115588	2579.894500
478.485427	2583.255269
478.855207	2566.955538
479.224928	2578.550192
479.594591	2564.266923
479.964194	2569.392096
480.333739	2581.658904
480.703226	2576.617750
481.072653	2564.939077
481.442022	2567.627692
481.811333	2577.205885
482.180584	2571.072481
482.549777	2555.780981
482.918912	2572.500808
483.287988	2561.578308
483.657005	2567.123577
484.025964	2556.201077
484.394864	2580.482635
484.763706	2567.627692
485.132489	2562.586538
485.501213	2573.425019
485.869879	2559.981942
486.238487	2569.644154
486.607036	2562.670558
486.975527	2576.869808
487.343959	2573.172962
487.712333	2576.701769
488.080648	2570.736404
488.448905	2552.252173
488.817104	2559.141750
489.185244	2562.334481
489.553326	2565.695250
489.921350	2577.121865
490.289315	2566.367404
490.657222	2575.273442
491.025070	2547.631115
491.392861	2576.617750
491.760593	2580.818712
492.128267	2577.878038
492.495883	2564.182904
492.863440	2571.492577
493.230939	2574.517269
493.598380	2585.775846
493.965763	2579.306365
494.333088	2575.693538
494.700354	2571.324538
495.067563	2561.998404
495.434713	2552.840308
495.801805	2560.654096
496.168839	2574.769327
496.535815	2570.064250
496.902733	2564.014865
497.269593	2562.418500
497.636395	2575.357462
498.003139	2562.922615
498.369825	2563.762808
498.736453	2579.390385
499.103023	2574.097173
499.469535	2570.988462
499.835989	2570.148269
500.202385	2575.525500
500.568723	2545.614654
500.935003	2565.359173
501.301226	2571.492577
501.667390	2577.625981
502.033497	2573.761096
502.399546	2571.324538
502.765537	2563.930846
503.131470	2561.578308
503.497345	2581.238808
503.863163	2574.097173
504.228923	2568.635923
504.594625	2579.138327
504.960269	2570.820423
505.325856	2565.527212
505.691385	2556.621173
506.056856	2578.970288
506.422270	2562.082423
506.787625	2579.222346
507.152924	2555.949019
507.518164	2565.107115
507.883347	2569.476115
508.248472	2563.678788
508.613540	2561.914385
508.978550	2566.199365
509.343503	2552.336192
509.708398	2566.367404
510.073236	2555.192846
510.438016	2582.415077
510.802738	2555.276865
511.167403	2559.813904
511.532010	2578.382154
511.896561	2571.744635
512.261053	2567.291615
512.625488	2564.014865
512.989866	2567.543673
513.354186	2577.289904
513.718449	2571.156500
514.082655	2558.805673
514.446803	2564.687019
514.810894	2565.695250
515.174927	2589.640731
515.538904	2577.878038
515.902822	2569.812192
516.266684	2568.131808
516.630488	2557.209308
516.994235	2565.023096
517.357925	2575.945596
517.721558	2568.887981
518.085133	2574.097173
518.448651	2568.635923
518.812112	2575.861577
519.175516	2558.805673
519.538863	2577.878038
519.902152	2580.398615
520.265385	2567.207596
520.628560	2568.215827
520.991678	2577.541962
521.354739	2565.359173
521.717743	2567.543673
522.080690	2561.746346
522.443580	2567.627692
522.806413	2555.444904
523.169189	2566.871519
523.531908	2573.761096
523.894569	2571.072481
524.257174	2558.721654
524.619722	2565.443192
524.982213	2574.769327
525.344647	2569.224058
525.707025	2577.794019
526.069345	2562.922615
526.431608	2574.097173
526.793815	2568.551904
527.155964	2573.845115
527.518057	2570.820423
527.880093	2562.418500
528.242072	2578.046077
528.603995	2573.088942
528.965860	2571.996692
529.327669	2567.795731
529.689421	2560.402038
530.051117	2580.398615
530.412755	2568.047788
530.774337	2568.299846
531.135862	2554.940788
531.497331	2572.416788
531.858743	2567.627692
532.220098	2544.690442
532.581396	2567.207596
532.942638	2559.225769
533.303824	2572.416788
533.664953	2559.813904
534.026025	2571.408558
534.387040	2567.795731
534.747999	2574.349231
535.108902	2559.561846
535.469748	2587.876327
535.830537	2585.355750
536.191270	2559.393808
536.551947	2566.871519
536.912567	2577.878038
537.273131	2575.525500
537.633638	2561.830365
537.994089	2568.635923
538.354483	2571.744635
538.714821	2571.324538
539.075103	2583.339288
539.435328	2570.148269
539.795497	2577.037846
540.155609	2562.922615
540.515665	2576.869808
540.875665	2575.357462
541.235609	2570.820423
541.595496	2565.443192
541.955328	2575.105404
542.315102	2571.576596
542.674821	2579.138327
543.034483	2579.810481
543.394090	2577.794019
543.753640	2581.658904
544.113134	2559.729885
544.472571	2581.238808
544.831953	2564.855058
545.191278	2562.082423
545.550548	2578.382154
545.909761	2578.046077
546.268918	2583.507327
546.628019	2571.744635
546.987064	2574.937365
547.346053	2570.064250
547.704986	2566.787500
548.063863	2568.719942
548.422684	2561.074192
548.781449	2571.324538
549.140158	2576.701769
549.498811	2564.434962
549.857408	2555.949019
550.215949	2571.408558
550.574434	2559.981942
550.932864	2569.980231
551.291237	2582.247038
551.649555	2562.922615
552.007817	2576.785788
552.366022	2565.695250
552.724173	2587.120154
553.082267	2569.140038
553.440305	2576.701769
553.798288	2561.998404
554.156215	2569.224058
554.514086	2553.092365
554.871902	2588.716519
555.229661	2556.369115
555.587365	2566.031327
555.945014	2573.845115
556.302606	2578.298135
556.660143	2577.373923
557.017625	2560.990173
557.375050	2563.930846
557.732421	2576.449712
558.089735	2590.228865
558.446994	2572.920904
558.804197	2579.978519
559.161345	2578.130096
559.518437	2567.039558
559.875474	2566.031327
560.232455	2591.237096
560.589381	2577.878038
560.946251	2561.998404
561.303065	2581.826942
561.659825	2583.171250
562.016528	2563.342712
562.373177	2572.080712
562.729770	2586.616038
563.086307	2569.224058
563.442789	2574.013154
563.799216	2581.490865
564.155587	2564.518981
564.511904	2574.265212
564.868164	2572.752865
565.224370	2558.637635
565.580520	2568.719942
565.936615	2565.107115
566.292654	2568.887981
566.648638	2573.509038
567.004567	2570.484346
567.360441	2570.484346
567.716260	2570.316308
568.072023	2580.398615
568.427732	2569.056019
568.783385	2573.509038
569.138982	2584.431538
569.494525	2580.314596
569.850013	2561.578308
570.205445	2565.275154
570.560823	2582.163019
570.916145	2589.640731
571.271412	2574.097173
571.626625	2572.416788
571.981782	2580.398615
572.336884	2566.703481
572.691931	2572.500808
573.046923	2579.726462
573.401860	2572.164731
573.756743	2574.265212
574.111570	2574.853346
574.466342	2585.355750
574.821059	2573.341000
575.175722	2567.543673
575.530330	2584.431538
575.884882	2574.853346
576.239380	2579.474404
576.593823	2572.332769
576.948211	2583.927423
577.302544	2569.476115
577.656823	2562.082423
578.011047	2566.787500
578.365216	2584.935654
578.719330	2578.382154
579.073389	2575.609519
579.427394	2565.947308
579.781344	2580.062538
580.135239	2571.828654
580.489080	2572.584827
580.842866	2582.751154
581.196597	2580.986750
581.550273	2568.215827
581.903895	2563.090654
582.257463	2583.843404
582.610975	2591.069058
582.964434	2569.728173
583.317837	2567.207596
583.671186	2574.853346
584.024481	2573.677077
584.377721	2587.792308
584.730906	2590.312885
585.084037	2561.830365
585.437113	2575.189423
585.790135	2573.677077
586.143103	2575.861577
586.496016	2569.980231
586.848874	2576.953827
587.201679	2576.197654
587.554428	2582.079000
587.907124	2573.761096
588.259765	2572.752865
588.612352	2581.742923
588.964884	2560.990173
589.317362	2566.787500
589.669786	2565.107115
590.022155	2570.652385
590.374470	2576.701769
590.726731	2578.802250
591.078937	2575.525500
591.431090	2564.014865
591.783188	2579.138327
592.135232	2552.420212
592.487222	2572.500808
592.839157	2573.425019
593.191038	2575.525500
593.542866	2565.107115
593.894639	2576.785788
594.246358	2575.189423
594.598022	2565.359173
594.949633	2573.004923
595.301190	2571.492577
595.652692	2565.947308
596.004141	2575.441481
596.355535	2576.701769
596.706876	2569.476115
597.058162	2572.080712
597.409395	2579.726462
597.760573	2572.752865
598.111698	2582.247038
598.462768	2555.276865
598.813785	2565.611231
599.164748	2578.634212
599.515657	2558.217538
599.866511	2571.912673
600.217312	2581.994981
600.568060	2575.021385
600.918753	2583.843404
601.269392	2557.713423
601.619978	2564.266923
601.970510	2590.817000
602.320988	2558.301558
602.671412	2576.953827
603.021783	2571.492577
603.372100	2589.052596
603.722363	2579.306365
604.072572	2571.996692
604.422728	2575.357462
604.772830	2580.062538
605.122878	2568.467885
605.472872	2582.163019
605.822813	2572.080712
606.172701	2559.981942
606.522534	2575.777558
606.872314	2580.314596
607.222041	2581.490865
607.571714	2570.400327
607.921333	2575.189423
608.270899	2574.685308
608.620411	2586.111923
608.969870	2575.273442
609.319276	2577.541962
609.668627	2573.088942
610.017926	2556.117058
610.367171	2583.339288
610.716362	2577.878038
611.065500	2587.120154
611.414585	2580.902731
611.763616	2566.451423
612.112594	2562.670558
612.461518	2571.072481
612.810389	2574.349231
613.159207	2570.064250
613.507971	2581.490865
613.856682	2564.855058
614.205340	2576.365692
614.553945	2565.275154
614.902496	2564.771038
615.250994	2572.836885
615.599439	2581.826942
615.947830	2572.584827
616.296169	2578.298135
616.644454	2567.375635
616.992686	2583.927423
617.340864	2572.752865
617.688990	2576.533731
618.037063	2563.174673
618.385082	2569.560135
618.733048	2572.080712
619.080961	2573.425019
619.428821	2575.021385
619.776628	2572.416788
620.124382	2571.240519
620.472083	2570.316308
620.819731	2560.738115
621.167326	2583.591346
621.514868	2578.466173
621.862357	2583.003212
622.209793	2565.863288
622.557176	2569.560135
622.904506	2585.103692
623.251783	2579.642442
623.599007	2566.535442
623.946179	2573.761096
624.293297	2575.189423
624.640363	2578.634212
624.987376	2577.541962
625.334336	2567.375635
625.681243	2576.281673
626.028097	2571.828654
626.374899	2572.416788
626.721647	2568.131808
627.068343	2568.383865
627.414987	2579.390385
627.761577	2568.803962
628.108115	2578.046077
628.454600	2563.342712
628.801032	2572.416788
629.147412	2583.843404
629.493739	2581.322827
629.840014	2568.887981
630.186236	2563.426731
630.532405	2568.047788
630.878521	2585.271731
631.224585	2577.205885
631.570597	2586.363981
631.916556	2564.182904
632.262462	2586.784077
632.608316	2586.195942
632.954117	2559.813904
633.299866	2570.316308
633.645562	2577.205885
633.991206	2577.878038
634.336797	2592.077288
634.682336	2559.813904
635.027823	2584.011442
635.373257	2569.644154
635.718639	2562.334481
636.063968	2568.383865
636.409245	2573.761096
636.754470	2569.056019
637.099642	2552.840308
637.444762	2583.759385
637.789829	2558.637635
638.134845	2561.410269
638.479808	2571.240519
638.824719	2571.324538
639.169577	2569.140038
639.514383	2570.904442
639.859137	2566.283385
640.203839	2575.357462
640.548489	2567.963769
640.893086	2573.004923
641.237632	2568.047788
641.582125	2551.243942
641.926566	2570.400327
642.270955	2569.056019
642.615292	2556.117058
642.959576	2560.654096
643.303809	2575.861577
643.647990	2576.533731
643.992118	2579.306365
644.336195	2585.103692
644.680219	2554.772750
645.024192	2576.953827
645.368112	2571.324538
645.711981	2570.988462
646.055797	2563.846827
646.399562	2591.405135
646.743274	2579.054308
647.086935	2577.373923
647.430544	2581.574885
647.774101	2569.476115
648.117606	2566.367404
648.461059	2574.013154
648.804460	2579.978519
649.147810	2564.518981
649.491108	2555.949019
649.834354	2567.291615
650.177548	2574.853346
650.520690	2576.869808
650.863781	2557.293327
651.206820	2566.367404
651.549807	2568.803962
651.892742	2565.947308
652.235626	2556.453135
652.578458	2551.327962
652.921238	2564.771038
653.263967	2569.392096
653.606644	2560.234000
653.949269	2576.281673
654.291843	2563.426731
654.634365	2579.810481
654.976836	2592.077288
655.319255	2573.004923
655.661622	2575.105404
656.003938	2574.685308
656.346203	2566.199365
656.688416	2582.751154
657.030577	2564.855058
657.372687	2560.990173
657.714746	2568.551904
658.056753	2579.642442
658.398708	2556.621173
658.740612	2572.752865
659.082465	2556.201077
659.424266	2559.981942
659.766016	2568.803962
660.107715	2583.423308
660.449362	2572.164731
660.790958	2567.795731
661.132503	2586.279962
661.473996	2564.182904
661.815438	2577.457942
662.156829	2573.929135
662.498168	2570.316308
662.839456	2559.897923
663.180693	2567.627692
663.521879	2588.548481
663.863013	2582.163019
664.204097	2574.265212
664.545129	2570.736404
664.886110	2582.751154
665.227040	2558.301558
665.567918	2568.803962
665.908746	2577.037846
666.249522	2567.963769
666.590248	2569.728173
666.930922	2555.696962
667.271545	2559.813904
667.612118	2572.836885
667.952639	2560.486058
668.293109	2578.382154
668.633528	2565.107115
668.973896	2588.548481
669.314213	2579.474404
669.654480	2551.411981
669.994695	2572.248750
670.334859	2577.794019
670.674973	2573.088942
671.015035	2559.813904
671.355047	2577.962058
671.695008	2564.855058
672.034918	2554.520692
672.374777	2564.687019
672.714585	2559.897923
673.054342	2574.769327
673.394049	2556.369115
673.733705	2573.425019
674.073310	2570.568365
674.412864	2569.308077
674.752368	2559.309788
675.091820	2570.904442
675.431223	2582.499096
675.770574	2568.215827
676.109875	2562.082423
676.449125	2574.181192
676.788324	2555.612942
677.127473	2563.006635
677.466571	2580.566654
677.805619	2567.963769
678.144616	2569.308077
678.483562	2564.603000
678.822458	2576.197654
679.161303	2571.828654
679.500098	2575.441481
679.838842	2580.062538
680.177535	2570.232288
680.516179	2575.945596
680.854771	2570.736404
681.193314	2575.105404
681.531805	2572.332769
681.870247	2574.013154
682.208638	2559.729885
682.546978	2577.710000
682.885268	2558.469596
683.223508	2559.393808
683.561697	2583.003212
683.899836	2569.896212
684.237925	2585.439769
684.575963	2560.486058
684.913951	2566.787500
685.251889	2565.359173
685.589776	2567.543673
685.927614	2575.525500
686.265401	2575.357462
686.603137	2570.988462
686.940824	2567.711712
687.278460	2571.996692
687.616046	2580.986750
687.953582	2563.930846
688.291068	2555.276865
688.628504	2559.897923
688.965889	2572.080712
689.303224	2563.174673
689.640510	2572.248750
689.977745	2567.795731
690.314930	2565.527212
690.652065	2570.484346
690.989150	2566.871519
691.326185	2566.283385
691.663170	2572.500808
692.000105	2574.853346
692.336990	2561.998404
692.673825	2564.014865
693.010610	2559.729885
693.347345	2561.578308
693.684030	2568.215827
694.020665	2571.912673
694.357251	2567.375635
694.693786	2561.746346
695.030272	2564.855058
695.366707	2557.797442
695.703093	2567.543673
696.039429	2567.207596
696.375716	2558.469596
696.711952	2563.762808
697.048139	2566.871519
697.384276	2576.617750
697.720363	2574.517269
698.056400	2572.584827
698.392388	2568.887981
698.728326	2557.965481
699.064214	2578.382154
699.400053	2558.637635
699.735842	2566.199365
700.071581	2562.838596
700.407270	2573.172962
700.742910	2566.703481
701.078501	2569.644154
701.414042	2573.761096
701.749533	2564.350942
702.084974	2563.174673
702.420366	2564.603000
702.755709	2566.955538
703.091002	2550.067673
703.426246	2573.341000
703.761440	2554.352654
704.096584	2567.543673
704.431679	2570.988462
704.766725	2573.677077
705.101721	2557.209308
705.436668	2572.668846
705.771565	2568.299846
706.106413	2569.560135
706.441212	2560.486058
706.775961	2570.652385
707.110661	2561.074192
707.445311	2583.003212
707.779913	2561.662327
708.114465	2563.258692
708.448967	2547.547096
708.783421	2570.064250
709.117825	2570.820423
709.452180	2571.912673
709.786485	2569.224058
710.120742	2568.551904
710.454949	2556.873231
710.789107	2564.266923
711.123216	2569.980231
711.457275	2563.762808
711.791286	2573.677077
712.125247	2560.906154
712.459159	2566.199365
712.793023	2564.939077
713.126837	2574.349231
713.460602	2563.510750
713.794318	2569.728173
714.127985	2580.734692
714.461602	2580.818712
714.795171	2573.677077
715.128691	2571.912673
715.462162	2584.767615
715.795584	2562.922615
716.128957	2564.771038
716.462281	2564.434962
716.795556	2569.140038
717.128782	2567.963769
717.461960	2562.502519
717.795088	2564.350942
718.128167	2579.810481
718.461198	2570.064250
718.794180	2560.570077
719.127113	2570.988462
719.459997	2576.533731
719.792833	2573.761096
720.125619	2566.115346
720.458357	2568.635923
720.791046	2555.360885
721.123686	2567.207596
721.456278	2556.369115
721.788821	2570.148269
722.121315	2571.240519
722.453761	2576.785788
722.786158	2573.929135
723.118506	2578.886269
723.450805	2564.687019
723.783056	2567.795731
724.115259	2567.291615
724.447412	2566.955538
724.779518	2571.744635
725.111574	2567.375635
725.443582	2566.031327
725.775542	2574.685308
726.107453	2559.141750
726.439315	2589.052596
726.771129	2589.724750
727.102895	2575.945596
727.434612	2557.545385
727.766281	2573.509038
728.097901	2554.772750
728.429473	2569.560135
728.760996	2559.729885
729.092471	2559.897923
729.423897	2563.930846
729.755276	2555.780981
730.086606	2558.469596
730.417887	2572.752865
730.749120	2546.622885
731.080305	2557.629404
731.411442	2567.291615
731.742530	2571.408558
732.073570	2560.822135
732.404562	2583.675365
732.735506	2560.822135
733.066401	2574.097173
733.397249	2585.943885
733.728048	2568.131808
734.058798	2575.609519
734.389501	2562.082423
734.720156	2565.191135
735.050762	2568.551904
735.381320	2571.828654
735.711831	2573.593058
736.042293	2567.795731
736.372707	2558.637635
736.703073	2574.265212
737.033391	2561.998404
737.363661	2575.441481
737.693883	2573.256981
738.024056	2562.502519
738.354182	2570.148269
738.684260	2567.375635
739.014290	2558.973712
739.344272	2569.140038
739.674207	2552.924327
740.004093	2565.107115
740.333931	2549.143462
740.663722	2567.711712
740.993464	2573.425019
741.323159	2551.664038
741.652806	2564.266923
741.982405	2572.920904
742.311956	2566.955538
742.641460	2577.205885
742.970915	2591.489154
743.300323	2576.785788
743.629683	2575.105404
743.958996	2563.090654
744.288260	2576.281673
744.617477	2559.225769
744.946647	2563.426731
745.275768	2574.517269
745.604842	2567.543673
745.933869	2567.627692
746.262847	2563.258692
746.591778	2555.528923
746.920662	2567.459654
747.249498	2570.736404
747.578286	2571.492577
747.907027	2561.074192
748.235720	2561.494288
748.564365	2556.537154
748.892963	2568.887981
749.221514	2566.115346
749.550017	2575.021385
749.878473	2574.517269
750.206881	2568.719942
750.535242	2570.064250
750.863555	2565.359173
751.191821	2567.459654
751.520039	2551.327962
751.848210	2576.953827
752.176334	2579.054308
752.504411	2548.891404
752.832440	2567.879750
753.160421	2566.283385
753.488356	2558.217538
753.816243	2567.375635
754.144082	2563.090654
754.471875	2566.031327
754.799620	2570.988462
755.127318	2571.492577
755.454969	2574.853346
755.782572	2569.980231
756.110129	2554.436673
756.437638	2552.924327
756.765100	2556.369115
757.092515	2568.719942
757.419882	2563.678788
757.747203	2565.695250
758.074477	2565.359173
758.401703	2554.268635
758.728882	2563.342712
759.056014	2560.402038
759.383099	2576.701769
759.710138	2581.994981
760.037129	2567.123577
760.364073	2570.148269
760.690970	2567.039558
761.017820	2570.316308
761.344623	2571.828654
761.671379	2573.425019
761.998088	2575.273442
762.324751	2573.677077
762.651366	2562.334481
762.977935	2570.148269
763.304456	2567.207596
763.630931	2555.780981
763.957359	2554.352654
764.283740	2553.008346
764.610074	2578.886269
764.936362	2551.580019
765.262602	2562.418500
765.588796	2565.779269
765.914943	2560.738115
766.241044	2557.797442
766.567097	2553.260404
766.893104	2545.782692
767.219064	2569.644154
767.544978	2553.176385
767.870845	2568.299846
768.196665	2575.357462
768.522438	2552.336192
768.848165	2561.578308
769.173846	2571.408558
769.499479	2560.738115
769.825066	2568.299846
770.150607	2571.408558
770.476101	2557.125288
770.801548	2564.098885
771.126949	2574.517269
771.452303	2574.265212
771.777611	2561.158212
772.102872	2563.342712
772.428087	2561.242231
772.753256	2568.972000
773.078378	2567.039558
773.403453	2566.199365
773.728482	2557.965481
774.053465	2556.873231
774.378401	2567.207596
774.703291	2573.256981
775.028135	2575.525500
775.352932	2580.734692
775.677683	2562.922615
776.002388	2558.385577
776.327046	2577.794019
776.651658	2571.996692
776.976224	2570.484346
777.300743	2557.041269
777.625216	2560.654096
777.949643	2560.906154
778.274024	2572.416788
778.598359	2576.365692
778.922647	2557.293327
779.246889	2543.010058
779.571086	2565.359173
779.895236	2562.670558
780.219339	2574.349231
780.543397	2571.072481
780.867409	2572.584827
781.191374	2569.392096
781.515294	2574.685308
781.839167	2563.426731
782.162995	2551.664038
782.486776	2566.367404
782.810511	2563.678788
783.134201	2565.107115
783.457844	2567.711712
783.781441	2559.897923
784.104993	2563.762808
784.428498	2575.945596
784.751958	2573.088942
785.075372	2561.242231
785.398739	2554.940788
785.722061	2564.182904
786.045337	2553.764519
786.368568	2566.283385
786.691752	2569.392096
787.014891	2577.037846
787.337983	2584.011442
787.661030	2571.324538
787.984031	2552.000115
788.306987	2572.752865
788.629897	2552.588250
788.952760	2563.342712
789.275579	2556.453135
789.598351	2559.645865
789.921078	2565.191135
790.243759	2565.107115
790.566395	2561.410269
790.888984	2550.403750
791.211529	2557.881462
791.534027	2565.443192
791.856480	2550.403750
792.178888	2571.324538
792.501249	2575.861577
792.823566	2574.853346
793.145836	2560.822135
793.468062	2565.863288
793.790241	2564.603000
794.112375	2561.158212
794.434464	2556.117058
794.756507	2572.752865
795.078505	2566.451423
795.400457	2565.107115
795.722364	2560.822135
796.044226	2577.625981
796.366042	2556.705192
796.687812	2561.410269
797.009538	2561.410269
797.331218	2571.072481
797.652852	2556.285096
797.974442	2556.201077
798.295986	2566.283385
798.617484	2570.988462
798.938938	2552.840308
799.260346	2573.172962
799.581709	2549.479538
799.903026	2576.785788
800.224299	2563.678788
800.545526	2569.728173
800.866708	2561.242231
801.187845	2569.644154
801.508936	2561.746346
801.829983	2567.711712
802.150984	2565.191135
802.471940	2560.990173
802.792851	2570.484346
803.113717	2569.728173
803.434538	2572.164731
803.755314	2562.166442
804.076045	2564.687019
804.396731	2570.736404
804.717372	2563.174673
805.037967	2562.418500
805.358518	2572.920904
805.679024	2580.146558
805.999485	2569.644154
806.319901	2571.660615
806.640272	2550.319731
806.960598	2572.416788
807.280879	2568.887981
807.601115	2569.560135
807.921306	2563.678788
808.241453	2569.224058
808.561554	2560.318019
808.881611	2574.433250
809.201623	2566.871519
809.521590	2548.051212
809.841513	2565.191135
810.161390	2573.845115
810.481223	2576.953827
810.801011	2555.444904
811.120755	2553.512462
811.440453	2555.444904
811.760107	2555.865000
812.079716	2554.940788
812.399281	2562.922615
812.718801	2567.291615
813.038276	2567.123577
813.357707	2557.797442
813.677093	2563.006635
813.996434	2560.486058
814.315731	2562.334481
814.634983	2569.560135
814.954191	2560.402038
815.273354	2571.492577
815.592473	2565.275154
815.911547	2561.074192
816.230577	2566.619462
816.549562	2560.570077
816.868502	2560.402038
817.187399	2559.981942
817.506250	2564.266923
817.825058	2558.217538
818.143821	2566.955538
818.462539	2567.459654
818.781213	2568.719942
819.099843	2555.276865
819.418429	2579.306365
819.736970	2569.980231
820.055466	2561.830365
820.373919	2546.034750
820.692327	2562.166442
821.010691	2562.502519
821.329011	2570.148269
821.647286	2575.693538
821.965517	2570.232288
822.283704	2556.117058
822.601847	2579.474404
822.919945	2563.930846
823.237999	2563.258692
823.556010	2555.865000
823.873976	2566.955538
824.191897	2564.182904
824.509775	2579.222346
824.827609	2569.980231
825.145398	2551.580019
825.463144	2561.746346
825.780845	2562.838596
826.098502	2565.023096
826.416116	2562.334481
826.733685	2571.240519
827.051210	2579.726462
827.368692	2558.385577
827.686129	2569.392096
828.003522	2568.803962
828.320872	2577.625981
828.638177	2573.593058
828.955439	2553.008346
829.272656	2576.785788
829.589830	2558.133519
829.906960	2559.813904
830.224046	2568.887981
830.541088	2581.322827
830.858086	2549.311500
831.175041	2566.703481
831.491952	2559.561846
831.808819	2569.644154
832.125642	2565.443192
832.442421	2587.960346
832.759157	2558.133519
833.075849	2554.352654
833.392497	2565.023096
833.709101	2549.815615
834.025662	2568.383865
834.342179	2562.670558
834.658653	2559.057731
834.975083	2560.065962
835.291469	2585.691827
835.607811	2561.242231
835.924110	2558.049500
836.240366	2555.865000
836.556578	2559.225769
836.872746	2552.252173
837.188871	2562.586538
837.504952	2561.410269
837.820990	2551.916096
838.136984	2565.611231
838.452935	2561.662327
838.768842	2560.065962
839.084706	2553.764519
839.400526	2563.258692
839.716303	2568.047788
840.032037	2566.283385
840.347727	2560.654096
840.663373	2557.293327
840.978977	2567.207596
841.294537	2568.972000
841.610054	2565.275154
841.925527	2546.874942
842.240957	2548.807385
842.556344	2572.668846
842.871687	2556.033038
843.186987	2570.232288
843.502244	2548.975423
843.817458	2566.199365
844.132629	2564.603000
844.447756	2563.426731
844.762840	2553.848538
845.077881	2575.189423
845.392879	2571.576596
845.707833	2579.138327
846.022745	2565.023096
846.337613	2551.916096
846.652438	2547.715135
846.967221	2557.461365
847.281960	2559.981942
847.596656	2547.295038
847.911309	2556.453135
848.225919	2556.621173
848.540485	2552.252173
848.855009	2566.955538
849.169490	2551.664038
849.483928	2569.812192
849.798323	2554.436673
850.112675	2564.687019
850.426984	2571.996692
850.741251	2560.318019
851.055474	2566.199365
851.369654	2555.192846
851.683792	2558.637635
851.997887	2559.225769
852.311938	2563.006635
852.625947	2565.527212
852.939914	2555.444904
853.253837	2562.754577
853.567718	2558.553615
853.881555	2566.955538
854.195350	2557.545385
854.509103	2576.281673
854.822812	2563.090654
855.136479	2588.800538
855.450103	2567.879750
855.763685	2566.703481
856.077224	2559.645865
856.390720	2573.088942
856.704173	2578.466173
857.017584	2579.138327
857.330953	2549.479538
857.644278	2567.459654
857.957561	2571.996692
858.270802	2566.283385
858.584000	2576.197654
858.897155	2565.191135
859.210268	2562.166442
859.523339	2559.729885
859.836367	2553.260404
860.149352	2569.056019
860.462295	2558.133519
860.775195	2565.695250
861.088054	2556.537154
861.400869	2561.494288
861.713642	2564.434962
862.026373	2561.746346
862.339062	2560.234000
862.651708	2538.977135
862.964312	2558.133519
863.276873	2579.054308
863.589392	2556.201077
863.901869	2550.151692
864.214303	2551.916096
864.526696	2562.334481
864.839045	2562.334481
865.151353	2561.578308
865.463619	2559.057731
865.775842	2562.334481
866.088023	2559.309788
866.400162	2571.492577
866.712258	2549.983654
867.024313	2560.570077
867.336325	2578.130096
867.648296	2562.754577
867.960224	2572.080712
868.272110	2555.360885
868.583954	2566.199365
868.895755	2541.749769
869.207515	2567.207596
869.519233	2550.067673
869.830909	2555.949019
870.142542	2556.537154
870.454134	2567.039558
870.765684	2559.645865
871.077191	2571.744635
871.388657	2585.523788
871.700081	2547.042981
872.011463	2564.182904
872.322803	2561.998404
872.634101	2544.774462
872.945357	2555.276865
873.256571	2555.024808
873.567744	2554.940788
873.878874	2559.309788
874.189963	2554.940788
874.501010	2567.123577
874.812015	2560.149981
875.122979	2556.285096
875.433900	2554.604712
875.744780	2543.010058
876.055618	2566.703481
876.366415	2565.779269
876.677169	2560.822135
876.987882	2549.731596
877.298554	2566.283385
877.609183	2548.471308
877.919771	2572.752865
878.230317	2574.685308
878.540822	2569.812192
878.851285	2551.496000
879.161707	2560.738115
879.472087	2540.657519
879.782425	2579.222346
880.092722	2567.039558
880.402977	2566.031327
880.713191	2563.258692
881.023363	2565.023096
881.333494	2572.752865
881.643583	2558.553615
881.953631	2567.795731
882.263637	2564.014865
882.573602	2570.988462
882.883526	2559.393808
883.193408	2555.276865
883.503248	2561.074192
883.813048	2562.250462
884.122806	2554.856769
884.432522	2563.174673
884.742197	2550.655808
885.051831	2557.713423
885.361424	2562.586538
885.670975	2571.744635
885.980485	2567.291615
886.289954	2566.871519
886.599382	2555.696962
886.908768	2550.571788
887.218113	2563.426731
887.527417	2560.065962
887.836680	2556.033038
888.145901	2563.762808
888.455082	2567.795731
888.764221	2558.805673
889.073319	2557.209308
889.382376	2561.242231
889.691392	2556.369115
890.000366	2560.906154
890.309300	2559.393808
890.618193	2548.807385
890.927044	2557.797442
891.235855	2555.108827
891.544625	2552.840308
891.853353	2562.250462
892.162041	2573.256981
892.470687	2561.326250
892.779293	2562.586538
893.087858	2548.051212
893.396381	2561.998404
893.704864	2558.637635
894.013306	2558.469596
894.321707	2566.283385
894.630068	2562.166442
894.938387	2587.960346
895.246665	2574.013154
895.554903	2558.469596
895.863100	2576.533731
896.171256	2552.840308
896.479371	2572.752865
896.787446	2564.939077
897.095480	2552.672269
897.403473	2557.881462
897.711425	2561.326250
898.019336	2562.166442
898.327207	2552.840308
898.635038	2570.064250
898.942827	2570.652385
899.250576	2568.047788
899.558284	2559.057731
899.865952	2552.504231
900.173579	2566.955538
900.481165	2554.436673
900.788711	2549.143462
901.096216	2561.494288
901.403681	2570.988462
901.711105	2559.309788
902.018489	2545.614654
902.325832	2570.316308
902.633135	2552.672269
902.940397	2564.603000
903.247619	2545.446615
903.554800	2560.065962
903.861941	2552.840308
904.169041	2555.108827
904.476101	2555.276865
904.783121	2556.789212
905.090100	2562.586538
905.397039	2558.385577
905.703938	2553.932558
906.010796	2565.023096
906.317614	2547.883173
906.624391	2548.807385
906.931129	2568.383865
907.237826	2547.547096
907.544483	2560.906154
907.851099	2546.202788
908.157675	2565.191135
908.464211	2566.535442
908.770707	2565.191135
909.077163	2562.418500
909.383578	2562.166442
909.689954	2547.463077
909.996289	2570.820423
910.302584	2561.074192
910.608839	2565.275154
910.915054	2552.252173
911.221229	2572.584827
911.527363	2558.469596
911.833458	2554.436673
912.139513	2549.227481
912.445527	2551.664038
912.751502	2574.265212
913.057436	2561.326250
913.363331	2566.871519
913.669186	2553.176385
913.975000	2549.143462
914.280775	2542.421923
914.586510	2574.517269
914.892205	2550.655808
915.197859	2557.461365
915.503475	2560.570077
915.809050	2559.477827
916.114585	2571.660615
916.420081	2570.568365
916.725536	2579.390385
917.030952	2564.014865
917.336328	2565.947308
917.641665	2554.268635
917.946961	2566.703481
918.252218	2570.568365
918.557435	2562.082423
918.862612	2554.856769
919.167750	2555.612942
919.472848	2563.762808
919.777906	2546.958962
920.082925	2564.518981
920.387904	2564.687019
920.692843	2560.822135
920.997743	2562.502519
921.302603	2559.561846
921.607423	2559.057731
921.912204	2563.174673
922.216946	2563.594769
922.521647	2560.486058
922.826310	2566.031327
923.130932	2553.428442
923.435516	2562.334481
923.740059	2564.687019
924.044564	2559.981942
924.349028	2561.830365
924.653454	2556.705192
924.957840	2569.392096
925.262186	2557.965481
925.566493	2569.224058
925.870761	2552.504231
926.174989	2554.520692
926.479178	2559.561846
926.783328	2552.336192
927.087438	2555.949019
927.391509	2553.932558
927.695541	2557.041269
927.999533	2562.670558
928.303486	2550.571788
928.607400	2559.393808
928.911275	2563.258692
929.215110	2558.637635
929.518906	2563.762808
929.822663	2558.301558
930.126381	2554.184615
930.430060	2553.176385
930.733699	2549.311500
931.037299	2573.677077
931.340861	2541.329673
931.644383	2551.159923
931.947866	2565.611231
932.251309	2541.833788
932.554714	2560.990173
932.858080	2558.133519
933.161407	2555.780981
933.464694	2557.713423
933.767943	2573.929135
934.071153	2563.846827
934.374323	2558.889692
934.677455	2564.771038
934.980548	2547.463077
935.283602	2563.594769
935.586617	2570.904442
935.889593	2546.118769
936.192530	2565.779269
936.495428	2554.436673
936.798287	2575.945596
937.101108	2554.688731
937.403890	2567.543673
937.706632	2556.705192
938.009336	2561.326250
938.312002	2554.352654
938.614628	2562.418500
938.917216	2559.057731
939.219765	2557.797442
939.522275	2548.219250
939.824747	2548.471308
940.127179	2563.006635
940.429573	2557.041269
940.731929	2561.914385
941.034246	2548.807385
941.336524	2566.703481
941.638763	2560.486058
941.940964	2561.746346
942.243126	2553.092365
942.545250	2545.110538
942.847335	2561.074192
943.149381	2567.123577
943.451389	2558.301558
943.753359	2555.024808
944.055290	2558.385577
944.357182	2552.756288
944.659036	2557.125288
944.960851	2549.731596
945.262628	2556.873231
945.564367	2554.772750
945.866067	2572.752865
946.167729	2552.924327
946.469352	2565.107115
946.770937	2554.688731
947.072484	2547.883173
947.373992	2560.065962
947.675462	2549.899635
947.976893	2551.916096
948.278286	2563.846827
948.579641	2567.291615
948.880958	2568.635923
949.182236	2567.375635
949.483476	2560.065962
949.784678	2564.182904
950.085841	2546.706904
950.386967	2551.832077
950.688054	2560.906154
950.989103	2577.878038
951.290114	2547.211019
951.591087	2554.940788
951.892021	2549.395519
952.192917	2545.446615
952.493776	2564.098885
952.794596	2551.243942
953.095378	2549.731596
953.396122	2544.858481
953.696828	2548.303269
953.997496	2556.369115
954.298126	2540.489481
954.598718	2552.336192
954.899272	2555.444904
955.199788	2565.695250
955.500266	2543.346135
955.800706	2558.217538
956.101108	2562.082423
956.401472	2565.023096
956.701798	2567.963769
957.002087	2550.655808
957.302337	2563.846827
957.602550	2561.662327
957.902724	2562.334481
958.202861	2552.420212
958.502960	2566.703481
958.803022	2564.687019
959.103045	2556.789212
959.403031	2559.393808
959.702979	2567.879750
960.002889	2568.047788
960.302762	2545.698673
960.602596	2558.637635
960.902393	2567.963769
961.202153	2565.779269
961.501875	2570.064250
961.801559	2563.258692
962.101205	2561.998404
962.400814	2566.871519
962.700385	2567.039558
962.999918	2564.434962
963.299414	2563.930846
963.598873	2570.148269
963.898293	2556.369115
964.197677	2563.510750
964.497022	2549.899635
964.796331	2566.115346
965.095601	2555.696962
965.394835	2556.873231
965.694030	2568.131808
965.993189	2556.285096
966.292309	2550.151692
966.591393	2557.209308
966.890439	2579.978519
967.189447	2556.705192
967.488419	2564.687019
967.787353	2543.346135
968.086249	2554.184615
968.385108	2552.168154
968.683930	2565.191135
968.982714	2565.275154
969.281462	2558.133519
969.580172	2552.252173
969.878844	2556.117058
970.177480	2550.907865
970.476078	2558.553615
970.774639	2565.527212
971.073162	2546.202788
971.371649	2550.151692
971.670098	2551.748058
971.968510	2569.392096
972.266885	2551.496000
972.565223	2547.715135
972.863524	2539.229192
973.161788	2557.209308
973.460014	2555.192846
973.758204	2558.889692
974.056356	2560.486058
974.354471	2561.578308
974.652550	2570.316308
974.950591	2559.813904
975.248595	2551.664038
975.546563	2559.561846
975.844493	2576.113635
976.142386	2553.512462
976.440243	2568.383865
976.738062	2545.278577
977.035845	2554.268635
977.333590	2561.242231
977.631299	2553.008346
977.928971	2549.815615
978.226606	2562.922615
978.524204	2558.721654
978.821765	2550.823846
979.119290	2564.098885
979.416777	2576.281673
979.714228	2556.033038
980.011642	2567.039558
980.309020	2558.385577
980.606360	2562.838596
980.903664	2559.057731
981.200931	2556.705192
981.498162	2539.733308
981.795356	2556.201077
982.092513	2563.258692
982.389633	2571.156500
982.686717	2573.845115
982.983764	2546.370827
983.280775	2563.342712
983.577749	2561.662327
983.874686	2542.169865
984.171587	2557.881462
984.468451	2559.645865
984.765279	2555.528923
985.062070	2565.947308
985.358824	2568.635923
985.655543	2547.295038
985.952224	2545.530635
986.248869	2552.840308
986.545478	2550.907865
986.842050	2555.612942
987.138586	2550.907865
987.435086	2559.813904
987.731549	2562.082423
988.027975	2554.772750
988.324366	2549.983654
988.620719	2542.085846
988.917037	2556.369115
989.213318	2559.897923
989.509563	2559.813904
989.805772	2552.084135
990.101944	2582.499096
990.398080	2563.762808
990.694180	2558.133519
990.990244	2559.561846
991.286271	2556.117058
991.582262	2560.234000
991.878217	2553.932558
992.174136	2562.418500
992.470019	2547.547096
992.765865	2561.242231
993.061676	2565.695250
993.357450	2559.561846
993.653188	2566.871519
993.948890	2553.008346
994.244556	2560.822135
994.540186	2557.041269
994.835780	2557.965481
995.131337	2567.963769
995.426859	2542.001827
995.722345	2556.705192
996.017795	2548.891404
996.313208	2551.243942
996.608586	2567.879750
996.903928	2550.739827
997.199234	2556.705192
997.494504	2558.973712
997.789738	2547.042981
998.084936	2560.486058
998.380099	2558.469596
998.675225	2561.158212
998.970316	2565.359173
999.265371	2546.874942
999.560390	2548.723365
999.855373	2560.318019
1000.150320	2549.395519
1000.445232	2555.780981
1000.740108	2552.756288
1001.034948	2558.805673
1001.329752	2543.010058
1001.624521	2546.538865
1001.919254	2553.428442
1002.213951	2556.621173
1002.508613	2553.764519
1002.803239	2538.725077
1003.097829	2558.301558
1003.392384	2549.983654
1003.686903	2556.789212
1003.981386	2576.869808
1004.275834	2559.393808
1004.570246	2567.375635
1004.864623	2561.074192
1005.158964	2554.856769
1005.453270	2563.258692
1005.747540	2552.840308
1006.041775	2539.565269
1006.335974	2579.558423
1006.630138	2569.812192
1006.924266	2554.184615
1007.218359	2552.336192
1007.512416	2537.212731
1007.806438	2563.930846
1008.100425	2542.589962
1008.394376	2563.762808
1008.688292	2551.496000
1008.982172	2550.823846
1009.276017	2547.715135
1009.569827	2577.541962
1009.863602	2560.318019
1010.157341	2553.260404
1010.451045	2549.059442
1010.744714	2549.647577
1011.038347	2549.815615
1011.331945	2552.840308
1011.625508	2553.176385
1011.919036	2553.092365
1012.212528	2544.102308
1012.505986	2544.606423
1012.799408	2561.242231
1013.092795	2552.840308
1013.386147	2542.589962
1013.679464	2558.553615
1013.972745	2552.672269
1014.265992	2555.192846
1014.559204	2569.308077
1014.852380	2549.647577
1015.145521	2567.459654
1015.438628	2565.275154
1015.731699	2552.756288
1016.024736	2561.914385
1016.317737	2550.403750
1016.610703	2555.192846
1016.903635	2559.141750
1017.196531	2555.612942
1017.489393	2559.645865
1017.782219	2547.379058
1018.075011	2552.672269
1018.367768	2561.998404
1018.660490	2548.471308
1018.953177	2548.471308
1019.245829	2548.471308
