Dividing Wavelength (nm)	Counts (n)	Slit_number_37_of_a_total_of_40	
326.493990	2059.563404
326.888308	2059.563404
327.282561	2059.563404
327.676750	2018.225942
328.070874	2001.338077
328.464933	2024.527385
328.858929	2028.308250
329.252859	2048.976981
329.646726	2038.894673
330.040528	2072.670404
330.434265	2109.470827
330.827938	2094.095308
331.221547	2132.408077
331.615091	2153.328865
332.008571	2170.216731
332.401986	2222.392673
332.795338	2221.888558
333.188625	2222.140615
333.581847	2246.590212
333.975006	2274.568615
334.368100	2280.113885
334.761129	2302.547019
335.154095	2329.013077
335.546996	2326.996615
335.939833	2372.871115
336.332606	2342.624192
336.725315	2389.254865
337.117960	2426.307346
337.510540	2397.572769
337.903056	2429.079981
338.295508	2415.468865
338.687896	2391.019269
339.080220	2410.679769
339.472480	2436.137596
339.864676	2430.592327
340.256807	2440.926692
340.648875	2448.488423
341.040879	2439.666404
341.432818	2431.348500
341.824694	2432.356731
342.216506	2454.033692
342.608253	2461.343365
342.999937	2457.562500
343.391557	2460.083077
343.783113	2443.951385
344.174605	2439.414346
344.566033	2429.079981
344.957397	2438.406115
345.348697	2442.186981
345.739934	2428.323808
346.131106	2435.885538
346.522215	2422.778538
346.913260	2416.981212
347.304241	2419.753846
347.695159	2433.617019
348.086012	2416.729154
348.476802	2445.211673
348.867528	2406.646846
349.258191	2407.403019
349.648789	2402.613923
350.039324	2390.011038
350.429796	2427.315577
350.820203	2439.162288
351.210548	2421.518250
351.600828	2406.142731
351.991045	2425.803231
352.381198	2430.088212
352.771288	2422.778538
353.161314	2418.493558
353.551276	2406.142731
353.941175	2416.981212
354.331010	2426.055288
354.720782	2402.109808
355.110490	2382.701365
355.500135	2410.931827
355.889717	2412.696231
356.279235	2428.071750
356.668689	2428.575865
357.058080	2406.898904
357.447408	2411.940058
357.836672	2429.079981
358.225873	2413.956519
358.615010	2400.093346
359.004084	2426.055288
359.393095	2413.452404
359.782043	2425.047058
360.170927	2425.803231
360.559748	2441.682865
360.948505	2395.556308
361.337199	2411.183885
361.725830	2414.460635
362.114398	2416.477096
362.502903	2418.493558
362.891344	2409.671538
363.279722	2417.233269
363.668037	2426.811462
364.056289	2415.720923
364.444478	2406.142731
364.832603	2396.060423
365.220665	2399.589231
365.608665	2415.468865
365.996601	2439.918462
366.384474	2407.655077
366.772284	2406.646846
367.160031	2432.608788
367.547715	2442.943154
367.935336	2418.241500
368.322893	2422.022365
368.710388	2454.285750
369.097820	2406.142731
369.485189	2423.534712
369.872495	2432.860846
370.259738	2415.720923
370.646918	2429.079981
371.034035	2427.567635
371.421090	2426.559404
371.808081	2446.219904
372.195010	2427.063519
372.581875	2427.819692
372.968678	2433.364962
373.355418	2403.118038
373.742096	2424.795000
374.128710	2436.641712
374.515262	2428.827923
374.901751	2423.282654
375.288177	2420.005904
375.674540	2415.972981
376.060841	2418.241500
376.447079	2419.753846
376.833254	2418.745615
377.219367	2424.038827
377.605417	2404.126269
377.991404	2415.720923
378.377329	2414.964750
378.763191	2425.803231
379.148991	2436.893769
379.534727	2438.154058
379.920402	2427.567635
380.306013	2397.068654
380.691563	2411.183885
381.077049	2416.981212
381.462474	2410.931827
381.847835	2420.510019
382.233134	2421.770308
382.618371	2429.079981
383.003545	2442.943154
383.388657	2409.167423
383.773706	2419.249731
384.158693	2412.948288
384.543618	2434.373192
384.928480	2436.641712
385.313280	2410.931827
385.698017	2438.658173
386.082692	2430.844385
386.467305	2429.836154
386.851856	2422.274423
387.236344	2434.373192
387.620770	2410.175654
388.005133	2419.249731
388.389435	2442.691096
388.773674	2426.307346
389.157851	2432.104673
389.541965	2414.712692
389.926018	2448.236365
390.310008	2438.658173
390.693936	2450.756942
391.077802	2444.959615
391.461606	2435.129365
391.845348	2432.860846
392.229027	2450.756942
392.612645	2442.186981
392.996200	2428.827923
393.379694	2454.285750
393.763125	2431.348500
394.146494	2459.831019
394.529801	2438.658173
394.913047	2430.088212
395.296230	2434.625250
395.679351	2428.323808
396.062410	2434.877308
396.445408	2435.381423
396.828343	2423.534712
397.211217	2456.554269
397.594028	2450.756942
397.976778	2458.318673
398.359466	2448.740481
398.742092	2445.967846
399.124656	2490.582058
399.507158	2422.022365
399.889598	2441.934923
400.271977	2462.351596
400.654294	2426.559404
401.036549	2459.578962
401.418742	2434.373192
401.800874	2428.827923
402.182944	2430.088212
402.564952	2452.269288
402.946898	2431.348500
403.328783	2439.666404
403.710606	2434.373192
404.092367	2432.104673
404.474067	2413.956519
404.855705	2455.293981
405.237282	2436.641712
405.618797	2451.009000
406.000250	2431.096442
406.381642	2445.463731
406.762972	2450.252827
407.144240	2417.485327
407.525447	2460.587192
407.906593	2419.249731
408.287677	2451.513115
408.668700	2428.323808
409.049661	2460.083077
409.430560	2447.984308
409.811399	2448.236365
410.192176	2446.724019
410.572891	2429.079981
410.953545	2441.178750
411.334138	2436.389654
411.714669	2440.422577
412.095139	2452.773404
412.475547	2455.293981
412.855894	2436.389654
413.236180	2441.682865
413.616405	2452.521346
413.996568	2442.691096
414.376670	2430.844385
414.756711	2452.269288
415.136691	2465.880404
415.516609	2440.422577
415.896466	2455.546038
416.276262	2460.839250
416.655997	2445.211673
417.035670	2456.554269
417.415283	2448.992538
417.794834	2430.844385
418.174324	2434.625250
418.553753	2446.724019
418.933121	2450.756942
419.312428	2445.463731
419.691674	2449.748712
420.070859	2441.178750
420.449983	2461.091308
420.829045	2454.789865
421.208047	2452.521346
421.586988	2458.066615
421.965867	2430.592327
422.344686	2441.682865
422.723444	2434.121135
423.102141	2446.219904
423.480777	2451.009000
423.859352	2463.107769
424.237866	2448.740481
424.616319	2451.009000
424.994712	2432.104673
425.373044	2464.116000
425.751314	2448.740481
426.129524	2453.277519
426.507673	2464.368058
426.885762	2456.806327
427.263789	2449.244596
427.641756	2436.137596
428.019662	2446.976077
428.397508	2447.480192
428.775292	2458.570731
429.153016	2443.951385
429.530679	2443.195212
429.908282	2437.902000
430.285824	2446.471962
430.663305	2444.203442
431.040726	2456.302212
431.418086	2431.852615
431.795385	2450.756942
432.172624	2446.724019
432.549802	2440.422577
432.926920	2443.951385
433.303977	2467.392750
433.680974	2459.326904
434.057910	2456.806327
434.434786	2428.323808
434.811601	2458.318673
435.188355	2443.447269
435.565050	2463.107769
435.941683	2445.463731
436.318257	2455.293981
436.694770	2430.088212
437.071222	2446.724019
437.447614	2463.107769
437.823946	2456.302212
438.200218	2445.967846
438.576429	2442.439038
438.952580	2428.827923
439.328670	2456.302212
439.704700	2456.554269
440.080670	2442.943154
440.456580	2467.140692
440.832429	2455.041923
441.208218	2443.699327
441.583947	2476.214769
441.959616	2453.277519
442.335224	2451.765173
442.710773	2451.261058
443.086261	2437.397885
443.461689	2468.905096
443.837057	2478.735346
444.212365	2444.707558
444.587612	2452.773404
444.962800	2444.707558
445.337927	2452.773404
445.712995	2443.699327
446.088002	2442.943154
446.462949	2453.781635
446.837837	2448.488423
447.212664	2454.789865
447.587431	2467.896865
447.962139	2448.488423
448.336786	2461.595423
448.711374	2488.565596
449.085901	2462.099538
449.460369	2467.392750
449.834776	2432.860846
450.209124	2462.855712
450.583412	2446.976077
450.957640	2455.293981
451.331808	2469.913327
451.705917	2450.504885
452.079965	2465.376288
452.453954	2455.798096
452.827883	2430.340269
453.201752	2470.921558
453.575562	2472.685962
453.949311	2472.685962
454.323001	2460.335135
454.696632	2471.173615
455.070202	2463.863942
455.443713	2435.633481
455.817164	2450.000769
456.190556	2464.116000
456.563888	2459.831019
456.937160	2461.595423
457.310373	2460.587192
457.683526	2454.789865
458.056619	2481.003865
458.429653	2451.261058
458.802628	2440.674635
459.175542	2462.351596
459.548398	2461.091308
459.921194	2461.595423
460.293930	2460.587192
460.666607	2456.554269
461.039224	2478.735346
461.411782	2439.918462
461.784280	2434.625250
462.156719	2496.379385
462.529099	2434.877308
462.901419	2447.480192
463.273680	2457.814558
463.645882	2459.578962
464.018024	2448.992538
464.390106	2451.765173
464.762130	2432.356731
465.134094	2443.951385
465.505999	2447.984308
465.877845	2430.844385
466.249631	2494.110865
466.621358	2423.030596
466.993026	2451.513115
467.364634	2449.496654
467.736184	2490.582058
468.107674	2454.285750
468.479105	2452.269288
468.850477	2459.074846
469.221790	2442.439038
469.593043	2462.099538
469.964238	2436.137596
470.335373	2465.124231
470.706449	2465.124231
471.077467	2449.748712
471.448425	2456.302212
471.819324	2475.710654
472.190164	2452.017231
472.560945	2477.223000
472.931667	2459.074846
473.302330	2453.529577
473.672934	2485.540904
474.043479	2474.702423
474.413965	2474.954481
474.784393	2468.905096
475.154761	2444.455500
475.525070	2438.658173
475.895321	2459.578962
476.265513	2452.773404
476.635645	2452.269288
477.005719	2460.839250
477.375734	2457.310442
477.745691	2470.921558
478.115588	2463.863942
478.485427	2470.669500
478.855207	2459.074846
479.224928	2472.685962
479.594591	2477.475058
479.964194	2488.817654
480.333739	2471.929788
480.703226	2443.699327
481.072653	2450.504885
481.442022	2459.074846
481.811333	2456.806327
482.180584	2474.198308
482.549777	2452.773404
482.918912	2451.009000
483.287988	2443.447269
483.657005	2466.132462
484.025964	2464.872173
484.394864	2489.069712
484.763706	2441.430808
485.132489	2468.905096
485.501213	2457.562500
485.869879	2472.685962
486.238487	2447.480192
486.607036	2435.129365
486.975527	2462.351596
487.343959	2485.036788
487.712333	2458.318673
488.080648	2468.653038
488.448905	2486.549135
488.817104	2439.414346
489.185244	2472.181846
489.553326	2453.277519
489.921350	2461.595423
490.289315	2494.362923
490.657222	2448.740481
491.025070	2474.450365
491.392861	2485.288846
491.760593	2454.789865
492.128267	2465.880404
492.495883	2458.822788
492.863440	2482.264154
493.230939	2446.976077
493.598380	2454.789865
493.965763	2451.009000
494.333088	2459.326904
494.700354	2482.012096
495.067563	2467.896865
495.434713	2451.261058
495.801805	2452.017231
496.168839	2442.691096
496.535815	2467.140692
496.902733	2466.384519
497.269593	2447.984308
497.636395	2468.653038
498.003139	2461.595423
498.369825	2445.463731
498.736453	2446.471962
499.103023	2442.691096
499.469535	2460.083077
499.835989	2472.685962
500.202385	2470.669500
500.568723	2435.129365
500.935003	2457.310442
501.301226	2429.584096
501.667390	2477.727115
502.033497	2478.735346
502.399546	2468.400981
502.765537	2459.578962
503.131470	2488.565596
503.497345	2455.546038
503.863163	2451.261058
504.228923	2476.214769
504.594625	2459.831019
504.960269	2438.658173
505.325856	2464.368058
505.691385	2473.190077
506.056856	2452.773404
506.422270	2452.017231
506.787625	2458.066615
507.152924	2509.738442
507.518164	2460.587192
507.883347	2451.009000
508.248472	2448.740481
508.613540	2476.466827
508.978550	2467.392750
509.343503	2472.938019
509.708398	2453.781635
510.073236	2465.376288
510.438016	2453.025462
510.802738	2471.173615
511.167403	2445.211673
511.532010	2484.028558
511.896561	2450.252827
512.261053	2465.376288
512.625488	2453.277519
512.989866	2482.768269
513.354186	2454.789865
513.718449	2462.855712
514.082655	2457.058385
514.446803	2485.036788
514.810894	2432.356731
515.174927	2461.595423
515.538904	2479.743577
515.902822	2482.264154
516.266684	2467.140692
516.630488	2433.112904
516.994235	2466.384519
517.357925	2476.718885
517.721558	2477.727115
518.085133	2464.116000
518.448651	2461.343365
518.812112	2468.905096
519.175516	2474.702423
519.538863	2447.228135
519.902152	2466.888635
520.265385	2461.091308
520.628560	2485.792962
520.991678	2496.127327
521.354739	2453.529577
521.717743	2475.206538
522.080690	2441.430808
522.443580	2484.784731
522.806413	2458.318673
523.169189	2452.521346
523.531908	2460.335135
523.894569	2497.387615
524.257174	2442.439038
524.619722	2448.236365
524.982213	2463.863942
525.344647	2439.414346
525.707025	2469.409212
526.069345	2467.392750
526.431608	2457.310442
526.793815	2474.450365
527.155964	2462.099538
527.518057	2495.371154
527.880093	2477.727115
528.242072	2484.784731
528.603995	2473.442135
528.965860	2471.173615
529.327669	2434.373192
529.689421	2471.677731
530.051117	2458.822788
530.412755	2488.313538
530.774337	2453.781635
531.135862	2472.181846
531.497331	2470.417442
531.858743	2454.285750
532.220098	2457.058385
532.581396	2435.381423
532.942638	2476.466827
533.303824	2465.628346
533.664953	2481.255923
534.026025	2457.562500
534.387040	2466.384519
534.747999	2474.702423
535.108902	2487.053250
535.469748	2475.962712
535.830537	2474.954481
536.191270	2462.603654
536.551947	2458.822788
536.912567	2463.611885
537.273131	2466.636577
537.633638	2456.806327
537.994089	2474.954481
538.354483	2433.869077
538.714821	2457.310442
539.075103	2469.913327
539.435328	2463.359827
539.795497	2465.124231
540.155609	2480.751808
540.515665	2452.773404
540.875665	2463.611885
541.235609	2479.743577
541.595496	2468.653038
541.955328	2451.261058
542.315102	2465.376288
542.674821	2460.083077
543.034483	2467.392750
543.394090	2472.181846
543.753640	2458.822788
544.113134	2491.590288
544.472571	2472.181846
544.831953	2484.532673
545.191278	2472.181846
545.550548	2449.496654
545.909761	2468.400981
546.268918	2481.760038
546.628019	2477.223000
546.987064	2481.255923
547.346053	2445.715788
547.704986	2459.831019
548.063863	2470.417442
548.422684	2457.058385
548.781449	2467.140692
549.140158	2453.025462
549.498811	2441.178750
549.857408	2504.193173
550.215949	2456.302212
550.574434	2440.926692
550.932864	2481.760038
551.291237	2473.946250
551.649555	2458.822788
552.007817	2470.165385
552.366022	2470.165385
552.724173	2464.620115
553.082267	2483.020327
553.440305	2464.620115
553.798288	2470.669500
554.156215	2492.346462
554.514086	2454.537808
554.871902	2448.236365
555.229661	2448.740481
555.587365	2479.491519
555.945014	2462.855712
556.302606	2456.302212
556.660143	2458.318673
557.017625	2471.929788
557.375050	2464.872173
557.732421	2468.905096
558.089735	2464.872173
558.446994	2474.954481
558.804197	2440.170519
559.161345	2464.620115
559.518437	2458.318673
559.875474	2463.611885
560.232455	2472.433904
560.589381	2461.343365
560.946251	2461.343365
561.303065	2482.264154
561.659825	2477.727115
562.016528	2469.409212
562.373177	2454.537808
562.729770	2447.732250
563.086307	2476.466827
563.442789	2453.277519
563.799216	2462.603654
564.155587	2456.050154
564.511904	2459.074846
564.868164	2459.578962
565.224370	2439.918462
565.580520	2480.247692
565.936615	2459.074846
566.292654	2489.321769
566.648638	2470.669500
567.004567	2463.359827
567.360441	2459.074846
567.716260	2475.962712
568.072023	2461.847481
568.427732	2473.190077
568.783385	2477.475058
569.138982	2445.211673
569.494525	2492.094404
569.850013	2465.124231
570.205445	2481.255923
570.560823	2461.343365
570.916145	2465.628346
571.271412	2458.318673
571.626625	2459.326904
571.981782	2460.839250
572.336884	2469.409212
572.691931	2463.107769
573.046923	2458.066615
573.401860	2454.033692
573.756743	2476.718885
574.111570	2466.132462
574.466342	2458.066615
574.821059	2470.417442
575.175722	2456.050154
575.530330	2480.499750
575.884882	2482.768269
576.239380	2456.050154
576.593823	2469.661269
576.948211	2482.768269
577.302544	2469.913327
577.656823	2470.417442
578.011047	2468.905096
578.365216	2451.009000
578.719330	2450.504885
579.073389	2440.674635
579.427394	2458.066615
579.781344	2466.888635
580.135239	2464.116000
580.489080	2484.028558
580.842866	2476.466827
581.196597	2471.425673
581.550273	2480.247692
581.903895	2470.165385
582.257463	2453.529577
582.610975	2462.855712
582.964434	2467.644808
583.317837	2478.987404
583.671186	2474.450365
584.024481	2445.463731
584.377721	2469.913327
584.730906	2472.685962
585.084037	2462.351596
585.437113	2449.748712
585.790135	2470.921558
586.143103	2457.310442
586.496016	2471.929788
586.848874	2459.074846
587.201679	2460.587192
587.554428	2473.442135
587.907124	2463.359827
588.259765	2465.376288
588.612352	2458.570731
588.964884	2477.979173
589.317362	2469.409212
589.669786	2463.863942
590.022155	2494.614981
590.374470	2433.112904
590.726731	2486.297077
591.078937	2437.145827
591.431090	2477.727115
591.783188	2467.644808
592.135232	2452.521346
592.487222	2465.880404
592.839157	2454.789865
593.191038	2454.033692
593.542866	2463.359827
593.894639	2472.685962
594.246358	2460.083077
594.598022	2452.773404
594.949633	2445.211673
595.301190	2466.636577
595.652692	2479.491519
596.004141	2477.979173
596.355535	2452.773404
596.706876	2474.198308
597.058162	2460.587192
597.409395	2469.409212
597.760573	2451.009000
598.111698	2465.124231
598.462768	2485.036788
598.813785	2473.190077
599.164748	2473.442135
599.515657	2467.644808
599.866511	2463.863942
600.217312	2445.715788
600.568060	2455.293981
600.918753	2464.620115
601.269392	2466.636577
601.619978	2465.376288
601.970510	2442.943154
602.320988	2469.157154
602.671412	2456.806327
603.021783	2478.231231
603.372100	2464.116000
603.722363	2457.058385
604.072572	2464.368058
604.422728	2477.979173
604.772830	2485.540904
605.122878	2449.496654
605.472872	2463.611885
605.822813	2462.603654
606.172701	2461.595423
606.522534	2440.422577
606.872314	2485.036788
607.222041	2460.839250
607.571714	2445.715788
607.921333	2490.330000
608.270899	2468.400981
608.620411	2482.516212
608.969870	2468.400981
609.319276	2438.910231
609.668627	2485.792962
610.017926	2467.140692
610.367171	2468.653038
610.716362	2460.587192
611.065500	2455.546038
611.414585	2485.036788
611.763616	2485.036788
612.112594	2475.458596
612.461518	2454.789865
612.810389	2449.748712
613.159207	2459.831019
613.507971	2483.524442
613.856682	2474.702423
614.205340	2475.206538
614.553945	2484.532673
614.902496	2492.598519
615.250994	2465.376288
615.599439	2492.094404
615.947830	2462.603654
616.296169	2443.951385
616.644454	2453.277519
616.992686	2457.814558
617.340864	2456.806327
617.688990	2467.896865
618.037063	2474.198308
618.385082	2479.743577
618.733048	2458.066615
619.080961	2468.905096
619.428821	2470.417442
619.776628	2471.425673
620.124382	2493.858808
620.472083	2472.685962
620.819731	2456.554269
621.167326	2477.223000
621.514868	2463.863942
621.862357	2459.831019
622.209793	2460.083077
622.557176	2455.798096
622.904506	2464.872173
623.251783	2468.653038
623.599007	2465.376288
623.946179	2490.077942
624.293297	2463.611885
624.640363	2471.929788
624.987376	2471.929788
625.334336	2474.702423
625.681243	2443.699327
626.028097	2464.368058
626.374899	2476.970942
626.721647	2470.417442
627.068343	2447.732250
627.414987	2473.442135
627.761577	2459.326904
628.108115	2481.003865
628.454600	2465.880404
628.801032	2467.140692
629.147412	2469.913327
629.493739	2455.293981
629.840014	2468.148923
630.186236	2473.190077
630.532405	2469.661269
630.878521	2464.620115
631.224585	2464.116000
631.570597	2475.206538
631.916556	2459.578962
632.262462	2465.124231
632.608316	2480.247692
632.954117	2459.074846
633.299866	2470.669500
633.645562	2453.025462
633.991206	2478.483288
634.336797	2473.190077
634.682336	2478.735346
635.027823	2473.190077
635.373257	2485.792962
635.718639	2461.091308
636.063968	2471.173615
636.409245	2469.409212
636.754470	2460.587192
637.099642	2482.264154
637.444762	2460.083077
637.789829	2474.450365
638.134845	2463.863942
638.479808	2467.644808
638.824719	2479.743577
639.169577	2465.628346
639.514383	2472.181846
639.859137	2481.760038
640.203839	2459.074846
640.548489	2477.223000
640.893086	2473.694192
641.237632	2486.297077
641.582125	2466.384519
641.926566	2462.099538
642.270955	2470.165385
642.615292	2461.343365
642.959576	2456.050154
643.303809	2447.480192
643.647990	2495.371154
643.992118	2435.633481
644.336195	2472.685962
644.680219	2455.041923
645.024192	2467.392750
645.368112	2434.625250
645.711981	2436.137596
646.055797	2470.165385
646.399562	2454.789865
646.743274	2474.450365
647.086935	2503.941115
647.430544	2468.653038
647.774101	2469.157154
648.117606	2476.718885
648.461059	2479.239462
648.804460	2466.636577
649.147810	2460.335135
649.491108	2470.165385
649.834354	2491.338231
650.177548	2461.091308
650.520690	2468.148923
650.863781	2457.562500
651.206820	2485.036788
651.549807	2465.376288
651.892742	2452.017231
652.235626	2470.165385
652.578458	2429.332038
652.921238	2491.086173
653.263967	2458.822788
653.606644	2467.896865
653.949269	2441.430808
654.291843	2481.760038
654.634365	2467.644808
654.976836	2485.036788
655.319255	2446.724019
655.661622	2480.751808
656.003938	2459.074846
656.346203	2462.603654
656.688416	2465.376288
657.030577	2469.157154
657.372687	2436.389654
657.714746	2484.028558
658.056753	2472.181846
658.398708	2465.628346
658.740612	2466.888635
659.082465	2450.252827
659.424266	2477.727115
659.766016	2484.532673
660.107715	2486.549135
660.449362	2427.063519
660.790958	2456.302212
661.132503	2476.970942
661.473996	2453.277519
661.815438	2483.020327
662.156829	2466.888635
662.498168	2442.186981
662.839456	2442.186981
663.180693	2477.223000
663.521879	2452.269288
663.863013	2472.938019
664.204097	2463.863942
664.545129	2471.677731
664.886110	2480.247692
665.227040	2464.620115
665.567918	2458.066615
665.908746	2473.694192
666.249522	2470.669500
666.590248	2453.781635
666.930922	2451.009000
667.271545	2471.173615
667.612118	2459.074846
667.952639	2497.135558
668.293109	2461.595423
668.633528	2479.743577
668.973896	2481.255923
669.314213	2456.554269
669.654480	2479.743577
669.994695	2462.603654
670.334859	2477.727115
670.674973	2457.310442
671.015035	2456.554269
671.355047	2459.074846
671.695008	2473.946250
672.034918	2459.831019
672.374777	2447.228135
672.714585	2478.987404
673.054342	2459.578962
673.394049	2464.116000
673.733705	2479.743577
674.073310	2481.507981
674.412864	2478.735346
674.752368	2457.562500
675.091820	2439.162288
675.431223	2441.682865
675.770574	2487.305308
676.109875	2463.611885
676.449125	2446.219904
676.788324	2465.628346
677.127473	2459.074846
677.466571	2473.694192
677.805619	2456.050154
678.144616	2445.715788
678.483562	2451.009000
678.822458	2445.967846
679.161303	2484.280615
679.500098	2482.012096
679.838842	2448.740481
680.177535	2457.562500
680.516179	2451.261058
680.854771	2447.732250
681.193314	2456.806327
681.531805	2485.036788
681.870247	2471.677731
682.208638	2476.214769
682.546978	2454.033692
682.885268	2461.847481
683.223508	2478.735346
683.561697	2489.069712
683.899836	2465.124231
684.237925	2444.959615
684.575963	2463.611885
684.913951	2451.261058
685.251889	2462.603654
685.589776	2464.872173
685.927614	2495.371154
686.265401	2467.140692
686.603137	2448.740481
686.940824	2462.351596
687.278460	2489.573827
687.616046	2484.784731
687.953582	2443.447269
688.291068	2447.480192
688.628504	2446.219904
688.965889	2461.091308
689.303224	2473.442135
689.640510	2455.293981
689.977745	2480.499750
690.314930	2461.343365
690.652065	2497.891731
690.989150	2488.061481
691.326185	2501.168481
691.663170	2477.223000
692.000105	2477.979173
692.336990	2452.773404
692.673825	2458.066615
693.010610	2473.946250
693.347345	2487.053250
693.684030	2467.140692
694.020665	2479.743577
694.357251	2483.020327
694.693786	2452.773404
695.030272	2426.559404
695.366707	2456.806327
695.703093	2461.847481
696.039429	2475.962712
696.375716	2446.976077
696.711952	2481.507981
697.048139	2455.546038
697.384276	2474.450365
697.720363	2461.091308
698.056400	2453.781635
698.392388	2485.288846
698.728326	2468.653038
699.064214	2480.751808
699.400053	2455.546038
699.735842	2459.578962
700.071581	2460.083077
700.407270	2482.264154
700.742910	2453.529577
701.078501	2476.718885
701.414042	2461.847481
701.749533	2446.471962
702.084974	2456.302212
702.420366	2476.970942
702.755709	2479.239462
703.091002	2474.702423
703.426246	2441.934923
703.761440	2461.343365
704.096584	2497.387615
704.431679	2457.814558
704.766725	2473.946250
705.101721	2492.094404
705.436668	2468.400981
705.771565	2437.649942
706.106413	2462.603654
706.441212	2461.343365
706.775961	2463.611885
707.110661	2475.710654
707.445311	2490.834115
707.779913	2474.702423
708.114465	2486.801192
708.448967	2447.984308
708.783421	2475.458596
709.117825	2466.132462
709.452180	2461.343365
709.786485	2463.107769
710.120742	2463.611885
710.454949	2450.756942
710.789107	2460.839250
711.123216	2473.946250
711.457275	2465.628346
711.791286	2456.302212
712.125247	2458.066615
712.459159	2488.061481
712.793023	2455.041923
713.126837	2466.132462
713.460602	2468.905096
713.794318	2485.792962
714.127985	2486.045019
714.461602	2462.099538
714.795171	2468.400981
715.128691	2474.702423
715.462162	2466.636577
715.795584	2463.107769
716.128957	2472.938019
716.462281	2487.305308
716.795556	2442.691096
717.128782	2450.252827
717.461960	2446.471962
717.795088	2486.297077
718.128167	2439.666404
718.461198	2467.896865
718.794180	2457.310442
719.127113	2462.099538
719.459997	2467.896865
719.792833	2436.137596
720.125619	2474.954481
720.458357	2460.083077
720.791046	2460.083077
721.123686	2447.480192
721.456278	2476.970942
721.788821	2432.608788
722.121315	2482.516212
722.453761	2448.740481
722.786158	2477.727115
723.118506	2463.863942
723.450805	2460.839250
723.783056	2467.644808
724.115259	2461.847481
724.447412	2456.554269
724.779518	2447.480192
725.111574	2454.285750
725.443582	2465.124231
725.775542	2467.896865
726.107453	2462.855712
726.439315	2438.658173
726.771129	2457.562500
727.102895	2472.181846
727.434612	2474.450365
727.766281	2449.244596
728.097901	2465.376288
728.429473	2478.987404
728.760996	2469.409212
729.092471	2443.195212
729.423897	2469.913327
729.755276	2482.768269
730.086606	2466.384519
730.417887	2465.628346
730.749120	2469.661269
731.080305	2473.694192
731.411442	2468.148923
731.742530	2446.219904
732.073570	2461.091308
732.404562	2452.017231
732.735506	2430.844385
733.066401	2478.483288
733.397249	2454.033692
733.728048	2469.409212
734.058798	2470.417442
734.389501	2470.921558
734.720156	2465.124231
735.050762	2454.285750
735.381320	2455.293981
735.711831	2454.033692
736.042293	2438.406115
736.372707	2467.644808
736.703073	2470.669500
737.033391	2457.310442
737.363661	2453.529577
737.693883	2456.302212
738.024056	2462.099538
738.354182	2469.913327
738.684260	2469.157154
739.014290	2464.872173
739.344272	2454.537808
739.674207	2452.017231
740.004093	2469.913327
740.333931	2456.302212
740.663722	2471.173615
740.993464	2467.392750
741.323159	2468.653038
741.652806	2431.600558
741.982405	2455.293981
742.311956	2475.206538
742.641460	2453.025462
742.970915	2456.554269
743.300323	2480.499750
743.629683	2453.781635
743.958996	2469.157154
744.288260	2460.839250
744.617477	2466.132462
744.946647	2454.789865
745.275768	2447.732250
745.604842	2459.831019
745.933869	2494.110865
746.262847	2462.351596
746.591778	2451.765173
746.920662	2453.529577
747.249498	2441.934923
747.578286	2469.913327
747.907027	2465.628346
748.235720	2464.116000
748.564365	2463.863942
748.892963	2462.855712
749.221514	2483.776500
749.550017	2465.628346
749.878473	2476.466827
750.206881	2444.707558
750.535242	2458.318673
750.863555	2453.277519
751.191821	2475.206538
751.520039	2447.984308
751.848210	2476.970942
752.176334	2471.929788
752.504411	2458.570731
752.832440	2468.905096
753.160421	2482.768269
753.488356	2440.926692
753.816243	2465.628346
754.144082	2453.277519
754.471875	2447.228135
754.799620	2475.206538
755.127318	2464.620115
755.454969	2463.107769
755.782572	2469.157154
756.110129	2451.261058
756.437638	2477.223000
756.765100	2486.549135
757.092515	2476.718885
757.419882	2473.946250
757.747203	2465.376288
758.074477	2469.661269
758.401703	2449.244596
758.728882	2454.285750
759.056014	2459.074846
759.383099	2471.425673
759.710138	2430.340269
760.037129	2474.702423
760.364073	2473.442135
760.690970	2458.570731
761.017820	2458.822788
761.344623	2469.913327
761.671379	2467.392750
761.998088	2477.223000
762.324751	2453.781635
762.651366	2466.384519
762.977935	2473.694192
763.304456	2461.343365
763.630931	2446.976077
763.957359	2472.433904
764.283740	2492.598519
764.610074	2471.425673
764.936362	2451.513115
765.262602	2479.743577
765.588796	2466.132462
765.914943	2482.768269
766.241044	2458.570731
766.567097	2466.132462
766.893104	2462.855712
767.219064	2455.041923
767.544978	2457.058385
767.870845	2445.967846
768.196665	2462.351596
768.522438	2457.058385
768.848165	2440.170519
769.173846	2460.839250
769.499479	2469.157154
769.825066	2462.603654
770.150607	2504.949346
770.476101	2456.050154
770.801548	2482.012096
771.126949	2469.409212
771.452303	2447.480192
771.777611	2466.888635
772.102872	2463.863942
772.428087	2440.170519
772.753256	2458.822788
773.078378	2478.231231
773.403453	2476.718885
773.728482	2471.677731
774.053465	2452.773404
774.378401	2461.091308
774.703291	2451.513115
775.028135	2460.335135
775.352932	2458.822788
775.677683	2465.628346
776.002388	2453.277519
776.327046	2446.976077
776.651658	2465.124231
776.976224	2448.236365
777.300743	2466.384519
777.625216	2472.685962
777.949643	2467.896865
778.274024	2445.211673
778.598359	2447.984308
778.922647	2443.447269
779.246889	2481.760038
779.571086	2451.765173
779.895236	2485.792962
780.219339	2458.822788
780.543397	2476.970942
780.867409	2463.359827
781.191374	2462.855712
781.515294	2453.529577
781.839167	2470.165385
782.162995	2461.091308
782.486776	2440.674635
782.810511	2493.354692
783.134201	2454.537808
783.457844	2452.269288
783.781441	2461.091308
784.104993	2478.231231
784.428498	2439.666404
784.751958	2451.513115
785.075372	2461.595423
785.398739	2478.735346
785.722061	2460.587192
786.045337	2474.450365
786.368568	2450.756942
786.691752	2449.244596
787.014891	2466.636577
787.337983	2433.112904
787.661030	2449.496654
787.984031	2444.707558
788.306987	2448.992538
788.629897	2461.847481
788.952760	2471.929788
789.275579	2475.962712
789.598351	2459.831019
789.921078	2494.362923
790.243759	2447.480192
790.566395	2475.710654
790.888984	2469.661269
791.211529	2482.264154
791.534027	2448.992538
791.856480	2443.951385
792.178888	2481.255923
792.501249	2470.417442
792.823566	2464.116000
793.145836	2454.789865
793.468062	2474.450365
793.790241	2471.425673
794.112375	2454.789865
794.434464	2477.727115
794.756507	2454.285750
795.078505	2458.822788
795.400457	2443.195212
795.722364	2441.682865
796.044226	2471.677731
796.366042	2481.507981
796.687812	2460.587192
797.009538	2460.839250
797.331218	2473.442135
797.652852	2442.186981
797.974442	2438.910231
798.295986	2468.653038
798.617484	2470.165385
798.938938	2451.513115
799.260346	2473.190077
799.581709	2456.302212
799.903026	2495.875269
800.224299	2456.806327
800.545526	2476.718885
800.866708	2443.195212
801.187845	2478.735346
801.508936	2454.789865
801.829983	2463.107769
802.150984	2415.216808
802.471940	2451.765173
802.792851	2469.661269
803.113717	2453.781635
803.434538	2468.653038
803.755314	2436.137596
804.076045	2460.839250
804.396731	2457.562500
804.717372	2449.244596
805.037967	2496.127327
805.358518	2454.285750
805.679024	2451.765173
805.999485	2467.644808
806.319901	2468.653038
806.640272	2455.798096
806.960598	2466.132462
807.280879	2464.872173
807.601115	2475.458596
807.921306	2458.822788
808.241453	2472.938019
808.561554	2442.691096
808.881611	2484.532673
809.201623	2449.496654
809.521590	2459.074846
809.841513	2480.247692
810.161390	2471.929788
810.481223	2481.003865
810.801011	2458.318673
811.120755	2461.595423
811.440453	2460.587192
811.760107	2470.165385
812.079716	2479.239462
812.399281	2451.765173
812.718801	2450.504885
813.038276	2471.425673
813.357707	2461.343365
813.677093	2472.181846
813.996434	2456.050154
814.315731	2485.540904
814.634983	2458.570731
814.954191	2465.376288
815.273354	2458.570731
815.592473	2484.784731
815.911547	2463.611885
816.230577	2469.913327
816.549562	2467.392750
816.868502	2439.666404
817.187399	2464.368058
817.506250	2431.600558
817.825058	2433.112904
818.143821	2450.252827
818.462539	2429.079981
818.781213	2460.839250
819.099843	2434.373192
819.418429	2494.614981
819.736970	2435.381423
820.055466	2449.244596
820.373919	2446.471962
820.692327	2480.751808
821.010691	2458.318673
821.329011	2467.140692
821.647286	2483.272385
821.965517	2471.425673
822.283704	2464.368058
822.601847	2471.173615
822.919945	2447.228135
823.237999	2463.863942
823.556010	2437.649942
823.873976	2431.600558
824.191897	2469.157154
824.509775	2457.562500
824.827609	2506.965808
825.145398	2460.587192
825.463144	2452.521346
825.780845	2449.496654
826.098502	2451.765173
826.416116	2438.406115
826.733685	2428.071750
827.051210	2435.129365
827.368692	2452.269288
827.686129	2445.463731
828.003522	2446.471962
828.320872	2457.058385
828.638177	2467.140692
828.955439	2475.710654
829.272656	2433.112904
829.589830	2464.620115
829.906960	2476.214769
830.224046	2462.603654
830.541088	2438.154058
830.858086	2465.124231
831.175041	2445.715788
831.491952	2441.178750
831.808819	2477.475058
832.125642	2438.910231
832.442421	2497.891731
832.759157	2451.009000
833.075849	2466.888635
833.392497	2435.885538
833.709101	2479.995635
834.025662	2466.132462
834.342179	2454.285750
834.658653	2486.549135
834.975083	2446.724019
835.291469	2442.186981
835.607811	2463.107769
835.924110	2450.000769
836.240366	2452.773404
836.556578	2456.554269
836.872746	2471.677731
837.188871	2454.789865
837.504952	2468.400981
837.820990	2480.751808
838.136984	2472.433904
838.452935	2468.653038
838.768842	2473.442135
839.084706	2441.682865
839.400526	2470.417442
839.716303	2440.170519
840.032037	2468.400981
840.347727	2432.356731
840.663373	2445.715788
840.978977	2475.962712
841.294537	2458.318673
841.610054	2477.223000
841.925527	2468.400981
842.240957	2459.074846
842.556344	2451.261058
842.871687	2466.888635
843.186987	2498.899962
843.502244	2485.792962
843.817458	2467.644808
844.132629	2463.611885
844.447756	2444.707558
844.762840	2430.340269
845.077881	2450.000769
845.392879	2455.293981
845.707833	2482.516212
846.022745	2465.124231
846.337613	2471.425673
846.652438	2450.504885
846.967221	2443.447269
847.281960	2477.475058
847.596656	2463.107769
847.911309	2460.587192
848.225919	2475.458596
848.540485	2457.310442
848.855009	2452.521346
849.169490	2482.516212
849.483928	2450.252827
849.798323	2445.463731
850.112675	2471.173615
850.426984	2457.814558
850.741251	2428.071750
851.055474	2468.148923
851.369654	2437.145827
851.683792	2465.628346
851.997887	2443.447269
852.311938	2432.860846
852.625947	2465.376288
852.939914	2460.587192
853.253837	2454.537808
853.567718	2447.228135
853.881555	2462.603654
854.195350	2459.578962
854.509103	2486.297077
854.822812	2458.570731
855.136479	2500.916423
855.450103	2452.773404
855.763685	2454.537808
856.077224	2448.488423
856.390720	2469.157154
856.704173	2453.025462
857.017584	2477.979173
857.330953	2455.041923
857.644278	2440.170519
857.957561	2467.644808
858.270802	2468.653038
858.584000	2483.020327
858.897155	2463.611885
859.210268	2434.625250
859.523339	2460.335135
859.836367	2453.025462
860.149352	2470.669500
860.462295	2494.867038
860.775195	2461.595423
861.088054	2481.760038
861.400869	2473.442135
861.713642	2478.735346
862.026373	2447.984308
862.339062	2469.409212
862.651708	2491.338231
862.964312	2436.893769
863.276873	2462.351596
863.589392	2461.595423
863.901869	2459.831019
864.214303	2468.653038
864.526696	2476.970942
864.839045	2481.003865
865.151353	2469.157154
865.463619	2453.025462
865.775842	2463.107769
866.088023	2467.392750
866.400162	2481.255923
866.712258	2453.025462
867.024313	2449.748712
867.336325	2455.798096
867.648296	2463.611885
867.960224	2480.751808
868.272110	2458.822788
868.583954	2447.480192
868.895755	2455.041923
869.207515	2447.480192
869.519233	2459.074846
869.830909	2465.628346
870.142542	2462.099538
870.454134	2457.562500
870.765684	2426.559404
871.077191	2485.540904
871.388657	2445.715788
871.700081	2487.305308
872.011463	2470.669500
872.322803	2463.863942
872.634101	2438.154058
872.945357	2465.376288
873.256571	2463.107769
873.567744	2463.107769
873.878874	2453.529577
874.189963	2470.921558
874.501010	2459.074846
874.812015	2436.137596
875.122979	2479.239462
875.433900	2454.033692
875.744780	2462.603654
876.055618	2464.368058
876.366415	2471.173615
876.677169	2464.116000
876.987882	2473.190077
877.298554	2445.967846
877.609183	2456.806327
877.919771	2463.863942
878.230317	2458.318673
878.540822	2456.302212
878.851285	2460.335135
879.161707	2470.165385
879.472087	2462.855712
879.782425	2484.028558
880.092722	2465.880404
880.402977	2479.491519
880.713191	2440.674635
881.023363	2494.614981
881.333494	2447.480192
881.643583	2460.335135
881.953631	2445.211673
882.263637	2444.959615
882.573602	2475.962712
882.883526	2430.592327
883.193408	2461.091308
883.503248	2447.480192
883.813048	2455.293981
884.122806	2473.190077
884.432522	2458.822788
884.742197	2449.748712
885.051831	2475.458596
885.361424	2458.570731
885.670975	2467.140692
885.980485	2438.658173
886.289954	2472.181846
886.599382	2444.959615
886.908768	2465.376288
887.218113	2441.934923
887.527417	2460.083077
887.836680	2438.910231
888.145901	2475.962712
888.455082	2489.321769
888.764221	2468.653038
889.073319	2437.397885
889.382376	2494.867038
889.691392	2438.406115
890.000366	2454.033692
890.309300	2440.674635
890.618193	2444.455500
890.927044	2421.770308
891.235855	2455.293981
891.544625	2453.529577
891.853353	2466.888635
892.162041	2465.376288
892.470687	2414.964750
892.779293	2465.124231
893.087858	2461.091308
893.396381	2454.537808
893.704864	2428.827923
894.013306	2475.710654
894.321707	2447.480192
894.630068	2466.384519
894.938387	2470.417442
895.246665	2453.025462
895.554903	2476.214769
895.863100	2448.740481
896.171256	2450.504885
896.479371	2463.611885
896.787446	2461.595423
897.095480	2446.724019
897.403473	2454.537808
897.711425	2430.844385
898.019336	2446.471962
898.327207	2466.132462
898.635038	2476.970942
898.942827	2456.554269
899.250576	2462.855712
899.558284	2473.946250
899.865952	2448.740481
900.173579	2446.724019
900.481165	2455.546038
900.788711	2462.603654
901.096216	2467.644808
901.403681	2473.946250
901.711105	2482.012096
902.018489	2473.694192
902.325832	2442.691096
902.633135	2463.107769
902.940397	2477.223000
903.247619	2453.025462
903.554800	2462.351596
903.861941	2458.318673
904.169041	2464.620115
904.476101	2462.603654
904.783121	2473.442135
905.090100	2450.504885
905.397039	2465.376288
905.703938	2462.099538
906.010796	2476.970942
906.317614	2494.362923
906.624391	2443.195212
906.931129	2450.000769
907.237826	2452.269288
907.544483	2455.293981
907.851099	2471.425673
908.157675	2443.195212
908.464211	2451.765173
908.770707	2454.033692
909.077163	2461.595423
909.383578	2443.699327
909.689954	2437.902000
909.996289	2443.699327
910.302584	2469.913327
910.608839	2452.773404
910.915054	2466.132462
911.221229	2448.236365
911.527363	2480.751808
911.833458	2466.636577
912.139513	2464.368058
912.445527	2435.129365
912.751502	2459.326904
913.057436	2450.252827
913.363331	2468.400981
913.669186	2470.417442
913.975000	2439.666404
914.280775	2437.902000
914.586510	2452.773404
914.892205	2443.951385
915.197859	2474.198308
915.503475	2459.326904
915.809050	2426.559404
916.114585	2438.910231
916.420081	2459.074846
916.725536	2448.740481
917.030952	2465.628346
917.336328	2462.351596
917.641665	2454.285750
917.946961	2450.000769
918.252218	2439.666404
918.557435	2479.239462
918.862612	2463.107769
919.167750	2425.551173
919.472848	2472.938019
919.777906	2449.496654
920.082925	2468.653038
920.387904	2451.009000
920.692843	2469.157154
920.997743	2477.979173
921.302603	2489.321769
921.607423	2445.211673
921.912204	2467.140692
922.216946	2445.967846
922.521647	2466.384519
922.826310	2435.381423
923.130932	2463.359827
923.435516	2471.677731
923.740059	2468.653038
924.044564	2459.326904
924.349028	2470.165385
924.653454	2452.017231
924.957840	2469.157154
925.262186	2457.310442
925.566493	2465.628346
925.870761	2474.702423
926.174989	2432.608788
926.479178	2444.455500
926.783328	2467.896865
927.087438	2459.326904
927.391509	2449.496654
927.695541	2467.896865
927.999533	2464.116000
928.303486	2482.012096
928.607400	2486.549135
928.911275	2487.305308
929.215110	2447.480192
929.518906	2466.132462
929.822663	2455.798096
930.126381	2460.839250
930.430060	2471.173615
930.733699	2437.397885
931.037299	2428.323808
931.340861	2488.817654
931.644383	2443.195212
931.947866	2447.228135
932.251309	2445.967846
932.554714	2445.967846
932.858080	2471.677731
933.161407	2472.685962
933.464694	2474.954481
933.767943	2443.447269
934.071153	2483.776500
934.374323	2457.058385
934.677455	2485.540904
934.980548	2449.244596
935.283602	2470.669500
935.586617	2465.628346
935.889593	2462.855712
936.192530	2461.847481
936.495428	2446.724019
936.798287	2486.045019
937.101108	2460.587192
937.403890	2446.219904
937.706632	2466.888635
938.009336	2443.447269
938.312002	2472.938019
938.614628	2456.806327
938.917216	2448.488423
939.219765	2476.466827
939.522275	2476.466827
939.824747	2453.529577
940.127179	2454.285750
940.429573	2455.546038
940.731929	2461.091308
941.034246	2470.417442
941.336524	2439.162288
941.638763	2446.219904
941.940964	2461.091308
942.243126	2474.954481
942.545250	2446.976077
942.847335	2476.970942
943.149381	2444.707558
943.451389	2472.181846
943.753359	2445.715788
944.055290	2451.513115
944.357182	2488.817654
944.659036	2468.653038
944.960851	2471.677731
945.262628	2464.116000
945.564367	2446.976077
945.866067	2451.513115
946.167729	2457.058385
946.469352	2449.496654
946.770937	2466.636577
947.072484	2491.086173
947.373992	2480.751808
947.675462	2479.239462
947.976893	2452.773404
948.278286	2466.888635
948.579641	2436.641712
948.880958	2451.009000
949.182236	2466.888635
949.483476	2453.781635
949.784678	2467.644808
950.085841	2462.603654
950.386967	2469.661269
950.688054	2430.088212
950.989103	2439.414346
951.290114	2475.458596
951.591087	2452.521346
951.892021	2450.504885
952.192917	2446.471962
952.493776	2447.480192
952.794596	2468.653038
953.095378	2470.669500
953.396122	2479.743577
953.696828	2464.368058
953.997496	2447.984308
954.298126	2429.836154
954.598718	2428.323808
954.899272	2457.814558
955.199788	2456.806327
955.500266	2484.532673
955.800706	2452.521346
956.101108	2465.628346
956.401472	2459.074846
956.701798	2489.069712
957.002087	2478.987404
957.302337	2458.318673
957.602550	2469.157154
957.902724	2437.145827
958.202861	2453.277519
958.502960	2458.066615
958.803022	2497.639673
959.103045	2449.496654
959.403031	2461.091308
959.702979	2458.570731
960.002889	2447.480192
960.302762	2466.888635
960.602596	2490.834115
960.902393	2462.099538
961.202153	2447.732250
961.501875	2458.318673
961.801559	2472.938019
962.101205	2447.228135
962.400814	2448.740481
962.700385	2435.633481
962.999918	2452.773404
963.299414	2419.501788
963.598873	2481.507981
963.898293	2468.905096
964.197677	2474.450365
964.497022	2454.033692
964.796331	2470.669500
965.095601	2456.050154
965.394835	2474.702423
965.694030	2448.236365
965.993189	2440.422577
966.292309	2460.335135
966.591393	2460.587192
966.890439	2422.526481
967.189447	2470.165385
967.488419	2463.611885
967.787353	2475.710654
968.086249	2450.756942
968.385108	2464.872173
968.683930	2457.562500
968.982714	2432.356731
969.281462	2437.902000
969.580172	2468.148923
969.878844	2460.587192
970.177480	2453.529577
970.476078	2455.041923
970.774639	2443.951385
971.073162	2440.170519
971.371649	2458.318673
971.670098	2501.672596
971.968510	2446.976077
972.266885	2471.425673
972.565223	2460.587192
972.863524	2452.269288
973.161788	2468.905096
973.460014	2428.575865
973.758204	2478.987404
974.056356	2445.967846
974.354471	2452.269288
974.652550	2472.938019
974.950591	2450.756942
975.248595	2443.951385
975.546563	2466.888635
975.844493	2466.384519
976.142386	2443.951385
976.440243	2473.694192
976.738062	2424.290885
977.035845	2454.033692
977.333590	2456.554269
977.631299	2474.954481
977.928971	2450.252827
978.226606	2444.707558
978.524204	2442.691096
978.821765	2449.496654
979.119290	2470.417442
979.416777	2448.740481
979.714228	2474.702423
980.011642	2487.053250
980.309020	2466.636577
980.606360	2473.946250
980.903664	2455.546038
981.200931	2459.074846
981.498162	2440.674635
981.795356	2472.433904
982.092513	2459.578962
982.389633	2463.611885
982.686717	2460.083077
982.983764	2481.507981
983.280775	2457.310442
983.577749	2441.430808
983.874686	2447.480192
984.171587	2485.036788
984.468451	2448.236365
984.765279	2483.020327
985.062070	2452.521346
985.358824	2465.376288
985.655543	2425.299115
985.952224	2465.628346
986.248869	2425.299115
986.545478	2451.009000
986.842050	2481.507981
987.138586	2477.979173
987.435086	2451.261058
987.731549	2460.083077
988.027975	2448.488423
988.324366	2463.863942
988.620719	2474.198308
988.917037	2460.839250
989.213318	2465.376288
989.509563	2448.740481
989.805772	2450.252827
990.101944	2467.140692
990.398080	2470.417442
990.694180	2449.496654
990.990244	2444.203442
991.286271	2476.970942
991.582262	2455.798096
991.878217	2440.926692
992.174136	2456.806327
992.470019	2463.611885
992.765865	2461.847481
993.061676	2467.140692
993.357450	2456.302212
993.653188	2460.839250
993.948890	2445.715788
994.244556	2459.831019
994.540186	2458.822788
994.835780	2458.066615
995.131337	2458.066615
995.426859	2449.748712
995.722345	2476.214769
996.017795	2465.880404
996.313208	2458.066615
996.608586	2446.724019
996.903928	2480.247692
997.199234	2448.236365
997.494504	2453.781635
997.789738	2440.422577
998.084936	2457.310442
998.380099	2457.310442
998.675225	2462.099538
998.970316	2453.781635
999.265371	2478.987404
999.560390	2483.020327
999.855373	2453.277519
1000.150320	2438.910231
1000.445232	2431.600558
1000.740108	2444.455500
1001.034948	2495.875269
1001.329752	2468.400981
1001.624521	2429.584096
1001.919254	2430.844385
1002.213951	2452.521346
1002.508613	2456.302212
1002.803239	2446.724019
1003.097829	2455.798096
1003.392384	2456.302212
1003.686903	2455.798096
1003.981386	2454.537808
1004.275834	2466.132462
1004.570246	2461.091308
1004.864623	2457.058385
1005.158964	2463.611885
1005.453270	2456.554269
1005.747540	2445.463731
1006.041775	2463.359827
1006.335974	2437.397885
1006.630138	2458.822788
1006.924266	2442.943154
1007.218359	2454.789865
1007.512416	2426.811462
1007.806438	2474.198308
1008.100425	2441.682865
1008.394376	2438.910231
1008.688292	2473.442135
1008.982172	2443.447269
1009.276017	2476.970942
1009.569827	2485.036788
1009.863602	2427.819692
1010.157341	2487.305308
1010.451045	2440.674635
1010.744714	2477.475058
1011.038347	2469.913327
1011.331945	2479.239462
1011.625508	2433.869077
1011.919036	2482.768269
1012.212528	2442.943154
1012.505986	2425.551173
1012.799408	2472.685962
1013.092795	2442.691096
1013.386147	2431.600558
1013.679464	2457.814558
1013.972745	2485.540904
1014.265992	2438.406115
1014.559204	2470.669500
1014.852380	2452.521346
1015.145521	2471.425673
1015.438628	2461.847481
1015.731699	2464.368058
1016.024736	2436.893769
1016.317737	2450.000769
1016.610703	2451.261058
1016.903635	2472.685962
1017.196531	2461.847481
1017.489393	2451.765173
1017.782219	2468.400981
1018.075011	2448.236365
1018.367768	2428.575865
1018.660490	2453.529577
1018.953177	2453.529577
1019.245829	2453.529577
