Dividing Wavelength (nm)	Counts (n)	Slit_number_10_of_a_total_of_40	
326.493990	2156.017481
326.888308	2156.017481
327.282561	2156.017481
327.676750	2120.981462
328.070874	2127.787019
328.464933	2124.258212
328.858929	2154.337096
329.252859	2163.327154
329.646726	2168.368308
330.040528	2192.145750
330.434265	2209.957827
330.827938	2221.720519
331.221547	2246.170115
331.615091	2267.090904
332.008571	2291.624519
332.401986	2306.075827
332.795338	2314.393731
333.188625	2351.026115
333.581847	2348.085442
333.975006	2393.875923
334.368100	2395.724346
334.761129	2407.655077
335.154095	2424.626962
335.546996	2457.310442
335.939833	2469.157154
336.332606	2486.045019
336.725315	2505.453462
337.117960	2496.715462
337.510540	2510.914712
337.903056	2526.038173
338.295508	2530.743250
338.687896	2531.835500
339.080220	2542.842019
339.472480	2533.935981
339.864676	2563.174673
340.256807	2563.258692
340.648875	2548.303269
341.040879	2555.612942
341.432818	2554.940788
341.824694	2551.748058
342.216506	2565.947308
342.608253	2557.881462
342.999937	2557.041269
343.391557	2566.535442
343.783113	2542.253885
344.174605	2554.940788
344.566033	2540.237423
344.957397	2559.477827
345.348697	2531.247365
345.739934	2556.033038
346.131106	2534.524115
346.522215	2542.505942
346.913260	2524.525827
347.304241	2541.161635
347.695159	2544.774462
348.086012	2526.290231
348.476802	2539.817327
348.867528	2524.525827
349.258191	2521.165058
349.648789	2530.323154
350.039324	2539.985365
350.429796	2551.243942
350.820203	2540.993596
351.210548	2520.324865
351.600828	2517.300173
351.991045	2527.046404
352.381198	2527.466500
352.771288	2546.034750
353.161314	2517.636250
353.551276	2534.608135
353.941175	2530.827269
354.331010	2533.851962
354.720782	2530.071096
355.110490	2518.728500
355.500135	2531.415404
355.889717	2528.390712
356.279235	2534.272058
356.668689	2528.390712
357.058080	2533.011769
357.447408	2531.079327
357.836672	2529.735019
358.225873	2526.374250
358.615010	2528.474731
359.004084	2527.298462
359.393095	2545.194558
359.782043	2540.741538
360.170927	2524.441808
360.559748	2508.982269
360.948505	2563.006635
361.337199	2553.680500
361.725830	2532.339615
362.114398	2551.411981
362.502903	2523.181519
362.891344	2539.145173
363.279722	2540.573500
363.668037	2534.524115
364.056289	2544.186327
364.444478	2545.614654
364.832603	2538.304981
365.220665	2536.036462
365.608665	2533.935981
365.996601	2531.163346
366.384474	2552.168154
366.772284	2542.505942
367.160031	2538.473019
367.547715	2540.825558
367.935336	2545.614654
368.322893	2547.631115
368.710388	2544.606423
369.097820	2540.489481
369.485189	2528.894827
369.872495	2550.823846
370.259738	2558.049500
370.646918	2540.237423
371.034035	2548.723365
371.421090	2524.861904
371.808081	2546.034750
372.195010	2539.313212
372.581875	2555.360885
372.968678	2537.716846
373.355418	2553.932558
373.742096	2542.001827
374.128710	2541.665750
374.515262	2540.489481
374.901751	2534.020000
375.288177	2550.823846
375.674540	2555.444904
376.060841	2558.973712
376.447079	2554.772750
376.833254	2554.436673
377.219367	2545.698673
377.605417	2548.387288
377.991404	2546.370827
378.377329	2545.110538
378.763191	2556.621173
379.148991	2555.780981
379.534727	2546.202788
379.920402	2551.243942
380.306013	2540.993596
380.691563	2540.741538
381.077049	2550.739827
381.462474	2555.108827
381.847835	2556.537154
382.233134	2554.100596
382.618371	2555.276865
383.003545	2552.672269
383.388657	2542.505942
383.773706	2547.211019
384.158693	2545.950731
384.543618	2543.514173
384.928480	2542.673981
385.313280	2555.865000
385.698017	2546.118769
386.082692	2536.036462
386.467305	2555.360885
386.851856	2567.207596
387.236344	2558.049500
387.620770	2549.647577
388.005133	2553.428442
388.389435	2542.085846
388.773674	2552.336192
389.157851	2552.588250
389.541965	2553.176385
389.926018	2551.327962
390.310008	2555.360885
390.693936	2560.234000
391.077802	2546.622885
391.461606	2550.655808
391.845348	2571.828654
392.229027	2569.980231
392.612645	2548.975423
392.996200	2546.958962
393.379694	2558.553615
393.763125	2564.771038
394.146494	2568.887981
394.529801	2536.456558
394.913047	2567.627692
395.296230	2550.571788
395.679351	2556.201077
396.062410	2558.217538
396.445408	2557.713423
396.828343	2565.611231
397.211217	2553.344423
397.594028	2543.766231
397.976778	2553.680500
398.359466	2550.823846
398.742092	2565.863288
399.124656	2545.614654
399.507158	2555.360885
399.889598	2548.975423
400.271977	2553.008346
400.654294	2570.316308
401.036549	2572.836885
401.418742	2559.561846
401.800874	2564.939077
402.182944	2551.496000
402.564952	2554.604712
402.946898	2572.584827
403.328783	2553.344423
403.710606	2560.738115
404.092367	2573.593058
404.474067	2566.787500
404.855705	2543.682212
405.237282	2564.603000
405.618797	2565.611231
406.000250	2552.504231
406.381642	2555.360885
406.762972	2579.894500
407.144240	2553.932558
407.525447	2570.316308
407.906593	2563.426731
408.287677	2567.207596
408.668700	2570.652385
409.049661	2550.823846
409.430560	2551.664038
409.811399	2554.352654
410.192176	2566.451423
410.572891	2562.754577
410.953545	2542.169865
411.334138	2552.924327
411.714669	2562.922615
412.095139	2561.494288
412.475547	2563.594769
412.855894	2562.754577
413.236180	2572.584827
413.616405	2541.329673
413.996568	2568.803962
414.376670	2554.772750
414.756711	2567.627692
415.136691	2566.787500
415.516609	2575.609519
415.896466	2573.677077
416.276262	2575.525500
416.655997	2574.013154
417.035670	2565.947308
417.415283	2575.861577
417.794834	2570.400327
418.174324	2563.594769
418.553753	2566.787500
418.933121	2560.570077
419.312428	2571.072481
419.691674	2573.256981
420.070859	2563.258692
420.449983	2563.594769
420.829045	2576.113635
421.208047	2547.967192
421.586988	2582.919192
421.965867	2561.998404
422.344686	2568.972000
422.723444	2565.107115
423.102141	2579.642442
423.480777	2576.869808
423.859352	2564.771038
424.237866	2575.693538
424.616319	2570.652385
424.994712	2562.334481
425.373044	2575.021385
425.751314	2571.156500
426.129524	2583.843404
426.507673	2561.746346
426.885762	2570.316308
427.263789	2575.441481
427.641756	2574.265212
428.019662	2569.056019
428.397508	2564.771038
428.775292	2581.490865
429.153016	2558.889692
429.530679	2568.972000
429.908282	2582.415077
430.285824	2577.373923
430.663305	2557.209308
431.040726	2578.718231
431.418086	2578.046077
431.795385	2574.685308
432.172624	2571.828654
432.549802	2577.457942
432.926920	2563.426731
433.303977	2580.818712
433.680974	2574.181192
434.057910	2560.738115
434.434786	2561.914385
434.811601	2565.947308
435.188355	2568.467885
435.565050	2575.861577
435.941683	2578.298135
436.318257	2576.617750
436.694770	2571.744635
437.071222	2569.812192
437.447614	2583.171250
437.823946	2579.726462
438.200218	2577.962058
438.576429	2575.189423
438.952580	2553.344423
439.328670	2565.107115
439.704700	2584.767615
440.080670	2566.283385
440.456580	2564.603000
440.832429	2573.593058
441.208218	2579.558423
441.583947	2573.425019
441.959616	2568.719942
442.335224	2575.861577
442.710773	2580.314596
443.086261	2571.660615
443.461689	2576.029615
443.837057	2584.431538
444.212365	2590.228865
444.587612	2574.937365
444.962800	2570.736404
445.337927	2581.826942
445.712995	2602.747731
446.088002	2574.097173
446.462949	2571.576596
446.837837	2576.785788
447.212664	2577.541962
447.587431	2577.121865
447.962139	2556.873231
448.336786	2589.976808
448.711374	2574.517269
449.085901	2575.945596
449.460369	2574.013154
449.834776	2589.052596
450.209124	2580.902731
450.583412	2574.181192
450.957640	2590.985038
451.331808	2575.105404
451.705917	2580.734692
452.079965	2585.019673
452.453954	2585.523788
452.827883	2574.601288
453.201752	2576.449712
453.575562	2573.172962
453.949311	2567.207596
454.323001	2586.784077
454.696632	2589.136615
455.070202	2581.154788
455.443713	2587.204173
455.817164	2578.550192
456.190556	2574.265212
456.563888	2583.423308
456.937160	2588.044365
457.310373	2581.826942
457.683526	2589.976808
458.056619	2580.314596
458.429653	2595.942173
458.802628	2590.817000
459.175542	2585.691827
459.548398	2586.700058
459.921194	2585.607808
460.293930	2591.573173
460.666607	2594.513846
461.039224	2584.347519
461.411782	2598.042654
461.784280	2590.060827
462.156719	2601.403423
462.529099	2593.589635
462.901419	2584.767615
463.273680	2602.075577
463.645882	2599.975096
464.018024	2596.866385
464.390106	2592.833462
464.762130	2582.331058
465.134094	2597.286481
465.505999	2617.367077
465.877845	2598.378731
466.249631	2605.100269
466.621358	2618.207269
466.993026	2614.006308
467.364634	2630.642115
467.736184	2593.673654
468.107674	2592.665423
468.479105	2591.489154
468.850477	2608.377019
469.221790	2600.479212
469.593043	2610.225442
469.964238	2598.798827
470.335373	2611.233673
470.706449	2584.179481
471.077467	2599.302942
471.448425	2614.678462
471.819324	2605.940462
472.190164	2609.805346
472.560945	2613.166115
472.931667	2598.714808
473.302330	2609.049173
473.672934	2622.576269
474.043479	2598.126673
474.413965	2617.619135
474.784393	2615.686692
475.154761	2604.092038
475.525070	2605.436346
475.895321	2622.408231
476.265513	2612.493962
476.635645	2601.571462
477.005719	2623.500481
477.375734	2602.159596
477.745691	2615.266596
478.115588	2619.383538
478.485427	2606.780654
478.855207	2611.485731
479.224928	2623.920577
479.594591	2630.894173
479.964194	2631.062212
480.333739	2613.418173
480.703226	2618.711385
481.072653	2633.498769
481.442022	2630.558096
481.811333	2647.109885
482.180584	2623.836558
482.549777	2631.146231
482.918912	2617.871192
483.287988	2642.992942
483.657005	2625.348904
484.025964	2630.810154
484.394864	2640.892462
484.763706	2629.297808
485.132489	2631.734365
485.501213	2635.767288
485.869879	2622.996365
486.238487	2640.640404
486.607036	2637.783750
486.975527	2629.045750
487.343959	2634.170923
487.712333	2641.480596
488.080648	2645.513519
488.448905	2647.025865
488.817104	2638.287865
489.185244	2649.210365
489.553326	2654.839654
489.921350	2656.352000
490.289315	2666.686365
490.657222	2677.776904
491.025070	2675.004269
491.392861	2681.053654
491.760593	2677.440827
492.128267	2664.921962
492.495883	2670.383212
492.863440	2679.289250
493.230939	2685.002558
493.598380	2695.252904
493.965763	2698.781712
494.333088	2684.078346
494.700354	2685.758731
495.067563	2682.397962
495.434713	2698.613673
495.801805	2701.218269
496.168839	2700.210038
496.535815	2708.191865
496.902733	2715.501538
497.269593	2720.542692
497.636395	2717.265942
498.003139	2731.045096
498.369825	2746.420615
498.736453	2748.016981
499.103023	2746.084538
499.469535	2764.316712
499.835989	2753.814308
500.202385	2772.130500
500.568723	2786.665827
500.935003	2813.299923
501.301226	2817.416865
501.667390	2810.443269
502.033497	2835.481000
502.399546	2855.393558
502.765537	2857.410019
503.131470	2874.549942
503.497345	2894.546519
503.863163	2888.917231
504.228923	2916.139462
504.594625	2942.857577
504.960269	2934.959769
505.325856	2975.625077
505.691385	2987.555808
506.056856	2998.898404
506.422270	3032.086000
506.787625	3050.570231
507.152924	3072.499250
507.518164	3112.996519
507.883347	3098.545212
508.248472	3153.073692
508.613540	3157.778769
508.978550	3185.169038
509.343503	3228.270904
509.708398	3248.099442
510.073236	3289.520923
510.438016	3324.640962
510.802738	3355.980135
511.167403	3402.358750
511.532010	3433.697923
511.896561	3492.427365
512.261053	3548.384173
512.625488	3567.708596
512.989866	3617.532000
513.354186	3669.623923
513.718449	3723.060154
514.082655	3774.059827
514.446803	3809.599962
514.810894	3888.241962
515.174927	3958.314000
515.538904	3988.476904
515.902822	4080.730019
516.266684	4108.288327
516.630488	4191.299327
516.994235	4258.178635
517.357925	4347.743135
517.721558	4410.757558
518.085133	4523.763423
518.448651	4594.087519
518.812112	4649.288154
519.175516	4731.038865
519.538863	4830.265577
519.902152	4938.482346
520.265385	5004.353423
520.628560	5124.080827
520.991678	5199.530096
521.354739	5296.488288
521.717743	5416.299712
522.080690	5511.073404
522.443580	5658.191077
522.806413	5763.887269
523.169189	5860.761442
523.531908	5987.966558
523.894569	6102.400750
524.257174	6180.202558
524.619722	6362.776346
524.982213	6457.213962
525.344647	6577.361462
525.707025	6710.615962
526.069345	6884.283712
526.431608	6998.297808
526.793815	7167.764596
527.155964	7250.775596
527.518057	7408.731750
527.880093	7510.479038
528.242072	7728.172865
528.603995	7823.450673
528.965860	7940.069365
529.327669	8125.919904
529.689421	8250.688462
530.051117	8407.468346
530.412755	8600.628558
530.774337	8736.739712
531.135862	8855.963000
531.497331	9071.976442
531.858743	9151.794712
532.220098	9397.214885
532.581396	9462.329788
532.942638	9577.604173
533.303824	9808.993135
533.664953	9947.036731
534.026025	10070.292942
534.387040	10342.599269
534.747999	10472.408981
535.108902	10679.852462
535.469748	10750.680673
535.830537	10951.486635
536.191270	11148.511731
536.551947	11238.076231
536.912567	11435.269365
537.273131	11663.717654
537.633638	11710.348327
537.994089	11931.654981
538.354483	11977.109385
538.714821	12266.387596
539.075103	12491.979231
539.435328	12633.635654
539.795497	12813.100731
540.155609	12968.536308
540.515665	13204.966423
540.875665	13215.216769
541.235609	13560.115712
541.595496	13587.505981
541.955328	13961.811654
542.315102	13916.357250
542.674821	14045.410788
543.034483	14174.632365
543.394090	14363.339558
543.753640	14444.586154
544.113134	14879.805769
544.472571	14759.406212
544.831953	15204.792154
545.191278	15216.554846
545.550548	15220.503750
545.909761	15544.397885
546.268918	15660.008346
546.628019	15927.525577
546.987064	15921.728250
547.346053	15844.514577
547.704986	16130.263981
548.063863	16183.280115
548.422684	16349.638192
548.781449	16435.001731
549.140158	16651.855365
549.498811	16692.688712
549.857408	16603.712346
550.215949	17056.744038
550.574434	17063.633615
550.932864	17117.826019
551.291237	17461.212615
551.649555	17382.654635
552.007817	17576.571019
552.366022	17563.716077
552.724173	17672.941077
553.082267	17930.207962
553.440305	18117.738885
553.798288	17947.683962
554.156215	18144.288962
554.514086	18247.884673
554.871902	18264.856558
555.229661	18326.778731
555.587365	18275.274942
555.945014	18373.577442
556.302606	18406.260923
556.660143	18490.532212
557.017625	18615.048712
557.375050	18604.798365
557.732421	18734.103962
558.089735	18756.537096
558.446994	18765.779212
558.804197	19023.214135
559.161345	19040.102000
559.518437	18731.835442
559.875474	18863.997692
560.232455	18939.783038
560.589381	18969.441827
560.946251	18884.582404
561.303065	19207.132231
561.659825	19114.206962
562.016528	18958.771385
562.373177	18844.925327
562.729770	19047.075596
563.086307	18840.808385
563.442789	18969.021731
563.799216	19009.350962
564.155587	18885.842692
564.511904	18880.801538
564.868164	18887.691115
565.224370	18970.113981
565.580520	18829.465788
565.936615	18827.701385
566.292654	18677.811077
566.648638	18741.413635
567.004567	18682.768212
567.360441	18635.129308
567.716260	18475.408750
568.072023	18522.375500
568.427732	18484.566846
568.783385	18190.079442
569.138982	18359.378192
569.494525	18222.678904
569.850013	18063.378442
570.205445	18019.688442
570.560823	17886.265904
570.916145	17722.512423
571.271412	17596.399558
571.626625	17453.230788
571.981782	17361.061692
572.336884	17202.769462
572.691931	17167.817462
573.046923	16917.020058
573.401860	16796.704519
573.756743	16658.828962
574.111570	16619.760019
574.466342	16456.342615
574.821059	16391.563788
575.175722	16125.979000
575.530330	16011.376769
575.884882	15836.028635
576.239380	15688.910962
576.593823	15577.501462
576.948211	15414.672192
577.302544	15198.322673
577.656823	15070.529423
578.011047	14947.945365
578.365216	14806.036885
578.719330	14577.252519
579.073389	14406.777500
579.427394	14279.740423
579.781344	14169.171115
580.135239	13963.239981
580.489080	13832.338019
580.842866	13606.494327
581.196597	13541.463442
581.550273	13377.205846
581.903895	13211.183846
582.257463	13192.615596
582.610975	12893.675173
582.964434	12836.374058
583.317837	12545.247423
583.671186	12389.811846
584.024481	12347.466154
584.377721	12093.728077
584.730906	12019.707135
585.084037	11885.780481
585.437113	11685.730692
585.790135	11580.790673
586.143103	11355.787173
586.496016	11290.756288
586.848874	11080.372135
587.201679	10977.280538
587.554428	10774.038019
587.907124	10666.997519
588.259765	10467.535865
588.612352	10418.300596
588.964884	10180.274115
589.317362	10076.510365
589.669786	9956.362865
590.022155	9819.495538
590.374470	9794.205750
590.726731	9567.353827
591.078937	9365.875712
591.431090	9265.724788
591.783188	9090.796750
592.135232	8948.720231
592.487222	8852.014096
592.839157	8780.093635
593.191038	8574.834654
593.542866	8406.628154
593.894639	8237.917538
594.246358	8161.376019
594.598022	8071.559462
594.949633	7891.002135
595.301190	7794.968154
595.652692	7641.044923
596.004141	7581.979404
596.355535	7365.965962
596.706876	7246.910712
597.058162	7144.323231
597.409395	7077.948038
597.760573	7015.101654
598.111698	6868.236038
598.462768	6777.831346
598.813785	6689.695173
599.164748	6527.454038
599.515657	6487.965000
599.866511	6332.781481
600.217312	6337.402538
600.568060	6150.375731
600.918753	6135.252269
601.269392	6038.042019
601.619978	5938.059135
601.970510	5882.942519
602.320988	5815.979192
602.671412	5771.196942
603.021783	5668.693481
603.372100	5592.488038
603.722363	5522.079923
604.072572	5476.373462
604.422728	5390.421788
604.772830	5322.534250
605.122878	5260.107962
605.472872	5175.668635
605.822813	5134.919308
606.172701	5055.773192
606.522534	5015.191904
606.872314	4975.450808
607.222041	4898.153115
607.571714	4893.111962
607.921333	4787.751846
608.270899	4749.271038
608.620411	4705.833096
608.969870	4652.396865
609.319276	4595.935942
609.668627	4560.311788
610.017926	4520.822750
610.367171	4494.692769
610.716362	4449.490423
611.065500	4415.546654
611.414585	4365.219135
611.763616	4338.669058
612.112594	4277.503058
612.461518	4247.256135
612.810389	4237.089808
613.159207	4195.416269
613.507971	4172.815096
613.856682	4138.787308
614.205340	4095.601423
614.553945	4071.067808
614.902496	4020.320192
615.250994	4006.457019
615.599439	3996.122654
615.947830	3950.248154
616.296169	3926.134635
616.644454	3904.121596
616.992686	3880.092096
617.340864	3880.512192
617.688990	3824.387346
618.037063	3847.156558
618.385082	3812.876712
618.733048	3774.900019
619.080961	3748.686019
619.428821	3739.107827
619.776628	3722.472019
620.124382	3694.157538
620.472083	3645.510404
620.819731	3620.640712
621.167326	3589.637615
621.514868	3574.010038
621.862357	3533.344731
622.209793	3507.046712
622.557176	3466.969538
622.904506	3445.880712
623.251783	3400.594346
623.599007	3392.528500
623.946179	3355.560038
624.293297	3357.324442
624.640363	3294.478058
624.987376	3279.354596
625.334336	3270.112481
625.681243	3232.723923
626.028097	3230.959519
626.374899	3209.954712
626.721647	3184.832962
627.068343	3182.816500
627.414987	3158.450923
627.761577	3142.067173
628.108115	3117.953654
628.454600	3108.879577
628.801032	3113.752692
629.147412	3087.454673
629.493739	3075.691981
629.840014	3054.015019
630.186236	3045.024962
630.532405	3044.772904
630.878521	3037.379212
631.224585	3025.364462
631.570597	2999.570558
631.916556	3002.595250
632.262462	2988.480019
632.608316	2990.496481
632.954117	2982.178577
633.299866	2978.061635
633.645562	2956.132615
633.991206	2947.898731
634.336797	2940.000923
634.682336	2923.953250
635.027823	2918.912096
635.373257	2896.058865
635.718639	2909.249885
636.063968	2889.085269
636.409245	2875.054058
636.754470	2862.619212
637.099642	2851.024558
637.444762	2846.319481
637.789829	2842.958712
638.134845	2846.235462
638.479808	2821.701846
638.824719	2805.402115
639.169577	2809.267000
639.514383	2806.578385
639.859137	2797.588327
640.203839	2800.529000
640.548489	2789.018365
640.893086	2787.422000
641.237632	2780.616442
641.582125	2764.568769
641.926566	2782.968981
642.270955	2742.639750
642.615292	2755.074596
642.959576	2766.165135
643.303809	2753.730288
643.647990	2748.689135
643.992118	2757.343115
644.336195	2735.246058
644.680219	2741.463481
645.024192	2734.489885
645.368112	2750.117462
645.711981	2745.832481
646.055797	2741.463481
646.399562	2736.758404
646.743274	2735.498115
647.086935	2729.448731
647.430544	2722.979250
647.774101	2743.059846
648.117606	2727.348250
648.461059	2748.857173
648.804460	2739.783096
649.147810	2711.048519
649.491108	2711.216558
649.834354	2704.747077
650.177548	2709.536173
650.520690	2708.275885
650.863781	2698.697692
651.206820	2697.689462
651.549807	2703.654827
651.892742	2684.246385
652.235626	2690.463808
652.578458	2680.549538
652.921238	2686.850981
653.263967	2676.012500
653.606644	2670.047135
653.949269	2692.900365
654.291843	2668.870865
654.634365	2663.997750
654.976836	2669.290962
655.319255	2685.758731
655.661622	2665.342058
656.003938	2677.692885
656.346203	2682.145904
656.688416	2662.233346
657.030577	2661.897269
657.372687	2664.165788
657.714746	2670.971346
658.056753	2657.108173
658.398708	2649.462423
658.740612	2646.353712
659.082465	2662.317365
659.424266	2652.319077
659.766016	2661.561192
660.107715	2647.866058
660.449362	2644.001173
660.790958	2635.179154
661.132503	2652.067019
661.473996	2647.782038
661.815438	2649.882519
662.156829	2653.159269
662.498168	2651.226827
662.839456	2647.866058
663.180693	2640.052269
663.521879	2645.093423
663.863013	2631.230250
664.204097	2651.898981
664.545129	2647.614000
664.886110	2646.941846
665.227040	2635.683269
665.567918	2640.640404
665.908746	2643.833135
666.249522	2632.406519
666.590248	2634.843077
666.930922	2635.347192
667.271545	2634.927096
667.612118	2643.581077
667.952639	2634.759058
668.293109	2620.895885
668.633528	2630.810154
668.973896	2629.549865
669.314213	2631.566327
669.654480	2648.034096
669.994695	2632.742596
670.334859	2628.457615
670.674973	2631.818385
671.015035	2629.717904
671.355047	2627.449385
671.695008	2621.988135
672.034918	2616.022769
672.374777	2635.263173
672.714585	2631.566327
673.054342	2630.558096
673.394049	2631.902404
673.733705	2617.451096
674.073310	2633.918865
674.412864	2622.660288
674.752368	2622.072154
675.091820	2620.391769
675.431223	2620.643827
675.770574	2618.291288
676.109875	2609.973385
676.449125	2642.572846
676.788324	2618.123250
677.127473	2625.348904
677.466571	2607.956923
677.805619	2616.610904
678.144616	2622.660288
678.483562	2620.391769
678.822458	2619.047462
679.161303	2620.475788
679.500098	2616.442865
679.838842	2609.049173
680.177535	2635.683269
680.516179	2614.258365
680.854771	2611.989846
681.193314	2615.686692
681.531805	2620.055692
681.870247	2623.416462
682.208638	2617.787173
682.546978	2615.602673
682.885268	2617.367077
683.223508	2628.373596
683.561697	2625.600962
683.899836	2607.368788
684.237925	2620.727846
684.575963	2617.787173
684.913951	2608.293000
685.251889	2614.342385
685.589776	2619.887654
685.927614	2609.637308
686.265401	2605.352327
686.603137	2607.116731
686.940824	2619.131481
687.278460	2613.754250
687.616046	2616.778942
687.953582	2597.538538
688.291068	2608.545058
688.628504	2611.653769
688.965889	2621.147942
689.303224	2619.887654
689.640510	2620.811865
689.977745	2592.581404
690.314930	2604.596154
690.652065	2614.342385
690.989150	2585.691827
691.326185	2615.602673
691.663170	2606.024481
692.000105	2593.589635
692.336990	2610.729558
692.673825	2592.833462
693.010610	2593.085519
693.347345	2604.260077
693.684030	2600.815288
694.020665	2609.805346
694.357251	2604.512135
694.693786	2602.243615
695.030272	2603.839981
695.366707	2594.093750
695.703093	2600.731269
696.039429	2593.421596
696.375716	2614.090327
696.711952	2623.836558
697.048139	2606.528596
697.384276	2615.350615
697.720363	2612.998077
698.056400	2596.950404
698.392388	2593.841692
698.728326	2604.176058
699.064214	2609.049173
699.400053	2593.169538
699.735842	2589.976808
700.071581	2598.462750
700.407270	2610.645538
700.742910	2597.118442
701.078501	2600.647250
701.414042	2599.639019
701.749533	2592.749442
702.084974	2608.208981
702.420366	2597.454519
702.755709	2586.448000
703.091002	2588.464462
703.426246	2593.505615
703.761440	2585.607808
704.096584	2585.523788
704.431679	2610.309462
704.766725	2596.782365
705.101721	2596.950404
705.436668	2594.009731
705.771565	2588.296423
706.106413	2589.556712
706.441212	2577.541962
706.775961	2598.210692
707.110661	2589.052596
707.445311	2608.629077
707.779913	2602.411654
708.114465	2599.975096
708.448967	2586.616038
708.783421	2597.454519
709.117825	2590.312885
709.452180	2581.574885
709.786485	2602.075577
710.120742	2583.003212
710.454949	2584.179481
710.789107	2603.167827
711.123216	2599.386962
711.457275	2591.573173
711.791286	2603.755962
712.125247	2599.639019
712.459159	2606.276538
712.793023	2607.620846
713.126837	2601.151365
713.460602	2607.284769
713.794318	2598.882846
714.127985	2596.866385
714.461602	2608.965154
714.795171	2613.670231
715.128691	2601.403423
715.462162	2603.083808
715.795584	2588.128385
716.128957	2609.721327
716.462281	2600.143135
716.795556	2597.706577
717.128782	2597.958635
717.461960	2599.639019
717.795088	2597.454519
718.128167	2606.360558
718.461198	2584.347519
718.794180	2580.566654
719.127113	2588.884558
719.459997	2587.876327
719.792833	2594.429827
720.125619	2603.083808
720.458357	2597.874615
720.791046	2591.657192
721.123686	2597.202462
721.456278	2606.696635
721.788821	2597.034423
722.121315	2597.370500
722.453761	2586.448000
722.786158	2587.120154
723.118506	2585.775846
723.450805	2601.991558
723.783056	2594.765904
724.115259	2605.268308
724.447412	2598.546769
724.779518	2593.169538
725.111574	2599.975096
725.443582	2589.472692
725.775542	2583.759385
726.107453	2602.999788
726.439315	2600.731269
726.771129	2613.166115
727.102895	2599.470981
727.434612	2594.765904
727.766281	2590.228865
728.097901	2600.647250
728.429473	2593.337577
728.760996	2584.179481
729.092471	2596.530308
729.423897	2593.841692
729.755276	2604.680173
730.086606	2589.976808
730.417887	2583.591346
730.749120	2616.946981
731.080305	2587.876327
731.411442	2601.403423
731.742530	2585.187712
732.073570	2592.077288
732.404562	2599.639019
732.735506	2590.144846
733.066401	2585.607808
733.397249	2575.357462
733.728048	2598.378731
734.058798	2593.841692
734.389501	2600.059115
734.720156	2607.872904
735.050762	2599.470981
735.381320	2603.251846
735.711831	2585.691827
736.042293	2587.288192
736.372707	2581.994981
736.703073	2587.792308
737.033391	2602.243615
737.363661	2584.767615
737.693883	2584.935654
738.024056	2591.657192
738.354182	2585.355750
738.684260	2609.637308
739.014290	2580.062538
739.344272	2585.943885
739.674207	2605.352327
740.004093	2592.917481
740.333931	2580.986750
740.663722	2576.449712
740.993464	2598.546769
741.323159	2593.841692
741.652806	2592.329346
741.982405	2590.228865
742.311956	2590.732981
742.641460	2582.919192
742.970915	2591.153077
743.300323	2590.901019
743.629683	2591.741212
743.958996	2599.470981
744.288260	2611.821808
744.617477	2580.986750
744.946647	2593.001500
745.275768	2586.784077
745.604842	2595.942173
745.933869	2589.808769
746.262847	2586.279962
746.591778	2580.650673
746.920662	2590.396904
747.249498	2586.195942
747.578286	2600.815288
747.907027	2587.792308
748.235720	2586.532019
748.564365	2600.479212
748.892963	2578.634212
749.221514	2597.454519
749.550017	2585.355750
749.878473	2584.599577
750.206881	2599.302942
750.535242	2592.497385
750.863555	2587.708288
751.191821	2584.683596
751.520039	2588.884558
751.848210	2575.021385
752.176334	2575.273442
752.504411	2588.464462
752.832440	2591.321115
753.160421	2580.230577
753.488356	2597.202462
753.816243	2586.279962
754.144082	2581.658904
754.471875	2584.515558
754.799620	2606.780654
755.127318	2566.031327
755.454969	2588.128385
755.782572	2593.001500
756.110129	2598.126673
756.437638	2596.194231
756.765100	2599.891077
757.092515	2576.281673
757.419882	2587.960346
757.747203	2607.200750
758.074477	2588.884558
758.401703	2580.230577
758.728882	2593.757673
759.056014	2605.184288
759.383099	2585.775846
759.710138	2586.195942
760.037129	2599.555000
760.364073	2593.589635
760.690970	2577.541962
761.017820	2587.288192
761.344623	2582.163019
761.671379	2590.732981
761.998088	2595.690115
762.324751	2587.120154
762.651366	2609.049173
762.977935	2593.001500
763.304456	2600.899308
763.630931	2597.034423
763.957359	2596.194231
764.283740	2595.017962
764.610074	2600.227154
764.936362	2588.716519
765.262602	2601.571462
765.588796	2594.345808
765.914943	2590.312885
766.241044	2591.153077
766.567097	2585.775846
766.893104	2586.784077
767.219064	2595.942173
767.544978	2589.388673
767.870845	2596.950404
768.196665	2591.321115
768.522438	2585.943885
768.848165	2597.286481
769.173846	2589.808769
769.499479	2575.273442
769.825066	2583.927423
770.150607	2590.648962
770.476101	2602.075577
770.801548	2580.314596
771.126949	2574.685308
771.452303	2593.673654
771.777611	2583.591346
772.102872	2583.003212
772.428087	2584.095462
772.753256	2593.337577
773.078378	2585.355750
773.403453	2564.771038
773.728482	2600.059115
774.053465	2580.734692
774.378401	2582.835173
774.703291	2583.171250
775.028135	2569.560135
775.352932	2570.064250
775.677683	2578.970288
776.002388	2570.316308
776.327046	2579.222346
776.651658	2595.606096
776.976224	2576.617750
777.300743	2593.169538
777.625216	2599.134904
777.949643	2577.457942
778.274024	2585.103692
778.598359	2584.935654
778.922647	2590.228865
779.246889	2588.884558
779.571086	2574.685308
779.895236	2577.878038
780.219339	2585.943885
780.543397	2580.062538
780.867409	2576.365692
781.191374	2598.294712
781.515294	2599.470981
781.839167	2572.752865
782.162995	2586.027904
782.486776	2594.513846
782.810511	2583.255269
783.134201	2590.564942
783.457844	2577.121865
783.781441	2588.128385
784.104993	2578.634212
784.428498	2566.787500
784.751958	2591.153077
785.075372	2585.943885
785.398739	2599.050885
785.722061	2577.794019
786.045337	2590.648962
786.368568	2578.802250
786.691752	2586.279962
787.014891	2599.134904
787.337983	2575.273442
787.661030	2594.177769
787.984031	2574.517269
788.306987	2572.752865
788.629897	2569.728173
788.952760	2585.859865
789.275579	2582.583115
789.598351	2586.532019
789.921078	2589.892788
790.243759	2585.439769
790.566395	2572.416788
790.888984	2582.247038
791.211529	2590.648962
791.534027	2583.843404
791.856480	2590.817000
792.178888	2583.003212
792.501249	2579.222346
792.823566	2586.027904
793.145836	2561.746346
793.468062	2585.859865
793.790241	2584.011442
794.112375	2576.113635
794.434464	2582.751154
794.756507	2582.415077
795.078505	2572.416788
795.400457	2588.296423
795.722364	2591.741212
796.044226	2585.355750
796.366042	2588.716519
796.687812	2585.439769
797.009538	2578.046077
797.331218	2587.624269
797.652852	2578.214115
797.974442	2591.405135
798.295986	2581.406846
798.617484	2584.263500
798.938938	2561.578308
799.260346	2585.523788
799.581709	2581.322827
799.903026	2589.724750
800.224299	2593.925712
800.545526	2573.425019
800.866708	2586.616038
801.187845	2581.994981
801.508936	2585.019673
801.829983	2584.683596
802.150984	2570.652385
802.471940	2592.665423
802.792851	2588.548481
803.113717	2582.919192
803.434538	2586.532019
803.755314	2577.625981
804.076045	2585.691827
804.396731	2590.396904
804.717372	2585.775846
805.037967	2583.171250
805.358518	2577.373923
805.679024	2582.415077
805.999485	2586.195942
806.319901	2569.560135
806.640272	2586.195942
806.960598	2577.289904
807.280879	2596.026192
807.601115	2579.054308
807.921306	2576.113635
808.241453	2584.767615
808.561554	2579.726462
808.881611	2587.540250
809.201623	2573.929135
809.521590	2578.298135
809.841513	2581.406846
810.161390	2583.927423
810.481223	2573.929135
810.801011	2566.451423
811.120755	2577.289904
811.440453	2594.177769
811.760107	2578.634212
812.079716	2588.968577
812.399281	2600.143135
812.718801	2577.205885
813.038276	2567.627692
813.357707	2581.826942
813.677093	2579.810481
813.996434	2598.378731
814.315731	2574.433250
814.634983	2573.088942
814.954191	2580.062538
815.273354	2568.635923
815.592473	2571.660615
815.911547	2581.574885
816.230577	2585.523788
816.549562	2581.322827
816.868502	2574.265212
817.187399	2566.199365
817.506250	2579.222346
817.825058	2581.070769
818.143821	2574.769327
818.462539	2590.396904
818.781213	2585.859865
819.099843	2583.339288
819.418429	2587.036135
819.736970	2593.925712
820.055466	2578.382154
820.373919	2581.742923
820.692327	2592.917481
821.010691	2589.136615
821.329011	2583.087231
821.647286	2595.522077
821.965517	2610.309462
822.283704	2637.279635
822.601847	2622.324212
822.919945	2624.424692
823.237999	2622.156173
823.556010	2617.619135
823.873976	2609.049173
824.191897	2612.830038
824.509775	2601.319404
824.827609	2591.405135
825.145398	2602.075577
825.463144	2589.556712
825.780845	2604.512135
826.098502	2598.378731
826.416116	2589.808769
826.733685	2601.235385
827.051210	2602.999788
827.368692	2601.991558
827.686129	2596.194231
828.003522	2584.431538
828.320872	2589.136615
828.638177	2593.589635
828.955439	2592.665423
829.272656	2583.843404
829.589830	2574.433250
829.906960	2582.919192
830.224046	2591.657192
830.541088	2580.734692
830.858086	2594.597865
831.175041	2591.069058
831.491952	2583.423308
831.808819	2591.657192
832.125642	2599.386962
832.442421	2582.247038
832.759157	2576.029615
833.075849	2572.500808
833.392497	2579.642442
833.709101	2593.589635
834.025662	2587.204173
834.342179	2585.691827
834.658653	2577.541962
834.975083	2590.228865
835.291469	2601.319404
835.607811	2591.069058
835.924110	2594.177769
836.240366	2580.986750
836.556578	2566.115346
836.872746	2584.095462
837.188871	2567.207596
837.504952	2578.298135
837.820990	2585.187712
838.136984	2577.962058
838.452935	2590.480923
838.768842	2576.281673
839.084706	2591.909250
839.400526	2591.321115
839.716303	2590.144846
840.032037	2587.120154
840.347727	2570.232288
840.663373	2585.019673
840.978977	2580.986750
841.294537	2585.775846
841.610054	2585.859865
841.925527	2583.591346
842.240957	2600.899308
842.556344	2585.355750
842.871687	2576.785788
843.186987	2575.189423
843.502244	2581.826942
843.817458	2574.685308
844.132629	2590.648962
844.447756	2593.757673
844.762840	2583.507327
845.077881	2582.079000
845.392879	2585.355750
845.707833	2575.525500
846.022745	2587.624269
846.337613	2572.164731
846.652438	2577.457942
846.967221	2583.675365
847.281960	2592.413365
847.596656	2589.388673
847.911309	2577.625981
848.225919	2581.658904
848.540485	2585.103692
848.855009	2586.868096
849.169490	2563.426731
849.483928	2566.955538
849.798323	2576.281673
850.112675	2582.751154
850.426984	2589.136615
850.741251	2585.523788
851.055474	2578.550192
851.369654	2579.558423
851.683792	2570.064250
851.997887	2577.205885
852.311938	2571.324538
852.625947	2578.634212
852.939914	2581.238808
853.253837	2578.634212
853.567718	2561.494288
853.881555	2570.400327
854.195350	2572.752865
854.509103	2582.583115
854.822812	2583.255269
855.136479	2589.472692
855.450103	2562.166442
855.763685	2569.308077
856.077224	2580.146558
856.390720	2578.382154
856.704173	2580.398615
857.017584	2574.181192
857.330953	2580.902731
857.644278	2585.775846
857.957561	2592.329346
858.270802	2586.279962
858.584000	2573.341000
858.897155	2586.111923
859.210268	2570.316308
859.523339	2571.660615
859.836367	2585.607808
860.149352	2579.138327
860.462295	2578.886269
860.775195	2566.031327
861.088054	2570.820423
861.400869	2581.490865
861.713642	2582.163019
862.026373	2562.838596
862.339062	2577.794019
862.651708	2581.742923
862.964312	2579.810481
863.276873	2582.499096
863.589392	2580.062538
863.901869	2575.945596
864.214303	2578.550192
864.526696	2560.402038
864.839045	2576.533731
865.151353	2584.263500
865.463619	2590.312885
865.775842	2580.566654
866.088023	2582.751154
866.400162	2574.181192
866.712258	2584.263500
867.024313	2577.962058
867.336325	2580.230577
867.648296	2570.064250
867.960224	2576.785788
868.272110	2560.654096
868.583954	2599.386962
868.895755	2590.732981
869.207515	2580.062538
869.519233	2579.138327
869.830909	2580.734692
870.142542	2594.681885
870.454134	2584.263500
870.765684	2583.087231
871.077191	2574.937365
871.388657	2585.775846
871.700081	2584.011442
872.011463	2561.578308
872.322803	2573.172962
872.634101	2577.878038
872.945357	2578.886269
873.256571	2578.046077
873.567744	2582.751154
873.878874	2579.306365
874.189963	2591.993269
874.501010	2576.449712
874.812015	2584.767615
875.122979	2578.970288
875.433900	2571.240519
875.744780	2576.533731
876.055618	2564.350942
876.366415	2585.355750
876.677169	2590.564942
876.987882	2572.836885
877.298554	2587.540250
877.609183	2575.525500
877.919771	2576.953827
878.230317	2584.095462
878.540822	2583.675365
878.851285	2582.163019
879.161707	2567.459654
879.472087	2584.683596
879.782425	2576.365692
880.092722	2576.029615
880.402977	2568.299846
880.713191	2581.658904
881.023363	2595.858154
881.333494	2598.126673
881.643583	2611.065635
881.953631	2595.438058
882.263637	2602.243615
882.573602	2595.858154
882.883526	2604.932231
883.193408	2586.111923
883.503248	2602.831750
883.813048	2605.016250
884.122806	2602.243615
884.432522	2572.416788
884.742197	2579.810481
885.051831	2577.121865
885.361424	2589.220635
885.670975	2591.825231
885.980485	2580.734692
886.289954	2587.120154
886.599382	2578.634212
886.908768	2576.533731
887.218113	2579.810481
887.527417	2586.700058
887.836680	2589.976808
888.145901	2603.503904
888.455082	2572.500808
888.764221	2572.416788
889.073319	2583.339288
889.382376	2571.408558
889.691392	2594.093750
890.000366	2591.321115
890.309300	2577.289904
890.618193	2562.670558
890.927044	2598.714808
891.235855	2589.808769
891.544625	2577.710000
891.853353	2585.019673
892.162041	2578.886269
892.470687	2587.204173
892.779293	2582.331058
893.087858	2583.339288
893.396381	2587.372212
893.704864	2565.611231
894.013306	2577.121865
894.321707	2568.467885
894.630068	2573.677077
894.938387	2586.279962
895.246665	2590.901019
895.554903	2585.859865
895.863100	2577.541962
896.171256	2573.256981
896.479371	2586.279962
896.787446	2580.314596
897.095480	2576.029615
897.403473	2570.484346
897.711425	2564.939077
898.019336	2572.920904
898.327207	2567.711712
898.635038	2576.785788
898.942827	2573.677077
899.250576	2569.728173
899.558284	2597.538538
899.865952	2594.429827
900.173579	2576.365692
900.481165	2586.700058
900.788711	2584.263500
901.096216	2589.892788
901.403681	2575.525500
901.711105	2586.363981
902.018489	2562.502519
902.325832	2594.597865
902.633135	2586.448000
902.940397	2581.238808
903.247619	2584.851635
903.554800	2569.896212
903.861941	2581.658904
904.169041	2599.050885
904.476101	2585.691827
904.783121	2588.716519
905.090100	2587.036135
905.397039	2580.314596
905.703938	2569.056019
906.010796	2581.406846
906.317614	2562.166442
906.624391	2580.986750
906.931129	2581.490865
907.237826	2583.507327
907.544483	2557.797442
907.851099	2570.904442
908.157675	2568.047788
908.464211	2580.314596
908.770707	2574.181192
909.077163	2581.322827
909.383578	2571.912673
909.689954	2575.273442
909.996289	2560.570077
910.302584	2565.023096
910.608839	2572.752865
910.915054	2563.678788
911.221229	2572.836885
911.527363	2566.787500
911.833458	2572.920904
912.139513	2589.976808
912.445527	2568.635923
912.751502	2575.945596
913.057436	2582.583115
913.363331	2580.902731
913.669186	2574.937365
913.975000	2581.238808
914.280775	2587.456231
914.586510	2577.710000
914.892205	2582.919192
915.197859	2588.464462
915.503475	2586.363981
915.809050	2584.599577
916.114585	2581.742923
916.420081	2581.826942
916.725536	2593.757673
917.030952	2583.087231
917.336328	2583.759385
917.641665	2581.490865
917.946961	2581.658904
918.252218	2580.650673
918.557435	2590.144846
918.862612	2583.759385
919.167750	2577.878038
919.472848	2584.431538
919.777906	2575.693538
920.082925	2585.103692
920.387904	2558.049500
920.692843	2558.721654
920.997743	2563.930846
921.302603	2576.953827
921.607423	2574.517269
921.912204	2584.767615
922.216946	2563.174673
922.521647	2588.128385
922.826310	2584.095462
923.130932	2589.136615
923.435516	2579.306365
923.740059	2574.853346
924.044564	2574.433250
924.349028	2567.963769
924.653454	2567.039558
924.957840	2555.612942
925.262186	2581.994981
925.566493	2575.777558
925.870761	2578.130096
926.174989	2571.828654
926.479178	2575.693538
926.783328	2582.919192
927.087438	2577.373923
927.391509	2568.299846
927.695541	2571.996692
927.999533	2579.474404
928.303486	2569.476115
928.607400	2566.955538
928.911275	2582.919192
929.215110	2579.054308
929.518906	2576.701769
929.822663	2582.835173
930.126381	2561.662327
930.430060	2576.365692
930.733699	2567.879750
931.037299	2583.843404
931.340861	2579.642442
931.644383	2584.767615
931.947866	2569.896212
932.251309	2579.894500
932.554714	2580.734692
932.858080	2575.945596
933.161407	2579.810481
933.464694	2574.433250
933.767943	2575.693538
934.071153	2583.087231
934.374323	2566.787500
934.677455	2579.810481
934.980548	2571.828654
935.283602	2565.779269
935.586617	2565.359173
935.889593	2570.820423
936.192530	2580.062538
936.495428	2582.331058
936.798287	2573.425019
937.101108	2570.820423
937.403890	2569.308077
937.706632	2577.205885
938.009336	2582.499096
938.312002	2565.527212
938.614628	2578.550192
938.917216	2586.027904
939.219765	2584.095462
939.522275	2589.136615
939.824747	2577.625981
940.127179	2575.105404
940.429573	2568.551904
940.731929	2563.846827
941.034246	2579.138327
941.336524	2576.113635
941.638763	2589.136615
941.940964	2579.894500
942.243126	2578.382154
942.545250	2584.767615
942.847335	2573.677077
943.149381	2569.980231
943.451389	2572.752865
943.753359	2562.082423
944.055290	2583.339288
944.357182	2574.769327
944.659036	2576.953827
944.960851	2559.141750
945.262628	2572.836885
945.564367	2576.365692
945.866067	2574.433250
946.167729	2563.930846
946.469352	2578.214115
946.770937	2578.970288
947.072484	2573.929135
947.373992	2565.779269
947.675462	2570.988462
947.976893	2566.451423
948.278286	2571.240519
948.579641	2560.486058
948.880958	2565.863288
949.182236	2554.520692
949.483476	2564.434962
949.784678	2587.288192
950.085841	2585.019673
950.386967	2583.087231
950.688054	2573.088942
950.989103	2580.230577
951.290114	2575.777558
951.591087	2563.426731
951.892021	2573.425019
952.192917	2585.355750
952.493776	2577.205885
952.794596	2572.332769
953.095378	2570.652385
953.396122	2573.172962
953.696828	2574.769327
953.997496	2553.008346
954.298126	2575.945596
954.598718	2576.113635
954.899272	2584.011442
955.199788	2564.687019
955.500266	2582.499096
955.800706	2583.339288
956.101108	2563.510750
956.401472	2566.031327
956.701798	2565.527212
957.002087	2589.808769
957.302337	2581.994981
957.602550	2560.654096
957.902724	2568.719942
958.202861	2560.990173
958.502960	2577.121865
958.803022	2573.341000
959.103045	2577.205885
959.403031	2573.088942
959.702979	2574.937365
960.002889	2569.644154
960.302762	2555.108827
960.602596	2577.541962
960.902393	2576.449712
961.202153	2573.677077
961.501875	2577.794019
961.801559	2572.164731
962.101205	2566.619462
962.400814	2557.881462
962.700385	2569.812192
962.999918	2579.894500
963.299414	2557.377346
963.598873	2567.207596
963.898293	2576.869808
964.197677	2563.090654
964.497022	2579.306365
964.796331	2584.431538
965.095601	2575.357462
965.394835	2571.576596
965.694030	2579.810481
965.993189	2572.836885
966.292309	2583.339288
966.591393	2576.197654
966.890439	2566.787500
967.189447	2548.387288
967.488419	2576.449712
967.787353	2574.937365
968.086249	2587.372212
968.385108	2585.523788
968.683930	2570.148269
968.982714	2566.199365
969.281462	2579.222346
969.580172	2574.685308
969.878844	2565.947308
970.177480	2572.920904
970.476078	2584.095462
970.774639	2574.685308
971.073162	2582.919192
971.371649	2573.845115
971.670098	2561.242231
971.968510	2570.988462
972.266885	2553.428442
972.565223	2579.222346
972.863524	2576.365692
973.161788	2562.334481
973.460014	2576.533731
973.758204	2569.476115
974.056356	2581.658904
974.354471	2579.474404
974.652550	2566.619462
974.950591	2571.660615
975.248595	2577.625981
975.546563	2575.021385
975.844493	2571.576596
976.142386	2588.128385
976.440243	2557.461365
976.738062	2568.047788
977.035845	2585.103692
977.333590	2573.509038
977.631299	2552.756288
977.928971	2568.467885
978.226606	2564.771038
978.524204	2571.492577
978.821765	2590.901019
979.119290	2579.222346
979.416777	2555.528923
979.714228	2573.845115
980.011642	2567.291615
980.309020	2574.181192
980.606360	2576.197654
980.903664	2583.843404
981.200931	2574.517269
981.498162	2575.105404
981.795356	2564.266923
982.092513	2574.853346
982.389633	2559.477827
982.686717	2559.981942
982.983764	2575.609519
983.280775	2564.771038
983.577749	2568.803962
983.874686	2561.662327
984.171587	2576.701769
984.468451	2576.701769
984.765279	2569.476115
985.062070	2599.975096
985.358824	2572.080712
985.655543	2579.054308
985.952224	2565.779269
986.248869	2571.408558
986.545478	2573.004923
986.842050	2576.533731
987.138586	2567.627692
987.435086	2568.047788
987.731549	2576.029615
988.027975	2576.113635
988.324366	2580.818712
988.620719	2570.316308
988.917037	2573.677077
989.213318	2563.174673
989.509563	2583.675365
989.805772	2580.818712
990.101944	2574.601288
990.398080	2572.836885
990.694180	2576.197654
990.990244	2570.316308
991.286271	2573.088942
991.582262	2564.014865
991.878217	2578.970288
992.174136	2564.939077
992.470019	2566.703481
992.765865	2572.164731
993.061676	2568.299846
993.357450	2585.943885
993.653188	2569.560135
993.948890	2588.044365
994.244556	2585.103692
994.540186	2579.474404
994.835780	2566.955538
995.131337	2578.718231
995.426859	2557.629404
995.722345	2583.423308
996.017795	2571.240519
996.313208	2569.728173
996.608586	2563.426731
996.903928	2580.650673
997.199234	2568.551904
997.494504	2587.204173
997.789738	2583.507327
998.084936	2568.383865
998.380099	2585.019673
998.675225	2584.179481
998.970316	2571.828654
999.265371	2567.711712
999.560390	2569.140038
999.855373	2563.846827
1000.150320	2569.896212
1000.445232	2578.634212
1000.740108	2584.095462
1001.034948	2562.250462
1001.329752	2560.990173
1001.624521	2582.079000
1001.919254	2593.673654
1002.213951	2589.304654
1002.508613	2575.441481
1002.803239	2562.754577
1003.097829	2562.418500
1003.392384	2579.222346
1003.686903	2566.619462
1003.981386	2576.113635
1004.275834	2562.586538
1004.570246	2554.520692
1004.864623	2560.065962
1005.158964	2585.103692
1005.453270	2576.113635
1005.747540	2564.603000
1006.041775	2560.486058
1006.335974	2569.224058
1006.630138	2559.561846
1006.924266	2562.838596
1007.218359	2565.527212
1007.512416	2589.892788
1007.806438	2580.230577
1008.100425	2570.820423
1008.394376	2564.603000
1008.688292	2567.711712
1008.982172	2551.243942
1009.276017	2577.541962
1009.569827	2576.533731
1009.863602	2576.785788
1010.157341	2568.299846
1010.451045	2575.945596
1010.744714	2555.696962
1011.038347	2575.357462
1011.331945	2579.306365
1011.625508	2578.718231
1011.919036	2564.518981
1012.212528	2579.054308
1012.505986	2556.621173
1012.799408	2573.341000
1013.092795	2567.123577
1013.386147	2573.509038
1013.679464	2580.734692
1013.972745	2570.736404
1014.265992	2565.023096
1014.559204	2563.174673
1014.852380	2567.711712
1015.145521	2563.342712
1015.438628	2570.232288
1015.731699	2542.926038
1016.024736	2566.703481
1016.317737	2564.098885
1016.610703	2570.316308
1016.903635	2576.281673
1017.196531	2571.240519
1017.489393	2567.627692
1017.782219	2581.742923
1018.075011	2586.616038
1018.367768	2565.359173
1018.660490	2562.670558
1018.953177	2562.670558
1019.245829	2562.670558
