Dividing Wavelength (nm)	Counts (n)	Slit_number_13_of_a_total_of_40	
326.493990	2050.489327
326.888308	2050.489327
327.282561	2050.489327
327.676750	2007.639519
328.070874	2022.762981
328.464933	2057.294885
328.858929	2042.423481
329.252859	2048.724923
329.646726	2088.802096
330.040528	2069.897769
330.434265	2092.835019
330.827938	2097.120000
331.221547	2159.378250
331.615091	2176.770231
332.008571	2168.956442
332.401986	2198.195135
332.795338	2229.954404
333.188625	2262.721904
333.581847	2262.973962
333.975006	2301.790846
334.368100	2297.253808
334.761129	2325.736327
335.154095	2335.314519
335.546996	2360.016173
335.939833	2354.470904
336.332606	2354.722962
336.725315	2358.251769
337.117960	2387.742519
337.510540	2394.548077
337.903056	2401.857750
338.295508	2443.195212
338.687896	2436.137596
339.080220	2449.748712
339.472480	2454.789865
339.864676	2440.170519
340.256807	2438.154058
340.648875	2444.203442
341.040879	2471.677731
341.432818	2449.244596
341.824694	2461.595423
342.216506	2472.433904
342.608253	2443.195212
342.999937	2464.872173
343.391557	2444.203442
343.783113	2434.121135
344.174605	2430.088212
344.566033	2446.976077
344.957397	2440.674635
345.348697	2435.633481
345.739934	2444.455500
346.131106	2428.323808
346.522215	2457.310442
346.913260	2446.976077
347.304241	2435.633481
347.695159	2414.208577
348.086012	2434.877308
348.476802	2414.712692
348.867528	2445.463731
349.258191	2414.208577
349.648789	2432.104673
350.039324	2389.506923
350.429796	2430.088212
350.820203	2398.328942
351.210548	2439.918462
351.600828	2421.518250
351.991045	2400.597462
352.381198	2434.877308
352.771288	2399.589231
353.161314	2432.104673
353.551276	2416.729154
353.941175	2426.307346
354.331010	2427.315577
354.720782	2435.633481
355.110490	2463.107769
355.500135	2429.332038
355.889717	2415.972981
356.279235	2437.649942
356.668689	2443.447269
357.058080	2422.526481
357.447408	2406.142731
357.836672	2422.778538
358.225873	2424.542942
358.615010	2433.869077
359.004084	2426.055288
359.393095	2435.885538
359.782043	2452.521346
360.170927	2431.852615
360.559748	2422.022365
360.948505	2425.299115
361.337199	2433.617019
361.725830	2425.047058
362.114398	2401.605692
362.502903	2431.852615
362.891344	2446.219904
363.279722	2460.839250
363.668037	2445.463731
364.056289	2405.134500
364.444478	2424.290885
364.832603	2441.682865
365.220665	2441.430808
365.608665	2421.770308
365.996601	2437.649942
366.384474	2429.836154
366.772284	2428.323808
367.160031	2431.852615
367.547715	2419.501788
367.935336	2441.178750
368.322893	2417.737385
368.710388	2407.403019
369.097820	2431.096442
369.485189	2442.439038
369.872495	2441.682865
370.259738	2464.116000
370.646918	2439.918462
371.034035	2435.633481
371.421090	2443.447269
371.808081	2428.071750
372.195010	2433.869077
372.581875	2426.559404
372.968678	2433.112904
373.355418	2449.244596
373.742096	2436.893769
374.128710	2425.803231
374.515262	2432.860846
374.901751	2430.340269
375.288177	2426.811462
375.674540	2420.005904
376.060841	2433.617019
376.447079	2450.756942
376.833254	2444.455500
377.219367	2441.934923
377.605417	2443.951385
377.991404	2454.033692
378.377329	2435.381423
378.763191	2423.030596
379.148991	2434.877308
379.534727	2433.364962
379.920402	2430.340269
380.306013	2434.625250
380.691563	2440.674635
381.077049	2451.765173
381.462474	2450.504885
381.847835	2423.534712
382.233134	2453.781635
382.618371	2445.715788
383.003545	2447.732250
383.388657	2450.000769
383.773706	2421.266192
384.158693	2435.129365
384.543618	2429.584096
384.928480	2459.326904
385.313280	2442.691096
385.698017	2434.625250
386.082692	2428.575865
386.467305	2429.332038
386.851856	2439.414346
387.236344	2441.178750
387.620770	2430.340269
388.005133	2442.943154
388.389435	2442.186981
388.773674	2448.740481
389.157851	2427.567635
389.541965	2477.979173
389.926018	2453.781635
390.310008	2464.620115
390.693936	2465.628346
391.077802	2441.682865
391.461606	2466.636577
391.845348	2437.145827
392.229027	2440.170519
392.612645	2458.066615
392.996200	2444.707558
393.379694	2455.293981
393.763125	2457.562500
394.146494	2440.422577
394.529801	2446.471962
394.913047	2455.798096
395.296230	2450.756942
395.679351	2462.099538
396.062410	2466.636577
396.445408	2437.902000
396.828343	2467.140692
397.211217	2447.732250
397.594028	2482.516212
397.976778	2455.546038
398.359466	2444.455500
398.742092	2431.600558
399.124656	2445.715788
399.507158	2445.463731
399.889598	2461.091308
400.271977	2451.765173
400.654294	2466.132462
401.036549	2426.811462
401.418742	2449.496654
401.800874	2461.595423
402.182944	2453.025462
402.564952	2435.633481
402.946898	2432.608788
403.328783	2451.261058
403.710606	2453.781635
404.092367	2459.578962
404.474067	2473.442135
404.855705	2461.847481
405.237282	2482.768269
405.618797	2462.351596
406.000250	2450.756942
406.381642	2446.471962
406.762972	2467.392750
407.144240	2469.157154
407.525447	2453.781635
407.906593	2433.869077
408.287677	2425.551173
408.668700	2477.223000
409.049661	2475.206538
409.430560	2465.124231
409.811399	2462.855712
410.192176	2448.488423
410.572891	2445.967846
410.953545	2466.384519
411.334138	2459.326904
411.714669	2449.748712
412.095139	2452.521346
412.475547	2463.863942
412.855894	2463.611885
413.236180	2462.099538
413.616405	2470.165385
413.996568	2496.379385
414.376670	2460.587192
414.756711	2442.943154
415.136691	2443.447269
415.516609	2452.269288
415.896466	2459.326904
416.276262	2464.872173
416.655997	2487.557365
417.035670	2463.359827
417.415283	2464.620115
417.794834	2454.285750
418.174324	2476.970942
418.553753	2447.984308
418.933121	2453.529577
419.312428	2464.116000
419.691674	2461.343365
420.070859	2477.979173
420.449983	2462.855712
420.829045	2466.636577
421.208047	2464.368058
421.586988	2452.521346
421.965867	2473.946250
422.344686	2500.916423
422.723444	2467.140692
423.102141	2473.694192
423.480777	2462.099538
423.859352	2491.086173
424.237866	2485.036788
424.616319	2466.384519
424.994712	2466.132462
425.373044	2504.445231
425.751314	2462.855712
426.129524	2465.124231
426.507673	2444.455500
426.885762	2497.387615
427.263789	2449.748712
427.641756	2465.880404
428.019662	2498.647904
428.397508	2459.831019
428.775292	2466.384519
429.153016	2485.036788
429.530679	2481.255923
429.908282	2471.929788
430.285824	2477.475058
430.663305	2488.061481
431.040726	2462.603654
431.418086	2455.293981
431.795385	2478.735346
432.172624	2466.384519
432.549802	2450.756942
432.926920	2482.516212
433.303977	2469.913327
433.680974	2501.672596
434.057910	2483.272385
434.434786	2491.842346
434.811601	2476.214769
435.188355	2474.450365
435.565050	2499.656135
435.941683	2452.773404
436.318257	2472.938019
436.694770	2502.932885
437.071222	2457.058385
437.447614	2450.000769
437.823946	2485.540904
438.200218	2468.148923
438.576429	2501.420538
438.952580	2494.110865
439.328670	2502.680827
439.704700	2476.214769
440.080670	2488.565596
440.456580	2474.954481
440.832429	2486.801192
441.208218	2493.606750
441.583947	2484.784731
441.959616	2468.653038
442.335224	2498.143788
442.710773	2514.275481
443.086261	2492.094404
443.461689	2490.582058
443.837057	2458.822788
444.212365	2503.689058
444.587612	2468.653038
444.962800	2483.524442
445.337927	2482.516212
445.712995	2502.176712
446.088002	2505.705519
446.462949	2516.039885
446.837837	2505.957577
447.212664	2501.924654
447.587431	2517.300173
447.962139	2499.908192
448.336786	2522.089269
448.711374	2505.957577
449.085901	2520.072808
449.460369	2508.982269
449.834776	2511.754904
450.209124	2515.031654
450.583412	2497.891731
450.957640	2538.473019
451.331808	2491.590288
451.705917	2488.817654
452.079965	2533.683923
452.453954	2510.998731
452.827883	2520.828981
453.201752	2509.486385
453.575562	2505.453462
453.949311	2487.053250
454.323001	2499.404077
454.696632	2523.853673
455.070202	2515.787827
455.443713	2537.968904
455.817164	2520.324865
456.190556	2542.758000
456.563888	2548.303269
456.937160	2528.390712
457.310373	2531.667462
457.683526	2550.823846
458.056619	2564.182904
458.429653	2550.823846
458.802628	2564.939077
459.175542	2531.667462
459.548398	2562.166442
459.921194	2560.906154
460.293930	2589.388673
460.666607	2610.561519
461.039224	2633.750827
461.411782	2630.978192
461.784280	2656.688077
462.156719	2623.416462
462.529099	2643.581077
462.901419	2678.112981
463.273680	2669.795077
463.645882	2673.575942
464.018024	2669.795077
464.390106	2698.781712
464.762130	2707.351673
465.134094	2824.558500
465.505999	2908.241654
465.877845	2994.949500
466.249631	3084.177923
466.621358	3088.210846
466.993026	3101.821962
467.364634	3063.761250
467.736184	3073.339442
468.107674	3132.573000
468.479105	3155.006135
468.850477	3191.554500
469.221790	3206.425904
469.593043	3222.557596
469.964238	3248.771596
470.335373	3315.314827
470.706449	3365.474308
471.077467	3434.790173
471.448425	3663.406500
471.819324	3892.526942
472.190164	4039.728635
472.560945	3994.862365
472.931667	3974.445692
473.302330	3975.453923
473.672934	4025.613404
474.043479	4093.164865
474.413965	4146.853154
474.784393	4287.501346
475.154761	4407.480808
475.525070	4520.150596
475.895321	4604.841981
476.265513	4741.709308
476.635645	4924.703192
477.005719	5062.074635
477.375734	5231.457404
477.745691	5460.073731
478.115588	5678.103635
478.485427	5999.981308
478.855207	6394.451596
479.224928	6957.800538
479.594591	7473.762635
479.964194	7749.513750
480.333739	7995.774115
480.703226	8171.458327
481.072653	8445.697096
481.442022	8760.265096
481.811333	9254.046115
482.180584	9393.938135
482.549777	9574.663500
482.918912	9737.744827
483.287988	10059.370442
483.657005	10159.185288
484.025964	10403.681250
484.394864	10714.972500
484.763706	10925.944788
485.132489	11091.546692
485.501213	11347.385250
485.869879	11718.162115
486.238487	11919.808269
486.607036	12216.984288
486.975527	12472.066673
487.343959	12799.741673
487.712333	13190.431096
488.080648	13574.819077
488.448905	14070.868615
488.817104	14404.593000
489.185244	14788.728923
489.553326	15529.022365
489.921350	16486.841596
490.289315	18126.981000
490.657222	19110.258058
491.025070	19962.717173
491.392861	20266.950808
491.760593	20464.816096
492.128267	20336.014615
492.495883	20200.659635
492.863440	20122.269692
493.230939	19932.974365
493.598380	19802.912596
493.965763	20078.159596
494.333088	20167.135962
494.700354	20247.794423
495.067563	20385.165865
495.434713	20830.299750
495.801805	21163.267962
496.168839	21519.425481
496.535815	21655.536635
496.902733	22045.217827
497.269593	22192.167462
497.636395	22452.543058
498.003139	23062.018558
498.369825	23201.910577
498.736453	23764.503346
499.103023	23689.894269
499.469535	23985.810000
499.835989	24547.898654
500.202385	24649.477904
500.568723	25046.216712
500.935003	25398.593365
501.301226	25416.237404
501.667390	26306.757231
502.033497	26932.616481
502.399546	26839.355135
502.765537	26895.816058
503.131470	27388.084731
503.497345	27871.279327
503.863163	27295.327500
504.228923	27972.354462
504.594625	28393.794923
504.960269	28365.312404
505.325856	28985.374327
505.691385	28782.972000
506.056856	29009.319808
506.422270	29415.132692
506.787625	29516.207827
507.152924	29619.551481
507.518164	30086.110269
507.883347	29633.414654
508.248472	30101.485788
508.613540	30334.891212
508.978550	30721.547712
509.343503	30751.542577
509.708398	30929.243250
510.073236	31322.201192
510.438016	31361.522192
510.802738	31149.541673
511.167403	31434.366865
511.532010	31747.170462
511.896561	32049.891750
512.261053	32614.248923
512.625488	32309.007058
512.989866	32361.435058
513.354186	32047.875288
513.718449	32061.234346
514.082655	32326.651096
514.446803	32153.235404
514.810894	32210.200442
515.174927	32235.406212
515.538904	32041.069731
515.902822	32273.718981
516.266684	31837.911231
516.630488	32078.626327
516.994235	31790.776442
517.357925	31998.471981
517.721558	32062.746692
518.085133	31991.918481
518.448651	31904.454462
518.812112	31582.324731
519.175516	31383.955327
519.538863	31392.777346
519.902152	31276.830808
520.265385	31332.535558
520.628560	31230.704250
520.991678	30723.312115
521.354739	30629.294596
521.717743	30468.481788
522.080690	30130.472423
522.443580	30258.517731
522.806413	30172.061942
523.169189	29782.632808
523.531908	29572.668750
523.894569	29197.858962
524.257174	28894.633558
524.619722	28948.069788
524.982213	28467.395769
525.344647	28002.853442
525.707025	27837.503596
526.069345	27720.800885
526.431608	27418.583712
526.793815	27228.280154
527.155964	26687.364346
527.518057	26419.174962
527.880093	25919.596615
528.242072	25836.921692
528.603995	25466.144827
528.965860	25099.905000
529.327669	24704.174423
529.689421	24342.723692
530.051117	24096.715385
530.412755	23711.823288
530.774337	23415.151385
531.135862	22958.926962
531.497331	22781.730404
531.858743	22341.133558
532.220098	22079.497673
532.581396	21577.650808
532.942638	21201.580731
533.303824	21021.611538
533.664953	20623.864500
534.026025	20233.175077
534.387040	19938.771692
534.747999	19645.628596
535.108902	19494.141923
535.469748	18840.556327
535.830537	18654.789808
536.191270	18205.118885
536.551947	17906.430519
536.912567	17696.970577
537.273131	17350.139192
537.633638	16890.638019
537.994089	16700.838577
538.354483	16301.327135
538.714821	16076.743731
539.075103	15965.334231
539.435328	15608.924654
539.795497	15357.119019
540.155609	15042.046904
540.515665	14909.968673
540.875665	14386.696904
541.235609	14195.133058
541.595496	13922.154577
541.955328	13878.800654
542.315102	13589.942538
542.674821	13060.873442
543.034483	12850.405269
543.394090	12618.260135
543.753640	12418.126327
544.113134	12317.555308
544.472571	11923.337077
544.831953	11854.273269
545.191278	11531.639423
545.550548	11219.592000
545.909761	11108.182500
546.268918	10915.862481
546.628019	10718.249250
546.987064	10462.914808
547.346053	10148.598865
547.704986	10121.880750
548.063863	9783.115212
548.422684	9635.913519
548.781449	9430.990615
549.140158	9258.079038
549.498811	9102.055327
549.857408	8794.544942
550.215949	8798.577865
550.574434	8536.437865
550.932864	8372.852423
551.291237	8301.015981
551.649555	8064.837923
552.007817	7935.784385
552.366022	7723.803865
552.724173	7629.030173
553.082267	7498.212231
553.440305	7398.397385
553.798288	7199.775923
554.156215	7082.569096
554.514086	6940.912673
554.871902	6796.483615
555.229661	6645.249000
555.587365	6517.203692
555.945014	6418.649135
556.302606	6271.699500
556.660143	6217.507096
557.017625	6055.686058
557.375050	5943.520385
557.732421	5918.566673
558.089735	5750.192135
558.446994	5651.133462
558.804197	5609.039827
559.161345	5502.419423
559.518437	5352.445096
559.875474	5262.460500
560.232455	5162.645654
560.589381	5091.817442
560.946251	5040.649731
561.303065	4975.366788
561.659825	4876.056058
562.016528	4798.926404
562.373177	4706.169173
562.729770	4621.225731
563.086307	4521.662942
563.442789	4523.679404
563.799216	4527.208212
564.155587	4425.124846
564.511904	4370.932442
564.868164	4262.295577
565.224370	4201.801731
565.580520	4151.894308
565.936615	4129.713231
566.292654	4048.046538
566.648638	4031.914846
567.004567	3991.333558
567.360441	3939.409673
567.716260	3865.304712
568.072023	3854.466231
568.427732	3827.748115
568.783385	3778.344808
569.138982	3735.747058
569.494525	3711.801577
569.850013	3679.790250
570.205445	3688.612269
570.560823	3648.030981
570.916145	3633.159577
571.271412	3535.361192
571.626625	3506.374558
571.981782	3506.878673
572.336884	3467.809731
572.691931	3476.127635
573.046923	3448.149231
573.401860	3427.732558
573.756743	3407.820000
574.111570	3364.970192
574.466342	3360.433154
574.821059	3334.975327
575.175722	3283.555558
575.530330	3302.711942
575.884882	3254.316865
576.239380	3243.730442
576.593823	3218.020558
576.948211	3196.343596
577.302544	3184.496885
577.656823	3203.401212
578.011047	3179.203673
578.365216	3128.288019
578.719330	3148.956750
579.073389	3108.879577
579.427394	3095.268462
579.781344	3080.397058
580.135239	3083.169692
580.489080	3101.317846
580.842866	3078.380596
581.196597	3052.670712
581.550273	3028.977288
581.903895	3020.659385
582.257463	3018.390865
582.610975	3004.779750
582.964434	2967.475212
583.317837	2980.582212
583.671186	2971.760192
584.024481	2966.719038
584.377721	2963.190231
584.730906	2943.529731
585.084037	2926.641865
585.437113	2924.373346
585.790135	2922.861000
586.143103	2918.576019
586.496016	2903.200500
586.848874	2926.641865
587.201679	2891.857904
587.554428	2875.474154
587.907124	2872.953577
588.259765	2859.846577
588.612352	2865.895962
588.964884	2834.892865
589.317362	2820.273519
589.669786	2820.273519
590.022155	2829.599654
590.374470	2802.881538
590.726731	2796.580096
591.078937	2801.873308
591.431090	2773.390788
591.783188	2775.407250
592.135232	2797.588327
592.487222	2762.048192
592.839157	2750.201481
593.191038	2774.146962
593.542866	2733.817731
593.894639	2730.793038
594.246358	2749.949423
594.598022	2733.061558
594.949633	2742.891808
595.301190	2718.190154
595.652692	2720.962788
596.004141	2726.508058
596.355535	2680.885615
596.706876	2695.757019
597.058162	2677.608865
597.409395	2688.195288
597.760573	2693.740558
598.111698	2703.822865
598.462768	2665.762154
598.813785	2665.762154
599.164748	2683.154135
599.515657	2673.323885
599.866511	2664.501865
600.217312	2656.940135
600.568060	2673.828000
600.918753	2661.981288
601.269392	2662.737462
601.619978	2663.493635
601.970510	2643.581077
602.320988	2649.378404
602.671412	2655.679846
603.021783	2640.556385
603.372100	2645.093423
603.722363	2631.734365
604.072572	2639.044038
604.422728	2619.887654
604.772830	2618.879423
605.122878	2633.750827
605.472872	2647.109885
605.822813	2601.739500
606.172701	2620.139712
606.522534	2614.594442
606.872314	2588.632500
607.222041	2618.375308
607.571714	2610.561519
607.921333	2606.780654
608.270899	2566.955538
608.620411	2585.103692
608.969870	2585.859865
609.319276	2590.901019
609.668627	2585.859865
610.017926	2593.421596
610.367171	2573.256981
610.716362	2612.325923
611.065500	2593.421596
611.414585	2552.084135
611.763616	2591.657192
612.112594	2568.467885
612.461518	2563.678788
612.810389	2597.454519
613.159207	2578.046077
613.507971	2591.153077
613.856682	2587.120154
614.205340	2585.859865
614.553945	2574.013154
614.902496	2574.265212
615.250994	2611.821808
615.599439	2577.541962
615.947830	2579.558423
616.296169	2576.785788
616.644454	2580.818712
616.992686	2551.580019
617.340864	2561.662327
617.688990	2548.303269
618.037063	2573.004923
618.385082	2553.092365
618.733048	2559.897923
619.080961	2557.377346
619.428821	2547.799154
619.776628	2556.117058
620.124382	2566.955538
620.472083	2554.100596
620.819731	2558.889692
621.167326	2556.117058
621.514868	2552.084135
621.862357	2540.489481
622.209793	2558.385577
622.557176	2525.870135
622.904506	2540.993596
623.251783	2543.262115
623.599007	2560.149981
623.946179	2521.333096
624.293297	2531.919519
624.640363	2543.514173
624.987376	2535.700385
625.334336	2548.555327
625.681243	2540.993596
626.028097	2556.873231
626.374899	2540.741538
626.721647	2542.758000
627.068343	2555.612942
627.414987	2535.952442
627.761577	2543.766231
628.108115	2527.382481
628.454600	2544.018288
628.801032	2547.547096
629.147412	2553.344423
629.493739	2512.259019
629.840014	2527.382481
630.186236	2545.278577
630.532405	2533.683923
630.878521	2528.138654
631.224585	2519.064577
631.570597	2506.965808
631.916556	2494.614981
632.262462	2551.327962
632.608316	2500.664365
632.954117	2545.278577
633.299866	2541.245654
633.645562	2554.352654
633.991206	2504.697288
634.336797	2529.903058
634.682336	2538.977135
635.027823	2497.639673
635.373257	2524.609846
635.718639	2510.494615
636.063968	2541.245654
636.409245	2520.324865
636.754470	2518.812519
637.099642	2492.346462
637.444762	2536.204500
637.789829	2512.511077
638.134845	2492.094404
638.479808	2531.415404
638.824719	2493.858808
639.169577	2525.113962
639.514383	2502.176712
639.859137	2509.486385
640.203839	2504.193173
640.548489	2510.242558
640.893086	2498.395846
641.237632	2491.086173
641.582125	2519.820750
641.926566	2515.787827
642.270955	2509.738442
642.615292	2527.130423
642.959576	2511.754904
643.303809	2496.631442
643.647990	2498.647904
643.992118	2505.705519
644.336195	2516.796058
644.680219	2482.768269
645.024192	2476.466827
645.368112	2527.886596
645.711981	2496.127327
646.055797	2476.466827
646.399562	2497.891731
646.743274	2502.680827
647.086935	2480.247692
647.430544	2501.924654
647.774101	2495.119096
648.117606	2508.478154
648.461059	2516.039885
648.804460	2544.270346
649.147810	2493.354692
649.491108	2523.349558
649.834354	2519.064577
650.177548	2494.614981
650.520690	2515.031654
650.863781	2505.957577
651.206820	2489.069712
651.549807	2498.395846
651.892742	2481.760038
652.235626	2503.689058
652.578458	2506.965808
652.921238	2505.957577
653.263967	2515.283712
653.606644	2483.776500
653.949269	2497.639673
654.291843	2529.146885
654.634365	2499.656135
654.976836	2520.576923
655.319255	2461.091308
655.661622	2504.445231
656.003938	2519.064577
656.346203	2513.267250
656.688416	2509.990500
657.030577	2488.565596
657.372687	2482.264154
657.714746	2519.820750
658.056753	2492.094404
658.398708	2496.883500
658.740612	2507.469923
659.082465	2502.428769
659.424266	2504.445231
659.766016	2507.469923
660.107715	2489.321769
660.449362	2494.867038
660.790958	2505.957577
661.132503	2495.371154
661.473996	2502.680827
661.815438	2512.763135
662.156829	2514.275481
662.498168	2501.672596
662.839456	2481.255923
663.180693	2486.549135
663.521879	2484.280615
663.863013	2498.143788
664.204097	2515.535769
664.545129	2477.979173
664.886110	2499.152019
665.227040	2502.176712
665.567918	2495.371154
665.908746	2482.264154
666.249522	2498.647904
666.590248	2491.590288
666.930922	2514.023423
667.271545	2514.023423
667.612118	2523.601615
667.952639	2515.031654
668.293109	2501.924654
668.633528	2491.842346
668.973896	2478.483288
669.314213	2485.540904
669.654480	2521.837212
669.994695	2484.280615
670.334859	2483.524442
670.674973	2472.181846
671.015035	2515.787827
671.355047	2494.614981
671.695008	2484.532673
672.034918	2479.491519
672.374777	2514.023423
672.714585	2506.713750
673.054342	2507.217865
673.394049	2490.582058
673.733705	2490.834115
674.073310	2505.705519
674.412864	2500.916423
674.752368	2515.787827
675.091820	2521.837212
675.431223	2508.478154
675.770574	2498.395846
676.109875	2495.371154
676.449125	2523.349558
676.788324	2476.970942
677.127473	2528.390712
677.466571	2509.234327
677.805619	2510.494615
678.144616	2500.664365
678.483562	2497.639673
678.822458	2522.089269
679.161303	2494.614981
679.500098	2474.198308
679.838842	2499.656135
680.177535	2507.469923
680.516179	2513.015192
680.854771	2504.697288
681.193314	2514.779596
681.531805	2504.949346
681.870247	2502.176712
682.208638	2515.787827
682.546978	2498.899962
682.885268	2506.461692
683.223508	2499.152019
683.561697	2510.746673
683.899836	2500.664365
684.237925	2476.466827
684.575963	2507.721981
684.913951	2495.371154
685.251889	2492.094404
685.589776	2479.239462
685.927614	2522.089269
686.265401	2485.288846
686.603137	2476.214769
686.940824	2504.193173
687.278460	2471.929788
687.616046	2484.532673
687.953582	2497.387615
688.291068	2486.297077
688.628504	2507.217865
688.965889	2504.949346
689.303224	2491.842346
689.640510	2487.305308
689.977745	2478.231231
690.314930	2482.516212
690.652065	2497.891731
690.989150	2509.234327
691.326185	2497.639673
691.663170	2486.297077
692.000105	2499.908192
692.336990	2505.705519
692.673825	2521.585154
693.010610	2494.614981
693.347345	2470.165385
693.684030	2456.302212
694.020665	2479.239462
694.357251	2507.217865
694.693786	2467.392750
695.030272	2502.680827
695.366707	2478.483288
695.703093	2486.549135
696.039429	2487.809423
696.375716	2512.511077
696.711952	2493.354692
697.048139	2478.483288
697.384276	2490.834115
697.720363	2501.168481
698.056400	2483.776500
698.392388	2490.582058
698.728326	2476.214769
699.064214	2488.817654
699.400053	2479.491519
699.735842	2473.694192
700.071581	2489.825885
700.407270	2489.573827
700.742910	2498.143788
701.078501	2489.069712
701.414042	2493.606750
701.749533	2477.979173
702.084974	2480.751808
702.420366	2473.946250
702.755709	2484.784731
703.091002	2496.883500
703.426246	2486.549135
703.761440	2493.102635
704.096584	2493.606750
704.431679	2484.028558
704.766725	2480.247692
705.101721	2495.119096
705.436668	2509.738442
705.771565	2475.458596
706.106413	2485.036788
706.441212	2494.867038
706.775961	2478.231231
707.110661	2492.346462
707.445311	2482.768269
707.779913	2509.486385
708.114465	2487.557365
708.448967	2488.565596
708.783421	2468.653038
709.117825	2483.776500
709.452180	2465.880404
709.786485	2497.387615
710.120742	2496.631442
710.454949	2480.751808
710.789107	2480.247692
711.123216	2466.888635
711.457275	2488.565596
711.791286	2490.330000
712.125247	2517.300173
712.459159	2476.214769
712.793023	2503.941115
713.126837	2484.532673
713.460602	2492.850577
713.794318	2476.970942
714.127985	2508.730212
714.461602	2490.077942
714.795171	2503.437000
715.128691	2490.330000
715.462162	2500.664365
715.795584	2503.689058
716.128957	2495.875269
716.462281	2500.664365
716.795556	2502.428769
717.128782	2468.653038
717.461960	2452.773404
717.795088	2509.738442
718.128167	2486.297077
718.461198	2510.494615
718.794180	2510.242558
719.127113	2518.560462
719.459997	2487.305308
719.792833	2468.905096
720.125619	2520.576923
720.458357	2510.494615
720.791046	2483.272385
721.123686	2465.880404
721.456278	2491.842346
721.788821	2496.127327
722.121315	2473.442135
722.453761	2488.565596
722.786158	2485.288846
723.118506	2475.458596
723.450805	2492.850577
723.783056	2466.636577
724.115259	2496.631442
724.447412	2492.346462
724.779518	2504.445231
725.111574	2481.507981
725.443582	2495.875269
725.775542	2487.053250
726.107453	2496.883500
726.439315	2485.288846
726.771129	2469.661269
727.102895	2455.041923
727.434612	2470.165385
727.766281	2481.760038
728.097901	2470.921558
728.429473	2487.557365
728.760996	2480.247692
729.092471	2492.094404
729.423897	2461.595423
729.755276	2498.143788
730.086606	2462.351596
730.417887	2481.760038
730.749120	2481.003865
731.080305	2479.743577
731.411442	2459.578962
731.742530	2486.801192
732.073570	2492.850577
732.404562	2496.379385
732.735506	2499.908192
733.066401	2470.921558
733.397249	2502.176712
733.728048	2475.206538
734.058798	2494.110865
734.389501	2486.297077
734.720156	2502.932885
735.050762	2453.529577
735.381320	2485.036788
735.711831	2433.112904
736.042293	2479.743577
736.372707	2483.776500
736.703073	2471.425673
737.033391	2465.376288
737.363661	2485.288846
737.693883	2460.083077
738.024056	2482.264154
738.354182	2482.516212
738.684260	2488.817654
739.014290	2485.540904
739.344272	2487.809423
739.674207	2473.190077
740.004093	2478.735346
740.333931	2481.003865
740.663722	2472.433904
740.993464	2476.718885
741.323159	2452.017231
741.652806	2502.680827
741.982405	2489.825885
742.311956	2461.343365
742.641460	2474.954481
742.970915	2485.036788
743.300323	2460.587192
743.629683	2459.326904
743.958996	2474.702423
744.288260	2475.458596
744.617477	2465.628346
744.946647	2497.639673
745.275768	2482.516212
745.604842	2439.162288
745.933869	2506.461692
746.262847	2486.549135
746.591778	2490.582058
746.920662	2486.801192
747.249498	2479.491519
747.578286	2509.738442
747.907027	2486.549135
748.235720	2491.338231
748.564365	2498.143788
748.892963	2496.379385
749.221514	2495.875269
749.550017	2480.499750
749.878473	2506.965808
750.206881	2478.483288
750.535242	2465.880404
750.863555	2484.784731
751.191821	2485.036788
751.520039	2474.954481
751.848210	2486.045019
752.176334	2473.946250
752.504411	2478.231231
752.832440	2443.699327
753.160421	2490.077942
753.488356	2487.305308
753.816243	2480.247692
754.144082	2485.792962
754.471875	2481.255923
754.799620	2491.338231
755.127318	2470.417442
755.454969	2494.614981
755.782572	2465.628346
756.110129	2484.028558
756.437638	2476.214769
756.765100	2491.338231
757.092515	2477.727115
757.419882	2482.516212
757.747203	2480.247692
758.074477	2470.669500
758.401703	2466.132462
758.728882	2488.817654
759.056014	2491.086173
759.383099	2486.297077
759.710138	2473.442135
760.037129	2481.255923
760.364073	2474.702423
760.690970	2474.198308
761.017820	2456.806327
761.344623	2501.672596
761.671379	2486.801192
761.998088	2474.702423
762.324751	2473.946250
762.651366	2483.524442
762.977935	2494.362923
763.304456	2500.916423
763.630931	2492.094404
763.957359	2507.974038
764.283740	2502.176712
764.610074	2493.102635
764.936362	2478.735346
765.262602	2509.990500
765.588796	2492.094404
765.914943	2498.899962
766.241044	2484.532673
766.567097	2482.264154
766.893104	2493.606750
767.219064	2485.036788
767.544978	2498.395846
767.870845	2492.598519
768.196665	2462.855712
768.522438	2474.954481
768.848165	2491.338231
769.173846	2485.036788
769.499479	2469.157154
769.825066	2484.532673
770.150607	2479.743577
770.476101	2466.888635
770.801548	2496.883500
771.126949	2462.603654
771.452303	2475.962712
771.777611	2467.644808
772.102872	2475.206538
772.428087	2502.680827
772.753256	2510.494615
773.078378	2480.751808
773.403453	2482.516212
773.728482	2475.458596
774.053465	2473.442135
774.378401	2476.214769
774.703291	2486.297077
775.028135	2468.653038
775.352932	2474.702423
775.677683	2483.524442
776.002388	2467.896865
776.327046	2486.801192
776.651658	2470.417442
776.976224	2455.293981
777.300743	2453.277519
777.625216	2464.368058
777.949643	2500.664365
778.274024	2482.264154
778.598359	2489.825885
778.922647	2467.644808
779.246889	2498.899962
779.571086	2481.760038
779.895236	2490.834115
780.219339	2489.825885
780.543397	2478.735346
780.867409	2470.417442
781.191374	2472.433904
781.515294	2458.318673
781.839167	2464.872173
782.162995	2474.450365
782.486776	2468.653038
782.810511	2455.293981
783.134201	2472.433904
783.457844	2502.428769
783.781441	2485.288846
784.104993	2464.116000
784.428498	2474.450365
784.751958	2484.784731
785.075372	2468.148923
785.398739	2481.003865
785.722061	2466.384519
786.045337	2493.102635
786.368568	2478.231231
786.691752	2475.206538
787.014891	2470.669500
787.337983	2472.685962
787.661030	2497.891731
787.984031	2498.143788
788.306987	2485.540904
788.629897	2498.143788
788.952760	2476.214769
789.275579	2470.669500
789.598351	2500.664365
789.921078	2445.967846
790.243759	2479.743577
790.566395	2460.083077
790.888984	2455.798096
791.211529	2462.351596
791.534027	2505.201404
791.856480	2465.628346
792.178888	2476.718885
792.501249	2448.992538
792.823566	2453.277519
793.145836	2466.384519
793.468062	2475.962712
793.790241	2474.954481
794.112375	2464.368058
794.434464	2498.395846
794.756507	2478.735346
795.078505	2476.970942
795.400457	2491.086173
795.722364	2450.252827
796.044226	2468.905096
796.366042	2485.036788
796.687812	2468.148923
797.009538	2475.710654
797.331218	2510.494615
797.652852	2492.598519
797.974442	2501.168481
798.295986	2456.806327
798.617484	2484.532673
798.938938	2474.954481
799.260346	2479.995635
799.581709	2481.003865
799.903026	2474.450365
800.224299	2472.433904
800.545526	2462.855712
800.866708	2494.362923
801.187845	2444.959615
801.508936	2487.557365
801.829983	2479.491519
802.150984	2469.661269
802.471940	2459.326904
802.792851	2496.127327
803.113717	2489.825885
803.434538	2476.718885
803.755314	2489.573827
804.076045	2476.970942
804.396731	2467.896865
804.717372	2447.228135
805.037967	2465.880404
805.358518	2465.376288
805.679024	2463.611885
805.999485	2455.546038
806.319901	2484.784731
806.640272	2470.669500
806.960598	2488.817654
807.280879	2492.346462
807.601115	2475.206538
807.921306	2466.384519
808.241453	2461.847481
808.561554	2467.644808
808.881611	2473.946250
809.201623	2488.817654
809.521590	2475.206538
809.841513	2433.869077
810.161390	2490.834115
810.481223	2474.450365
810.801011	2475.710654
811.120755	2456.806327
811.440453	2478.483288
811.760107	2467.140692
812.079716	2473.190077
812.399281	2462.099538
812.718801	2472.433904
813.038276	2478.483288
813.357707	2462.855712
813.677093	2480.247692
813.996434	2485.288846
814.315731	2458.066615
814.634983	2484.280615
814.954191	2486.549135
815.273354	2452.773404
815.592473	2455.041923
815.911547	2455.546038
816.230577	2479.491519
816.549562	2456.050154
816.868502	2514.779596
817.187399	2478.735346
817.506250	2461.847481
817.825058	2493.354692
818.143821	2463.863942
818.462539	2491.842346
818.781213	2482.768269
819.099843	2503.184942
819.418429	2467.392750
819.736970	2445.211673
820.055466	2503.689058
820.373919	2494.110865
820.692327	2495.119096
821.010691	2489.573827
821.329011	2481.507981
821.647286	2534.692154
821.965517	2557.125288
822.283704	2566.199365
822.601847	2582.079000
822.919945	2572.752865
823.237999	2562.418500
823.556010	2566.451423
823.873976	2544.522404
824.191897	2531.919519
824.509775	2523.853673
824.827609	2513.267250
825.145398	2495.119096
825.463144	2509.234327
825.780845	2530.155115
826.098502	2506.965808
826.416116	2499.656135
826.733685	2508.226096
827.051210	2525.113962
827.368692	2505.957577
827.686129	2522.089269
828.003522	2491.842346
828.320872	2512.511077
828.638177	2482.516212
828.955439	2489.825885
829.272656	2469.661269
829.589830	2499.404077
829.906960	2481.760038
830.224046	2483.524442
830.541088	2484.280615
830.858086	2483.272385
831.175041	2482.516212
831.491952	2477.979173
831.808819	2493.858808
832.125642	2450.504885
832.442421	2460.083077
832.759157	2476.970942
833.075849	2490.077942
833.392497	2490.330000
833.709101	2491.590288
834.025662	2507.974038
834.342179	2501.168481
834.658653	2497.639673
834.975083	2487.809423
835.291469	2500.916423
835.607811	2477.979173
835.924110	2494.867038
836.240366	2467.140692
836.556578	2464.872173
836.872746	2483.776500
837.188871	2484.532673
837.504952	2479.239462
837.820990	2458.066615
838.136984	2472.181846
838.452935	2468.400981
838.768842	2444.959615
839.084706	2468.400981
839.400526	2488.061481
839.716303	2483.524442
840.032037	2465.880404
840.347727	2472.181846
840.663373	2505.453462
840.978977	2462.855712
841.294537	2460.839250
841.610054	2474.198308
841.925527	2470.165385
842.240957	2455.293981
842.556344	2489.321769
842.871687	2503.941115
843.186987	2472.181846
843.502244	2469.661269
843.817458	2486.801192
844.132629	2473.442135
844.447756	2456.806327
844.762840	2476.214769
845.077881	2479.491519
845.392879	2445.211673
845.707833	2466.636577
846.022745	2478.987404
846.337613	2483.776500
846.652438	2461.343365
846.967221	2445.463731
847.281960	2453.277519
847.596656	2503.184942
847.911309	2450.504885
848.225919	2473.946250
848.540485	2471.677731
848.855009	2491.590288
849.169490	2463.611885
849.483928	2453.025462
849.798323	2489.825885
850.112675	2483.020327
850.426984	2484.784731
850.741251	2469.661269
851.055474	2466.384519
851.369654	2458.318673
851.683792	2469.157154
851.997887	2455.041923
852.311938	2468.653038
852.625947	2462.099538
852.939914	2494.362923
853.253837	2473.946250
853.567718	2470.417442
853.881555	2446.724019
854.195350	2472.433904
854.509103	2470.669500
854.822812	2463.611885
855.136479	2456.554269
855.450103	2446.219904
855.763685	2449.244596
856.077224	2454.789865
856.390720	2461.595423
856.704173	2446.219904
857.017584	2465.880404
857.330953	2485.792962
857.644278	2462.099538
857.957561	2488.313538
858.270802	2460.839250
858.584000	2458.066615
858.897155	2479.491519
859.210268	2463.863942
859.523339	2459.074846
859.836367	2487.809423
860.149352	2445.211673
860.462295	2486.549135
860.775195	2445.715788
861.088054	2480.247692
861.400869	2475.458596
861.713642	2467.896865
862.026373	2471.425673
862.339062	2463.863942
862.651708	2483.524442
862.964312	2454.789865
863.276873	2441.178750
863.589392	2466.132462
863.901869	2483.776500
864.214303	2477.223000
864.526696	2461.847481
864.839045	2444.203442
865.151353	2473.442135
865.463619	2451.009000
865.775842	2504.697288
866.088023	2479.239462
866.400162	2452.017231
866.712258	2476.466827
867.024313	2453.529577
867.336325	2474.450365
867.648296	2470.921558
867.960224	2487.557365
868.272110	2500.916423
868.583954	2447.480192
868.895755	2471.425673
869.207515	2469.661269
869.519233	2496.379385
869.830909	2459.074846
870.142542	2448.488423
870.454134	2473.442135
870.765684	2466.888635
871.077191	2476.970942
871.388657	2479.491519
871.700081	2484.532673
872.011463	2472.433904
872.322803	2453.781635
872.634101	2470.165385
872.945357	2465.880404
873.256571	2491.842346
873.567744	2462.099538
873.878874	2477.727115
874.189963	2468.905096
874.501010	2498.395846
874.812015	2457.310442
875.122979	2465.880404
875.433900	2464.368058
875.744780	2446.471962
876.055618	2466.636577
876.366415	2481.255923
876.677169	2470.417442
876.987882	2488.313538
877.298554	2488.565596
877.609183	2479.995635
877.919771	2487.557365
878.230317	2480.247692
878.540822	2472.685962
878.851285	2466.636577
879.161707	2456.050154
879.472087	2500.160250
879.782425	2497.891731
880.092722	2479.491519
880.402977	2482.768269
880.713191	2501.168481
881.023363	2500.160250
881.333494	2530.155115
881.643583	2528.390712
881.953631	2546.790923
882.263637	2530.911288
882.573602	2562.166442
882.883526	2508.730212
883.193408	2531.415404
883.503248	2485.540904
883.813048	2534.692154
884.122806	2483.524442
884.432522	2487.809423
884.742197	2494.614981
885.051831	2487.557365
885.361424	2481.507981
885.670975	2484.028558
885.980485	2487.809423
886.289954	2457.310442
886.599382	2472.685962
886.908768	2484.028558
887.218113	2469.913327
887.527417	2472.938019
887.836680	2476.214769
888.145901	2468.653038
888.455082	2468.653038
888.764221	2491.590288
889.073319	2470.417442
889.382376	2439.918462
889.691392	2468.905096
890.000366	2476.214769
890.309300	2463.107769
890.618193	2477.979173
890.927044	2478.231231
891.235855	2466.384519
891.544625	2464.368058
891.853353	2471.677731
892.162041	2465.376288
892.470687	2467.644808
892.779293	2459.831019
893.087858	2463.107769
893.396381	2484.532673
893.704864	2471.929788
894.013306	2490.330000
894.321707	2489.069712
894.630068	2476.970942
894.938387	2476.466827
895.246665	2466.888635
895.554903	2462.351596
895.863100	2463.359827
896.171256	2480.247692
896.479371	2459.578962
896.787446	2488.061481
897.095480	2456.050154
897.403473	2492.850577
897.711425	2488.817654
898.019336	2479.995635
898.327207	2496.883500
898.635038	2496.883500
898.942827	2446.471962
899.250576	2499.152019
899.558284	2476.466827
899.865952	2449.244596
900.173579	2499.152019
900.481165	2465.628346
900.788711	2473.694192
901.096216	2497.387615
901.403681	2468.148923
901.711105	2467.392750
902.018489	2469.661269
902.325832	2466.636577
902.633135	2438.910231
902.940397	2454.789865
903.247619	2456.806327
903.554800	2465.124231
903.861941	2492.850577
904.169041	2500.412308
904.476101	2479.995635
904.783121	2507.721981
905.090100	2504.949346
905.397039	2492.850577
905.703938	2483.524442
906.010796	2483.524442
906.317614	2480.499750
906.624391	2470.921558
906.931129	2492.346462
907.237826	2481.507981
907.544483	2483.020327
907.851099	2475.458596
908.157675	2480.247692
908.464211	2471.425673
908.770707	2465.628346
909.077163	2455.041923
909.383578	2478.483288
909.689954	2456.806327
909.996289	2465.376288
910.302584	2468.653038
910.608839	2480.499750
910.915054	2479.491519
911.221229	2459.831019
911.527363	2426.559404
911.833458	2457.562500
912.139513	2470.921558
912.445527	2479.239462
912.751502	2458.822788
913.057436	2470.417442
913.363331	2458.066615
913.669186	2495.623212
913.975000	2485.288846
914.280775	2480.751808
914.586510	2469.409212
914.892205	2508.226096
915.197859	2467.140692
915.503475	2493.606750
915.809050	2497.891731
916.114585	2490.330000
916.420081	2478.987404
916.725536	2493.102635
917.030952	2491.086173
917.336328	2485.792962
917.641665	2503.437000
917.946961	2473.946250
918.252218	2499.908192
918.557435	2457.814558
918.862612	2456.050154
919.167750	2503.184942
919.472848	2462.855712
919.777906	2467.140692
920.082925	2454.537808
920.387904	2484.784731
920.692843	2471.929788
920.997743	2449.496654
921.302603	2502.428769
921.607423	2477.979173
921.912204	2456.050154
922.216946	2469.661269
922.521647	2463.863942
922.826310	2461.595423
923.130932	2468.653038
923.435516	2469.913327
923.740059	2463.863942
924.044564	2471.425673
924.349028	2464.368058
924.653454	2472.685962
924.957840	2476.214769
925.262186	2462.855712
925.566493	2474.954481
925.870761	2473.442135
926.174989	2475.710654
926.479178	2465.124231
926.783328	2475.458596
927.087438	2447.732250
927.391509	2462.855712
927.695541	2461.595423
927.999533	2461.595423
928.303486	2486.297077
928.607400	2469.661269
928.911275	2463.107769
929.215110	2471.173615
929.518906	2457.562500
929.822663	2456.050154
930.126381	2487.809423
930.430060	2449.244596
930.733699	2461.343365
931.037299	2461.091308
931.340861	2485.540904
931.644383	2461.847481
931.947866	2464.620115
932.251309	2460.335135
932.554714	2457.814558
932.858080	2464.872173
933.161407	2452.269288
933.464694	2474.702423
933.767943	2451.261058
934.071153	2452.773404
934.374323	2469.409212
934.677455	2457.310442
934.980548	2461.343365
935.283602	2458.066615
935.586617	2449.496654
935.889593	2452.521346
936.192530	2457.562500
936.495428	2444.959615
936.798287	2444.959615
937.101108	2453.277519
937.403890	2459.326904
937.706632	2482.768269
938.009336	2454.537808
938.312002	2456.554269
938.614628	2450.000769
938.917216	2483.776500
939.219765	2454.033692
939.522275	2448.236365
939.824747	2468.148923
940.127179	2486.549135
940.429573	2483.776500
940.731929	2449.496654
941.034246	2481.003865
941.336524	2453.025462
941.638763	2475.710654
941.940964	2457.310442
942.243126	2469.409212
942.545250	2476.970942
942.847335	2458.066615
943.149381	2472.181846
943.451389	2461.091308
943.753359	2485.540904
944.055290	2472.433904
944.357182	2477.223000
944.659036	2446.219904
944.960851	2461.343365
945.262628	2468.653038
945.564367	2470.669500
945.866067	2454.537808
946.167729	2474.450365
946.469352	2487.809423
946.770937	2446.219904
947.072484	2443.699327
947.373992	2475.206538
947.675462	2456.554269
947.976893	2470.165385
948.278286	2499.404077
948.579641	2459.074846
948.880958	2482.012096
949.182236	2468.905096
949.483476	2481.003865
949.784678	2465.376288
950.085841	2467.392750
950.386967	2458.318673
950.688054	2488.061481
950.989103	2454.033692
951.290114	2463.611885
951.591087	2466.636577
951.892021	2436.389654
952.192917	2484.532673
952.493776	2446.219904
952.794596	2459.831019
953.095378	2457.058385
953.396122	2460.839250
953.696828	2468.148923
953.997496	2473.694192
954.298126	2482.012096
954.598718	2445.211673
954.899272	2465.628346
955.199788	2497.891731
955.500266	2457.310442
955.800706	2470.417442
956.101108	2448.740481
956.401472	2463.611885
956.701798	2459.578962
957.002087	2479.743577
957.302337	2482.264154
957.602550	2468.400981
957.902724	2457.310442
958.202861	2465.880404
958.502960	2461.091308
958.803022	2476.466827
959.103045	2478.987404
959.403031	2459.326904
959.702979	2472.938019
960.002889	2440.926692
960.302762	2482.516212
960.602596	2490.834115
960.902393	2457.562500
961.202153	2453.277519
961.501875	2472.181846
961.801559	2470.417442
962.101205	2459.074846
962.400814	2463.863942
962.700385	2474.954481
962.999918	2442.691096
963.299414	2469.409212
963.598873	2480.499750
963.898293	2451.513115
964.197677	2448.236365
964.497022	2452.269288
964.796331	2491.590288
965.095601	2466.384519
965.394835	2459.074846
965.694030	2465.628346
965.993189	2466.384519
966.292309	2453.025462
966.591393	2442.186981
966.890439	2467.140692
967.189447	2482.012096
967.488419	2457.562500
967.787353	2478.231231
968.086249	2460.083077
968.385108	2444.203442
968.683930	2461.847481
968.982714	2458.822788
969.281462	2434.877308
969.580172	2461.847481
969.878844	2464.620115
970.177480	2474.702423
970.476078	2441.178750
970.774639	2445.967846
971.073162	2435.381423
971.371649	2443.195212
971.670098	2439.414346
971.968510	2452.269288
972.266885	2470.921558
972.565223	2465.628346
972.863524	2450.504885
973.161788	2464.368058
973.460014	2457.814558
973.758204	2479.995635
974.056356	2460.335135
974.354471	2463.107769
974.652550	2489.573827
974.950591	2450.756942
975.248595	2452.773404
975.546563	2442.186981
975.844493	2453.277519
976.142386	2486.801192
976.440243	2454.285750
976.738062	2447.984308
977.035845	2461.091308
977.333590	2477.223000
977.631299	2449.496654
977.928971	2465.628346
978.226606	2462.099538
978.524204	2476.466827
978.821765	2471.677731
979.119290	2460.083077
979.416777	2482.012096
979.714228	2468.653038
980.011642	2456.806327
980.309020	2482.516212
980.606360	2463.611885
980.903664	2475.962712
981.200931	2459.578962
981.498162	2471.677731
981.795356	2470.921558
982.092513	2461.595423
982.389633	2474.198308
982.686717	2450.756942
982.983764	2458.066615
983.280775	2482.516212
983.577749	2472.181846
983.874686	2475.458596
984.171587	2478.735346
984.468451	2466.636577
984.765279	2493.354692
985.062070	2467.392750
985.358824	2479.743577
985.655543	2461.091308
985.952224	2447.984308
986.248869	2477.223000
986.545478	2464.872173
986.842050	2459.578962
987.138586	2448.992538
987.435086	2465.124231
987.731549	2459.326904
988.027975	2484.784731
988.324366	2467.644808
988.620719	2489.321769
988.917037	2480.751808
989.213318	2450.504885
989.509563	2456.050154
989.805772	2467.392750
990.101944	2444.707558
990.398080	2461.847481
990.694180	2476.466827
990.990244	2472.181846
991.286271	2473.946250
991.582262	2475.962712
991.878217	2481.760038
992.174136	2483.272385
992.470019	2474.954481
992.765865	2453.025462
993.061676	2459.326904
993.357450	2445.463731
993.653188	2446.471962
993.948890	2451.261058
994.244556	2444.203442
994.540186	2439.918462
994.835780	2451.513115
995.131337	2485.540904
995.426859	2453.529577
995.722345	2466.132462
996.017795	2473.190077
996.313208	2443.195212
996.608586	2475.458596
996.903928	2464.368058
997.199234	2479.239462
997.494504	2454.789865
997.789738	2458.570731
998.084936	2460.083077
998.380099	2461.091308
998.675225	2438.154058
998.970316	2464.620115
999.265371	2462.099538
999.560390	2461.847481
999.855373	2450.252827
1000.150320	2466.636577
1000.445232	2484.784731
1000.740108	2448.236365
1001.034948	2450.504885
1001.329752	2454.789865
1001.624521	2470.669500
1001.919254	2477.223000
1002.213951	2462.099538
1002.508613	2443.195212
1002.803239	2441.178750
1003.097829	2449.748712
1003.392384	2463.863942
1003.686903	2443.195212
1003.981386	2459.074846
1004.275834	2473.442135
1004.570246	2473.694192
1004.864623	2455.293981
1005.158964	2459.831019
1005.453270	2475.206538
1005.747540	2435.381423
1006.041775	2456.554269
1006.335974	2454.285750
1006.630138	2443.447269
1006.924266	2425.047058
1007.218359	2473.190077
1007.512416	2442.943154
1007.806438	2450.756942
1008.100425	2463.863942
1008.394376	2434.877308
1008.688292	2478.483288
1008.982172	2445.211673
1009.276017	2466.888635
1009.569827	2449.748712
1009.863602	2488.313538
1010.157341	2464.620115
1010.451045	2456.806327
1010.744714	2474.198308
1011.038347	2461.343365
1011.331945	2449.748712
1011.625508	2468.148923
1011.919036	2463.611885
1012.212528	2470.921558
1012.505986	2468.400981
1012.799408	2461.343365
1013.092795	2446.976077
1013.386147	2462.351596
1013.679464	2465.376288
1013.972745	2469.157154
1014.265992	2462.099538
1014.559204	2477.979173
1014.852380	2461.595423
1015.145521	2451.513115
1015.438628	2457.562500
1015.731699	2465.880404
1016.024736	2468.653038
1016.317737	2455.798096
1016.610703	2467.896865
1016.903635	2476.718885
1017.196531	2480.751808
1017.489393	2452.773404
1017.782219	2455.546038
1018.075011	2472.685962
1018.367768	2450.756942
1018.660490	2465.628346
1018.953177	2465.628346
1019.245829	2465.628346
