Dividing Wavelength (nm)	Counts (n)	Slit_number_27_of_a_total_of_40	
326.493990	2131.735923
326.888308	2131.735923
327.282561	2131.735923
327.676750	2119.889212
328.070874	2119.805192
328.464933	2135.516788
328.858929	2127.703000
329.252859	2135.516788
329.646726	2161.982846
330.040528	2186.264404
330.434265	2204.748635
330.827938	2223.736981
331.221547	2233.231154
331.615091	2264.990423
332.008571	2273.392346
332.401986	2290.112173
332.795338	2323.215750
333.188625	2331.029538
333.581847	2355.647173
333.975006	2366.821731
334.368100	2385.474000
334.761129	2399.169135
335.154095	2422.778538
335.546996	2433.869077
335.939833	2452.941442
336.332606	2461.679442
336.725315	2480.499750
337.117960	2496.463404
337.510540	2501.336519
337.903056	2504.865327
338.295508	2509.738442
338.687896	2533.935981
339.080220	2535.700385
339.472480	2521.501135
339.864676	2547.883173
340.256807	2539.145173
340.648875	2542.673981
341.040879	2541.329673
341.432818	2540.489481
341.824694	2552.000115
342.216506	2534.188038
342.608253	2539.313212
342.999937	2527.466500
343.391557	2543.262115
343.783113	2538.389000
344.174605	2535.532346
344.566033	2527.130423
344.957397	2541.329673
345.348697	2531.751481
345.739934	2532.003538
346.131106	2522.257308
346.522215	2526.122192
346.913260	2537.884885
347.304241	2522.593385
347.695159	2534.272058
348.086012	2508.646192
348.476802	2522.089269
348.867528	2519.316635
349.258191	2523.601615
349.648789	2527.466500
350.039324	2512.006962
350.429796	2508.562173
350.820203	2518.812519
351.210548	2502.596808
351.600828	2501.420538
351.991045	2508.982269
352.381198	2516.459981
352.771288	2499.572115
353.161314	2511.166769
353.551276	2493.270673
353.941175	2513.771365
354.331010	2520.913000
354.720782	2506.881788
355.110490	2501.504558
355.500135	2526.290231
355.889717	2515.199692
356.279235	2500.664365
356.668689	2515.199692
357.058080	2508.646192
357.447408	2499.236038
357.836672	2515.535769
358.225873	2523.601615
358.615010	2521.669173
359.004084	2519.148596
359.393095	2512.090981
359.782043	2528.978846
360.170927	2506.377673
360.559748	2512.427058
360.948505	2522.677404
361.337199	2525.786115
361.725830	2508.478154
362.114398	2522.761423
362.502903	2529.735019
362.891344	2529.482962
363.279722	2515.535769
363.668037	2512.679115
364.056289	2514.023423
364.444478	2503.352981
364.832603	2534.692154
365.220665	2525.113962
365.608665	2523.097500
365.996601	2512.931173
366.384474	2516.207923
366.772284	2528.474731
367.160031	2520.828981
367.547715	2518.980558
367.935336	2533.095788
368.322893	2530.911288
368.710388	2534.020000
369.097820	2517.384192
369.485189	2522.845442
369.872495	2538.809096
370.259738	2526.038173
370.646918	2532.087558
371.034035	2536.792635
371.421090	2516.544000
371.808081	2524.273769
372.195010	2526.878365
372.581875	2520.072808
372.968678	2519.652712
373.355418	2519.400654
373.742096	2537.884885
374.128710	2539.313212
374.515262	2527.046404
374.901751	2532.843731
375.288177	2536.372538
375.674540	2529.987077
376.060841	2525.366019
376.447079	2530.911288
376.833254	2514.023423
377.219367	2539.313212
377.605417	2522.341327
377.991404	2569.644154
378.377329	2536.120481
378.763191	2553.932558
379.148991	2541.581731
379.534727	2543.430154
379.920402	2564.687019
380.306013	2550.235712
380.691563	2539.229192
381.077049	2553.512462
381.462474	2559.981942
381.847835	2570.904442
382.233134	2569.812192
382.618371	2583.927423
383.003545	2595.101981
383.388657	2608.293000
383.773706	2606.864673
384.158693	2607.368788
384.543618	2631.566327
384.928480	2634.086904
385.313280	2627.113308
385.698017	2650.638692
386.082692	2646.437731
386.467305	2653.999462
386.851856	2675.004269
387.236344	2681.053654
387.620770	2695.336923
388.005133	2713.737135
388.389435	2734.321846
388.773674	2734.573904
389.157851	2737.514577
389.541965	2751.377750
389.926018	2753.982346
390.310008	2779.440173
390.693936	2777.843808
391.077802	2798.764596
391.461606	2809.267000
391.845348	2821.029692
392.229027	2828.003288
392.612645	2844.387038
392.996200	2872.869558
393.379694	2869.256731
393.763125	2880.767365
394.146494	2879.927173
394.529801	2891.689865
394.913047	2907.401462
395.296230	2898.159346
395.679351	2910.930269
396.062410	2903.200500
396.445408	2886.144596
396.828343	2905.553038
397.211217	2904.964904
397.594028	2896.226904
397.976778	2901.604135
398.359466	2887.656942
398.742092	2869.172712
399.124656	2858.418250
399.507158	2862.283135
399.889598	2867.996442
400.271977	2868.584577
400.654294	2827.079077
401.036549	2846.739577
401.418742	2825.146635
401.800874	2824.978596
402.182944	2798.764596
402.564952	2805.402115
402.946898	2781.624673
403.328783	2764.148673
403.710606	2765.492981
404.092367	2743.479942
404.474067	2749.109231
404.855705	2726.340019
405.237282	2708.780000
405.618797	2692.900365
406.000250	2703.906885
406.381642	2680.969635
406.762972	2663.745692
407.144240	2648.286154
407.525447	2646.605769
407.906593	2636.019346
408.287677	2627.281346
408.668700	2635.431212
409.049661	2612.241904
409.430560	2605.520365
409.811399	2590.901019
410.192176	2592.077288
410.572891	2594.261788
410.953545	2573.761096
411.334138	2575.693538
411.714669	2566.955538
412.095139	2571.072481
412.475547	2549.143462
412.855894	2559.813904
413.236180	2566.283385
413.616405	2577.289904
413.996568	2559.309788
414.376670	2571.072481
414.756711	2563.342712
415.136691	2562.670558
415.516609	2563.258692
415.896466	2563.510750
416.276262	2549.311500
416.655997	2551.832077
417.035670	2552.924327
417.415283	2559.813904
417.794834	2549.563558
418.174324	2571.996692
418.553753	2555.360885
418.933121	2557.545385
419.312428	2562.586538
419.691674	2537.464788
420.070859	2559.477827
420.449983	2555.696962
420.829045	2555.528923
421.208047	2557.125288
421.586988	2555.780981
421.965867	2555.108827
422.344686	2558.385577
422.723444	2548.219250
423.102141	2563.426731
423.480777	2555.865000
423.859352	2551.075904
424.237866	2540.741538
424.616319	2545.866712
424.994712	2553.008346
425.373044	2560.906154
425.751314	2562.502519
426.129524	2548.891404
426.507673	2556.957250
426.885762	2570.400327
427.263789	2546.706904
427.641756	2561.914385
428.019662	2551.580019
428.397508	2565.023096
428.775292	2560.234000
429.153016	2560.990173
429.530679	2557.377346
429.908282	2555.949019
430.285824	2559.645865
430.663305	2561.326250
431.040726	2551.832077
431.418086	2566.535442
431.795385	2554.520692
432.172624	2566.955538
432.549802	2566.787500
432.926920	2556.285096
433.303977	2563.006635
433.680974	2545.110538
434.057910	2554.688731
434.434786	2540.993596
434.811601	2556.789212
435.188355	2559.057731
435.565050	2550.655808
435.941683	2548.891404
436.318257	2564.939077
436.694770	2559.729885
437.071222	2563.594769
437.447614	2566.283385
437.823946	2554.940788
438.200218	2565.191135
438.576429	2549.479538
438.952580	2541.833788
439.328670	2556.621173
439.704700	2541.749769
440.080670	2555.276865
440.456580	2561.074192
440.832429	2557.125288
441.208218	2563.846827
441.583947	2557.125288
441.959616	2566.787500
442.335224	2567.207596
442.710773	2551.832077
443.086261	2573.425019
443.461689	2557.713423
443.837057	2565.695250
444.212365	2564.098885
444.587612	2558.385577
444.962800	2553.176385
445.337927	2560.654096
445.712995	2584.767615
446.088002	2559.309788
446.462949	2553.428442
446.837837	2552.000115
447.212664	2560.065962
447.587431	2559.561846
447.962139	2551.664038
448.336786	2562.586538
448.711374	2553.092365
449.085901	2568.215827
449.460369	2557.041269
449.834776	2561.830365
450.209124	2548.387288
450.583412	2556.873231
450.957640	2564.518981
451.331808	2549.227481
451.705917	2559.981942
452.079965	2560.990173
452.453954	2561.494288
452.827883	2565.947308
453.201752	2548.555327
453.575562	2555.108827
453.949311	2566.955538
454.323001	2564.518981
454.696632	2560.906154
455.070202	2559.561846
455.443713	2574.097173
455.817164	2564.687019
456.190556	2562.586538
456.563888	2562.418500
456.937160	2576.617750
457.310373	2571.072481
457.683526	2562.418500
458.056619	2568.803962
458.429653	2562.586538
458.802628	2570.316308
459.175542	2574.853346
459.548398	2572.836885
459.921194	2563.510750
460.293930	2552.168154
460.666607	2572.332769
461.039224	2572.752865
461.411782	2565.107115
461.784280	2573.845115
462.156719	2572.836885
462.529099	2561.746346
462.901419	2570.064250
463.273680	2566.283385
463.645882	2569.308077
464.018024	2556.957250
464.390106	2584.095462
464.762130	2564.350942
465.134094	2574.853346
465.505999	2565.191135
465.877845	2542.758000
466.249631	2565.191135
466.621358	2555.276865
466.993026	2571.492577
467.364634	2583.759385
467.736184	2562.586538
468.107674	2559.309788
468.479105	2563.426731
468.850477	2564.603000
469.221790	2578.718231
469.593043	2578.718231
469.964238	2562.250462
470.335373	2557.125288
470.706449	2576.029615
471.077467	2557.797442
471.448425	2574.853346
471.819324	2571.492577
472.190164	2583.255269
472.560945	2566.955538
472.931667	2570.232288
473.302330	2582.163019
473.672934	2577.289904
474.043479	2567.375635
474.413965	2564.855058
474.784393	2571.828654
475.154761	2555.192846
475.525070	2571.072481
475.895321	2552.756288
476.265513	2562.838596
476.635645	2562.250462
477.005719	2551.159923
477.375734	2581.826942
477.745691	2550.655808
478.115588	2584.935654
478.485427	2570.904442
478.855207	2563.258692
479.224928	2572.920904
479.594591	2564.014865
479.964194	2560.738115
480.333739	2562.838596
480.703226	2583.591346
481.072653	2560.654096
481.442022	2576.617750
481.811333	2579.978519
482.180584	2574.349231
482.549777	2577.710000
482.918912	2568.887981
483.287988	2558.133519
483.657005	2583.423308
484.025964	2580.482635
484.394864	2581.154788
484.763706	2575.945596
485.132489	2581.154788
485.501213	2587.960346
485.869879	2575.021385
486.238487	2574.181192
486.607036	2575.861577
486.975527	2565.443192
487.343959	2559.645865
487.712333	2572.836885
488.080648	2564.603000
488.448905	2565.275154
488.817104	2584.851635
489.185244	2573.593058
489.553326	2561.410269
489.921350	2561.998404
490.289315	2580.482635
490.657222	2584.851635
491.025070	2562.754577
491.392861	2573.256981
491.760593	2576.029615
492.128267	2566.451423
492.495883	2568.803962
492.863440	2574.601288
493.230939	2571.660615
493.598380	2574.433250
493.965763	2573.929135
494.333088	2571.408558
494.700354	2581.910962
495.067563	2552.840308
495.434713	2579.306365
495.801805	2560.906154
496.168839	2570.484346
496.535815	2576.785788
496.902733	2575.105404
497.269593	2562.838596
497.636395	2572.164731
498.003139	2573.341000
498.369825	2559.057731
498.736453	2569.056019
499.103023	2572.584827
499.469535	2574.517269
499.835989	2576.617750
500.202385	2574.349231
500.568723	2568.383865
500.935003	2575.609519
501.301226	2561.914385
501.667390	2568.383865
502.033497	2575.525500
502.399546	2582.835173
502.765537	2571.744635
503.131470	2573.761096
503.497345	2565.275154
503.863163	2575.693538
504.228923	2579.558423
504.594625	2574.685308
504.960269	2592.749442
505.325856	2558.805673
505.691385	2576.113635
506.056856	2583.339288
506.422270	2582.331058
506.787625	2570.904442
507.152924	2589.220635
507.518164	2570.652385
507.883347	2566.283385
508.248472	2566.703481
508.613540	2575.945596
508.978550	2587.288192
509.343503	2569.812192
509.708398	2566.619462
510.073236	2573.256981
510.438016	2570.736404
510.802738	2565.443192
511.167403	2575.273442
511.532010	2566.199365
511.896561	2564.182904
512.261053	2589.556712
512.625488	2554.520692
512.989866	2575.609519
513.354186	2566.871519
513.718449	2583.003212
514.082655	2570.484346
514.446803	2577.373923
514.810894	2577.541962
515.174927	2575.189423
515.538904	2566.535442
515.902822	2573.425019
516.266684	2583.927423
516.630488	2586.868096
516.994235	2570.820423
517.357925	2572.752865
517.721558	2576.953827
518.085133	2566.703481
518.448651	2558.805673
518.812112	2574.013154
519.175516	2575.525500
519.538863	2583.423308
519.902152	2571.240519
520.265385	2588.464462
520.628560	2577.289904
520.991678	2562.586538
521.354739	2574.181192
521.717743	2560.990173
522.080690	2572.752865
522.443580	2576.281673
522.806413	2573.761096
523.169189	2567.795731
523.531908	2566.703481
523.894569	2560.654096
524.257174	2563.426731
524.619722	2584.599577
524.982213	2578.634212
525.344647	2576.281673
525.707025	2576.029615
526.069345	2584.515558
526.431608	2566.451423
526.793815	2585.859865
527.155964	2569.728173
527.518057	2585.859865
527.880093	2573.761096
528.242072	2567.795731
528.603995	2580.650673
528.965860	2574.097173
529.327669	2579.894500
529.689421	2573.341000
530.051117	2583.675365
530.412755	2581.658904
530.774337	2592.497385
531.135862	2592.077288
531.497331	2575.693538
531.858743	2577.541962
532.220098	2574.181192
532.581396	2579.138327
532.942638	2580.902731
533.303824	2564.182904
533.664953	2567.963769
534.026025	2565.275154
534.387040	2575.441481
534.747999	2592.749442
535.108902	2570.484346
535.469748	2588.548481
535.830537	2564.434962
536.191270	2565.359173
536.551947	2573.509038
536.912567	2583.759385
537.273131	2559.729885
537.633638	2568.215827
537.994089	2579.390385
538.354483	2565.359173
538.714821	2578.214115
539.075103	2581.574885
539.435328	2573.593058
539.795497	2560.570077
540.155609	2563.342712
540.515665	2579.306365
540.875665	2580.566654
541.235609	2573.425019
541.595496	2566.871519
541.955328	2575.861577
542.315102	2567.459654
542.674821	2575.777558
543.034483	2572.164731
543.394090	2578.550192
543.753640	2574.601288
544.113134	2584.515558
544.472571	2575.945596
544.831953	2575.693538
545.191278	2563.678788
545.550548	2576.953827
545.909761	2581.406846
546.268918	2553.932558
546.628019	2580.650673
546.987064	2579.558423
547.346053	2577.373923
547.704986	2575.357462
548.063863	2569.392096
548.422684	2561.410269
548.781449	2580.566654
549.140158	2567.795731
549.498811	2577.205885
549.857408	2581.070769
550.215949	2562.502519
550.574434	2576.701769
550.932864	2570.820423
551.291237	2585.103692
551.649555	2566.955538
552.007817	2567.207596
552.366022	2571.240519
552.724173	2586.868096
553.082267	2581.238808
553.440305	2563.426731
553.798288	2575.021385
554.156215	2571.828654
554.514086	2583.255269
554.871902	2592.665423
555.229661	2559.141750
555.587365	2584.851635
555.945014	2578.634212
556.302606	2571.324538
556.660143	2569.812192
557.017625	2572.248750
557.375050	2571.828654
557.732421	2582.583115
558.089735	2568.887981
558.446994	2563.426731
558.804197	2567.123577
559.161345	2572.920904
559.518437	2579.222346
559.875474	2571.240519
560.232455	2571.912673
560.589381	2577.289904
560.946251	2578.970288
561.303065	2586.027904
561.659825	2558.973712
562.016528	2592.497385
562.373177	2570.820423
562.729770	2567.963769
563.086307	2583.003212
563.442789	2567.543673
563.799216	2587.036135
564.155587	2561.998404
564.511904	2568.719942
564.868164	2577.037846
565.224370	2572.164731
565.580520	2568.635923
565.936615	2562.418500
566.292654	2577.205885
566.648638	2600.731269
567.004567	2573.172962
567.360441	2585.271731
567.716260	2579.306365
568.072023	2575.021385
568.427732	2573.761096
568.783385	2575.861577
569.138982	2580.230577
569.494525	2579.222346
569.850013	2585.019673
570.205445	2585.523788
570.560823	2599.975096
570.916145	2581.154788
571.271412	2587.372212
571.626625	2577.625981
571.981782	2567.123577
572.336884	2581.742923
572.691931	2579.306365
573.046923	2575.273442
573.401860	2568.887981
573.756743	2585.271731
574.111570	2546.454846
574.466342	2571.324538
574.821059	2564.771038
575.175722	2583.591346
575.530330	2568.047788
575.884882	2577.710000
576.239380	2565.863288
576.593823	2570.736404
576.948211	2564.434962
577.302544	2568.383865
577.656823	2572.248750
578.011047	2578.130096
578.365216	2579.474404
578.719330	2586.952115
579.073389	2577.037846
579.427394	2579.558423
579.781344	2564.014865
580.135239	2581.826942
580.489080	2568.299846
580.842866	2562.166442
581.196597	2590.060827
581.550273	2566.367404
581.903895	2592.413365
582.257463	2580.650673
582.610975	2576.701769
582.964434	2565.275154
583.317837	2571.744635
583.671186	2584.431538
584.024481	2583.003212
584.377721	2578.886269
584.730906	2593.505615
585.084037	2579.558423
585.437113	2592.833462
585.790135	2575.273442
586.143103	2568.972000
586.496016	2578.970288
586.848874	2566.199365
587.201679	2587.876327
587.554428	2590.228865
587.907124	2577.289904
588.259765	2573.341000
588.612352	2575.021385
588.964884	2576.533731
589.317362	2566.535442
589.669786	2573.677077
590.022155	2579.894500
590.374470	2574.433250
590.726731	2576.449712
591.078937	2570.316308
591.431090	2580.398615
591.783188	2578.466173
592.135232	2567.207596
592.487222	2584.767615
592.839157	2580.818712
593.191038	2567.795731
593.542866	2583.843404
593.894639	2572.500808
594.246358	2569.224058
594.598022	2571.156500
594.949633	2568.047788
595.301190	2579.054308
595.652692	2584.095462
596.004141	2573.088942
596.355535	2581.322827
596.706876	2567.375635
597.058162	2585.355750
597.409395	2569.980231
597.760573	2571.324538
598.111698	2568.467885
598.462768	2573.593058
598.813785	2579.054308
599.164748	2582.499096
599.515657	2569.980231
599.866511	2563.510750
600.217312	2566.619462
600.568060	2571.156500
600.918753	2586.868096
601.269392	2591.741212
601.619978	2567.039558
601.970510	2567.711712
602.320988	2586.363981
602.671412	2587.708288
603.021783	2574.097173
603.372100	2577.710000
603.722363	2579.054308
604.072572	2573.256981
604.422728	2571.240519
604.772830	2567.123577
605.122878	2564.350942
605.472872	2587.876327
605.822813	2572.920904
606.172701	2571.408558
606.522534	2587.624269
606.872314	2560.486058
607.222041	2570.904442
607.571714	2581.658904
607.921333	2571.912673
608.270899	2574.013154
608.620411	2587.288192
608.969870	2569.728173
609.319276	2576.617750
609.668627	2569.476115
610.017926	2580.230577
610.367171	2570.484346
610.716362	2582.751154
611.065500	2568.215827
611.414585	2581.154788
611.763616	2564.098885
612.112594	2590.732981
612.461518	2568.299846
612.810389	2573.004923
613.159207	2563.090654
613.507971	2579.978519
613.856682	2575.189423
614.205340	2571.072481
614.553945	2583.087231
614.902496	2568.635923
615.250994	2587.204173
615.599439	2570.820423
615.947830	2572.920904
616.296169	2569.728173
616.644454	2578.718231
616.992686	2581.658904
617.340864	2582.751154
617.688990	2580.314596
618.037063	2572.752865
618.385082	2570.148269
618.733048	2568.383865
619.080961	2575.945596
619.428821	2584.095462
619.776628	2569.308077
620.124382	2570.736404
620.472083	2577.878038
620.819731	2582.835173
621.167326	2578.298135
621.514868	2581.238808
621.862357	2574.769327
622.209793	2568.551904
622.557176	2585.439769
622.904506	2584.599577
623.251783	2582.583115
623.599007	2570.064250
623.946179	2583.423308
624.293297	2582.751154
624.640363	2579.726462
624.987376	2577.625981
625.334336	2572.584827
625.681243	2578.214115
626.028097	2575.861577
626.374899	2590.144846
626.721647	2571.660615
627.068343	2576.701769
627.414987	2564.518981
627.761577	2571.492577
628.108115	2574.685308
628.454600	2571.072481
628.801032	2576.029615
629.147412	2575.357462
629.493739	2576.869808
629.840014	2579.558423
630.186236	2575.189423
630.532405	2587.372212
630.878521	2567.879750
631.224585	2573.761096
631.570597	2575.189423
631.916556	2568.803962
632.262462	2578.970288
632.608316	2579.474404
632.954117	2577.121865
633.299866	2581.238808
633.645562	2577.289904
633.991206	2574.433250
634.336797	2574.517269
634.682336	2577.710000
635.027823	2572.248750
635.373257	2564.434962
635.718639	2559.225769
636.063968	2585.103692
636.409245	2579.222346
636.754470	2572.500808
637.099642	2567.207596
637.444762	2579.222346
637.789829	2571.828654
638.134845	2569.560135
638.479808	2574.265212
638.824719	2569.056019
639.169577	2559.981942
639.514383	2585.187712
639.859137	2568.972000
640.203839	2567.207596
640.548489	2590.228865
640.893086	2568.887981
641.237632	2577.373923
641.582125	2575.861577
641.926566	2585.607808
642.270955	2570.904442
642.615292	2584.095462
642.959576	2583.759385
643.303809	2562.922615
643.647990	2581.490865
643.992118	2582.751154
644.336195	2578.046077
644.680219	2573.593058
645.024192	2571.156500
645.368112	2580.398615
645.711981	2578.718231
646.055797	2571.912673
646.399562	2580.146558
646.743274	2581.070769
647.086935	2567.459654
647.430544	2577.457942
647.774101	2583.087231
648.117606	2585.943885
648.461059	2589.556712
648.804460	2599.807058
649.147810	2563.678788
649.491108	2578.130096
649.834354	2566.535442
650.177548	2568.635923
650.520690	2585.943885
650.863781	2567.543673
651.206820	2578.634212
651.549807	2584.767615
651.892742	2570.484346
652.235626	2574.013154
652.578458	2563.258692
652.921238	2571.492577
653.263967	2555.949019
653.606644	2575.777558
653.949269	2553.932558
654.291843	2560.065962
654.634365	2563.846827
654.976836	2573.172962
655.319255	2582.751154
655.661622	2559.225769
656.003938	2571.660615
656.346203	2577.962058
656.688416	2557.293327
657.030577	2570.988462
657.372687	2569.980231
657.714746	2560.486058
658.056753	2589.724750
658.398708	2575.525500
658.740612	2569.728173
659.082465	2575.693538
659.424266	2591.237096
659.766016	2569.728173
660.107715	2574.517269
660.449362	2561.410269
660.790958	2571.408558
661.132503	2580.146558
661.473996	2589.052596
661.815438	2581.322827
662.156829	2589.304654
662.498168	2575.105404
662.839456	2582.247038
663.180693	2561.830365
663.521879	2576.029615
663.863013	2571.240519
664.204097	2578.466173
664.545129	2568.299846
664.886110	2558.469596
665.227040	2576.029615
665.567918	2580.146558
665.908746	2561.410269
666.249522	2583.423308
666.590248	2570.736404
666.930922	2565.023096
667.271545	2578.382154
667.612118	2566.115346
667.952639	2580.146558
668.293109	2564.603000
668.633528	2567.879750
668.973896	2576.449712
669.314213	2578.046077
669.654480	2554.268635
669.994695	2575.357462
670.334859	2561.158212
670.674973	2564.350942
671.015035	2572.416788
671.355047	2573.425019
671.695008	2564.266923
672.034918	2573.509038
672.374777	2567.459654
672.714585	2573.425019
673.054342	2575.777558
673.394049	2586.363981
673.733705	2566.283385
674.073310	2578.550192
674.412864	2578.298135
674.752368	2569.476115
675.091820	2573.761096
675.431223	2577.541962
675.770574	2568.299846
676.109875	2568.719942
676.449125	2579.726462
676.788324	2589.640731
677.127473	2577.037846
677.466571	2567.543673
677.805619	2573.256981
678.144616	2587.456231
678.483562	2577.289904
678.822458	2573.004923
679.161303	2573.929135
679.500098	2567.879750
679.838842	2563.006635
680.177535	2570.904442
680.516179	2577.962058
680.854771	2577.289904
681.193314	2569.056019
681.531805	2563.846827
681.870247	2569.644154
682.208638	2557.377346
682.546978	2584.683596
682.885268	2569.056019
683.223508	2563.594769
683.561697	2564.603000
683.899836	2581.070769
684.237925	2561.242231
684.575963	2561.494288
684.913951	2570.400327
685.251889	2563.510750
685.589776	2575.189423
685.927614	2571.660615
686.265401	2578.130096
686.603137	2569.056019
686.940824	2582.247038
687.278460	2570.904442
687.616046	2584.767615
687.953582	2574.853346
688.291068	2586.616038
688.628504	2563.930846
688.965889	2579.894500
689.303224	2567.375635
689.640510	2566.535442
689.977745	2563.930846
690.314930	2582.667135
690.652065	2560.570077
690.989150	2567.879750
691.326185	2591.237096
691.663170	2579.390385
692.000105	2592.749442
692.336990	2572.080712
692.673825	2562.334481
693.010610	2570.400327
693.347345	2566.199365
693.684030	2578.886269
694.020665	2571.408558
694.357251	2564.266923
694.693786	2561.914385
695.030272	2563.846827
695.366707	2570.652385
695.703093	2566.703481
696.039429	2582.751154
696.375716	2584.935654
696.711952	2574.937365
697.048139	2572.080712
697.384276	2565.107115
697.720363	2573.509038
698.056400	2575.777558
698.392388	2578.634212
698.728326	2563.762808
699.064214	2585.775846
699.400053	2577.878038
699.735842	2565.779269
700.071581	2569.728173
700.407270	2567.123577
700.742910	2573.677077
701.078501	2564.014865
701.414042	2569.980231
701.749533	2578.130096
702.084974	2568.803962
702.420366	2580.230577
702.755709	2579.726462
703.091002	2590.396904
703.426246	2581.154788
703.761440	2548.807385
704.096584	2570.652385
704.431679	2560.318019
704.766725	2565.107115
705.101721	2577.625981
705.436668	2571.660615
705.771565	2575.273442
706.106413	2564.266923
706.441212	2580.818712
706.775961	2567.543673
707.110661	2569.308077
707.445311	2569.224058
707.779913	2570.316308
708.114465	2562.082423
708.448967	2562.586538
708.783421	2561.578308
709.117825	2577.289904
709.452180	2563.174673
709.786485	2579.222346
710.120742	2573.593058
710.454949	2572.080712
710.789107	2587.036135
711.123216	2571.660615
711.457275	2570.736404
711.791286	2575.357462
712.125247	2560.906154
712.459159	2577.962058
712.793023	2574.097173
713.126837	2572.248750
713.460602	2573.256981
713.794318	2559.981942
714.127985	2560.065962
714.461602	2570.484346
714.795171	2565.107115
715.128691	2570.568365
715.462162	2570.148269
715.795584	2563.678788
716.128957	2568.972000
716.462281	2570.736404
716.795556	2554.100596
717.128782	2554.856769
717.461960	2570.148269
717.795088	2560.906154
718.128167	2567.375635
718.461198	2569.392096
718.794180	2578.214115
719.127113	2577.457942
719.459997	2560.738115
719.792833	2570.148269
720.125619	2580.986750
720.458357	2567.207596
720.791046	2554.352654
721.123686	2575.189423
721.456278	2569.224058
721.788821	2562.334481
722.121315	2568.047788
722.453761	2570.568365
722.786158	2569.140038
723.118506	2577.625981
723.450805	2564.350942
723.783056	2565.359173
724.115259	2565.947308
724.447412	2554.856769
724.779518	2561.494288
725.111574	2560.149981
725.443582	2580.650673
725.775542	2578.634212
726.107453	2558.721654
726.439315	2573.845115
726.771129	2569.896212
727.102895	2558.217538
727.434612	2571.324538
727.766281	2571.576596
728.097901	2576.701769
728.429473	2568.215827
728.760996	2567.795731
729.092471	2563.678788
729.423897	2567.207596
729.755276	2580.062538
730.086606	2565.863288
730.417887	2575.525500
730.749120	2558.553615
731.080305	2569.560135
731.411442	2569.560135
731.742530	2566.367404
732.073570	2557.881462
732.404562	2572.584827
732.735506	2575.273442
733.066401	2569.644154
733.397249	2564.182904
733.728048	2573.593058
734.058798	2576.533731
734.389501	2574.349231
734.720156	2590.480923
735.050762	2574.685308
735.381320	2557.041269
735.711831	2556.621173
736.042293	2574.769327
736.372707	2563.006635
736.703073	2575.189423
737.033391	2572.164731
737.363661	2569.476115
737.693883	2571.744635
738.024056	2563.258692
738.354182	2582.079000
738.684260	2562.670558
739.014290	2563.678788
739.344272	2564.687019
739.674207	2563.258692
740.004093	2581.070769
740.333931	2580.734692
740.663722	2568.972000
740.993464	2583.423308
741.323159	2569.812192
741.652806	2557.293327
741.982405	2575.441481
742.311956	2565.275154
742.641460	2570.316308
742.970915	2568.719942
743.300323	2575.105404
743.629683	2570.400327
743.958996	2577.121865
744.288260	2581.658904
744.617477	2565.863288
744.946647	2567.543673
745.275768	2563.090654
745.604842	2556.201077
745.933869	2579.222346
746.262847	2570.904442
746.591778	2550.067673
746.920662	2565.863288
747.249498	2578.466173
747.578286	2550.403750
747.907027	2557.545385
748.235720	2562.922615
748.564365	2577.037846
748.892963	2558.973712
749.221514	2567.711712
749.550017	2570.820423
749.878473	2573.593058
750.206881	2560.738115
750.535242	2565.527212
750.863555	2575.273442
751.191821	2576.029615
751.520039	2569.140038
751.848210	2568.803962
752.176334	2565.275154
752.504411	2563.510750
752.832440	2565.023096
753.160421	2570.064250
753.488356	2570.904442
753.816243	2571.072481
754.144082	2568.047788
754.471875	2566.451423
754.799620	2565.107115
755.127318	2558.637635
755.454969	2577.794019
755.782572	2589.388673
756.110129	2574.433250
756.437638	2563.510750
756.765100	2554.520692
757.092515	2570.484346
757.419882	2572.080712
757.747203	2566.871519
758.074477	2565.947308
758.401703	2583.591346
758.728882	2570.400327
759.056014	2582.499096
759.383099	2558.385577
759.710138	2563.174673
760.037129	2553.428442
760.364073	2558.469596
760.690970	2568.972000
761.017820	2560.234000
761.344623	2572.164731
761.671379	2556.453135
761.998088	2576.281673
762.324751	2565.443192
762.651366	2588.212404
762.977935	2568.719942
763.304456	2580.062538
763.630931	2569.476115
763.957359	2563.846827
764.283740	2566.535442
764.610074	2573.172962
764.936362	2572.752865
765.262602	2566.955538
765.588796	2571.576596
765.914943	2566.787500
766.241044	2564.350942
766.567097	2563.762808
766.893104	2564.266923
767.219064	2565.947308
767.544978	2571.408558
767.870845	2557.965481
768.196665	2549.395519
768.522438	2567.711712
768.848165	2558.301558
769.173846	2560.318019
769.499479	2568.299846
769.825066	2567.963769
770.150607	2563.930846
770.476101	2565.107115
770.801548	2538.473019
771.126949	2565.107115
771.452303	2556.957250
771.777611	2561.410269
772.102872	2560.570077
772.428087	2582.163019
772.753256	2570.232288
773.078378	2575.777558
773.403453	2557.965481
773.728482	2556.789212
774.053465	2553.848538
774.378401	2564.687019
774.703291	2557.629404
775.028135	2576.953827
775.352932	2566.535442
775.677683	2555.528923
776.002388	2564.266923
776.327046	2552.840308
776.651658	2561.494288
776.976224	2575.945596
777.300743	2550.235712
777.625216	2567.795731
777.949643	2572.080712
778.274024	2570.148269
778.598359	2565.527212
778.922647	2574.937365
779.246889	2555.024808
779.571086	2559.729885
779.895236	2572.416788
780.219339	2574.433250
780.543397	2557.881462
780.867409	2567.291615
781.191374	2575.609519
781.515294	2573.004923
781.839167	2570.484346
782.162995	2575.777558
782.486776	2547.631115
782.810511	2567.207596
783.134201	2560.149981
783.457844	2556.789212
783.781441	2566.871519
784.104993	2567.543673
784.428498	2570.568365
784.751958	2567.039558
785.075372	2571.828654
785.398739	2578.802250
785.722061	2546.538865
786.045337	2552.840308
786.368568	2558.217538
786.691752	2567.543673
787.014891	2563.426731
787.337983	2566.367404
787.661030	2554.856769
787.984031	2561.494288
788.306987	2555.192846
788.629897	2555.024808
788.952760	2557.881462
789.275579	2545.446615
789.598351	2560.234000
789.921078	2554.772750
790.243759	2559.393808
790.566395	2553.092365
790.888984	2561.410269
791.211529	2565.947308
791.534027	2573.341000
791.856480	2576.197654
792.178888	2570.064250
792.501249	2564.771038
792.823566	2572.836885
793.145836	2563.258692
793.468062	2556.117058
793.790241	2567.795731
794.112375	2558.721654
794.434464	2551.411981
794.756507	2552.420212
795.078505	2561.326250
795.400457	2561.662327
795.722364	2563.594769
796.044226	2560.654096
796.366042	2564.771038
796.687812	2572.836885
797.009538	2573.761096
797.331218	2562.754577
797.652852	2567.879750
797.974442	2565.695250
798.295986	2568.803962
798.617484	2568.215827
798.938938	2566.787500
799.260346	2550.739827
799.581709	2568.467885
799.903026	2573.845115
800.224299	2572.416788
800.545526	2558.805673
800.866708	2563.426731
801.187845	2560.065962
801.508936	2564.771038
801.829983	2575.609519
802.150984	2561.998404
802.471940	2569.476115
802.792851	2552.084135
803.113717	2574.013154
803.434538	2558.301558
803.755314	2561.578308
804.076045	2576.701769
804.396731	2558.721654
804.717372	2551.580019
805.037967	2557.041269
805.358518	2560.570077
805.679024	2571.996692
805.999485	2572.416788
806.319901	2561.998404
806.640272	2570.400327
806.960598	2559.897923
807.280879	2564.603000
807.601115	2555.780981
807.921306	2559.729885
808.241453	2569.728173
808.561554	2575.609519
808.881611	2557.125288
809.201623	2568.887981
809.521590	2554.856769
809.841513	2555.360885
810.161390	2553.596481
810.481223	2558.133519
810.801011	2575.441481
811.120755	2540.405462
811.440453	2559.477827
811.760107	2565.359173
812.079716	2560.234000
812.399281	2570.316308
812.718801	2571.240519
813.038276	2569.728173
813.357707	2563.174673
813.677093	2564.855058
813.996434	2575.105404
814.315731	2566.367404
814.634983	2570.484346
814.954191	2574.517269
815.273354	2563.678788
815.592473	2573.172962
815.911547	2565.863288
816.230577	2574.013154
816.549562	2559.477827
816.868502	2556.117058
817.187399	2574.685308
817.506250	2574.097173
817.825058	2568.215827
818.143821	2560.654096
818.462539	2557.713423
818.781213	2567.123577
819.099843	2579.390385
819.418429	2556.117058
819.736970	2569.140038
820.055466	2571.576596
820.373919	2567.879750
820.692327	2565.275154
821.010691	2577.541962
821.329011	2565.779269
821.647286	2574.265212
821.965517	2573.088942
822.283704	2573.172962
822.601847	2584.767615
822.919945	2575.609519
823.237999	2565.023096
823.556010	2568.215827
823.873976	2572.836885
824.191897	2589.136615
824.509775	2571.156500
824.827609	2560.738115
825.145398	2581.658904
825.463144	2558.301558
825.780845	2576.785788
826.098502	2559.645865
826.416116	2563.846827
826.733685	2550.487769
827.051210	2561.158212
827.368692	2553.344423
827.686129	2584.767615
828.003522	2584.011442
828.320872	2572.080712
828.638177	2556.789212
828.955439	2563.510750
829.272656	2573.677077
829.589830	2554.604712
829.906960	2558.217538
830.224046	2537.632827
830.541088	2564.182904
830.858086	2575.777558
831.175041	2578.130096
831.491952	2554.100596
831.808819	2556.033038
832.125642	2571.240519
832.442421	2553.092365
832.759157	2570.736404
833.075849	2580.062538
833.392497	2565.611231
833.709101	2570.064250
834.025662	2569.812192
834.342179	2561.326250
834.658653	2560.065962
834.975083	2562.586538
835.291469	2564.687019
835.607811	2560.990173
835.924110	2563.258692
836.240366	2553.428442
836.556578	2550.655808
836.872746	2553.092365
837.188871	2551.411981
837.504952	2553.848538
837.820990	2563.342712
838.136984	2562.922615
838.452935	2568.299846
838.768842	2563.342712
839.084706	2554.016577
839.400526	2567.627692
839.716303	2563.342712
840.032037	2556.957250
840.347727	2565.695250
840.663373	2558.721654
840.978977	2565.611231
841.294537	2570.568365
841.610054	2563.174673
841.925527	2561.746346
842.240957	2574.685308
842.556344	2557.461365
842.871687	2560.570077
843.186987	2569.644154
843.502244	2569.224058
843.817458	2561.326250
844.132629	2565.611231
844.447756	2562.250462
844.762840	2566.451423
845.077881	2559.477827
845.392879	2547.463077
845.707833	2564.771038
846.022745	2559.561846
846.337613	2573.509038
846.652438	2558.721654
846.967221	2551.748058
847.281960	2564.518981
847.596656	2561.998404
847.911309	2565.527212
848.225919	2569.980231
848.540485	2557.125288
848.855009	2559.897923
849.169490	2565.359173
849.483928	2562.754577
849.798323	2570.148269
850.112675	2565.779269
850.426984	2567.123577
850.741251	2557.629404
851.055474	2567.963769
851.369654	2552.420212
851.683792	2570.736404
851.997887	2563.174673
852.311938	2561.746346
852.625947	2575.021385
852.939914	2556.621173
853.253837	2565.443192
853.567718	2545.278577
853.881555	2569.224058
854.195350	2567.375635
854.509103	2565.023096
854.822812	2561.410269
855.136479	2580.314596
855.450103	2550.991885
855.763685	2562.670558
856.077224	2557.293327
856.390720	2565.023096
856.704173	2564.434962
857.017584	2561.830365
857.330953	2561.914385
857.644278	2574.433250
857.957561	2569.476115
858.270802	2551.916096
858.584000	2567.795731
858.897155	2560.990173
859.210268	2567.543673
859.523339	2581.658904
859.836367	2557.209308
860.149352	2577.878038
860.462295	2579.222346
860.775195	2574.181192
861.088054	2567.207596
861.400869	2564.518981
861.713642	2582.835173
862.026373	2557.377346
862.339062	2546.202788
862.651708	2557.797442
862.964312	2571.996692
863.276873	2556.453135
863.589392	2571.072481
863.901869	2556.873231
864.214303	2559.309788
864.526696	2562.670558
864.839045	2567.039558
865.151353	2570.064250
865.463619	2573.425019
865.775842	2552.420212
866.088023	2573.004923
866.400162	2571.072481
866.712258	2561.662327
867.024313	2559.309788
867.336325	2581.490865
867.648296	2566.283385
867.960224	2573.256981
868.272110	2582.667135
868.583954	2553.092365
868.895755	2573.929135
869.207515	2561.578308
869.519233	2550.151692
869.830909	2555.192846
870.142542	2558.217538
870.454134	2556.201077
870.765684	2563.090654
871.077191	2563.930846
871.388657	2566.283385
871.700081	2552.756288
872.011463	2564.603000
872.322803	2562.754577
872.634101	2559.057731
872.945357	2573.088942
873.256571	2561.746346
873.567744	2567.291615
873.878874	2542.673981
874.189963	2563.594769
874.501010	2565.863288
874.812015	2572.668846
875.122979	2557.377346
875.433900	2551.243942
875.744780	2550.487769
876.055618	2565.527212
876.366415	2550.907865
876.677169	2560.486058
876.987882	2557.209308
877.298554	2570.988462
877.609183	2557.713423
877.919771	2544.438385
878.230317	2549.311500
878.540822	2588.044365
878.851285	2561.410269
879.161707	2577.878038
879.472087	2560.318019
879.782425	2571.912673
880.092722	2585.943885
880.402977	2562.754577
880.713191	2554.016577
881.023363	2578.550192
881.333494	2568.047788
881.643583	2564.687019
881.953631	2574.517269
882.263637	2566.619462
882.573602	2568.635923
882.883526	2573.929135
883.193408	2573.341000
883.503248	2552.084135
883.813048	2566.703481
884.122806	2558.805673
884.432522	2566.199365
884.742197	2569.476115
885.051831	2558.217538
885.361424	2570.568365
885.670975	2572.500808
885.980485	2563.762808
886.289954	2562.754577
886.599382	2563.846827
886.908768	2564.266923
887.218113	2551.411981
887.527417	2578.802250
887.836680	2562.586538
888.145901	2568.887981
888.455082	2564.014865
888.764221	2563.090654
889.073319	2567.039558
889.382376	2576.785788
889.691392	2559.981942
890.000366	2573.341000
890.309300	2578.130096
890.618193	2571.828654
890.927044	2570.232288
891.235855	2565.779269
891.544625	2564.182904
891.853353	2576.617750
892.162041	2564.266923
892.470687	2557.881462
892.779293	2562.586538
893.087858	2553.260404
893.396381	2561.662327
893.704864	2552.336192
894.013306	2570.232288
894.321707	2552.168154
894.630068	2552.168154
894.938387	2563.930846
895.246665	2558.385577
895.554903	2554.184615
895.863100	2566.451423
896.171256	2540.405462
896.479371	2561.998404
896.787446	2568.047788
897.095480	2563.258692
897.403473	2543.514173
897.711425	2566.031327
898.019336	2545.026519
898.327207	2571.240519
898.635038	2550.487769
898.942827	2570.148269
899.250576	2569.392096
899.558284	2574.937365
899.865952	2546.874942
900.173579	2560.822135
900.481165	2573.509038
900.788711	2558.721654
901.096216	2558.973712
901.403681	2558.217538
901.711105	2585.187712
902.018489	2556.201077
902.325832	2569.644154
902.633135	2564.434962
902.940397	2564.434962
903.247619	2558.973712
903.554800	2558.469596
903.861941	2552.504231
904.169041	2557.713423
904.476101	2566.619462
904.783121	2555.949019
905.090100	2575.021385
905.397039	2555.949019
905.703938	2569.392096
906.010796	2561.578308
906.317614	2571.072481
906.624391	2578.298135
906.931129	2559.729885
907.237826	2566.199365
907.544483	2567.543673
907.851099	2560.065962
908.157675	2558.721654
908.464211	2578.130096
908.770707	2570.232288
909.077163	2558.217538
909.383578	2549.227481
909.689954	2563.762808
909.996289	2553.764519
910.302584	2549.395519
910.608839	2557.545385
910.915054	2555.612942
911.221229	2573.929135
911.527363	2568.719942
911.833458	2558.385577
912.139513	2561.662327
912.445527	2568.972000
912.751502	2582.415077
913.057436	2556.201077
913.363331	2557.041269
913.669186	2561.410269
913.975000	2569.812192
914.280775	2562.586538
914.586510	2560.906154
914.892205	2574.937365
915.197859	2557.209308
915.503475	2566.703481
915.809050	2582.247038
916.114585	2559.897923
916.420081	2569.560135
916.725536	2549.563558
917.030952	2562.754577
917.336328	2550.487769
917.641665	2572.164731
917.946961	2552.168154
918.252218	2561.998404
918.557435	2560.318019
918.862612	2557.713423
919.167750	2562.670558
919.472848	2556.705192
919.777906	2563.174673
920.082925	2555.024808
920.387904	2554.184615
920.692843	2573.004923
920.997743	2543.766231
921.302603	2580.902731
921.607423	2572.584827
921.912204	2565.779269
922.216946	2554.100596
922.521647	2574.601288
922.826310	2555.192846
923.130932	2567.627692
923.435516	2564.014865
923.740059	2559.729885
924.044564	2562.334481
924.349028	2563.846827
924.653454	2575.021385
924.957840	2559.645865
925.262186	2545.194558
925.566493	2568.131808
925.870761	2560.234000
926.174989	2546.874942
926.479178	2560.486058
926.783328	2555.780981
927.087438	2559.057731
927.391509	2552.588250
927.695541	2560.738115
927.999533	2566.619462
928.303486	2557.293327
928.607400	2562.586538
928.911275	2561.830365
929.215110	2567.291615
929.518906	2553.512462
929.822663	2572.584827
930.126381	2541.749769
930.430060	2555.528923
930.733699	2564.855058
931.037299	2552.168154
931.340861	2568.972000
931.644383	2547.631115
931.947866	2547.967192
932.251309	2552.168154
932.554714	2574.769327
932.858080	2557.377346
933.161407	2563.846827
933.464694	2570.064250
933.767943	2554.940788
934.071153	2556.369115
934.374323	2571.912673
934.677455	2549.311500
934.980548	2565.779269
935.283602	2556.537154
935.586617	2573.088942
935.889593	2542.842019
936.192530	2562.418500
936.495428	2544.606423
936.798287	2577.541962
937.101108	2569.140038
937.403890	2556.705192
937.706632	2545.782692
938.009336	2579.894500
938.312002	2567.207596
938.614628	2559.561846
938.917216	2559.393808
939.219765	2558.805673
939.522275	2555.024808
939.824747	2560.990173
940.127179	2556.873231
940.429573	2561.326250
940.731929	2573.256981
941.034246	2567.291615
941.336524	2544.522404
941.638763	2562.586538
941.940964	2555.444904
942.243126	2566.031327
942.545250	2564.350942
942.847335	2549.143462
943.149381	2564.182904
943.451389	2574.097173
943.753359	2556.201077
944.055290	2569.980231
944.357182	2549.815615
944.659036	2562.922615
944.960851	2548.723365
945.262628	2560.738115
945.564367	2549.815615
945.866067	2561.746346
946.167729	2561.410269
946.469352	2548.051212
946.770937	2560.822135
947.072484	2563.006635
947.373992	2560.738115
947.675462	2567.795731
947.976893	2583.423308
948.278286	2554.772750
948.579641	2552.924327
948.880958	2553.344423
949.182236	2562.166442
949.483476	2542.001827
949.784678	2557.713423
950.085841	2562.250462
950.386967	2554.184615
950.688054	2558.805673
950.989103	2560.149981
951.290114	2553.848538
951.591087	2558.637635
951.892021	2568.972000
952.192917	2556.201077
952.493776	2561.830365
952.794596	2574.349231
953.095378	2561.326250
953.396122	2567.879750
953.696828	2564.855058
953.997496	2565.695250
954.298126	2560.318019
954.598718	2567.879750
954.899272	2552.420212
955.199788	2562.670558
955.500266	2563.426731
955.800706	2541.077615
956.101108	2544.606423
956.401472	2570.484346
956.701798	2556.285096
957.002087	2559.141750
957.302337	2556.117058
957.602550	2551.075904
957.902724	2541.245654
958.202861	2554.856769
958.502960	2559.477827
958.803022	2554.184615
959.103045	2558.049500
959.403031	2563.762808
959.702979	2568.215827
960.002889	2555.192846
960.302762	2562.502519
960.602596	2552.000115
960.902393	2558.217538
961.202153	2557.041269
961.501875	2551.496000
961.801559	2558.553615
962.101205	2563.846827
962.400814	2554.436673
962.700385	2561.158212
962.999918	2559.897923
963.299414	2549.059442
963.598873	2575.609519
963.898293	2548.051212
964.197677	2566.955538
964.497022	2571.576596
964.796331	2566.703481
965.095601	2554.856769
965.394835	2562.250462
965.694030	2571.660615
965.993189	2560.654096
966.292309	2554.940788
966.591393	2543.262115
966.890439	2547.547096
967.189447	2569.896212
967.488419	2553.344423
967.787353	2557.125288
968.086249	2552.504231
968.385108	2568.467885
968.683930	2559.141750
968.982714	2557.461365
969.281462	2561.662327
969.580172	2572.080712
969.878844	2566.115346
970.177480	2553.008346
970.476078	2556.285096
970.774639	2571.072481
971.073162	2555.528923
971.371649	2560.234000
971.670098	2559.897923
971.968510	2556.117058
972.266885	2557.293327
972.565223	2557.293327
972.863524	2568.215827
973.161788	2566.787500
973.460014	2547.463077
973.758204	2561.914385
974.056356	2554.016577
974.354471	2560.738115
974.652550	2560.149981
974.950591	2553.008346
975.248595	2545.110538
975.546563	2561.662327
975.844493	2555.276865
976.142386	2555.865000
976.440243	2558.805673
976.738062	2548.555327
977.035845	2563.090654
977.333590	2569.392096
977.631299	2541.581731
977.928971	2574.769327
978.226606	2579.642442
978.524204	2548.387288
978.821765	2574.769327
979.119290	2551.916096
979.416777	2548.975423
979.714228	2558.133519
980.011642	2568.887981
980.309020	2558.133519
980.606360	2538.389000
980.903664	2569.644154
981.200931	2546.034750
981.498162	2546.790923
981.795356	2556.033038
982.092513	2562.922615
982.389633	2557.461365
982.686717	2559.729885
982.983764	2558.217538
983.280775	2572.836885
983.577749	2566.619462
983.874686	2553.176385
984.171587	2560.654096
984.468451	2572.080712
984.765279	2565.107115
985.062070	2553.932558
985.358824	2562.586538
985.655543	2561.410269
985.952224	2555.780981
986.248869	2534.020000
986.545478	2546.790923
986.842050	2552.756288
987.138586	2559.141750
987.435086	2566.871519
987.731549	2569.812192
988.027975	2569.476115
988.324366	2558.385577
988.620719	2543.346135
988.917037	2552.588250
989.213318	2553.176385
989.509563	2566.451423
989.805772	2554.604712
990.101944	2554.856769
990.398080	2553.680500
990.694180	2563.006635
990.990244	2553.428442
991.286271	2556.873231
991.582262	2549.143462
991.878217	2551.580019
992.174136	2547.463077
992.470019	2543.766231
992.765865	2554.016577
993.061676	2543.934269
993.357450	2558.217538
993.653188	2551.243942
993.948890	2542.001827
994.244556	2575.105404
994.540186	2558.469596
994.835780	2555.276865
995.131337	2566.535442
995.426859	2549.395519
995.722345	2556.033038
996.017795	2575.273442
996.313208	2566.115346
996.608586	2555.360885
996.903928	2568.467885
997.199234	2557.377346
997.494504	2564.687019
997.789738	2558.049500
998.084936	2565.023096
998.380099	2569.308077
998.675225	2557.377346
998.970316	2555.360885
999.265371	2549.899635
999.560390	2545.614654
999.855373	2565.107115
1000.150320	2549.059442
1000.445232	2569.560135
1000.740108	2560.149981
1001.034948	2556.033038
1001.329752	2557.881462
1001.624521	2556.873231
1001.919254	2550.319731
1002.213951	2561.494288
1002.508613	2544.270346
1002.803239	2560.149981
1003.097829	2558.721654
1003.392384	2550.739827
1003.686903	2564.098885
1003.981386	2556.285096
1004.275834	2550.991885
1004.570246	2551.916096
1004.864623	2568.887981
1005.158964	2557.377346
1005.453270	2564.518981
1005.747540	2551.916096
1006.041775	2549.647577
1006.335974	2566.451423
1006.630138	2561.410269
1006.924266	2558.469596
1007.218359	2562.166442
1007.512416	2559.981942
1007.806438	2547.715135
1008.100425	2545.194558
1008.394376	2543.766231
1008.688292	2547.883173
1008.982172	2568.972000
1009.276017	2543.850250
1009.569827	2553.092365
1009.863602	2564.518981
1010.157341	2563.174673
1010.451045	2563.006635
1010.744714	2558.301558
1011.038347	2559.813904
1011.331945	2561.746346
1011.625508	2561.914385
1011.919036	2553.512462
1012.212528	2549.143462
1012.505986	2563.090654
1012.799408	2567.039558
1013.092795	2558.637635
1013.386147	2553.260404
1013.679464	2575.777558
1013.972745	2553.932558
1014.265992	2552.504231
1014.559204	2548.135231
1014.852380	2569.896212
1015.145521	2564.603000
1015.438628	2565.191135
1015.731699	2544.354365
1016.024736	2564.098885
1016.317737	2567.543673
1016.610703	2563.426731
1016.903635	2544.942500
1017.196531	2556.033038
1017.489393	2556.201077
1017.782219	2559.813904
1018.075011	2553.764519
1018.367768	2555.780981
1018.660490	2560.906154
1018.953177	2560.906154
1019.245829	2560.906154
