Dividing Wavelength (nm)	Counts (n)	Slit_number_14_of_a_total_of_40	
326.493990	2041.364838
326.888308	2041.364838
327.282561	2041.364838
327.676750	2017.545387
328.070874	2023.619977
328.464933	2028.686337
328.858929	2039.121525
329.252859	2047.389017
329.646726	2056.059802
330.040528	2077.232648
330.434265	2091.448702
330.827938	2107.529983
331.221547	2132.508900
331.615091	2156.252735
332.008571	2172.535662
332.401986	2198.648838
332.795338	2216.897815
333.188625	2234.642677
333.581847	2259.243508
333.975006	2264.990423
334.368100	2289.036727
334.761129	2311.469862
335.154095	2316.258958
335.546996	2333.676144
335.939833	2350.740450
336.332606	2373.652494
336.725315	2370.703419
337.117960	2387.314021
337.510540	2403.017215
337.903056	2408.789337
338.295508	2421.417427
338.687896	2424.038827
339.080220	2425.702408
339.472480	2427.970927
339.864676	2438.330498
340.256807	2441.859306
340.648875	2442.867537
341.040879	2441.934923
341.432818	2448.891715
341.824694	2449.194185
342.216506	2442.539862
342.608253	2442.489450
342.999937	2443.900973
343.391557	2438.607762
343.783113	2438.456527
344.174605	2434.297575
344.566033	2431.046031
344.957397	2442.716302
345.348697	2433.188521
345.739934	2439.137083
346.131106	2434.499221
346.522215	2431.776998
346.913260	2432.331525
347.304241	2428.777512
347.695159	2427.139137
348.086012	2427.113931
348.476802	2421.997160
348.867528	2423.257448
349.258191	2418.619587
349.648789	2408.537279
350.039324	2420.182344
350.429796	2420.081521
350.820203	2416.124215
351.210548	2413.099523
351.600828	2409.621127
351.991045	2416.426685
352.381198	2418.342323
352.771288	2418.417940
353.161314	2409.822773
353.551276	2416.905594
353.941175	2419.854669
354.331010	2420.333579
354.720782	2408.915365
355.110490	2411.738412
355.500135	2405.890673
355.889717	2411.309913
356.279235	2415.267219
356.668689	2418.871644
357.058080	2413.931313
357.447408	2416.577919
357.836672	2415.947775
358.225873	2418.039854
358.615010	2409.469892
359.004084	2412.141704
359.393095	2413.679256
359.782043	2411.914852
360.170927	2421.845925
360.559748	2420.207550
360.948505	2410.679769
361.337199	2426.080494
361.725830	2424.341296
362.114398	2420.484813
362.502903	2418.669998
362.891344	2410.301683
363.279722	2424.719383
363.668037	2419.048085
364.056289	2425.475556
364.444478	2426.987902
364.832603	2415.569688
365.220665	2433.289344
365.608665	2424.542942
365.996601	2437.801177
366.384474	2419.350554
366.772284	2434.146340
367.160031	2428.273396
367.547715	2428.248190
367.935336	2423.559917
368.322893	2420.686460
368.710388	2420.232756
369.097820	2420.888106
369.485189	2421.745102
369.872495	2433.213727
370.259738	2427.416400
370.646918	2420.131933
371.034035	2434.020312
371.421090	2426.382963
371.808081	2428.575865
372.195010	2422.904567
372.581875	2426.609815
372.968678	2435.532658
373.355418	2425.551173
373.742096	2436.692123
374.128710	2429.206010
374.515262	2431.852615
374.901751	2427.996133
375.288177	2434.247163
375.674540	2429.735331
376.060841	2438.532144
376.447079	2422.022365
376.833254	2434.852102
377.219367	2427.164342
377.605417	2433.566608
377.991404	2435.179777
378.377329	2435.557863
378.763191	2439.237906
379.148991	2433.869077
379.534727	2439.011054
379.920402	2437.473502
380.306013	2436.112390
380.691563	2435.003337
381.077049	2434.902513
381.462474	2434.474015
381.847835	2433.289344
382.233134	2434.272369
382.618371	2438.280087
383.003545	2436.389654
383.388657	2432.230702
383.773706	2433.415373
384.158693	2436.540888
384.543618	2441.834100
384.928480	2433.037287
385.313280	2435.104160
385.698017	2439.691610
386.082692	2443.598504
386.467305	2430.264652
386.851856	2437.171033
387.236344	2446.547579
387.620770	2441.329985
388.005133	2441.556837
388.389435	2443.043977
388.773674	2435.356217
389.157851	2439.489963
389.541965	2441.430808
389.926018	2440.296548
390.310008	2440.422577
390.693936	2439.187494
391.077802	2434.952925
391.461606	2439.489963
391.845348	2442.111363
392.229027	2443.069183
392.612645	2442.035746
392.996200	2445.136056
393.379694	2438.733790
393.763125	2443.976590
394.146494	2440.951898
394.529801	2437.171033
394.913047	2434.927719
395.296230	2448.438012
395.679351	2447.959102
396.062410	2444.581529
396.445408	2447.228135
396.828343	2448.664863
397.211217	2441.758483
397.594028	2448.538835
397.976778	2454.638631
398.359466	2444.253854
398.742092	2445.539348
399.124656	2444.178237
399.507158	2451.059412
399.889598	2451.487910
400.271977	2450.454473
400.654294	2450.202415
401.036549	2444.732763
401.418742	2447.429781
401.800874	2444.001796
402.182944	2451.135029
402.564952	2450.000769
402.946898	2449.244596
403.328783	2445.236879
403.710606	2461.923098
404.092367	2445.816612
404.474067	2448.816098
404.855705	2451.210646
405.237282	2456.201388
405.618797	2453.075873
406.000250	2450.202415
406.381642	2446.194698
406.762972	2447.505398
407.144240	2454.159721
407.525447	2447.959102
407.906593	2448.185954
408.287677	2459.074846
408.668700	2444.027002
409.049661	2458.469908
409.430560	2450.353650
409.811399	2454.084104
410.192176	2455.646862
410.572891	2444.052208
410.953545	2459.931842
411.334138	2450.656119
411.714669	2464.821762
412.095139	2452.647375
412.475547	2459.629373
412.855894	2455.898919
413.236180	2451.941613
413.616405	2451.109823
413.996568	2453.050667
414.376670	2457.915381
414.756711	2457.033179
415.136691	2469.384006
415.516609	2449.975563
415.896466	2455.848508
416.276262	2459.654579
416.655997	2459.251287
417.035670	2464.267235
417.415283	2464.116000
417.794834	2452.370112
418.174324	2463.737913
418.553753	2463.057358
418.933121	2463.763119
419.312428	2459.125258
419.691674	2453.227108
420.070859	2458.822788
420.449983	2460.461163
420.829045	2463.964765
421.208047	2467.443162
421.586988	2457.360854
421.965867	2459.881431
422.344686	2463.939560
422.723444	2457.990998
423.102141	2458.898406
423.480777	2463.057358
423.859352	2461.923098
424.237866	2466.208079
424.616319	2453.176696
424.994712	2452.168465
425.373044	2462.553242
425.751314	2458.595937
426.129524	2464.292440
426.507673	2463.788325
426.885762	2450.051181
427.263789	2464.065588
427.641756	2462.729683
428.019662	2461.343365
428.397508	2457.864969
428.775292	2472.660756
429.153016	2464.418469
429.530679	2470.619088
429.908282	2466.560960
430.285824	2467.745631
430.663305	2468.577421
431.040726	2464.544498
431.418086	2468.678244
431.795385	2471.198821
432.172624	2468.552215
432.549802	2470.871146
432.926920	2470.014150
433.303977	2472.156640
433.680974	2463.737913
434.057910	2463.687502
434.434786	2475.282156
434.811601	2468.930302
435.188355	2469.988944
435.565050	2473.416929
435.941683	2462.502831
436.318257	2469.459623
436.694770	2469.459623
437.071222	2474.198308
437.447614	2477.827938
437.823946	2474.349542
438.200218	2481.709627
438.576429	2484.583085
438.952580	2480.172075
439.328670	2470.114973
439.704700	2483.247179
440.080670	2478.130408
440.456580	2482.793475
440.832429	2483.700883
441.208218	2481.432363
441.583947	2479.063021
441.959616	2481.684421
442.335224	2486.322283
442.710773	2478.735346
443.086261	2499.555312
443.461689	2488.212715
443.837057	2485.238435
444.212365	2488.086687
444.587612	2487.582571
444.962800	2487.935452
445.337927	2495.976092
445.712995	2491.439054
446.088002	2499.555312
446.462949	2499.504900
446.837837	2498.143788
447.212664	2509.360356
447.587431	2515.132477
447.962139	2521.660771
448.336786	2525.189579
448.711374	2528.869621
449.085901	2526.525485
449.460369	2522.820237
449.834776	2524.761081
450.209124	2533.734335
450.583412	2538.120138
450.957640	2556.343910
451.331808	2550.647406
451.705917	2555.638148
452.079965	2550.622200
452.453954	2565.266752
452.827883	2580.087744
453.201752	2581.902560
453.575562	2591.682398
453.949311	2606.352156
454.323001	2609.578494
454.696632	2630.423665
455.070202	2652.100627
455.443713	2669.921106
455.817164	2687.287881
456.190556	2710.754452
456.563888	2723.836246
456.937160	2756.578540
457.310373	2753.251379
457.683526	2771.676796
458.056619	2799.932463
458.429653	2826.877431
458.802628	2860.627956
459.175542	2888.908829
459.548398	2954.847121
459.921194	3024.162987
460.293930	3079.363621
460.666607	3194.528781
461.039224	3301.502065
461.411782	3368.070502
461.784280	3387.453738
462.156719	3416.591608
462.529099	3457.626600
462.901419	3464.558187
463.273680	3486.537617
463.645882	3556.130746
464.018024	3633.462046
464.390106	3742.678644
464.762130	3963.279537
465.134094	4292.718940
465.505999	4730.215477
465.877845	5142.531450
466.249631	5363.636458
466.621358	5364.821129
466.993026	5336.540256
467.364634	5341.152912
467.736184	5343.799517
468.107674	5385.565477
468.479105	5477.516123
468.850477	5559.006375
469.221790	5601.352067
469.593043	5609.796000
469.964238	5672.457542
470.335373	5799.645854
470.706449	6125.127952
471.077467	6580.697025
471.448425	7311.664333
471.819324	7904.781288
472.190164	7944.077083
472.560945	7704.244188
472.931667	7464.260060
473.302330	7499.598548
473.672934	7578.795075
474.043479	7844.564706
474.413965	7925.172756
474.784393	8063.804487
475.154761	8408.619410
475.525070	8636.151888
475.895321	8747.611800
476.265513	9075.916944
476.635645	9482.914500
477.005719	9661.270523
477.375734	9964.017017
477.745691	10353.370535
478.115588	10865.274502
478.485427	11512.054540
478.855207	12525.023994
479.224928	13498.218744
479.594591	14281.866110
479.964194	14330.866125
480.333739	14743.459362
480.703226	15009.909548
481.072653	15504.648387
481.442022	15956.613035
481.811333	16374.953187
482.180584	16295.529808
482.549777	16445.050431
482.918912	16598.805623
483.287988	16772.170904
483.657005	16824.372052
484.025964	16912.491421
484.394864	17228.244092
484.763706	17383.763688
485.132489	17344.896392
485.501213	17565.093992
485.869879	17892.012819
486.238487	18049.120379
486.607036	18381.861738
486.975527	18412.486748
487.343959	18781.675650
487.712333	19112.224108
488.080648	19268.953581
488.448905	19741.939840
488.817104	19901.618388
489.185244	20532.216323
489.553326	21356.394565
489.921350	22727.538000
490.289315	24399.965994
490.657222	25042.385435
491.025070	25540.930344
491.392861	25413.515181
491.760593	25095.645225
492.128267	24521.961917
492.495883	24046.203023
492.863440	23515.142671
493.230939	23024.739225
493.598380	22677.126462
493.965763	22676.874404
494.333088	22344.284279
494.700354	22264.659254
495.067563	22215.835679
495.434713	22242.604206
495.801805	22394.519377
496.168839	22275.976644
496.535815	22191.083613
496.902733	22300.300212
497.269593	22111.156119
497.636395	22159.878871
498.003139	22406.315677
498.369825	22147.578456
498.736453	22365.885623
499.103023	22150.754383
499.469535	22110.173094
499.835989	22131.648410
500.202385	21935.824788
500.568723	21928.968819
500.935003	21948.578908
501.301226	21809.342238
501.667390	22095.326896
502.033497	22175.254390
502.399546	21883.800081
502.765537	21485.145635
503.131470	21583.876633
503.497345	21712.098381
503.863163	20947.355342
504.228923	21115.679469
504.594625	21237.877038
504.960269	20756.245200
505.325856	20957.563679
505.691385	20537.912827
506.056856	20493.550673
506.422270	20551.347502
506.787625	20211.523321
507.152924	20131.621033
507.518164	19987.973354
507.883347	19478.489140
508.248472	19396.469567
508.613540	19460.139340
508.978550	19409.324510
509.343503	19107.132542
509.708398	18982.464808
510.073236	19024.734883
510.438016	18813.082038
510.802738	18358.420373
511.167403	18387.154950
511.532010	18266.016023
511.896561	18192.314354
512.261053	18291.952760
512.625488	17866.202112
512.989866	17572.554900
513.354186	17294.812529
513.718449	17027.959050
514.082655	17025.287238
514.446803	16668.575192
514.810894	16610.828775
515.174927	16336.942887
515.538904	16050.252467
515.902822	16024.114085
516.266684	15596.473004
516.630488	15469.612367
516.994235	15177.200238
517.357925	15106.447644
517.721558	14922.143060
518.085133	14756.969654
518.448651	14542.922262
518.812112	14215.297673
519.175516	14007.576929
519.538863	13848.805788
519.902152	13591.303650
520.265385	13482.540756
520.628560	13225.164646
520.991678	12943.868262
521.354739	12750.993715
521.717743	12581.258065
522.080690	12322.142758
522.443580	12213.077394
522.806413	12011.834533
523.169189	11756.852971
523.531908	11571.388921
523.894569	11337.176913
524.257174	11148.385702
524.619722	10971.970523
524.982213	10793.916969
525.344647	10573.643752
525.707025	10373.736796
526.069345	10249.724412
526.431608	10056.623013
526.793815	9891.726871
527.155964	9632.510740
527.518057	9437.040000
527.880093	9239.426769
528.242072	9140.620154
528.603995	8933.932846
528.965860	8766.364892
529.327669	8604.165767
529.689421	8424.272192
530.051117	8256.502592
530.412755	8095.815813
530.774337	7962.275648
531.135862	7771.064683
531.497331	7667.494177
531.858743	7503.807912
532.220098	7381.963223
532.581396	7203.380348
532.942638	7042.265071
533.303824	6943.483662
533.664953	6810.296377
534.026025	6634.612165
534.387040	6556.323046
534.747999	6434.352329
535.108902	6323.850237
535.469748	6175.892371
535.830537	6061.659825
536.191270	5956.551767
536.551947	5815.676723
536.912567	5740.613942
537.273131	5635.531090
537.633638	5492.286704
537.994089	5426.550058
538.354483	5289.229027
538.714821	5251.243933
539.075103	5175.525802
539.435328	5078.836471
539.795497	4986.230475
540.155609	4889.994848
540.515665	4820.678983
540.875665	4719.805494
541.235609	4644.969565
541.595496	4572.150098
541.955328	4529.350702
542.315102	4430.468469
542.674821	4345.398998
543.034483	4281.729225
543.394090	4217.857806
543.753640	4148.567146
544.113134	4120.437508
544.472571	4038.846433
544.831953	4017.723998
545.191278	3939.208027
545.550548	3882.394223
545.909761	3838.737831
546.268918	3798.080925
546.628019	3762.994494
546.987064	3697.106613
547.346053	3638.780463
547.704986	3609.163685
548.063863	3568.078281
548.422684	3526.337527
548.781449	3500.224350
549.140158	3468.540698
549.498811	3426.169800
549.857408	3386.495919
550.215949	3371.322046
550.574434	3338.050431
550.932864	3314.861123
551.291237	3281.110598
551.649555	3261.954213
552.007817	3234.177456
552.366022	3216.205742
552.724173	3182.959333
553.082267	3173.456758
553.440305	3154.375990
553.798288	3125.389356
554.156215	3106.636263
554.514086	3092.117740
554.871902	3067.315263
555.229661	3054.233469
555.587365	3034.547763
555.945014	3025.927390
556.302606	3010.451048
556.660143	2997.621312
557.017625	2990.135198
557.375050	2970.096612
557.732421	2960.921712
558.089735	2940.933537
558.446994	2935.161415
558.804197	2923.163469
559.161345	2912.551840
559.518437	2888.051833
559.875474	2886.690721
560.232455	2878.120760
560.589381	2861.207688
560.946251	2850.898529
561.303065	2842.126921
561.659825	2832.422700
562.016528	2819.643375
562.373177	2811.350677
562.729770	2811.300265
563.086307	2798.974644
563.442789	2789.673715
563.799216	2786.699435
564.155587	2764.593975
564.511904	2769.131013
564.868164	2751.310535
565.224370	2753.251379
565.580520	2742.135635
565.936615	2743.547158
566.292654	2718.996738
566.648638	2726.508058
567.004567	2719.097562
567.360441	2714.283260
567.716260	2704.453010
568.072023	2706.141796
568.427732	2694.975640
568.783385	2689.405165
569.138982	2680.331088
569.494525	2683.658250
569.850013	2667.173677
570.205445	2660.746206
570.560823	2657.696308
570.916145	2655.024496
571.271412	2656.284785
571.626625	2641.564615
571.981782	2644.286838
572.336884	2637.859367
572.691931	2625.231277
573.046923	2624.575927
573.401860	2626.819240
573.756743	2625.886627
574.111570	2616.434463
574.466342	2613.939092
574.821059	2613.888681
575.175722	2615.980760
575.530330	2606.301744
575.884882	2598.210692
576.239380	2600.731269
576.593823	2598.437544
576.948211	2594.581062
577.302544	2596.521906
577.656823	2580.919535
578.011047	2576.911817
578.365216	2589.439085
578.719330	2577.794019
579.073389	2582.154617
579.427394	2574.416446
579.781344	2572.047104
580.135239	2573.080540
580.489080	2563.830023
580.842866	2567.560477
581.196597	2573.811508
581.550273	2558.889692
581.903895	2552.361398
582.257463	2561.233829
582.610975	2561.460681
582.964434	2560.654096
583.317837	2553.167983
583.671186	2561.964796
584.024481	2549.185471
584.377721	2545.026519
584.730906	2548.404092
585.084037	2549.437529
585.437113	2545.606252
585.790135	2545.455017
586.143103	2539.909748
586.496016	2541.598535
586.848874	2543.161292
587.201679	2545.581046
587.554428	2542.253885
587.907124	2540.590304
588.259765	2527.483304
588.612352	2541.195242
588.964884	2534.162833
589.317362	2543.161292
589.669786	2531.793490
590.022155	2532.196783
590.374470	2533.583100
590.726731	2527.105217
591.078937	2527.584127
591.431090	2533.179808
591.783188	2526.802748
592.135232	2530.281144
592.487222	2530.104704
592.839157	2530.155115
593.191038	2525.693694
593.542866	2521.963240
593.894639	2525.718900
594.246358	2523.878879
594.598022	2514.956037
594.949633	2528.718387
595.301190	2521.887623
595.652692	2522.442150
596.004141	2514.325892
596.355535	2523.702438
596.706876	2522.769825
597.058162	2509.486385
597.409395	2524.181348
597.760573	2514.830008
598.111698	2523.047088
598.462768	2515.485358
598.813785	2513.695748
599.164748	2512.964781
599.515657	2514.577950
599.866511	2520.702952
600.217312	2518.610873
600.568060	2513.897394
600.918753	2515.334123
601.269392	2519.896367
601.619978	2514.477127
601.970510	2507.016219
602.320988	2516.644823
602.671412	2516.367560
603.021783	2504.571260
603.372100	2509.864471
603.722363	2511.528052
604.072572	2515.989473
604.422728	2504.772906
604.772830	2509.335150
605.122878	2514.603156
605.472872	2513.292456
605.822813	2508.125273
606.172701	2500.135044
606.522534	2509.209121
606.872314	2504.243585
607.222041	2505.705519
607.571714	2507.217865
607.921333	2499.908192
608.270899	2501.193687
608.620411	2505.377844
608.969870	2503.966321
609.319276	2505.377844
609.668627	2509.335150
610.017926	2507.142248
610.367171	2506.688544
610.716362	2508.856240
611.065500	2503.915910
611.414585	2506.310458
611.763616	2509.713237
612.112594	2505.503873
612.461518	2506.890190
612.810389	2509.814060
613.159207	2505.907165
613.507971	2507.923627
613.856682	2508.931858
614.205340	2504.898935
614.553945	2507.469923
614.902496	2500.891217
615.250994	2503.058913
615.599439	2500.866012
615.947830	2506.789367
616.296169	2505.277021
616.644454	2508.301713
616.992686	2503.638646
617.340864	2496.354179
617.688990	2503.285765
618.037063	2501.975065
618.385082	2507.243071
618.733048	2497.034735
619.080961	2501.899448
619.428821	2511.855727
619.776628	2499.933398
620.124382	2503.058913
620.472083	2513.418485
620.819731	2508.982269
621.167326	2503.764675
621.514868	2511.023937
621.862357	2504.142762
622.209793	2500.462719
622.557176	2504.722494
622.904506	2498.824344
623.251783	2499.656135
623.599007	2503.184942
623.946179	2500.059427
624.293297	2502.151506
624.640363	2494.942656
624.987376	2489.876296
625.334336	2497.362410
625.681243	2483.171562
626.028097	2498.345435
626.374899	2494.867038
626.721647	2505.478667
627.068343	2504.722494
627.414987	2503.462206
627.761577	2490.934938
628.108115	2495.270331
628.454600	2495.547594
628.801032	2494.362923
629.147412	2494.539363
629.493739	2496.782677
629.840014	2498.370640
630.186236	2496.681854
630.532405	2492.371667
630.878521	2496.833088
631.224585	2489.750267
631.570597	2503.462206
631.916556	2494.942656
632.262462	2493.531133
632.608316	2495.219919
632.954117	2492.749754
633.299866	2499.530106
633.645562	2501.017246
633.991206	2494.690598
634.336797	2490.909733
634.682336	2504.974552
635.027823	2494.438540
635.373257	2492.270844
635.718639	2494.236894
636.063968	2494.161277
636.409245	2490.330000
636.754470	2498.370640
637.099642	2499.731752
637.444762	2489.346975
637.789829	2502.605210
638.134845	2490.607263
638.479808	2490.103148
638.824719	2496.102121
639.169577	2489.372181
639.514383	2489.447798
639.859137	2493.052223
640.203839	2486.574340
640.548489	2496.959117
640.893086	2488.464773
641.237632	2486.549135
641.582125	2489.498210
641.926566	2494.463746
642.270955	2490.607263
642.615292	2488.767242
642.959576	2490.128354
643.303809	2475.912300
643.647990	2492.573313
643.992118	2487.683394
644.336195	2486.045019
644.680219	2489.498210
645.024192	2491.665906
645.368112	2488.111892
645.711981	2494.413335
646.055797	2489.573827
646.399562	2492.699342
646.743274	2488.994094
647.086935	2494.413335
647.430544	2492.674137
647.774101	2490.607263
648.117606	2497.538850
648.461059	2486.952427
648.804460	2492.674137
649.147810	2493.808396
649.491108	2494.867038
649.834354	2485.061994
650.177548	2492.069198
650.520690	2488.263127
650.863781	2486.675163
651.206820	2484.860348
651.549807	2492.573313
651.892742	2482.969915
652.235626	2490.733292
652.578458	2482.465800
652.921238	2484.381438
653.263967	2485.364463
653.606644	2487.179279
653.949269	2488.011069
654.291843	2495.093890
654.634365	2492.043992
654.976836	2489.195740
655.319255	2481.810450
655.661622	2479.844400
656.003938	2483.600060
656.346203	2491.489465
656.688416	2490.128354
657.030577	2483.776500
657.372687	2485.792962
657.714746	2481.785244
658.056753	2484.482262
658.398708	2473.542958
658.740612	2490.380412
659.082465	2487.431337
659.424266	2492.422079
659.766016	2481.835656
660.107715	2482.894298
660.449362	2483.070738
660.790958	2486.120637
661.132503	2489.447798
661.473996	2487.002838
661.815438	2487.254896
662.156829	2488.842860
662.498168	2486.322283
662.839456	2481.230717
663.180693	2489.271358
663.521879	2484.935965
663.863013	2488.011069
664.204097	2478.180819
664.545129	2490.859321
664.886110	2485.188023
665.227040	2492.825371
665.567918	2480.197281
665.908746	2490.178765
666.249522	2484.961171
666.590248	2485.314052
666.930922	2490.153560
667.271545	2479.012610
667.612118	2493.606750
667.952639	2482.491006
668.293109	2495.875269
668.633528	2481.003865
668.973896	2498.345435
669.314213	2491.212202
669.654480	2490.934938
669.994695	2490.456029
670.334859	2484.507467
670.674973	2495.396360
671.015035	2499.630929
671.355047	2485.515698
671.695008	2485.036788
672.034918	2486.271871
672.374777	2491.086173
672.714585	2496.555825
673.054342	2481.482775
673.394049	2492.447285
673.733705	2485.238435
674.073310	2487.229690
674.412864	2484.204998
674.752368	2484.230204
675.091820	2486.322283
675.431223	2483.373208
675.770574	2488.137098
676.109875	2483.171562
676.449125	2486.019813
676.788324	2480.625779
677.127473	2478.987404
677.466571	2481.835656
677.805619	2477.777527
678.144616	2484.507467
678.483562	2488.162304
678.822458	2489.019300
679.161303	2487.229690
679.500098	2485.389669
679.838842	2477.701910
680.177535	2480.373721
680.516179	2483.474031
680.854771	2486.246665
681.193314	2486.927221
681.531805	2485.742550
681.870247	2485.566110
682.208638	2481.911273
682.546978	2480.751808
682.885268	2485.314052
683.223508	2493.430310
683.561697	2493.631956
683.899836	2487.028044
684.237925	2491.035762
684.575963	2486.952427
684.913951	2490.178765
685.251889	2485.969402
685.589776	2487.532160
685.927614	2490.254383
686.265401	2485.692138
686.603137	2489.473004
686.940824	2482.163331
687.278460	2481.986890
687.616046	2481.911273
687.953582	2488.212715
688.291068	2487.582571
688.628504	2496.228150
688.965889	2476.113946
689.303224	2490.556852
689.640510	2488.338744
689.977745	2492.094404
690.314930	2487.154073
690.652065	2482.541417
690.989150	2485.868579
691.326185	2482.112919
691.663170	2485.868579
692.000105	2483.700883
692.336990	2490.052737
692.673825	2482.541417
693.010610	2491.313025
693.347345	2475.735860
693.684030	2485.414875
694.020665	2478.962198
694.357251	2473.013637
694.693786	2484.961171
695.030272	2477.223000
695.366707	2487.204485
695.703093	2481.558392
696.039429	2475.609831
696.375716	2482.314565
696.711952	2480.751808
697.048139	2479.617548
697.384276	2481.810450
697.720363	2480.877837
698.056400	2475.509008
698.392388	2479.819194
698.728326	2479.844400
699.064214	2481.608804
699.400053	2475.307362
699.735842	2478.911787
700.071581	2482.062508
700.407270	2479.844400
700.742910	2472.585138
701.078501	2479.995635
701.414042	2477.273412
701.749533	2477.021354
702.084974	2477.071765
702.420366	2480.373721
702.755709	2480.978660
703.091002	2473.114460
703.426246	2480.146869
703.761440	2488.061481
704.096584	2478.533700
704.431679	2475.332567
704.766725	2481.507981
705.101721	2479.063021
705.436668	2481.331540
705.771565	2476.945737
706.106413	2486.927221
706.441212	2478.432877
706.775961	2478.659729
707.110661	2478.105202
707.445311	2485.692138
707.779913	2475.559419
708.114465	2480.524956
708.448967	2481.356746
708.783421	2487.658188
709.117825	2486.145842
709.452180	2486.045019
709.786485	2480.071252
710.120742	2488.540390
710.454949	2475.231744
710.789107	2481.583598
711.123216	2481.482775
711.457275	2482.037302
711.791286	2486.473517
712.125247	2482.415388
712.459159	2482.591829
712.793023	2485.994608
713.126837	2484.457056
713.460602	2482.617035
713.794318	2486.826398
714.127985	2489.523415
714.461602	2479.441108
714.795171	2487.456542
715.128691	2479.516725
715.462162	2487.456542
715.795584	2482.617035
716.128957	2490.279588
716.462281	2481.432363
716.795556	2487.859835
717.128782	2477.046560
717.461960	2484.204998
717.795088	2470.745117
718.128167	2485.440081
718.461198	2477.071765
718.794180	2476.567650
719.127113	2480.852631
719.459997	2476.996148
719.792833	2473.895838
720.125619	2480.777013
720.458357	2473.921044
720.791046	2476.239975
721.123686	2468.728656
721.456278	2473.366517
721.788821	2476.164358
722.121315	2465.603140
722.453761	2472.811990
722.786158	2478.079996
723.118506	2484.230204
723.450805	2480.071252
723.783056	2483.146356
724.115259	2478.432877
724.447412	2475.887094
724.779518	2479.693165
725.111574	2482.087713
725.443582	2482.037302
725.775542	2471.652525
726.107453	2479.466313
726.439315	2483.121150
726.771129	2483.952940
727.102895	2470.770323
727.434612	2480.978660
727.766281	2485.440081
728.097901	2481.029071
728.429473	2473.895838
728.760996	2478.231231
729.092471	2477.651498
729.423897	2477.071765
729.755276	2476.265181
730.086606	2484.935965
730.417887	2473.467340
730.749120	2485.339258
731.080305	2474.576394
731.411442	2483.423619
731.742530	2483.877323
732.073570	2481.936479
732.404562	2486.624752
732.735506	2480.499750
733.066401	2480.928248
733.397249	2485.893785
733.728048	2489.901502
734.058798	2477.979173
734.389501	2481.079483
734.720156	2482.339771
735.050762	2475.534213
735.381320	2483.095944
735.711831	2475.635037
736.042293	2477.374235
736.372707	2479.037815
736.703073	2478.886581
737.033391	2485.893785
737.363661	2475.332567
737.693883	2465.250260
738.024056	2482.717858
738.354182	2470.795529
738.684260	2481.634010
739.014290	2473.492546
739.344272	2481.155100
739.674207	2476.794502
740.004093	2482.717858
740.333931	2477.424646
740.663722	2470.745117
740.993464	2483.045533
741.323159	2482.944710
741.652806	2480.777013
741.982405	2481.558392
742.311956	2478.710140
742.641460	2478.432877
742.970915	2479.340285
743.300323	2471.047587
743.629683	2478.760552
743.958996	2474.324337
744.288260	2478.785758
744.617477	2482.591829
744.946647	2473.416929
745.275768	2476.618062
745.604842	2472.736373
745.933869	2477.979173
746.262847	2469.005919
746.591778	2472.862402
746.920662	2475.307362
747.249498	2477.676704
747.578286	2474.500777
747.907027	2482.364977
748.235720	2474.374748
748.564365	2474.878863
748.892963	2475.458596
749.221514	2474.072279
749.550017	2478.382465
749.878473	2483.499237
750.206881	2469.005919
750.535242	2476.517238
750.863555	2478.256437
751.191821	2483.600060
751.520039	2478.760552
751.848210	2475.004892
752.176334	2479.592342
752.504411	2477.626292
752.832440	2470.997175
753.160421	2477.853144
753.488356	2468.199335
753.816243	2476.441621
754.144082	2471.425673
754.471875	2467.695219
754.799620	2481.281129
755.127318	2479.693165
755.454969	2482.238948
755.782572	2479.012610
756.110129	2474.299131
756.437638	2469.812504
756.765100	2481.684421
757.092515	2480.827425
757.419882	2479.163844
757.747203	2478.785758
758.074477	2472.887608
758.401703	2474.475571
758.728882	2477.500263
759.056014	2471.904583
759.383099	2483.650471
759.710138	2476.844913
760.037129	2476.744090
760.364073	2470.896352
760.690970	2469.106742
761.017820	2475.256950
761.344623	2471.198821
761.671379	2481.961685
761.998088	2484.583085
762.324751	2478.281642
762.651366	2481.734833
762.977935	2490.834115
763.304456	2492.296050
763.630931	2490.153560
763.957359	2487.154073
764.283740	2479.819194
764.610074	2485.314052
764.936362	2473.517752
765.262602	2483.952940
765.588796	2481.457569
765.914943	2476.088740
766.241044	2478.054790
766.567097	2471.173615
766.893104	2477.323823
767.219064	2472.786785
767.544978	2472.938019
767.870845	2466.359313
768.196665	2471.198821
768.522438	2472.736373
768.848165	2469.257977
769.173846	2478.079996
769.499479	2472.862402
769.825066	2476.844913
770.150607	2473.845427
770.476101	2469.963738
770.801548	2463.561473
771.126949	2472.635550
771.452303	2468.627833
771.777611	2468.199335
772.102872	2476.895325
772.428087	2472.433904
772.753256	2472.509521
773.078378	2468.098512
773.403453	2469.762092
773.728482	2463.813531
774.053465	2472.055817
774.378401	2470.896352
774.703291	2473.694192
775.028135	2464.090794
775.352932	2473.517752
775.677683	2473.341312
776.002388	2475.231744
776.327046	2470.997175
776.651658	2471.097998
776.976224	2463.586679
777.300743	2469.610858
777.625216	2476.945737
777.949643	2475.382979
778.274024	2469.762092
778.598359	2462.780094
778.922647	2479.390696
779.246889	2466.208079
779.571086	2468.980713
779.895236	2477.752321
780.219339	2471.097998
780.543397	2475.156127
780.867409	2469.131948
781.191374	2469.585652
781.515294	2466.208079
781.839167	2468.249746
782.162995	2470.719912
782.486776	2461.292954
782.810511	2465.577935
783.134201	2470.114973
783.457844	2468.804273
783.781441	2475.786271
784.104993	2476.870119
784.428498	2467.569190
784.751958	2464.317646
785.075372	2479.138638
785.398739	2470.266208
785.722061	2470.820735
786.045337	2472.358287
786.368568	2465.653552
786.691752	2467.695219
787.014891	2473.013637
787.337983	2470.518265
787.661030	2476.592856
787.984031	2478.533700
788.306987	2473.845427
788.629897	2480.978660
788.952760	2468.678244
789.275579	2466.863429
789.598351	2475.987917
789.921078	2482.617035
790.243759	2470.014150
790.566395	2463.611885
790.888984	2465.502317
791.211529	2471.879377
791.534027	2473.618575
791.856480	2470.039356
792.178888	2460.788838
792.501249	2465.099025
792.823566	2460.083077
793.145836	2469.938533
793.468062	2461.116513
793.790241	2466.182873
794.112375	2467.695219
794.434464	2474.072279
794.756507	2470.745117
795.078505	2472.660756
795.400457	2466.082050
795.722364	2468.653038
796.044226	2474.425160
796.366042	2472.156640
796.687812	2474.954481
797.009538	2477.853144
797.331218	2471.854171
797.652852	2468.678244
797.974442	2472.509521
798.295986	2481.457569
798.617484	2464.897379
798.938938	2465.880404
799.260346	2463.158181
799.581709	2467.140692
799.903026	2479.315079
800.224299	2467.468367
800.545526	2472.988431
800.866708	2468.804273
801.187845	2469.636063
801.508936	2475.004892
801.829983	2470.493060
802.150984	2464.645321
802.471940	2469.686475
802.792851	2468.224540
803.113717	2462.452419
803.434538	2467.014663
803.755314	2460.335135
804.076045	2470.367031
804.396731	2476.063535
804.717372	2472.005406
805.037967	2473.643781
805.358518	2461.620629
805.679024	2469.207565
805.999485	2470.593883
806.319901	2465.729169
806.640272	2471.350056
806.960598	2466.964252
807.280879	2462.023921
807.601115	2460.536781
807.921306	2469.585652
808.241453	2471.274438
808.561554	2471.980200
808.881611	2465.099025
809.201623	2465.930815
809.521590	2462.528037
809.841513	2467.140692
810.161390	2469.031125
810.481223	2461.645835
810.801011	2469.988944
811.120755	2467.695219
811.440453	2470.896352
811.760107	2468.274952
812.079716	2468.753862
812.399281	2474.021867
812.718801	2464.695733
813.038276	2468.123717
813.357707	2457.134002
813.677093	2464.947790
813.996434	2471.224027
814.315731	2470.442648
814.634983	2462.326390
814.954191	2469.157154
815.273354	2468.073306
815.592473	2470.871146
815.911547	2467.896865
816.230577	2466.787812
816.549562	2467.317133
816.868502	2480.827425
817.187399	2471.501290
817.506250	2474.475571
817.825058	2468.375775
818.143821	2472.307875
818.462539	2477.500263
818.781213	2471.123204
819.099843	2466.334108
819.418429	2477.424646
819.736970	2469.913327
820.055466	2471.350056
820.373919	2473.694192
820.692327	2484.683908
821.010691	2487.179279
821.329011	2497.135558
821.647286	2518.862931
821.965517	2548.908208
822.283704	2565.241546
822.601847	2570.408729
822.919945	2563.880435
823.237999	2549.689587
823.556010	2540.313040
823.873976	2522.719413
824.191897	2519.039371
824.509775	2503.991527
824.827609	2506.663338
825.145398	2492.195227
825.463144	2490.632469
825.780845	2498.874756
826.098502	2494.488952
826.416116	2497.765702
826.733685	2506.864985
827.051210	2509.209121
827.368692	2507.469923
827.686129	2512.813546
828.003522	2494.211688
828.320872	2498.244612
828.638177	2480.247692
828.955439	2480.575367
829.272656	2481.457569
829.589830	2477.802733
829.906960	2475.357773
830.224046	2477.147383
830.541088	2480.046046
830.858086	2474.475571
831.175041	2464.872173
831.491952	2475.584625
831.808819	2472.055817
832.125642	2473.921044
832.442421	2466.989458
832.759157	2474.324337
833.075849	2475.685448
833.392497	2491.161790
833.709101	2484.507467
834.025662	2485.137612
834.342179	2491.212202
834.658653	2485.339258
834.975083	2491.968375
835.291469	2479.491519
835.607811	2476.265181
835.924110	2480.928248
836.240366	2466.132462
836.556578	2472.963225
836.872746	2469.333594
837.188871	2466.913840
837.504952	2470.442648
837.820990	2474.021867
838.136984	2454.613425
838.452935	2468.779067
838.768842	2469.913327
839.084706	2471.702937
839.400526	2475.231744
839.716303	2478.684935
840.032037	2467.191104
840.347727	2476.844913
840.663373	2465.073819
840.978977	2468.476598
841.294537	2466.989458
841.610054	2469.384006
841.925527	2468.476598
842.240957	2474.929275
842.556344	2467.896865
842.871687	2474.601600
843.186987	2464.972996
843.502244	2461.368571
843.817458	2459.780608
844.132629	2459.301698
844.447756	2466.838223
844.762840	2463.309415
845.077881	2470.619088
845.392879	2461.847481
845.707833	2464.292440
846.022745	2467.191104
846.337613	2456.957562
846.652438	2466.132462
846.967221	2467.720425
847.281960	2466.384519
847.596656	2457.058385
847.911309	2461.570217
848.225919	2464.746144
848.540485	2468.476598
848.855009	2463.511062
849.169490	2461.771863
849.483928	2460.259517
849.798323	2456.881944
850.112675	2467.922071
850.426984	2465.905610
850.741251	2461.444188
851.055474	2462.074333
851.369654	2457.486883
851.683792	2463.158181
851.997887	2463.233798
852.311938	2467.543985
852.625947	2464.443675
852.939914	2466.485342
853.253837	2459.074846
853.567718	2457.688529
853.881555	2460.965279
854.195350	2455.646862
854.509103	2468.501804
854.822812	2463.158181
855.136479	2465.149437
855.450103	2463.788325
855.763685	2460.007460
856.077224	2464.468881
856.390720	2454.487396
856.704173	2454.310956
857.017584	2473.542958
857.330953	2459.881431
857.644278	2462.880917
857.957561	2463.259004
858.270802	2466.586165
858.584000	2455.898919
858.897155	2457.310442
859.210268	2459.352110
859.523339	2455.672067
859.836367	2456.629887
860.149352	2465.729169
860.462295	2461.645835
860.775195	2459.352110
861.088054	2462.956535
861.400869	2457.083590
861.713642	2462.427213
862.026373	2461.671040
862.339062	2460.561987
862.651708	2460.158694
862.964312	2459.503344
863.276873	2463.989971
863.589392	2464.821762
863.901869	2463.006946
864.214303	2467.644808
864.526696	2463.813531
864.839045	2463.410238
865.151353	2458.621142
865.463619	2467.468367
865.775842	2453.579988
866.088023	2463.485856
866.400162	2468.123717
866.712258	2458.243056
867.024313	2472.257463
867.336325	2452.496140
867.648296	2460.234312
867.960224	2460.385546
868.272110	2461.721452
868.583954	2460.788838
868.895755	2462.376802
869.207515	2465.678758
869.519233	2465.527523
869.830909	2452.773404
870.142542	2459.024435
870.454134	2456.176183
870.765684	2468.022894
871.077191	2464.897379
871.388657	2464.368058
871.700081	2456.503858
872.011463	2460.788838
872.322803	2453.706017
872.634101	2460.133488
872.945357	2461.217337
873.256571	2460.435958
873.567744	2459.200875
873.878874	2468.653038
874.189963	2465.124231
874.501010	2465.855198
874.812015	2466.006433
875.122979	2465.023408
875.433900	2460.486369
875.744780	2460.108283
876.055618	2458.595937
876.366415	2464.670527
876.677169	2464.594910
876.987882	2464.922585
877.298554	2466.510548
877.609183	2460.461163
877.919771	2454.714248
878.230317	2474.475571
878.540822	2461.368571
878.851285	2473.568163
879.161707	2467.720425
879.472087	2467.947277
879.782425	2476.189563
880.092722	2472.257463
880.402977	2486.675163
880.713191	2484.658702
881.023363	2496.480208
881.333494	2499.555312
881.643583	2512.939575
881.953631	2510.040912
882.263637	2506.083606
882.573602	2509.536796
882.883526	2495.345948
883.193408	2494.211688
883.503248	2499.555312
883.813048	2478.609317
884.122806	2489.145329
884.432522	2481.205512
884.742197	2479.365490
885.051831	2484.179792
885.361424	2472.635550
885.670975	2469.711681
885.980485	2478.584112
886.289954	2465.905610
886.599382	2465.124231
886.908768	2482.516212
887.218113	2461.469394
887.527417	2462.805300
887.836680	2456.226594
888.145901	2469.736887
888.455082	2456.705504
888.764221	2466.384519
889.073319	2456.529063
889.382376	2469.333594
889.691392	2455.621656
890.000366	2469.636063
890.309300	2465.275465
890.618193	2464.216823
890.927044	2460.914867
891.235855	2468.501804
891.544625	2464.015177
891.853353	2464.645321
892.162041	2458.974023
892.470687	2458.495113
892.779293	2461.494600
893.087858	2467.468367
893.396381	2468.148923
893.704864	2463.511062
894.013306	2481.760038
894.321707	2475.509008
894.630068	2471.047587
894.938387	2480.046046
895.246665	2475.609831
895.554903	2471.904583
895.863100	2477.928762
896.171256	2472.156640
896.479371	2474.021867
896.787446	2471.375262
897.095480	2462.880917
897.403473	2471.249233
897.711425	2468.501804
898.019336	2468.451392
898.327207	2470.266208
898.635038	2467.493573
898.942827	2473.593369
899.250576	2464.998202
899.558284	2473.416929
899.865952	2454.260544
900.173579	2467.165898
900.481165	2464.317646
900.788711	2470.795529
901.096216	2464.821762
901.403681	2466.157667
901.711105	2461.494600
902.018489	2464.267235
902.325832	2462.250773
902.633135	2454.689042
902.940397	2458.595937
903.247619	2464.166412
903.554800	2471.526496
903.861941	2476.517238
904.169041	2473.694192
904.476101	2478.130408
904.783121	2477.802733
905.090100	2478.155613
905.397039	2463.763119
905.703938	2464.468881
906.010796	2477.147383
906.317614	2474.576394
906.624391	2472.509521
906.931129	2472.736373
907.237826	2465.653552
907.544483	2463.309415
907.851099	2466.661783
908.157675	2461.015690
908.464211	2466.560960
908.770707	2451.765173
909.077163	2468.779067
909.383578	2463.611885
909.689954	2463.284210
909.996289	2460.788838
910.302584	2467.644808
910.608839	2462.578448
910.915054	2462.956535
911.221229	2456.503858
911.527363	2456.327417
911.833458	2459.100052
912.139513	2459.679785
912.445527	2463.082563
912.751502	2458.520319
913.057436	2464.494087
913.363331	2463.536267
913.669186	2460.511575
913.975000	2464.216823
914.280775	2464.544498
914.586510	2470.241002
914.892205	2462.654065
915.197859	2474.374748
915.503475	2482.339771
915.809050	2483.373208
916.114585	2479.920017
916.420081	2486.271871
916.725536	2479.315079
917.030952	2484.431850
917.336328	2468.148923
917.641665	2474.147896
917.946961	2473.240488
918.252218	2477.827938
918.557435	2465.199848
918.862612	2474.097485
919.167750	2469.005919
919.472848	2464.796556
919.777906	2466.762606
920.082925	2472.484315
920.387904	2462.981740
920.692843	2465.603140
920.997743	2455.344392
921.302603	2465.981227
921.607423	2464.116000
921.912204	2462.452419
922.216946	2463.662296
922.521647	2466.485342
922.826310	2454.941100
923.130932	2457.512088
923.435516	2460.259517
923.740059	2456.428240
924.044564	2463.284210
924.349028	2458.293467
924.653454	2463.712708
924.957840	2453.075873
925.262186	2461.418983
925.566493	2460.183900
925.870761	2456.705504
926.174989	2454.840277
926.479178	2463.536267
926.783328	2459.125258
927.087438	2451.815585
927.391509	2459.528550
927.695541	2453.327931
927.999533	2457.890175
928.303486	2466.762606
928.607400	2461.040896
928.911275	2457.612912
929.215110	2454.840277
929.518906	2459.679785
929.822663	2457.562500
930.126381	2461.267748
930.430060	2467.115487
930.733699	2457.083590
931.037299	2457.260031
931.340861	2459.049640
931.644383	2462.830506
931.947866	2453.075873
932.251309	2453.227108
932.554714	2459.125258
932.858080	2457.083590
933.161407	2455.873713
933.464694	2463.208592
933.767943	2446.925665
934.071153	2460.763633
934.374323	2456.957562
934.677455	2459.251287
934.980548	2460.612398
935.283602	2464.972996
935.586617	2453.857252
935.889593	2456.075360
936.192530	2458.469908
936.495428	2454.941100
936.798287	2461.721452
937.101108	2457.738940
937.403890	2454.915894
937.706632	2461.771863
938.009336	2455.293981
938.312002	2453.579988
938.614628	2460.335135
938.917216	2456.881944
939.219765	2456.629887
939.522275	2454.411779
939.824747	2465.754375
940.127179	2461.192131
940.429573	2466.359313
940.731929	2463.813531
941.034246	2464.216823
941.336524	2457.335648
941.638763	2455.949331
941.940964	2467.997688
942.243126	2455.546038
942.545250	2462.654065
942.847335	2457.058385
943.149381	2468.123717
943.451389	2460.486369
943.753359	2457.134002
944.055290	2459.049640
944.357182	2455.999742
944.659036	2453.050667
944.960851	2465.099025
945.262628	2455.218363
945.564367	2449.773917
945.866067	2454.159721
946.167729	2463.385033
946.469352	2453.932869
946.770937	2454.159721
947.072484	2457.360854
947.373992	2455.016717
947.675462	2460.536781
947.976893	2458.671554
948.278286	2452.823815
948.579641	2452.874227
948.880958	2449.975563
949.182236	2455.898919
949.483476	2457.461677
949.784678	2457.890175
950.085841	2460.536781
950.386967	2458.847994
950.688054	2457.260031
950.989103	2454.487396
951.290114	2456.453446
951.591087	2461.091308
951.892021	2456.932356
952.192917	2455.747685
952.493776	2465.376288
952.794596	2459.831019
953.095378	2457.436471
953.396122	2463.006946
953.696828	2462.023921
953.997496	2454.764660
954.298126	2459.503344
954.598718	2462.351596
954.899272	2460.561987
955.199788	2458.419496
955.500266	2457.890175
955.800706	2462.149950
956.101108	2454.840277
956.401472	2471.173615
956.701798	2458.520319
957.002087	2454.865483
957.302337	2455.167952
957.602550	2463.208592
957.902724	2458.999229
958.202861	2452.521346
958.502960	2456.730710
958.803022	2453.630400
959.103045	2453.680812
959.403031	2455.823302
959.702979	2458.243056
960.002889	2457.260031
960.302762	2453.554783
960.602596	2457.310442
960.902393	2459.856225
961.202153	2462.880917
961.501875	2460.385546
961.801559	2453.403548
962.101205	2459.150463
962.400814	2461.469394
962.700385	2461.393777
962.999918	2457.638117
963.299414	2463.107769
963.598873	2450.278033
963.898293	2449.975563
964.197677	2454.789865
964.497022	2455.798096
964.796331	2449.622683
965.095601	2457.839763
965.394835	2451.235852
965.694030	2450.656119
965.993189	2460.940073
966.292309	2452.596963
966.591393	2456.150977
966.890439	2446.925665
967.189447	2459.301698
967.488419	2456.730710
967.787353	2461.141719
968.086249	2447.127312
968.385108	2458.066615
968.683930	2458.469908
968.982714	2452.143260
969.281462	2460.914867
969.580172	2455.646862
969.878844	2450.278033
970.177480	2457.990998
970.476078	2448.992538
970.774639	2461.040896
971.073162	2463.536267
971.371649	2459.175669
971.670098	2459.100052
971.968510	2460.561987
972.266885	2457.234825
972.565223	2461.973510
972.863524	2457.764146
973.161788	2454.184927
973.460014	2452.420523
973.758204	2450.756942
974.056356	2449.521860
974.354471	2458.419496
974.652550	2454.613425
974.950591	2459.604167
975.248595	2455.546038
975.546563	2459.402521
975.844493	2449.572271
976.142386	2460.637604
976.440243	2453.579988
976.738062	2456.251800
977.035845	2456.503858
977.333590	2452.647375
977.631299	2452.672581
977.928971	2447.026488
978.226606	2454.966306
978.524204	2453.983281
978.821765	2450.025975
979.119290	2457.512088
979.416777	2455.823302
979.714228	2459.049640
980.011642	2459.856225
980.309020	2454.285750
980.606360	2457.688529
980.903664	2465.225054
981.200931	2450.580502
981.498162	2458.419496
981.795356	2462.402008
982.092513	2455.646862
982.389633	2453.731223
982.686717	2460.183900
982.983764	2456.428240
983.280775	2459.654579
983.577749	2457.814558
983.874686	2459.200875
984.171587	2451.664350
984.468451	2452.319700
984.765279	2455.798096
985.062070	2458.974023
985.358824	2462.477625
985.655543	2455.218363
985.952224	2456.831533
986.248869	2450.101592
986.545478	2451.235852
986.842050	2453.806840
987.138586	2451.865996
987.435086	2463.082563
987.731549	2455.470421
988.027975	2451.135029
988.324366	2452.622169
988.620719	2458.091821
988.917037	2451.664350
989.213318	2459.125258
989.509563	2454.512602
989.805772	2451.084617
990.101944	2451.563527
990.398080	2456.655092
990.694180	2454.563013
990.990244	2448.690069
991.286271	2455.621656
991.582262	2450.000769
991.878217	2453.252313
992.174136	2459.503344
992.470019	2455.319187
992.765865	2454.109310
993.061676	2449.849535
993.357450	2449.093362
993.653188	2452.521346
993.948890	2459.074846
994.244556	2450.857765
994.540186	2449.874740
994.835780	2447.505398
995.131337	2451.311469
995.426859	2450.328444
995.722345	2464.267235
996.017795	2457.461677
996.313208	2463.334621
996.608586	2452.067642
996.903928	2458.545525
997.199234	2450.101592
997.494504	2458.419496
997.789738	2450.630913
998.084936	2458.495113
998.380099	2458.293467
998.675225	2452.722992
998.970316	2457.184413
999.265371	2454.033692
999.560390	2453.857252
999.855373	2452.899433
1000.150320	2455.571244
1000.445232	2459.175669
1000.740108	2455.848508
1001.034948	2455.571244
1001.329752	2457.587706
1001.624521	2451.865996
1001.919254	2451.009000
1002.213951	2452.647375
1002.508613	2458.822788
1002.803239	2461.192131
1003.097829	2448.085131
1003.392384	2462.023921
1003.686903	2453.201902
1003.981386	2453.983281
1004.275834	2452.470935
1004.570246	2452.647375
1004.864623	2456.024948
1005.158964	2451.185440
1005.453270	2451.009000
1005.747540	2441.355190
1006.041775	2450.479679
1006.335974	2450.656119
1006.630138	2454.512602
1006.924266	2452.092848
1007.218359	2455.016717
1007.512416	2452.470935
1007.806438	2453.453960
1008.100425	2445.060438
1008.394376	2449.723506
1008.688292	2451.009000
1008.982172	2451.160235
1009.276017	2454.991512
1009.569827	2448.765687
1009.863602	2458.192644
1010.157341	2451.840790
1010.451045	2446.976077
1010.744714	2460.007460
1011.038347	2457.764146
1011.331945	2460.057871
1011.625508	2459.906637
1011.919036	2452.899433
1012.212528	2456.453446
1012.505986	2450.404062
1012.799408	2457.007973
1013.092795	2458.369085
1013.386147	2450.958588
1013.679464	2451.891202
1013.972745	2448.715275
1014.265992	2452.067642
1014.559204	2460.612398
1014.852380	2450.933383
1015.145521	2456.579475
1015.438628	2456.554269
1015.731699	2455.823302
1016.024736	2454.764660
1016.317737	2456.024948
1016.610703	2454.714248
1016.903635	2456.629887
1017.196531	2455.747685
1017.489393	2459.352110
1017.782219	2456.024948
1018.075011	2449.950358
1018.367768	2455.218363
1018.660490	2452.294494
1018.953177	2452.294494
1019.245829	2452.294494
