Dividing Wavelength (nm)	Counts (n)	Slit_number_34_of_a_total_of_40	
326.493990	2144.170769
326.888308	2144.170769
327.282561	2144.170769
327.676750	2117.788731
328.070874	2117.032558
328.464933	2139.633731
328.858929	2125.014385
329.252859	2141.734212
329.646726	2173.409462
330.040528	2174.921808
330.434265	2195.758577
330.827938	2215.335058
331.221547	2238.104269
331.615091	2262.805923
332.008571	2277.509288
332.401986	2296.665673
332.795338	2322.543596
333.188625	2349.177692
333.581847	2362.956846
333.975006	2362.452731
334.368100	2395.052192
334.761129	2409.335462
335.154095	2423.450692
335.546996	2449.328615
335.939833	2471.509692
336.332606	2477.223000
336.725315	2485.792962
337.117960	2492.430481
337.510540	2505.117385
337.903056	2509.654423
338.295508	2514.695577
338.687896	2520.744962
339.080220	2521.837212
339.472480	2531.079327
339.864676	2548.303269
340.256807	2532.003538
340.648875	2551.327962
341.040879	2543.178096
341.432818	2536.624596
341.824694	2535.616365
342.216506	2540.153404
342.608253	2539.313212
342.999937	2540.573500
343.391557	2535.868423
343.783113	2539.901346
344.174605	2533.515885
344.566033	2557.209308
344.957397	2527.802577
345.348697	2519.904769
345.739934	2534.272058
346.131106	2533.851962
346.522215	2527.130423
346.913260	2523.349558
347.304241	2521.585154
347.695159	2536.120481
348.086012	2522.509365
348.476802	2520.072808
348.867528	2524.861904
349.258191	2509.066288
349.648789	2507.217865
350.039324	2518.476442
350.429796	2514.779596
350.820203	2512.343038
351.210548	2514.359500
351.600828	2505.705519
351.991045	2505.201404
352.381198	2500.160250
352.771288	2499.572115
353.161314	2521.249077
353.551276	2509.654423
353.941175	2505.621500
354.331010	2510.410596
354.720782	2515.535769
355.110490	2507.469923
355.500135	2503.773077
355.889717	2507.637962
356.279235	2514.443519
356.668689	2512.006962
357.058080	2512.343038
357.447408	2523.601615
357.836672	2507.469923
358.225873	2507.890019
358.615010	2513.687346
359.004084	2519.400654
359.393095	2532.423635
359.782043	2501.840635
360.170927	2509.990500
360.559748	2529.398942
360.948505	2502.344750
361.337199	2505.369442
361.725830	2521.837212
362.114398	2517.468212
362.502903	2523.097500
362.891344	2508.898250
363.279722	2518.560462
363.668037	2518.392423
364.056289	2499.488096
364.444478	2509.990500
364.832603	2517.636250
365.220665	2516.039885
365.608665	2531.331385
365.996601	2518.476442
366.384474	2524.441808
366.772284	2533.431865
367.160031	2525.113962
367.547715	2520.913000
367.935336	2515.199692
368.322893	2527.550519
368.710388	2528.138654
369.097820	2522.257308
369.485189	2516.207923
369.872495	2532.927750
370.259738	2521.585154
370.646918	2537.380769
371.034035	2523.181519
371.421090	2526.122192
371.808081	2524.861904
372.195010	2542.085846
372.581875	2519.568692
372.968678	2516.039885
373.355418	2521.669173
373.742096	2508.226096
374.128710	2533.515885
374.515262	2534.188038
374.901751	2509.486385
375.288177	2535.952442
375.674540	2522.677404
376.060841	2532.507654
376.447079	2543.850250
376.833254	2524.357788
377.219367	2529.987077
377.605417	2528.474731
377.991404	2545.698673
378.377329	2527.214442
378.763191	2521.753192
379.148991	2529.651000
379.534727	2521.585154
379.920402	2519.400654
380.306013	2540.153404
380.691563	2525.870135
381.077049	2525.786115
381.462474	2538.304981
381.847835	2524.861904
382.233134	2522.845442
382.618371	2532.339615
383.003545	2522.677404
383.388657	2530.575212
383.773706	2537.296750
384.158693	2532.927750
384.543618	2543.094077
384.928480	2530.323154
385.313280	2526.458269
385.698017	2535.532346
386.082692	2528.054635
386.467305	2536.876654
386.851856	2528.222673
387.236344	2534.356077
387.620770	2526.206212
388.005133	2531.919519
388.389435	2541.245654
388.773674	2539.313212
389.157851	2549.899635
389.541965	2548.135231
389.926018	2535.196269
390.310008	2535.700385
390.693936	2547.547096
391.077802	2532.591673
391.461606	2555.696962
391.845348	2534.188038
392.229027	2529.566981
392.612645	2532.003538
392.996200	2533.431865
393.379694	2525.029942
393.763125	2542.337904
394.146494	2539.901346
394.529801	2534.272058
394.913047	2530.659231
395.296230	2541.665750
395.679351	2532.591673
396.062410	2538.641058
396.445408	2551.496000
396.828343	2529.651000
397.211217	2557.377346
397.594028	2543.094077
397.976778	2551.664038
398.359466	2549.899635
398.742092	2555.612942
399.124656	2530.743250
399.507158	2556.285096
399.889598	2538.557038
400.271977	2555.444904
400.654294	2535.868423
401.036549	2524.105731
401.418742	2535.448327
401.800874	2545.950731
402.182944	2541.497712
402.564952	2533.599904
402.946898	2547.967192
403.328783	2541.161635
403.710606	2539.313212
404.092367	2555.360885
404.474067	2558.973712
404.855705	2551.580019
405.237282	2532.255596
405.618797	2546.706904
406.000250	2543.262115
406.381642	2549.143462
406.762972	2544.186327
407.144240	2540.489481
407.525447	2553.092365
407.906593	2539.901346
408.287677	2542.842019
408.668700	2543.094077
409.049661	2540.825558
409.430560	2537.548808
409.811399	2538.557038
410.192176	2548.975423
410.572891	2565.863288
410.953545	2557.377346
411.334138	2550.991885
411.714669	2531.499423
412.095139	2546.958962
412.475547	2548.975423
412.855894	2548.807385
413.236180	2536.372538
413.616405	2549.395519
413.996568	2541.749769
414.376670	2538.977135
414.756711	2535.616365
415.136691	2538.725077
415.516609	2551.243942
415.896466	2539.481250
416.276262	2547.883173
416.655997	2552.000115
417.035670	2535.280288
417.415283	2539.145173
417.794834	2539.313212
418.174324	2546.118769
418.553753	2547.211019
418.933121	2555.444904
419.312428	2566.115346
419.691674	2551.664038
420.070859	2543.514173
420.449983	2547.799154
420.829045	2542.926038
421.208047	2556.201077
421.586988	2544.774462
421.965867	2560.654096
422.344686	2559.729885
422.723444	2539.649288
423.102141	2544.606423
423.480777	2552.168154
423.859352	2558.217538
424.237866	2552.000115
424.616319	2544.690442
424.994712	2550.739827
425.373044	2559.393808
425.751314	2545.614654
426.129524	2559.309788
426.507673	2546.202788
426.885762	2548.471308
427.263789	2536.204500
427.641756	2548.975423
428.019662	2541.497712
428.397508	2549.647577
428.775292	2549.815615
429.153016	2544.774462
429.530679	2546.706904
429.908282	2550.655808
430.285824	2545.530635
430.663305	2555.192846
431.040726	2549.059442
431.418086	2544.522404
431.795385	2564.434962
432.172624	2552.924327
432.549802	2550.487769
432.926920	2554.940788
433.303977	2552.252173
433.680974	2548.807385
434.057910	2553.596481
434.434786	2555.696962
434.811601	2540.153404
435.188355	2557.041269
435.565050	2556.453135
435.941683	2564.014865
436.318257	2552.756288
436.694770	2558.553615
437.071222	2560.402038
437.447614	2542.337904
437.823946	2560.149981
438.200218	2562.418500
438.576429	2558.469596
438.952580	2564.350942
439.328670	2553.428442
439.704700	2565.947308
440.080670	2532.675692
440.456580	2551.664038
440.832429	2529.903058
441.208218	2552.420212
441.583947	2542.421923
441.959616	2559.393808
442.335224	2557.041269
442.710773	2565.863288
443.086261	2540.993596
443.461689	2544.690442
443.837057	2559.981942
444.212365	2545.446615
444.587612	2559.477827
444.962800	2574.601288
445.337927	2562.838596
445.712995	2542.926038
446.088002	2562.502519
446.462949	2556.033038
446.837837	2555.360885
447.212664	2557.545385
447.587431	2551.916096
447.962139	2561.998404
448.336786	2555.444904
448.711374	2570.904442
449.085901	2550.067673
449.460369	2567.879750
449.834776	2581.238808
450.209124	2557.125288
450.583412	2536.120481
450.957640	2554.772750
451.331808	2544.186327
451.705917	2560.149981
452.079965	2554.688731
452.453954	2550.067673
452.827883	2562.586538
453.201752	2554.856769
453.575562	2554.772750
453.949311	2563.174673
454.323001	2547.967192
454.696632	2567.375635
455.070202	2561.578308
455.443713	2556.117058
455.817164	2549.227481
456.190556	2563.846827
456.563888	2579.138327
456.937160	2554.688731
457.310373	2565.443192
457.683526	2571.828654
458.056619	2556.285096
458.429653	2566.619462
458.802628	2559.897923
459.175542	2562.166442
459.548398	2550.319731
459.921194	2570.484346
460.293930	2561.998404
460.666607	2553.176385
461.039224	2545.194558
461.411782	2555.024808
461.784280	2551.159923
462.156719	2567.375635
462.529099	2554.520692
462.901419	2558.553615
463.273680	2567.879750
463.645882	2563.006635
464.018024	2555.192846
464.390106	2559.309788
464.762130	2564.603000
465.134094	2563.006635
465.505999	2567.039558
465.877845	2562.166442
466.249631	2573.593058
466.621358	2554.016577
466.993026	2570.820423
467.364634	2583.423308
467.736184	2553.008346
468.107674	2567.627692
468.479105	2543.934269
468.850477	2555.696962
469.221790	2573.593058
469.593043	2562.502519
469.964238	2558.553615
470.335373	2565.611231
470.706449	2566.451423
471.077467	2564.266923
471.448425	2571.156500
471.819324	2570.904442
472.190164	2564.434962
472.560945	2552.000115
472.931667	2569.560135
473.302330	2557.293327
473.672934	2567.291615
474.043479	2570.232288
474.413965	2563.090654
474.784393	2558.133519
475.154761	2543.010058
475.525070	2562.334481
475.895321	2563.258692
476.265513	2566.283385
476.635645	2573.677077
477.005719	2556.705192
477.375734	2565.695250
477.745691	2567.207596
478.115588	2572.500808
478.485427	2558.637635
478.855207	2557.797442
479.224928	2561.242231
479.594591	2562.250462
479.964194	2556.621173
480.333739	2556.201077
480.703226	2550.655808
481.072653	2554.016577
481.442022	2555.108827
481.811333	2565.947308
482.180584	2571.828654
482.549777	2555.612942
482.918912	2563.342712
483.287988	2550.823846
483.657005	2560.486058
484.025964	2566.199365
484.394864	2568.383865
484.763706	2563.342712
485.132489	2565.443192
485.501213	2556.453135
485.869879	2554.436673
486.238487	2557.881462
486.607036	2570.316308
486.975527	2571.324538
487.343959	2553.344423
487.712333	2559.309788
488.080648	2567.123577
488.448905	2570.484346
488.817104	2554.016577
489.185244	2567.711712
489.553326	2574.433250
489.921350	2571.492577
490.289315	2560.906154
490.657222	2573.341000
491.025070	2552.084135
491.392861	2567.291615
491.760593	2566.451423
492.128267	2561.074192
492.495883	2561.998404
492.863440	2561.410269
493.230939	2569.392096
493.598380	2556.369115
493.965763	2565.779269
494.333088	2573.172962
494.700354	2558.805673
495.067563	2569.560135
495.434713	2567.459654
495.801805	2575.273442
496.168839	2566.451423
496.535815	2565.947308
496.902733	2559.141750
497.269593	2578.130096
497.636395	2570.904442
498.003139	2573.677077
498.369825	2547.379058
498.736453	2556.789212
499.103023	2569.560135
499.469535	2573.004923
499.835989	2562.586538
500.202385	2562.166442
500.568723	2564.687019
500.935003	2562.586538
501.301226	2562.334481
501.667390	2552.756288
502.033497	2562.922615
502.399546	2574.433250
502.765537	2558.133519
503.131470	2562.166442
503.497345	2556.201077
503.863163	2561.914385
504.228923	2567.711712
504.594625	2583.759385
504.960269	2566.283385
505.325856	2555.444904
505.691385	2560.822135
506.056856	2564.687019
506.422270	2558.049500
506.787625	2553.176385
507.152924	2571.072481
507.518164	2569.224058
507.883347	2586.027904
508.248472	2572.164731
508.613540	2567.039558
508.978550	2567.123577
509.343503	2564.771038
509.708398	2564.939077
510.073236	2561.746346
510.438016	2561.914385
510.802738	2565.611231
511.167403	2553.260404
511.532010	2555.108827
511.896561	2562.838596
512.261053	2570.484346
512.625488	2574.517269
512.989866	2564.939077
513.354186	2566.283385
513.718449	2571.072481
514.082655	2575.609519
514.446803	2573.256981
514.810894	2573.761096
515.174927	2576.701769
515.538904	2574.433250
515.902822	2569.896212
516.266684	2563.174673
516.630488	2575.021385
516.994235	2569.392096
517.357925	2568.131808
517.721558	2563.342712
518.085133	2573.509038
518.448651	2558.553615
518.812112	2564.603000
519.175516	2584.011442
519.538863	2558.133519
519.902152	2569.056019
520.265385	2572.080712
520.628560	2571.576596
520.991678	2574.601288
521.354739	2558.217538
521.717743	2566.031327
522.080690	2571.912673
522.443580	2569.728173
522.806413	2575.357462
523.169189	2552.756288
523.531908	2585.271731
523.894569	2556.537154
524.257174	2557.797442
524.619722	2568.887981
524.982213	2580.902731
525.344647	2588.044365
525.707025	2553.092365
526.069345	2585.019673
526.431608	2568.299846
526.793815	2557.461365
527.155964	2570.904442
527.518057	2558.133519
527.880093	2548.051212
528.242072	2582.919192
528.603995	2564.939077
528.965860	2567.963769
529.327669	2563.678788
529.689421	2559.225769
530.051117	2567.459654
530.412755	2567.879750
530.774337	2558.133519
531.135862	2557.881462
531.497331	2576.113635
531.858743	2568.972000
532.220098	2574.013154
532.581396	2571.576596
532.942638	2564.266923
533.303824	2560.570077
533.664953	2575.021385
534.026025	2560.990173
534.387040	2561.326250
534.747999	2570.820423
535.108902	2565.611231
535.469748	2563.342712
535.830537	2566.619462
536.191270	2570.064250
536.551947	2567.207596
536.912567	2549.899635
537.273131	2567.039558
537.633638	2565.275154
537.994089	2551.496000
538.354483	2559.897923
538.714821	2555.276865
539.075103	2567.123577
539.435328	2570.148269
539.795497	2573.929135
540.155609	2557.377346
540.515665	2564.266923
540.875665	2554.016577
541.235609	2566.451423
541.595496	2579.138327
541.955328	2560.149981
542.315102	2564.687019
542.674821	2575.693538
543.034483	2561.158212
543.394090	2553.680500
543.753640	2561.242231
544.113134	2562.502519
544.472571	2565.779269
544.831953	2559.477827
545.191278	2564.939077
545.550548	2571.912673
545.909761	2573.593058
546.268918	2570.064250
546.628019	2560.822135
546.987064	2571.996692
547.346053	2568.467885
547.704986	2587.456231
548.063863	2568.972000
548.422684	2564.434962
548.781449	2560.149981
549.140158	2559.057731
549.498811	2563.678788
549.857408	2561.494288
550.215949	2566.535442
550.574434	2574.769327
550.932864	2574.685308
551.291237	2583.003212
551.649555	2568.972000
552.007817	2568.131808
552.366022	2573.509038
552.724173	2590.396904
553.082267	2564.182904
553.440305	2586.532019
553.798288	2553.848538
554.156215	2562.838596
554.514086	2568.972000
554.871902	2572.920904
555.229661	2583.507327
555.587365	2560.822135
555.945014	2562.250462
556.302606	2573.845115
556.660143	2570.904442
557.017625	2570.484346
557.375050	2560.149981
557.732421	2565.275154
558.089735	2578.970288
558.446994	2566.115346
558.804197	2561.830365
559.161345	2565.611231
559.518437	2572.248750
559.875474	2578.550192
560.232455	2567.207596
560.589381	2557.293327
560.946251	2566.367404
561.303065	2563.006635
561.659825	2569.056019
562.016528	2571.156500
562.373177	2565.695250
562.729770	2555.949019
563.086307	2562.922615
563.442789	2560.486058
563.799216	2552.252173
564.155587	2566.367404
564.511904	2572.836885
564.868164	2564.266923
565.224370	2572.080712
565.580520	2567.879750
565.936615	2575.945596
566.292654	2555.444904
566.648638	2557.965481
567.004567	2566.199365
567.360441	2562.334481
567.716260	2563.174673
568.072023	2571.744635
568.427732	2568.467885
568.783385	2566.031327
569.138982	2564.939077
569.494525	2555.696962
569.850013	2580.650673
570.205445	2564.098885
570.560823	2578.382154
570.916145	2563.258692
571.271412	2571.324538
571.626625	2581.070769
571.981782	2574.433250
572.336884	2577.121865
572.691931	2580.482635
573.046923	2566.955538
573.401860	2553.764519
573.756743	2557.965481
574.111570	2567.627692
574.466342	2573.341000
574.821059	2553.176385
575.175722	2569.644154
575.530330	2568.635923
575.884882	2557.041269
576.239380	2570.904442
576.593823	2571.492577
576.948211	2561.158212
577.302544	2579.894500
577.656823	2587.792308
578.011047	2566.955538
578.365216	2571.996692
578.719330	2557.797442
579.073389	2563.090654
579.427394	2554.856769
579.781344	2565.863288
580.135239	2572.584827
580.489080	2569.728173
580.842866	2561.326250
581.196597	2564.434962
581.550273	2563.762808
581.903895	2580.734692
582.257463	2561.998404
582.610975	2576.617750
582.964434	2557.209308
583.317837	2577.205885
583.671186	2562.418500
584.024481	2580.314596
584.377721	2567.291615
584.730906	2558.301558
585.084037	2571.240519
585.437113	2557.545385
585.790135	2569.056019
586.143103	2563.762808
586.496016	2554.604712
586.848874	2569.476115
587.201679	2584.095462
587.554428	2551.327962
587.907124	2570.568365
588.259765	2559.141750
588.612352	2575.357462
588.964884	2569.560135
589.317362	2565.191135
589.669786	2568.887981
590.022155	2561.662327
590.374470	2564.350942
590.726731	2566.283385
591.078937	2571.912673
591.431090	2573.256981
591.783188	2579.978519
592.135232	2560.234000
592.487222	2560.149981
592.839157	2574.013154
593.191038	2577.710000
593.542866	2567.963769
593.894639	2569.896212
594.246358	2561.830365
594.598022	2573.425019
594.949633	2571.156500
595.301190	2578.802250
595.652692	2589.556712
596.004141	2572.584827
596.355535	2566.283385
596.706876	2560.234000
597.058162	2563.426731
597.409395	2572.080712
597.760573	2563.258692
598.111698	2573.004923
598.462768	2545.698673
598.813785	2576.365692
599.164748	2571.996692
599.515657	2567.711712
599.866511	2560.654096
600.217312	2562.922615
600.568060	2559.981942
600.918753	2575.525500
601.269392	2560.486058
601.619978	2571.744635
601.970510	2560.318019
602.320988	2566.199365
602.671412	2571.576596
603.021783	2566.115346
603.372100	2574.013154
603.722363	2557.293327
604.072572	2567.375635
604.422728	2551.411981
604.772830	2569.224058
605.122878	2561.998404
605.472872	2568.467885
605.822813	2561.578308
606.172701	2559.057731
606.522534	2579.558423
606.872314	2561.578308
607.222041	2563.762808
607.571714	2561.662327
607.921333	2583.591346
608.270899	2555.696962
608.620411	2563.174673
608.969870	2567.543673
609.319276	2568.299846
609.668627	2572.752865
610.017926	2571.828654
610.367171	2569.308077
610.716362	2578.130096
611.065500	2570.904442
611.414585	2569.140038
611.763616	2568.047788
612.112594	2572.584827
612.461518	2569.308077
612.810389	2574.517269
613.159207	2569.056019
613.507971	2563.174673
613.856682	2552.420212
614.205340	2563.930846
614.553945	2554.856769
614.902496	2562.586538
615.250994	2567.375635
615.599439	2577.037846
615.947830	2559.561846
616.296169	2571.324538
616.644454	2562.502519
616.992686	2569.644154
617.340864	2562.250462
617.688990	2567.543673
618.037063	2576.869808
618.385082	2575.189423
618.733048	2568.551904
619.080961	2569.476115
619.428821	2554.856769
619.776628	2573.004923
620.124382	2573.509038
620.472083	2572.416788
620.819731	2567.963769
621.167326	2557.461365
621.514868	2583.339288
621.862357	2572.080712
622.209793	2552.924327
622.557176	2565.191135
622.904506	2561.494288
623.251783	2565.779269
623.599007	2553.344423
623.946179	2571.072481
624.293297	2571.408558
624.640363	2564.603000
624.987376	2564.266923
625.334336	2554.688731
625.681243	2549.815615
626.028097	2565.779269
626.374899	2559.393808
626.721647	2570.316308
627.068343	2560.738115
627.414987	2563.342712
627.761577	2567.291615
628.108115	2566.535442
628.454600	2566.955538
628.801032	2570.736404
629.147412	2561.746346
629.493739	2571.408558
629.840014	2553.680500
630.186236	2569.140038
630.532405	2583.423308
630.878521	2568.047788
631.224585	2572.248750
631.570597	2557.713423
631.916556	2574.433250
632.262462	2583.759385
632.608316	2573.761096
632.954117	2565.527212
633.299866	2566.115346
633.645562	2572.500808
633.991206	2571.492577
634.336797	2559.057731
634.682336	2559.393808
635.027823	2566.871519
635.373257	2575.357462
635.718639	2566.031327
636.063968	2576.449712
636.409245	2556.957250
636.754470	2568.551904
637.099642	2566.703481
637.444762	2580.818712
637.789829	2570.988462
638.134845	2566.031327
638.479808	2574.601288
638.824719	2553.428442
639.169577	2569.644154
639.514383	2571.828654
639.859137	2564.687019
640.203839	2562.670558
640.548489	2571.996692
640.893086	2570.148269
641.237632	2558.805673
641.582125	2558.973712
641.926566	2580.230577
642.270955	2562.922615
642.615292	2575.441481
642.959576	2573.341000
643.303809	2576.785788
643.647990	2568.299846
643.992118	2567.711712
644.336195	2580.062538
644.680219	2565.275154
645.024192	2570.652385
645.368112	2557.797442
645.711981	2578.550192
646.055797	2564.771038
646.399562	2576.953827
646.743274	2568.719942
647.086935	2561.998404
647.430544	2572.164731
647.774101	2560.822135
648.117606	2574.685308
648.461059	2564.014865
648.804460	2564.434962
649.147810	2559.141750
649.491108	2557.545385
649.834354	2567.711712
650.177548	2568.131808
650.520690	2571.660615
650.863781	2569.896212
651.206820	2575.273442
651.549807	2554.940788
651.892742	2562.838596
652.235626	2571.324538
652.578458	2563.342712
652.921238	2563.510750
653.263967	2557.713423
653.606644	2557.881462
653.949269	2562.754577
654.291843	2570.232288
654.634365	2551.243942
654.976836	2568.551904
655.319255	2573.004923
655.661622	2572.584827
656.003938	2566.535442
656.346203	2564.855058
656.688416	2557.125288
657.030577	2575.945596
657.372687	2575.945596
657.714746	2582.499096
658.056753	2555.528923
658.398708	2564.771038
658.740612	2553.092365
659.082465	2576.953827
659.424266	2580.566654
659.766016	2557.125288
660.107715	2578.214115
660.449362	2547.463077
660.790958	2558.385577
661.132503	2551.243942
661.473996	2572.248750
661.815438	2559.981942
662.156829	2578.634212
662.498168	2577.121865
662.839456	2571.408558
663.180693	2559.729885
663.521879	2563.762808
663.863013	2575.441481
664.204097	2568.131808
664.545129	2553.176385
664.886110	2565.275154
665.227040	2560.570077
665.567918	2577.121865
665.908746	2581.154788
666.249522	2571.996692
666.590248	2582.667135
666.930922	2559.057731
667.271545	2578.550192
667.612118	2559.645865
667.952639	2574.685308
668.293109	2580.146558
668.633528	2568.551904
668.973896	2554.100596
669.314213	2568.383865
669.654480	2558.385577
669.994695	2566.619462
670.334859	2556.201077
670.674973	2569.896212
671.015035	2561.830365
671.355047	2561.410269
671.695008	2545.782692
672.034918	2573.004923
672.374777	2560.990173
672.714585	2573.845115
673.054342	2571.240519
673.394049	2564.182904
673.733705	2563.762808
674.073310	2581.406846
674.412864	2573.593058
674.752368	2562.754577
675.091820	2574.013154
675.431223	2555.865000
675.770574	2572.920904
676.109875	2573.172962
676.449125	2568.551904
676.788324	2563.594769
677.127473	2574.433250
677.466571	2564.518981
677.805619	2571.576596
678.144616	2559.141750
678.483562	2560.990173
678.822458	2557.881462
679.161303	2564.855058
679.500098	2565.863288
679.838842	2572.080712
680.177535	2562.586538
680.516179	2565.359173
680.854771	2566.283385
681.193314	2561.074192
681.531805	2571.576596
681.870247	2578.550192
682.208638	2561.074192
682.546978	2582.415077
682.885268	2563.846827
683.223508	2571.240519
683.561697	2575.693538
683.899836	2584.347519
684.237925	2563.342712
684.575963	2561.662327
684.913951	2578.382154
685.251889	2555.612942
685.589776	2557.545385
685.927614	2565.611231
686.265401	2579.642442
686.603137	2576.533731
686.940824	2583.591346
687.278460	2573.256981
687.616046	2569.560135
687.953582	2572.332769
688.291068	2573.425019
688.628504	2565.611231
688.965889	2566.787500
689.303224	2560.906154
689.640510	2573.341000
689.977745	2582.163019
690.314930	2550.067673
690.652065	2565.359173
690.989150	2568.803962
691.326185	2569.812192
691.663170	2558.385577
692.000105	2574.265212
692.336990	2572.248750
692.673825	2573.509038
693.010610	2558.133519
693.347345	2557.209308
693.684030	2564.266923
694.020665	2559.561846
694.357251	2556.705192
694.693786	2560.402038
695.030272	2562.670558
695.366707	2562.082423
695.703093	2568.972000
696.039429	2579.138327
696.375716	2568.803962
696.711952	2554.268635
697.048139	2571.156500
697.384276	2550.235712
697.720363	2568.551904
698.056400	2567.879750
698.392388	2567.207596
698.728326	2561.494288
699.064214	2574.769327
699.400053	2562.334481
699.735842	2577.457942
700.071581	2558.553615
700.407270	2564.098885
700.742910	2587.204173
701.078501	2557.377346
701.414042	2569.560135
701.749533	2567.627692
702.084974	2572.164731
702.420366	2574.601288
702.755709	2556.705192
703.091002	2566.955538
703.426246	2556.705192
703.761440	2561.914385
704.096584	2552.420212
704.431679	2561.662327
704.766725	2567.375635
705.101721	2556.369115
705.436668	2566.367404
705.771565	2555.192846
706.106413	2566.619462
706.441212	2563.930846
706.775961	2560.402038
707.110661	2556.537154
707.445311	2567.543673
707.779913	2556.957250
708.114465	2565.947308
708.448967	2564.434962
708.783421	2547.379058
709.117825	2577.794019
709.452180	2573.004923
709.786485	2558.385577
710.120742	2577.205885
710.454949	2563.762808
710.789107	2562.334481
711.123216	2563.930846
711.457275	2570.400327
711.791286	2583.507327
712.125247	2553.932558
712.459159	2553.764519
712.793023	2572.836885
713.126837	2557.461365
713.460602	2558.553615
713.794318	2569.224058
714.127985	2574.853346
714.461602	2576.365692
714.795171	2562.838596
715.128691	2551.748058
715.462162	2577.205885
715.795584	2555.949019
716.128957	2579.054308
716.462281	2578.466173
716.795556	2557.545385
717.128782	2579.642442
717.461960	2560.990173
717.795088	2565.443192
718.128167	2572.248750
718.461198	2549.647577
718.794180	2557.461365
719.127113	2550.991885
719.459997	2575.777558
719.792833	2565.275154
720.125619	2565.023096
720.458357	2548.639346
720.791046	2562.502519
721.123686	2552.252173
721.456278	2553.428442
721.788821	2560.738115
722.121315	2558.049500
722.453761	2568.719942
722.786158	2566.955538
723.118506	2578.382154
723.450805	2556.285096
723.783056	2562.502519
724.115259	2557.125288
724.447412	2555.612942
724.779518	2559.057731
725.111574	2567.123577
725.443582	2558.385577
725.775542	2552.924327
726.107453	2561.494288
726.439315	2578.298135
726.771129	2591.069058
727.102895	2563.510750
727.434612	2568.215827
727.766281	2572.248750
728.097901	2569.560135
728.429473	2551.327962
728.760996	2569.056019
729.092471	2570.232288
729.423897	2578.634212
729.755276	2564.266923
730.086606	2575.525500
730.417887	2565.107115
730.749120	2568.467885
731.080305	2568.719942
731.411442	2564.014865
731.742530	2564.098885
732.073570	2566.199365
732.404562	2553.428442
732.735506	2558.637635
733.066401	2554.268635
733.397249	2563.510750
733.728048	2552.924327
734.058798	2564.771038
734.389501	2561.242231
734.720156	2570.652385
735.050762	2554.352654
735.381320	2580.566654
735.711831	2569.728173
736.042293	2546.790923
736.372707	2564.603000
736.703073	2556.789212
737.033391	2572.416788
737.363661	2564.687019
737.693883	2568.719942
738.024056	2568.131808
738.354182	2568.047788
738.684260	2571.576596
739.014290	2551.664038
739.344272	2565.275154
739.674207	2556.369115
740.004093	2574.769327
740.333931	2557.545385
740.663722	2562.250462
740.993464	2562.418500
741.323159	2566.703481
741.652806	2553.428442
741.982405	2564.182904
742.311956	2569.980231
742.641460	2552.840308
742.970915	2557.965481
743.300323	2571.660615
743.629683	2581.406846
743.958996	2567.291615
744.288260	2562.334481
744.617477	2554.940788
744.946647	2550.823846
745.275768	2572.248750
745.604842	2569.476115
745.933869	2574.349231
746.262847	2569.644154
746.591778	2561.494288
746.920662	2580.314596
747.249498	2556.621173
747.578286	2562.586538
747.907027	2557.881462
748.235720	2571.072481
748.564365	2564.350942
748.892963	2562.838596
749.221514	2554.100596
749.550017	2562.670558
749.878473	2573.256981
750.206881	2577.541962
750.535242	2553.008346
750.863555	2569.980231
751.191821	2561.998404
751.520039	2567.375635
751.848210	2562.166442
752.176334	2567.963769
752.504411	2556.201077
752.832440	2570.232288
753.160421	2559.897923
753.488356	2549.731596
753.816243	2561.494288
754.144082	2571.240519
754.471875	2574.265212
754.799620	2550.907865
755.127318	2560.990173
755.454969	2567.795731
755.782572	2562.502519
756.110129	2572.080712
756.437638	2553.848538
756.765100	2567.795731
757.092515	2565.443192
757.419882	2573.256981
757.747203	2564.687019
758.074477	2571.576596
758.401703	2543.682212
758.728882	2572.752865
759.056014	2578.970288
759.383099	2568.215827
759.710138	2564.518981
760.037129	2561.074192
760.364073	2555.192846
760.690970	2572.416788
761.017820	2567.123577
761.344623	2560.654096
761.671379	2559.561846
761.998088	2559.897923
762.324751	2584.431538
762.651366	2550.571788
762.977935	2570.316308
763.304456	2556.033038
763.630931	2569.644154
763.957359	2569.224058
764.283740	2564.014865
764.610074	2570.904442
764.936362	2563.678788
765.262602	2577.121865
765.588796	2573.509038
765.914943	2566.115346
766.241044	2560.906154
766.567097	2581.238808
766.893104	2567.459654
767.219064	2565.863288
767.544978	2553.932558
767.870845	2575.189423
768.196665	2560.738115
768.522438	2572.584827
768.848165	2564.182904
769.173846	2559.393808
769.499479	2561.662327
769.825066	2557.965481
770.150607	2560.402038
770.476101	2559.897923
770.801548	2576.449712
771.126949	2562.166442
771.452303	2566.703481
771.777611	2548.891404
772.102872	2565.443192
772.428087	2569.980231
772.753256	2574.433250
773.078378	2570.568365
773.403453	2571.912673
773.728482	2575.357462
774.053465	2571.660615
774.378401	2554.772750
774.703291	2573.425019
775.028135	2570.988462
775.352932	2563.174673
775.677683	2576.029615
776.002388	2572.920904
776.327046	2570.652385
776.651658	2565.443192
776.976224	2550.319731
777.300743	2555.696962
777.625216	2568.551904
777.949643	2563.090654
778.274024	2556.789212
778.598359	2562.670558
778.922647	2539.733308
779.246889	2551.916096
779.571086	2571.240519
779.895236	2570.316308
780.219339	2558.973712
780.543397	2551.243942
780.867409	2568.383865
781.191374	2562.502519
781.515294	2565.611231
781.839167	2552.756288
782.162995	2549.479538
782.486776	2569.644154
782.810511	2551.748058
783.134201	2565.863288
783.457844	2556.789212
783.781441	2568.467885
784.104993	2553.260404
784.428498	2554.856769
784.751958	2564.855058
785.075372	2555.360885
785.398739	2575.273442
785.722061	2570.988462
786.045337	2555.360885
786.368568	2567.963769
786.691752	2563.762808
787.014891	2578.046077
787.337983	2560.402038
787.661030	2563.258692
787.984031	2558.973712
788.306987	2563.258692
788.629897	2570.568365
788.952760	2561.410269
789.275579	2552.756288
789.598351	2577.205885
789.921078	2570.652385
790.243759	2548.051212
790.566395	2572.752865
790.888984	2555.276865
791.211529	2560.738115
791.534027	2550.907865
791.856480	2548.051212
792.178888	2561.998404
792.501249	2548.051212
792.823566	2561.158212
793.145836	2551.832077
793.468062	2565.527212
793.790241	2563.594769
794.112375	2567.627692
794.434464	2555.696962
794.756507	2561.410269
795.078505	2550.067673
795.400457	2560.234000
795.722364	2560.990173
796.044226	2559.813904
796.366042	2567.039558
796.687812	2559.141750
797.009538	2564.098885
797.331218	2555.360885
797.652852	2558.805673
797.974442	2559.309788
798.295986	2560.822135
798.617484	2558.721654
798.938938	2561.578308
799.260346	2571.744635
799.581709	2578.046077
799.903026	2572.332769
800.224299	2559.813904
800.545526	2546.118769
800.866708	2571.576596
801.187845	2560.234000
801.508936	2548.555327
801.829983	2552.000115
802.150984	2570.904442
802.471940	2566.955538
802.792851	2557.965481
803.113717	2587.120154
803.434538	2554.268635
803.755314	2565.275154
804.076045	2541.161635
804.396731	2561.326250
804.717372	2566.955538
805.037967	2549.563558
805.358518	2555.276865
805.679024	2574.937365
805.999485	2569.224058
806.319901	2565.947308
806.640272	2549.311500
806.960598	2585.103692
807.280879	2558.889692
807.601115	2558.385577
807.921306	2558.469596
808.241453	2577.289904
808.561554	2544.354365
808.881611	2565.695250
809.201623	2574.769327
809.521590	2560.149981
809.841513	2565.191135
810.161390	2547.883173
810.481223	2552.252173
810.801011	2558.973712
811.120755	2558.133519
811.440453	2568.972000
811.760107	2556.201077
812.079716	2551.664038
812.399281	2562.754577
812.718801	2565.359173
813.038276	2562.922615
813.357707	2566.703481
813.677093	2561.662327
813.996434	2567.879750
814.315731	2552.168154
814.634983	2555.192846
814.954191	2556.789212
815.273354	2563.342712
815.592473	2562.838596
815.911547	2563.090654
816.230577	2564.771038
816.549562	2546.118769
816.868502	2554.856769
817.187399	2574.853346
817.506250	2563.594769
817.825058	2567.123577
818.143821	2568.467885
818.462539	2560.486058
818.781213	2572.080712
819.099843	2547.547096
819.418429	2563.762808
819.736970	2550.739827
820.055466	2557.713423
820.373919	2569.056019
820.692327	2563.930846
821.010691	2554.940788
821.329011	2570.736404
821.647286	2552.588250
821.965517	2556.201077
822.283704	2557.629404
822.601847	2564.182904
822.919945	2571.072481
823.237999	2566.703481
823.556010	2547.547096
823.873976	2545.782692
824.191897	2564.603000
824.509775	2570.316308
824.827609	2556.537154
825.145398	2551.832077
825.463144	2572.248750
825.780845	2551.748058
826.098502	2574.769327
826.416116	2565.191135
826.733685	2539.733308
827.051210	2548.723365
827.368692	2565.695250
827.686129	2558.973712
828.003522	2553.092365
828.320872	2559.561846
828.638177	2557.461365
828.955439	2568.047788
829.272656	2558.889692
829.589830	2554.856769
829.906960	2559.813904
830.224046	2554.016577
830.541088	2569.644154
830.858086	2565.023096
831.175041	2567.375635
831.491952	2568.887981
831.808819	2556.537154
832.125642	2554.856769
832.442421	2545.194558
832.759157	2567.039558
833.075849	2550.403750
833.392497	2552.840308
833.709101	2553.764519
834.025662	2556.705192
834.342179	2567.795731
834.658653	2564.518981
834.975083	2558.385577
835.291469	2602.663712
835.607811	2561.242231
835.924110	2554.016577
836.240366	2567.459654
836.556578	2566.535442
836.872746	2569.980231
837.188871	2553.848538
837.504952	2566.619462
837.820990	2568.467885
838.136984	2569.224058
838.452935	2551.748058
838.768842	2544.522404
839.084706	2560.990173
839.400526	2560.065962
839.716303	2551.075904
840.032037	2559.981942
840.347727	2561.998404
840.663373	2563.930846
840.978977	2557.965481
841.294537	2555.696962
841.610054	2564.603000
841.925527	2559.729885
842.240957	2571.744635
842.556344	2563.006635
842.871687	2559.897923
843.186987	2559.309788
843.502244	2560.486058
843.817458	2562.922615
844.132629	2563.426731
844.447756	2567.207596
844.762840	2573.004923
845.077881	2556.621173
845.392879	2551.748058
845.707833	2567.879750
846.022745	2556.369115
846.337613	2566.199365
846.652438	2562.586538
846.967221	2563.762808
847.281960	2560.149981
847.596656	2543.850250
847.911309	2562.922615
848.225919	2564.014865
848.540485	2552.168154
848.855009	2566.871519
849.169490	2556.621173
849.483928	2554.772750
849.798323	2557.377346
850.112675	2573.677077
850.426984	2573.341000
850.741251	2550.991885
851.055474	2557.125288
851.369654	2558.721654
851.683792	2568.131808
851.997887	2566.535442
852.311938	2554.016577
852.625947	2550.067673
852.939914	2559.477827
853.253837	2549.479538
853.567718	2570.400327
853.881555	2561.578308
854.195350	2561.074192
854.509103	2556.285096
854.822812	2553.008346
855.136479	2559.393808
855.450103	2558.973712
855.763685	2564.182904
856.077224	2560.570077
856.390720	2560.149981
856.704173	2581.658904
857.017584	2551.075904
857.330953	2552.588250
857.644278	2553.344423
857.957561	2569.392096
858.270802	2566.955538
858.584000	2557.209308
858.897155	2549.647577
859.210268	2563.930846
859.523339	2546.874942
859.836367	2562.922615
860.149352	2547.967192
860.462295	2564.434962
860.775195	2572.080712
861.088054	2551.832077
861.400869	2540.069385
861.713642	2560.234000
862.026373	2552.840308
862.339062	2561.074192
862.651708	2564.014865
862.964312	2558.049500
863.276873	2566.619462
863.589392	2549.815615
863.901869	2569.392096
864.214303	2564.434962
864.526696	2556.789212
864.839045	2552.504231
865.151353	2564.687019
865.463619	2569.812192
865.775842	2558.637635
866.088023	2568.299846
866.400162	2559.645865
866.712258	2564.603000
867.024313	2557.209308
867.336325	2556.957250
867.648296	2555.108827
867.960224	2557.545385
868.272110	2548.975423
868.583954	2578.634212
868.895755	2567.291615
869.207515	2545.782692
869.519233	2566.367404
869.830909	2559.057731
870.142542	2546.286808
870.454134	2569.728173
870.765684	2555.612942
871.077191	2566.619462
871.388657	2550.907865
871.700081	2554.436673
872.011463	2551.411981
872.322803	2556.453135
872.634101	2545.866712
872.945357	2565.359173
873.256571	2562.838596
873.567744	2551.748058
873.878874	2574.349231
874.189963	2561.242231
874.501010	2563.678788
874.812015	2559.897923
875.122979	2561.662327
875.433900	2550.655808
875.744780	2554.016577
876.055618	2563.594769
876.366415	2556.033038
876.677169	2566.955538
876.987882	2562.082423
877.298554	2555.865000
877.609183	2562.334481
877.919771	2532.507654
878.230317	2560.570077
878.540822	2571.492577
878.851285	2550.739827
879.161707	2561.074192
879.472087	2560.738115
879.782425	2556.873231
880.092722	2557.041269
880.402977	2574.013154
880.713191	2557.797442
881.023363	2575.105404
881.333494	2548.471308
881.643583	2555.192846
881.953631	2571.576596
882.263637	2559.813904
882.573602	2551.664038
882.883526	2561.998404
883.193408	2568.635923
883.503248	2558.553615
883.813048	2556.033038
884.122806	2569.812192
884.432522	2551.411981
884.742197	2570.484346
885.051831	2557.545385
885.361424	2579.978519
885.670975	2555.276865
885.980485	2563.426731
886.289954	2567.627692
886.599382	2561.158212
886.908768	2571.828654
887.218113	2560.065962
887.527417	2565.863288
887.836680	2553.596481
888.145901	2560.234000
888.455082	2549.563558
888.764221	2542.758000
889.073319	2546.538865
889.382376	2561.914385
889.691392	2570.988462
890.000366	2562.502519
890.309300	2574.181192
890.618193	2551.916096
890.927044	2566.115346
891.235855	2548.051212
891.544625	2563.594769
891.853353	2574.853346
892.162041	2570.484346
892.470687	2556.789212
892.779293	2548.471308
893.087858	2562.334481
893.396381	2556.201077
893.704864	2558.889692
894.013306	2548.135231
894.321707	2555.024808
894.630068	2557.461365
894.938387	2566.115346
895.246665	2560.065962
895.554903	2555.949019
895.863100	2555.780981
896.171256	2556.453135
896.479371	2567.795731
896.787446	2568.467885
897.095480	2553.680500
897.403473	2564.182904
897.711425	2557.797442
898.019336	2551.580019
898.327207	2565.359173
898.635038	2561.746346
898.942827	2554.604712
899.250576	2562.670558
899.558284	2561.074192
899.865952	2557.461365
900.173579	2553.428442
900.481165	2551.327962
900.788711	2560.654096
901.096216	2561.914385
901.403681	2558.133519
901.711105	2575.357462
902.018489	2560.402038
902.325832	2561.578308
902.633135	2571.072481
902.940397	2546.370827
903.247619	2565.191135
903.554800	2563.510750
903.861941	2565.191135
904.169041	2574.097173
904.476101	2563.678788
904.783121	2547.042981
905.090100	2547.967192
905.397039	2574.433250
905.703938	2559.561846
906.010796	2567.123577
906.317614	2556.369115
906.624391	2561.746346
906.931129	2546.958962
907.237826	2556.033038
907.544483	2557.881462
907.851099	2555.949019
908.157675	2561.494288
908.464211	2556.285096
908.770707	2564.939077
909.077163	2557.797442
909.383578	2566.535442
909.689954	2564.350942
909.996289	2555.780981
910.302584	2554.352654
910.608839	2557.713423
910.915054	2561.578308
911.221229	2561.074192
911.527363	2551.664038
911.833458	2553.764519
912.139513	2548.135231
912.445527	2557.125288
912.751502	2557.209308
913.057436	2560.822135
913.363331	2554.352654
913.669186	2570.820423
913.975000	2554.520692
914.280775	2573.509038
914.586510	2551.243942
914.892205	2574.937365
915.197859	2565.023096
915.503475	2561.998404
915.809050	2560.570077
916.114585	2560.402038
916.420081	2560.654096
916.725536	2549.647577
917.030952	2556.789212
917.336328	2541.665750
917.641665	2560.149981
917.946961	2555.192846
918.252218	2566.787500
918.557435	2543.010058
918.862612	2581.238808
919.167750	2560.149981
919.472848	2564.518981
919.777906	2538.641058
920.082925	2556.453135
920.387904	2555.528923
920.692843	2537.800865
920.997743	2540.573500
921.302603	2559.981942
921.607423	2564.182904
921.912204	2572.416788
922.216946	2550.319731
922.521647	2569.560135
922.826310	2564.350942
923.130932	2569.140038
923.435516	2552.336192
923.740059	2566.367404
924.044564	2570.988462
924.349028	2555.612942
924.653454	2557.797442
924.957840	2556.117058
925.262186	2559.393808
925.566493	2566.115346
925.870761	2551.580019
926.174989	2562.250462
926.479178	2560.149981
926.783328	2563.426731
927.087438	2553.932558
927.391509	2565.611231
927.695541	2568.887981
927.999533	2556.117058
928.303486	2566.955538
928.607400	2563.846827
928.911275	2574.937365
929.215110	2558.217538
929.518906	2565.947308
929.822663	2561.242231
930.126381	2550.571788
930.430060	2563.090654
930.733699	2558.889692
931.037299	2549.059442
931.340861	2564.939077
931.644383	2559.141750
931.947866	2552.924327
932.251309	2563.510750
932.554714	2569.644154
932.858080	2559.897923
933.161407	2553.428442
933.464694	2574.265212
933.767943	2548.555327
934.071153	2558.637635
934.374323	2551.580019
934.677455	2576.869808
934.980548	2561.914385
935.283602	2552.168154
935.586617	2559.897923
935.889593	2557.713423
936.192530	2559.141750
936.495428	2555.780981
936.798287	2571.072481
937.101108	2553.512462
937.403890	2557.041269
937.706632	2559.561846
938.009336	2552.168154
938.312002	2553.428442
938.614628	2557.881462
938.917216	2563.174673
939.219765	2564.350942
939.522275	2549.563558
939.824747	2558.049500
940.127179	2556.621173
940.429573	2561.494288
940.731929	2558.721654
941.034246	2555.696962
941.336524	2555.780981
941.638763	2570.736404
941.940964	2563.174673
942.243126	2557.545385
942.545250	2556.537154
942.847335	2564.350942
943.149381	2565.695250
943.451389	2569.392096
943.753359	2556.285096
944.055290	2570.568365
944.357182	2554.772750
944.659036	2553.680500
944.960851	2564.855058
945.262628	2564.939077
945.564367	2544.522404
945.866067	2555.024808
946.167729	2560.486058
946.469352	2547.715135
946.770937	2568.131808
947.072484	2560.906154
947.373992	2545.782692
947.675462	2554.940788
947.976893	2562.586538
948.278286	2561.158212
948.579641	2562.838596
948.880958	2553.932558
949.182236	2562.838596
949.483476	2544.942500
949.784678	2554.436673
950.085841	2553.260404
950.386967	2557.377346
950.688054	2551.496000
950.989103	2553.680500
951.290114	2551.748058
951.591087	2543.430154
951.892021	2558.973712
952.192917	2547.547096
952.493776	2553.092365
952.794596	2557.125288
953.095378	2564.939077
953.396122	2549.143462
953.696828	2546.370827
953.997496	2564.855058
954.298126	2561.662327
954.598718	2547.967192
954.899272	2557.629404
955.199788	2555.360885
955.500266	2572.248750
955.800706	2565.947308
956.101108	2543.346135
956.401472	2563.426731
956.701798	2564.098885
957.002087	2547.799154
957.302337	2549.563558
957.602550	2564.182904
957.902724	2550.235712
958.202861	2553.680500
958.502960	2568.887981
958.803022	2551.327962
959.103045	2547.042981
959.403031	2563.762808
959.702979	2567.207596
960.002889	2569.728173
960.302762	2562.418500
960.602596	2557.629404
960.902393	2578.970288
961.202153	2563.846827
961.501875	2547.631115
961.801559	2560.149981
962.101205	2548.555327
962.400814	2553.596481
962.700385	2554.100596
962.999918	2548.723365
963.299414	2552.672269
963.598873	2573.088942
963.898293	2559.813904
964.197677	2561.326250
964.497022	2559.309788
964.796331	2569.056019
965.095601	2552.504231
965.394835	2545.194558
965.694030	2568.551904
965.993189	2549.731596
966.292309	2562.502519
966.591393	2563.426731
966.890439	2564.098885
967.189447	2559.729885
967.488419	2557.209308
967.787353	2532.255596
968.086249	2544.018288
968.385108	2545.950731
968.683930	2547.463077
968.982714	2566.703481
969.281462	2549.311500
969.580172	2550.151692
969.878844	2552.924327
970.177480	2561.914385
970.476078	2569.812192
970.774639	2551.580019
971.073162	2550.823846
971.371649	2547.799154
971.670098	2552.420212
971.968510	2568.972000
972.266885	2558.553615
972.565223	2560.654096
972.863524	2547.631115
973.161788	2553.932558
973.460014	2560.149981
973.758204	2560.654096
974.056356	2563.594769
974.354471	2546.034750
974.652550	2543.850250
974.950591	2550.991885
975.248595	2560.486058
975.546563	2563.426731
975.844493	2563.930846
976.142386	2549.143462
976.440243	2542.926038
976.738062	2575.693538
977.035845	2539.565269
977.333590	2566.619462
977.631299	2555.360885
977.928971	2558.385577
978.226606	2557.209308
978.524204	2573.677077
978.821765	2558.553615
979.119290	2566.619462
979.416777	2579.894500
979.714228	2554.268635
980.011642	2561.578308
980.309020	2560.990173
980.606360	2547.211019
980.903664	2552.504231
981.200931	2547.631115
981.498162	2557.377346
981.795356	2548.303269
982.092513	2561.326250
982.389633	2560.906154
982.686717	2575.273442
982.983764	2552.000115
983.280775	2542.589962
983.577749	2536.036462
983.874686	2548.135231
984.171587	2550.487769
984.468451	2556.369115
984.765279	2549.983654
985.062070	2558.049500
985.358824	2550.151692
985.655543	2563.762808
985.952224	2555.024808
986.248869	2568.215827
986.545478	2551.327962
986.842050	2552.588250
987.138586	2551.664038
987.435086	2542.253885
987.731549	2541.833788
988.027975	2558.973712
988.324366	2541.581731
988.620719	2552.588250
988.917037	2553.344423
989.213318	2553.092365
989.509563	2551.243942
989.805772	2551.832077
990.101944	2552.588250
990.398080	2538.557038
990.694180	2559.225769
990.990244	2553.176385
991.286271	2550.655808
991.582262	2557.377346
991.878217	2544.942500
992.174136	2555.865000
992.470019	2562.418500
992.765865	2552.756288
993.061676	2551.832077
993.357450	2558.469596
993.653188	2556.621173
993.948890	2565.611231
994.244556	2547.295038
994.540186	2553.932558
994.835780	2560.570077
995.131337	2565.611231
995.426859	2549.395519
995.722345	2552.084135
996.017795	2556.369115
996.313208	2562.754577
996.608586	2564.434962
996.903928	2537.632827
997.199234	2561.074192
997.494504	2549.059442
997.789738	2547.799154
998.084936	2547.127000
998.380099	2538.389000
998.675225	2539.397231
998.970316	2541.581731
999.265371	2553.428442
999.560390	2559.393808
999.855373	2558.301558
1000.150320	2552.840308
1000.445232	2563.258692
1000.740108	2550.571788
1001.034948	2565.107115
1001.329752	2562.082423
1001.624521	2564.434962
1001.919254	2550.151692
1002.213951	2570.064250
1002.508613	2559.225769
1002.803239	2544.690442
1003.097829	2549.059442
1003.392384	2544.690442
1003.686903	2563.594769
1003.981386	2569.056019
1004.275834	2564.687019
1004.570246	2568.131808
1004.864623	2552.924327
1005.158964	2555.696962
1005.453270	2543.934269
1005.747540	2577.121865
1006.041775	2555.696962
1006.335974	2561.662327
1006.630138	2548.219250
1006.924266	2552.000115
1007.218359	2543.262115
1007.512416	2563.090654
1007.806438	2553.848538
1008.100425	2552.420212
1008.394376	2549.311500
1008.688292	2555.276865
1008.982172	2555.528923
1009.276017	2563.006635
1009.569827	2557.713423
1009.863602	2560.486058
1010.157341	2559.645865
1010.451045	2555.192846
1010.744714	2551.664038
1011.038347	2563.762808
1011.331945	2556.369115
1011.625508	2559.645865
1011.919036	2560.570077
1012.212528	2561.746346
1012.505986	2544.102308
1012.799408	2552.084135
1013.092795	2553.344423
1013.386147	2564.098885
1013.679464	2552.084135
1013.972745	2563.174673
1014.265992	2549.815615
1014.559204	2559.981942
1014.852380	2546.622885
1015.145521	2549.059442
1015.438628	2559.309788
1015.731699	2569.056019
1016.024736	2554.940788
1016.317737	2555.949019
1016.610703	2550.823846
1016.903635	2556.705192
1017.196531	2555.780981
1017.489393	2547.042981
1017.782219	2563.090654
1018.075011	2553.764519
1018.367768	2557.713423
1018.660490	2569.308077
1018.953177	2569.308077
1019.245829	2569.308077
