Dividing Wavelength (nm)	Counts (n)	Slit_number_19_of_a_total_of_40	
326.493990	2049.985212
326.888308	2049.985212
327.282561	2049.985212
327.676750	2044.439942
328.070874	2022.510923
328.464933	2048.976981
328.858929	2043.683769
329.252859	2055.278423
329.646726	2044.439942
330.040528	2049.985212
330.434265	2083.004769
330.827938	2105.689962
331.221547	2139.717750
331.615091	2128.123096
332.008571	2196.430731
332.401986	2192.649865
332.795338	2226.929712
333.188625	2230.206462
333.581847	2261.713673
333.975006	2260.705442
334.368100	2295.489404
334.761129	2312.629327
335.154095	2298.009981
335.546996	2333.046000
335.939833	2350.690038
336.332606	2363.292923
336.725315	2363.040865
337.117960	2380.684904
337.510540	2394.800135
337.903056	2381.945192
338.295508	2420.257962
338.687896	2422.526481
339.080220	2431.852615
339.472480	2435.633481
339.864676	2424.795000
340.256807	2441.682865
340.648875	2426.307346
341.040879	2463.611885
341.432818	2427.819692
341.824694	2460.587192
342.216506	2429.332038
342.608253	2444.959615
342.999937	2439.666404
343.391557	2429.332038
343.783113	2445.967846
344.174605	2434.625250
344.566033	2457.310442
344.957397	2442.186981
345.348697	2434.625250
345.739934	2438.154058
346.131106	2446.219904
346.522215	2426.559404
346.913260	2447.732250
347.304241	2445.463731
347.695159	2420.257962
348.086012	2422.022365
348.476802	2399.337173
348.867528	2414.964750
349.258191	2420.005904
349.648789	2418.241500
350.039324	2398.833058
350.429796	2408.159192
350.820203	2406.646846
351.210548	2423.282654
351.600828	2403.370096
351.991045	2412.696231
352.381198	2411.688000
352.771288	2420.762077
353.161314	2428.071750
353.551276	2402.361865
353.941175	2427.315577
354.331010	2417.737385
354.720782	2402.613923
355.110490	2424.290885
355.500135	2408.663308
355.889717	2393.791904
356.279235	2398.833058
356.668689	2435.381423
357.058080	2411.435942
357.447408	2403.370096
357.836672	2420.257962
358.225873	2401.857750
358.615010	2417.737385
359.004084	2405.386558
359.393095	2424.795000
359.782043	2433.112904
360.170927	2426.055288
360.559748	2417.737385
360.948505	2412.192115
361.337199	2413.452404
361.725830	2418.493558
362.114398	2402.361865
362.502903	2417.737385
362.891344	2426.559404
363.279722	2421.014135
363.668037	2431.348500
364.056289	2419.249731
364.444478	2423.534712
364.832603	2409.419481
365.220665	2418.745615
365.608665	2452.017231
365.996601	2415.720923
366.384474	2421.770308
366.772284	2419.249731
367.160031	2421.014135
367.547715	2425.551173
367.935336	2431.096442
368.322893	2422.526481
368.710388	2432.356731
369.097820	2407.655077
369.485189	2418.493558
369.872495	2416.729154
370.259738	2410.931827
370.646918	2418.493558
371.034035	2444.203442
371.421090	2403.622154
371.808081	2418.745615
372.195010	2432.860846
372.581875	2428.575865
372.968678	2413.200346
373.355418	2416.477096
373.742096	2423.786769
374.128710	2427.567635
374.515262	2430.592327
374.901751	2415.216808
375.288177	2423.282654
375.674540	2429.584096
376.060841	2416.477096
376.447079	2427.567635
376.833254	2461.595423
377.219367	2435.633481
377.605417	2455.798096
377.991404	2450.000769
378.377329	2394.548077
378.763191	2433.617019
379.148991	2438.910231
379.534727	2434.121135
379.920402	2446.724019
380.306013	2427.567635
380.691563	2418.493558
381.077049	2427.063519
381.462474	2428.323808
381.847835	2428.071750
382.233134	2426.055288
382.618371	2433.112904
383.003545	2467.140692
383.388657	2413.200346
383.773706	2441.178750
384.158693	2456.050154
384.543618	2435.129365
384.928480	2431.096442
385.313280	2426.559404
385.698017	2435.381423
386.082692	2420.257962
386.467305	2414.712692
386.851856	2428.575865
387.236344	2442.943154
387.620770	2442.943154
388.005133	2435.633481
388.389435	2435.885538
388.773674	2429.584096
389.157851	2442.439038
389.541965	2438.910231
389.926018	2440.674635
390.310008	2463.107769
390.693936	2429.332038
391.077802	2464.872173
391.461606	2435.633481
391.845348	2444.203442
392.229027	2433.869077
392.612645	2439.414346
392.996200	2441.178750
393.379694	2448.992538
393.763125	2438.658173
394.146494	2424.038827
394.529801	2442.186981
394.913047	2451.261058
395.296230	2439.666404
395.679351	2427.315577
396.062410	2467.644808
396.445408	2444.959615
396.828343	2469.157154
397.211217	2428.575865
397.594028	2477.475058
397.976778	2462.099538
398.359466	2449.496654
398.742092	2436.893769
399.124656	2462.099538
399.507158	2453.529577
399.889598	2449.748712
400.271977	2452.773404
400.654294	2452.269288
401.036549	2455.293981
401.418742	2456.554269
401.800874	2451.513115
402.182944	2426.055288
402.564952	2462.099538
402.946898	2444.707558
403.328783	2454.537808
403.710606	2449.496654
404.092367	2459.831019
404.474067	2480.499750
404.855705	2456.806327
405.237282	2432.860846
405.618797	2463.359827
406.000250	2466.384519
406.381642	2474.198308
406.762972	2459.326904
407.144240	2441.682865
407.525447	2460.587192
407.906593	2452.521346
408.287677	2458.822788
408.668700	2467.392750
409.049661	2468.400981
409.430560	2451.009000
409.811399	2459.326904
410.192176	2460.335135
410.572891	2446.976077
410.953545	2475.710654
411.334138	2473.946250
411.714669	2474.954481
412.095139	2446.471962
412.475547	2484.280615
412.855894	2475.458596
413.236180	2485.540904
413.616405	2497.135558
413.996568	2520.072808
414.376670	2518.056346
414.756711	2505.957577
415.136691	2533.179808
415.516609	2536.204500
415.896466	2529.651000
416.276262	2551.075904
416.655997	2554.856769
417.035670	2586.868096
417.415283	2629.717904
417.794834	2649.378404
418.174324	2654.671615
418.553753	2683.406192
418.933121	2709.620192
419.312428	2745.664442
419.691674	2779.692231
420.070859	2802.125365
420.449983	2826.574962
420.829045	2866.652135
421.208047	2890.597615
421.586988	2947.310596
421.965867	3039.563712
422.344686	3066.281827
422.723444	3141.899135
423.102141	3153.493788
423.480777	3250.031885
423.859352	3276.245885
424.237866	3455.206846
424.616319	3462.516519
424.994712	3587.285077
425.373044	3639.461019
425.751314	3770.278962
426.129524	3771.035135
426.507673	3958.061942
426.885762	3979.234788
427.263789	4118.874750
427.641756	4165.253365
428.019662	4296.071308
428.397508	4376.477712
428.775292	4501.498327
429.153016	4632.568327
429.530679	4684.996327
429.908282	4738.432558
430.285824	4835.978885
430.663305	5024.265981
431.040726	5071.904885
431.418086	5110.217654
431.795385	5287.414212
432.172624	5454.780519
432.549802	5523.340212
432.926920	5565.685904
433.303977	5695.999731
433.680974	5871.683942
434.057910	5894.873250
434.434786	6031.992635
434.811601	6089.209731
435.188355	6403.021558
435.565050	6422.430000
435.941683	6452.676923
436.318257	6737.754173
436.694770	6892.769654
437.071222	7035.938423
437.447614	6999.894173
437.823946	7077.780000
438.200218	7093.407577
438.576429	7136.005327
438.952580	7233.047538
439.328670	7346.725558
439.704700	7477.039385
440.080670	7433.685462
440.456580	7575.089827
440.832429	7743.968481
441.208218	7444.271885
441.583947	7655.244173
441.959616	7658.520923
442.335224	7774.971577
442.710773	7875.542596
443.086261	7976.365673
443.461689	7926.710308
443.837057	7841.766865
444.212365	8017.955192
444.587612	8084.498423
444.962800	7868.232923
445.337927	7997.790577
445.712995	7709.940692
446.088002	8160.115731
446.462949	8177.255654
446.837837	8138.438769
447.212664	8046.689769
447.587431	8451.746481
447.962139	9045.594404
448.336786	9907.379654
448.711374	10042.986692
449.085901	9165.573865
449.460369	8845.208538
449.834776	8530.136423
450.209124	8767.826827
450.583412	8692.461577
450.957640	9131.546077
451.331808	8780.429712
451.705917	8237.749500
452.079965	8069.879077
452.453954	7986.952096
452.827883	7848.068308
453.201752	7666.334712
453.575562	7623.232846
453.949311	7758.839885
454.323001	7709.940692
454.696632	7454.354192
455.070202	7673.644385
455.443713	7492.666962
455.817164	7603.824404
456.190556	7538.793519
456.563888	7368.150462
456.937160	7387.558904
457.310373	7080.804692
457.683526	6978.973385
458.056619	6833.284038
458.429653	6627.100846
458.802628	6493.510269
459.175542	6439.065808
459.548398	6411.843577
459.921194	6554.004115
460.293930	6431.504077
460.666607	6595.341577
461.039224	6733.469192
461.411782	6748.844712
461.784280	6531.570981
462.156719	6329.168654
462.529099	6126.262212
462.901419	5874.456577
463.273680	5526.112846
463.645882	5359.754769
464.018024	5168.947096
464.390106	5108.957365
464.762130	5122.820538
465.134094	5202.470769
465.505999	5515.274365
465.877845	5879.497731
466.249631	5984.605788
466.621358	5818.499769
466.993026	5523.592269
467.364634	5226.668308
467.736184	4879.836923
468.107674	4655.001462
468.479105	4468.982885
468.850477	4337.408769
469.221790	4161.976615
469.593043	3965.623673
469.964238	3849.173019
470.335373	3749.610231
470.706449	3688.612269
471.077467	3615.263481
471.448425	3687.604038
471.819324	3745.829365
472.190164	3732.218250
472.560945	3567.876635
472.931667	3427.984615
473.302330	3322.876558
473.672934	3229.867269
474.043479	3197.099769
474.413965	3145.427942
474.784393	3110.643981
475.154761	3069.054462
475.525070	3035.530788
475.895321	3006.544154
476.265513	2968.231385
476.635645	2974.280769
477.005719	2937.480346
477.375734	2943.529731
477.745691	2899.923750
478.115588	2910.006058
478.485427	2912.274577
478.855207	2913.534865
479.224928	2912.778692
479.594591	2908.745769
479.964194	2914.543096
480.333739	2911.266346
480.703226	2881.775596
481.072653	2880.263250
481.442022	2879.002962
481.811333	2871.693288
482.180584	2860.854808
482.549777	2822.037923
482.918912	2783.977212
483.287988	2787.758077
483.657005	2800.360962
484.025964	2763.308481
484.394864	2752.974115
484.763706	2745.664442
485.132489	2760.031731
485.501213	2705.083154
485.869879	2713.401058
486.238487	2706.343442
486.607036	2702.562577
486.975527	2691.472038
487.343959	2681.641788
487.712333	2674.836231
488.080648	2671.307423
488.448905	2688.951462
488.817104	2642.824904
489.185244	2650.134577
489.553326	2650.134577
489.921350	2632.490538
490.289315	2646.857827
490.657222	2677.860923
491.025070	2664.249808
491.392861	2645.597538
491.760593	2629.969962
492.128267	2635.011115
492.495883	2634.002885
492.863440	2609.553288
493.230939	2630.726135
493.598380	2591.153077
493.965763	2597.202462
494.333088	2567.207596
494.700354	2596.698346
495.067563	2598.966865
495.434713	2566.955538
495.801805	2579.054308
496.168839	2585.607808
496.535815	2574.769327
496.902733	2580.818712
497.269593	2563.930846
497.636395	2556.369115
498.003139	2551.075904
498.369825	2558.637635
498.736453	2558.889692
499.103023	2556.873231
499.469535	2554.604712
499.835989	2524.105731
500.202385	2532.675692
500.568723	2543.262115
500.935003	2548.051212
501.301226	2530.407173
501.667390	2530.659231
502.033497	2512.259019
502.399546	2519.064577
502.765537	2537.212731
503.131470	2529.398942
503.497345	2499.152019
503.863163	2495.875269
504.228923	2543.514173
504.594625	2535.448327
504.960269	2519.316635
505.325856	2488.817654
505.691385	2514.275481
506.056856	2502.428769
506.422270	2479.995635
506.787625	2521.081038
507.152924	2521.333096
507.518164	2535.700385
507.883347	2497.387615
508.248472	2538.725077
508.613540	2507.721981
508.978550	2535.448327
509.343503	2511.250788
509.708398	2502.428769
510.073236	2522.089269
510.438016	2530.911288
510.802738	2496.883500
511.167403	2521.081038
511.532010	2493.102635
511.896561	2526.122192
512.261053	2518.560462
512.625488	2529.146885
512.989866	2519.820750
513.354186	2479.491519
513.718449	2522.089269
514.082655	2510.746673
514.446803	2516.291942
514.810894	2517.804288
515.174927	2501.672596
515.538904	2536.456558
515.902822	2529.146885
516.266684	2517.804288
516.630488	2485.036788
516.994235	2524.357788
517.357925	2516.796058
517.721558	2515.787827
518.085133	2505.201404
518.448651	2516.544000
518.812112	2523.601615
519.175516	2522.089269
519.538863	2517.048115
519.902152	2520.072808
520.265385	2520.576923
520.628560	2519.316635
520.991678	2508.226096
521.354739	2507.721981
521.717743	2526.122192
522.080690	2522.593385
522.443580	2540.237423
522.806413	2528.894827
523.169189	2539.733308
523.531908	2504.445231
523.894569	2542.505942
524.257174	2489.321769
524.619722	2519.064577
524.982213	2505.705519
525.344647	2522.593385
525.707025	2511.502846
526.069345	2507.469923
526.431608	2534.440096
526.793815	2530.407173
527.155964	2518.308404
527.518057	2533.179808
527.880093	2513.015192
528.242072	2520.576923
528.603995	2507.217865
528.965860	2511.250788
529.327669	2530.407173
529.689421	2502.680827
530.051117	2536.456558
530.412755	2519.820750
530.774337	2507.217865
531.135862	2516.544000
531.497331	2505.453462
531.858743	2518.560462
532.220098	2509.990500
532.581396	2519.064577
532.942638	2503.437000
533.303824	2532.171577
533.664953	2532.171577
534.026025	2514.275481
534.387040	2512.259019
534.747999	2497.639673
535.108902	2510.242558
535.469748	2508.226096
535.830537	2502.176712
536.191270	2492.598519
536.551947	2497.135558
536.912567	2485.540904
537.273131	2498.647904
537.633638	2506.461692
537.994089	2514.023423
538.354483	2497.387615
538.714821	2503.437000
539.075103	2498.143788
539.435328	2531.919519
539.795497	2498.647904
540.155609	2514.023423
540.515665	2514.023423
540.875665	2496.883500
541.235609	2499.404077
541.595496	2515.031654
541.955328	2497.135558
542.315102	2513.771365
542.674821	2500.160250
543.034483	2484.784731
543.394090	2473.694192
543.753640	2513.519308
544.113134	2510.998731
544.472571	2523.097500
544.831953	2490.330000
545.191278	2493.354692
545.550548	2505.201404
545.909761	2498.143788
546.268918	2523.349558
546.628019	2493.354692
546.987064	2493.606750
547.346053	2499.656135
547.704986	2500.664365
548.063863	2507.721981
548.422684	2493.606750
548.781449	2519.820750
549.140158	2507.469923
549.498811	2478.735346
549.857408	2489.573827
550.215949	2506.209635
550.574434	2497.135558
550.932864	2511.754904
551.291237	2494.110865
551.649555	2505.705519
552.007817	2506.965808
552.366022	2514.527538
552.724173	2517.552231
553.082267	2499.404077
553.440305	2505.705519
553.798288	2492.094404
554.156215	2481.003865
554.514086	2501.672596
554.871902	2489.321769
555.229661	2504.445231
555.587365	2468.400981
555.945014	2500.412308
556.302606	2461.595423
556.660143	2492.850577
557.017625	2491.590288
557.375050	2505.201404
557.732421	2501.924654
558.089735	2489.069712
558.446994	2518.812519
558.804197	2506.461692
559.161345	2518.560462
559.518437	2466.636577
559.875474	2500.160250
560.232455	2496.127327
560.589381	2517.300173
560.946251	2486.297077
561.303065	2504.697288
561.659825	2492.094404
562.016528	2484.532673
562.373177	2517.552231
562.729770	2524.357788
563.086307	2506.209635
563.442789	2506.461692
563.799216	2506.461692
564.155587	2502.428769
564.511904	2509.738442
564.868164	2487.557365
565.224370	2524.357788
565.580520	2502.428769
565.936615	2478.231231
566.292654	2504.949346
566.648638	2513.519308
567.004567	2501.168481
567.360441	2516.796058
567.716260	2492.598519
568.072023	2496.127327
568.427732	2488.061481
568.783385	2478.987404
569.138982	2503.941115
569.494525	2478.735346
569.850013	2514.779596
570.205445	2482.516212
570.560823	2509.486385
570.916145	2490.330000
571.271412	2496.883500
571.626625	2530.407173
571.981782	2513.771365
572.336884	2511.754904
572.691931	2526.374250
573.046923	2491.086173
573.401860	2529.903058
573.756743	2491.086173
574.111570	2486.549135
574.466342	2485.288846
574.821059	2505.201404
575.175722	2505.705519
575.530330	2500.160250
575.884882	2512.006962
576.239380	2491.842346
576.593823	2529.651000
576.948211	2538.977135
577.302544	2481.003865
577.656823	2508.478154
578.011047	2504.697288
578.365216	2501.420538
578.719330	2492.598519
579.073389	2523.349558
579.427394	2506.209635
579.781344	2502.680827
580.135239	2484.028558
580.489080	2492.346462
580.842866	2485.288846
581.196597	2503.941115
581.550273	2500.916423
581.903895	2516.039885
582.257463	2516.796058
582.610975	2482.768269
582.964434	2504.445231
583.317837	2478.483288
583.671186	2509.234327
584.024481	2501.168481
584.377721	2509.234327
584.730906	2505.705519
585.084037	2478.987404
585.437113	2526.122192
585.790135	2513.519308
586.143103	2501.168481
586.496016	2490.077942
586.848874	2511.502846
587.201679	2486.549135
587.554428	2510.494615
587.907124	2498.899962
588.259765	2509.234327
588.612352	2516.796058
588.964884	2490.077942
589.317362	2508.478154
589.669786	2492.346462
590.022155	2494.110865
590.374470	2496.883500
590.726731	2505.453462
591.078937	2519.064577
591.431090	2498.143788
591.783188	2490.077942
592.135232	2519.064577
592.487222	2489.321769
592.839157	2514.527538
593.191038	2488.061481
593.542866	2486.045019
593.894639	2498.395846
594.246358	2500.160250
594.598022	2499.404077
594.949633	2508.982269
595.301190	2493.606750
595.652692	2498.395846
596.004141	2500.916423
596.355535	2525.366019
596.706876	2507.721981
597.058162	2492.094404
597.409395	2486.045019
597.760573	2514.023423
598.111698	2510.494615
598.462768	2496.379385
598.813785	2490.077942
599.164748	2507.721981
599.515657	2484.028558
599.866511	2486.801192
600.217312	2514.779596
600.568060	2503.184942
600.918753	2511.754904
601.269392	2510.746673
601.619978	2490.834115
601.970510	2472.181846
602.320988	2491.590288
602.671412	2514.023423
603.021783	2498.899962
603.372100	2486.801192
603.722363	2518.560462
604.072572	2484.280615
604.422728	2491.086173
604.772830	2489.069712
605.122878	2498.899962
605.472872	2492.094404
605.822813	2528.390712
606.172701	2483.020327
606.522534	2527.886596
606.872314	2483.524442
607.222041	2510.242558
607.571714	2495.119096
607.921333	2486.297077
608.270899	2509.990500
608.620411	2474.954481
608.969870	2471.173615
609.319276	2484.028558
609.668627	2516.796058
610.017926	2517.048115
610.367171	2502.428769
610.716362	2506.461692
611.065500	2500.160250
611.414585	2521.081038
611.763616	2473.190077
612.112594	2497.135558
612.461518	2490.077942
612.810389	2471.677731
613.159207	2534.188038
613.507971	2488.817654
613.856682	2506.209635
614.205340	2496.883500
614.553945	2498.899962
614.902496	2495.875269
615.250994	2499.908192
615.599439	2509.738442
615.947830	2502.176712
616.296169	2482.264154
616.644454	2498.395846
616.992686	2508.226096
617.340864	2507.469923
617.688990	2498.395846
618.037063	2499.152019
618.385082	2501.168481
618.733048	2498.143788
619.080961	2486.297077
619.428821	2487.809423
619.776628	2505.453462
620.124382	2492.598519
620.472083	2492.850577
620.819731	2491.086173
621.167326	2508.226096
621.514868	2491.590288
621.862357	2504.949346
622.209793	2507.974038
622.557176	2491.086173
622.904506	2522.593385
623.251783	2454.789865
623.599007	2516.796058
623.946179	2494.362923
624.293297	2506.209635
624.640363	2491.338231
624.987376	2476.718885
625.334336	2497.891731
625.681243	2518.560462
626.028097	2476.970942
626.374899	2528.894827
626.721647	2465.376288
627.068343	2497.639673
627.414987	2507.217865
627.761577	2499.152019
628.108115	2483.776500
628.454600	2488.565596
628.801032	2508.478154
629.147412	2464.368058
629.493739	2499.656135
629.840014	2512.763135
630.186236	2496.883500
630.532405	2482.264154
630.878521	2503.184942
631.224585	2499.404077
631.570597	2501.420538
631.916556	2479.239462
632.262462	2487.557365
632.608316	2497.891731
632.954117	2481.003865
633.299866	2500.412308
633.645562	2501.168481
633.991206	2482.516212
634.336797	2487.557365
634.682336	2490.330000
635.027823	2499.404077
635.373257	2499.404077
635.718639	2504.193173
636.063968	2477.223000
636.409245	2507.217865
636.754470	2498.143788
637.099642	2486.297077
637.444762	2516.291942
637.789829	2507.721981
638.134845	2482.516212
638.479808	2489.825885
638.824719	2463.107769
639.169577	2504.949346
639.514383	2483.524442
639.859137	2490.582058
640.203839	2484.280615
640.548489	2497.639673
640.893086	2492.094404
641.237632	2464.368058
641.582125	2492.850577
641.926566	2493.102635
642.270955	2508.730212
642.615292	2481.003865
642.959576	2482.012096
643.303809	2488.061481
643.647990	2516.039885
643.992118	2491.086173
644.336195	2487.809423
644.680219	2502.932885
645.024192	2475.710654
645.368112	2485.288846
645.711981	2477.979173
646.055797	2505.705519
646.399562	2498.143788
646.743274	2489.573827
647.086935	2473.442135
647.430544	2472.938019
647.774101	2496.379385
648.117606	2478.231231
648.461059	2515.031654
648.804460	2510.242558
649.147810	2517.300173
649.491108	2488.313538
649.834354	2514.023423
650.177548	2484.028558
650.520690	2514.527538
650.863781	2490.834115
651.206820	2479.995635
651.549807	2480.247692
651.892742	2509.234327
652.235626	2501.924654
652.578458	2490.077942
652.921238	2486.297077
653.263967	2494.614981
653.606644	2498.143788
653.949269	2519.316635
654.291843	2501.420538
654.634365	2484.784731
654.976836	2480.247692
655.319255	2487.053250
655.661622	2516.291942
656.003938	2484.532673
656.346203	2487.557365
656.688416	2495.119096
657.030577	2489.825885
657.372687	2451.765173
657.714746	2498.899962
658.056753	2517.048115
658.398708	2496.883500
658.740612	2441.430808
659.082465	2479.743577
659.424266	2469.409212
659.766016	2460.839250
660.107715	2489.573827
660.449362	2484.532673
660.790958	2473.946250
661.132503	2489.321769
661.473996	2505.201404
661.815438	2484.532673
662.156829	2512.259019
662.498168	2488.565596
662.839456	2514.275481
663.180693	2466.384519
663.521879	2502.680827
663.863013	2485.792962
664.204097	2519.568692
664.545129	2496.631442
664.886110	2491.338231
665.227040	2496.127327
665.567918	2485.288846
665.908746	2483.020327
666.249522	2486.801192
666.590248	2479.239462
666.930922	2507.721981
667.271545	2488.061481
667.612118	2504.697288
667.952639	2513.519308
668.293109	2478.735346
668.633528	2477.475058
668.973896	2489.825885
669.314213	2444.455500
669.654480	2500.664365
669.994695	2515.535769
670.334859	2505.957577
670.674973	2495.371154
671.015035	2498.395846
671.355047	2475.458596
671.695008	2485.540904
672.034918	2488.313538
672.374777	2483.776500
672.714585	2467.392750
673.054342	2486.045019
673.394049	2503.184942
673.733705	2483.020327
674.073310	2488.313538
674.412864	2478.735346
674.752368	2504.697288
675.091820	2488.565596
675.431223	2477.475058
675.770574	2469.409212
676.109875	2467.644808
676.449125	2491.338231
676.788324	2443.447269
677.127473	2491.842346
677.466571	2437.397885
677.805619	2491.338231
678.144616	2476.466827
678.483562	2461.595423
678.822458	2478.483288
679.161303	2481.507981
679.500098	2495.371154
679.838842	2476.466827
680.177535	2501.924654
680.516179	2462.351596
680.854771	2487.053250
681.193314	2495.371154
681.531805	2475.962712
681.870247	2477.475058
682.208638	2481.760038
682.546978	2495.623212
682.885268	2492.598519
683.223508	2518.056346
683.561697	2484.532673
683.899836	2496.631442
684.237925	2501.168481
684.575963	2480.751808
684.913951	2492.850577
685.251889	2478.735346
685.589776	2479.491519
685.927614	2490.834115
686.265401	2478.987404
686.603137	2479.743577
686.940824	2507.974038
687.278460	2482.264154
687.616046	2489.069712
687.953582	2468.400981
688.291068	2470.669500
688.628504	2497.891731
688.965889	2477.727115
689.303224	2505.453462
689.640510	2487.305308
689.977745	2479.239462
690.314930	2477.223000
690.652065	2516.039885
690.989150	2483.776500
691.326185	2478.735346
691.663170	2475.962712
692.000105	2464.872173
692.336990	2489.573827
692.673825	2489.573827
693.010610	2507.217865
693.347345	2495.371154
693.684030	2492.598519
694.020665	2441.682865
694.357251	2499.908192
694.693786	2464.872173
695.030272	2474.954481
695.366707	2470.921558
695.703093	2504.949346
696.039429	2454.789865
696.375716	2477.475058
696.711952	2490.330000
697.048139	2476.718885
697.384276	2465.628346
697.720363	2479.239462
698.056400	2475.206538
698.392388	2477.727115
698.728326	2484.280615
699.064214	2486.549135
699.400053	2453.781635
699.735842	2480.499750
700.071581	2478.735346
700.407270	2492.850577
700.742910	2492.598519
701.078501	2487.809423
701.414042	2450.000769
701.749533	2470.669500
702.084974	2459.074846
702.420366	2471.677731
702.755709	2479.491519
703.091002	2478.483288
703.426246	2469.661269
703.761440	2438.406115
704.096584	2460.587192
704.431679	2491.086173
704.766725	2456.806327
705.101721	2482.264154
705.436668	2469.157154
705.771565	2487.305308
706.106413	2459.074846
706.441212	2490.582058
706.775961	2495.623212
707.110661	2471.425673
707.445311	2479.995635
707.779913	2506.209635
708.114465	2472.181846
708.448967	2508.478154
708.783421	2472.685962
709.117825	2476.970942
709.452180	2462.603654
709.786485	2481.760038
710.120742	2484.028558
710.454949	2475.458596
710.789107	2467.644808
711.123216	2455.798096
711.457275	2488.565596
711.791286	2470.921558
712.125247	2495.623212
712.459159	2476.214769
712.793023	2501.168481
713.126837	2470.417442
713.460602	2479.743577
713.794318	2481.003865
714.127985	2476.970942
714.461602	2498.647904
714.795171	2473.694192
715.128691	2510.494615
715.462162	2516.796058
715.795584	2447.228135
716.128957	2484.532673
716.462281	2454.789865
716.795556	2499.404077
717.128782	2461.595423
717.461960	2483.776500
717.795088	2483.524442
718.128167	2482.768269
718.461198	2467.644808
718.794180	2486.297077
719.127113	2481.003865
719.459997	2486.297077
719.792833	2476.466827
720.125619	2484.280615
720.458357	2495.371154
720.791046	2479.239462
721.123686	2490.834115
721.456278	2454.537808
721.788821	2491.590288
722.121315	2495.623212
722.453761	2481.003865
722.786158	2460.083077
723.118506	2484.532673
723.450805	2468.905096
723.783056	2478.231231
724.115259	2494.110865
724.447412	2485.540904
724.779518	2476.466827
725.111574	2457.310442
725.443582	2465.124231
725.775542	2487.809423
726.107453	2480.499750
726.439315	2471.929788
726.771129	2469.157154
727.102895	2436.641712
727.434612	2489.069712
727.766281	2485.288846
728.097901	2485.036788
728.429473	2488.313538
728.760996	2477.727115
729.092471	2486.549135
729.423897	2459.831019
729.755276	2482.012096
730.086606	2469.409212
730.417887	2461.595423
730.749120	2500.412308
731.080305	2483.776500
731.411442	2482.768269
731.742530	2470.669500
732.073570	2485.036788
732.404562	2463.611885
732.735506	2475.962712
733.066401	2469.409212
733.397249	2483.272385
733.728048	2492.094404
734.058798	2472.685962
734.389501	2485.288846
734.720156	2475.206538
735.050762	2468.653038
735.381320	2452.017231
735.711831	2455.798096
736.042293	2460.083077
736.372707	2480.247692
736.703073	2462.351596
737.033391	2484.532673
737.363661	2471.173615
737.693883	2495.119096
738.024056	2449.748712
738.354182	2484.532673
738.684260	2468.653038
739.014290	2445.967846
739.344272	2472.433904
739.674207	2469.157154
740.004093	2473.442135
740.333931	2476.214769
740.663722	2476.718885
740.993464	2472.181846
741.323159	2480.499750
741.652806	2440.926692
741.982405	2477.979173
742.311956	2499.908192
742.641460	2466.636577
742.970915	2477.979173
743.300323	2492.346462
743.629683	2453.025462
743.958996	2479.743577
744.288260	2462.855712
744.617477	2469.661269
744.946647	2472.685962
745.275768	2474.198308
745.604842	2456.302212
745.933869	2473.442135
746.262847	2467.392750
746.591778	2472.181846
746.920662	2481.760038
747.249498	2467.392750
747.578286	2457.814558
747.907027	2462.099538
748.235720	2464.368058
748.564365	2469.409212
748.892963	2448.488423
749.221514	2470.417442
749.550017	2472.938019
749.878473	2454.033692
750.206881	2468.653038
750.535242	2475.710654
750.863555	2465.628346
751.191821	2481.003865
751.520039	2487.557365
751.848210	2451.513115
752.176334	2493.858808
752.504411	2469.409212
752.832440	2480.499750
753.160421	2485.036788
753.488356	2467.896865
753.816243	2514.275481
754.144082	2463.359827
754.471875	2474.198308
754.799620	2468.905096
755.127318	2457.562500
755.454969	2444.455500
755.782572	2457.058385
756.110129	2458.066615
756.437638	2457.058385
756.765100	2456.050154
757.092515	2500.916423
757.419882	2459.831019
757.747203	2467.896865
758.074477	2472.181846
758.401703	2478.987404
758.728882	2485.540904
759.056014	2450.000769
759.383099	2475.458596
759.710138	2455.546038
760.037129	2468.400981
760.364073	2465.880404
760.690970	2463.107769
761.017820	2465.124231
761.344623	2460.083077
761.671379	2455.798096
761.998088	2453.529577
762.324751	2476.970942
762.651366	2474.198308
762.977935	2505.705519
763.304456	2481.255923
763.630931	2506.965808
763.957359	2463.611885
764.283740	2479.743577
764.610074	2487.557365
764.936362	2461.847481
765.262602	2472.181846
765.588796	2471.677731
765.914943	2472.685962
766.241044	2492.850577
766.567097	2478.231231
766.893104	2482.516212
767.219064	2477.979173
767.544978	2474.702423
767.870845	2494.867038
768.196665	2494.614981
768.522438	2453.781635
768.848165	2453.781635
769.173846	2446.976077
769.499479	2479.491519
769.825066	2466.888635
770.150607	2485.540904
770.476101	2480.499750
770.801548	2486.801192
771.126949	2459.326904
771.452303	2473.190077
771.777611	2462.351596
772.102872	2448.236365
772.428087	2480.247692
772.753256	2455.798096
773.078378	2485.540904
773.403453	2485.288846
773.728482	2460.587192
774.053465	2450.756942
774.378401	2438.154058
774.703291	2465.628346
775.028135	2466.888635
775.352932	2472.181846
775.677683	2466.888635
776.002388	2481.003865
776.327046	2463.359827
776.651658	2477.727115
776.976224	2444.455500
777.300743	2471.929788
777.625216	2472.685962
777.949643	2492.094404
778.274024	2466.132462
778.598359	2472.433904
778.922647	2450.756942
779.246889	2467.644808
779.571086	2463.107769
779.895236	2478.735346
780.219339	2426.811462
780.543397	2472.685962
780.867409	2472.938019
781.191374	2445.463731
781.515294	2495.119096
781.839167	2484.280615
782.162995	2472.685962
782.486776	2481.003865
782.810511	2449.748712
783.134201	2493.858808
783.457844	2486.045019
783.781441	2448.740481
784.104993	2464.368058
784.428498	2473.694192
784.751958	2452.521346
785.075372	2463.359827
785.398739	2497.639673
785.722061	2433.617019
786.045337	2460.587192
786.368568	2427.315577
786.691752	2471.425673
787.014891	2463.359827
787.337983	2487.809423
787.661030	2488.313538
787.984031	2435.129365
788.306987	2495.371154
788.629897	2500.664365
788.952760	2467.392750
789.275579	2481.255923
789.598351	2486.801192
789.921078	2444.707558
790.243759	2470.165385
790.566395	2468.148923
790.888984	2468.148923
791.211529	2481.003865
791.534027	2469.409212
791.856480	2456.302212
792.178888	2454.033692
792.501249	2469.409212
792.823566	2479.995635
793.145836	2472.938019
793.468062	2473.946250
793.790241	2449.496654
794.112375	2460.839250
794.434464	2453.025462
794.756507	2462.351596
795.078505	2494.362923
795.400457	2449.496654
795.722364	2471.929788
796.044226	2478.231231
796.366042	2470.669500
796.687812	2488.061481
797.009538	2476.718885
797.331218	2469.157154
797.652852	2481.255923
797.974442	2496.127327
798.295986	2467.896865
798.617484	2456.302212
798.938938	2463.359827
799.260346	2478.483288
799.581709	2452.017231
799.903026	2454.033692
800.224299	2473.442135
800.545526	2462.099538
800.866708	2474.954481
801.187845	2470.669500
801.508936	2474.954481
801.829983	2492.094404
802.150984	2498.647904
802.471940	2490.834115
802.792851	2438.910231
803.113717	2469.157154
803.434538	2465.628346
803.755314	2454.033692
804.076045	2458.570731
804.396731	2474.198308
804.717372	2452.269288
805.037967	2447.228135
805.358518	2456.302212
805.679024	2466.888635
805.999485	2469.661269
806.319901	2450.504885
806.640272	2452.269288
806.960598	2452.773404
807.280879	2486.801192
807.601115	2469.661269
807.921306	2471.425673
808.241453	2459.831019
808.561554	2493.102635
808.881611	2450.504885
809.201623	2454.789865
809.521590	2467.392750
809.841513	2484.532673
810.161390	2454.789865
810.481223	2498.395846
810.801011	2476.214769
811.120755	2476.214769
811.440453	2460.083077
811.760107	2462.351596
812.079716	2471.425673
812.399281	2462.351596
812.718801	2479.743577
813.038276	2462.351596
813.357707	2461.343365
813.677093	2459.074846
813.996434	2455.798096
814.315731	2470.165385
814.634983	2473.442135
814.954191	2461.595423
815.273354	2469.913327
815.592473	2471.425673
815.911547	2463.863942
816.230577	2456.050154
816.549562	2453.025462
816.868502	2469.409212
817.187399	2470.165385
817.506250	2482.012096
817.825058	2458.318673
818.143821	2452.773404
818.462539	2445.967846
818.781213	2453.277519
819.099843	2458.822788
819.418429	2464.872173
819.736970	2473.946250
820.055466	2479.743577
820.373919	2484.784731
820.692327	2470.669500
821.010691	2466.132462
821.329011	2484.532673
821.647286	2504.697288
821.965517	2497.135558
822.283704	2515.787827
822.601847	2548.807385
822.919945	2493.606750
823.237999	2527.886596
823.556010	2521.333096
823.873976	2510.494615
824.191897	2502.428769
824.509775	2493.102635
824.827609	2518.560462
825.145398	2456.806327
825.463144	2505.705519
825.780845	2482.768269
826.098502	2476.718885
826.416116	2463.359827
826.733685	2474.702423
827.051210	2494.110865
827.368692	2509.738442
827.686129	2477.979173
828.003522	2482.768269
828.320872	2488.061481
828.638177	2477.979173
828.955439	2485.036788
829.272656	2468.653038
829.589830	2491.590288
829.906960	2476.214769
830.224046	2476.214769
830.541088	2475.458596
830.858086	2452.773404
831.175041	2481.507981
831.491952	2482.768269
831.808819	2462.603654
832.125642	2442.691096
832.442421	2462.603654
832.759157	2460.083077
833.075849	2446.724019
833.392497	2454.033692
833.709101	2492.346462
834.025662	2495.623212
834.342179	2469.157154
834.658653	2472.938019
834.975083	2502.680827
835.291469	2487.305308
835.607811	2460.587192
835.924110	2459.326904
836.240366	2481.003865
836.556578	2446.976077
836.872746	2453.781635
837.188871	2453.529577
837.504952	2469.661269
837.820990	2454.789865
838.136984	2452.269288
838.452935	2443.195212
838.768842	2463.359827
839.084706	2460.083077
839.400526	2479.239462
839.716303	2441.430808
840.032037	2467.644808
840.347727	2451.009000
840.663373	2473.694192
840.978977	2441.430808
841.294537	2477.223000
841.610054	2464.368058
841.925527	2451.513115
842.240957	2443.951385
842.556344	2450.252827
842.871687	2478.735346
843.186987	2456.302212
843.502244	2450.504885
843.817458	2440.926692
844.132629	2472.938019
844.447756	2495.371154
844.762840	2442.439038
845.077881	2441.178750
845.392879	2463.359827
845.707833	2447.480192
846.022745	2450.252827
846.337613	2471.929788
846.652438	2480.499750
846.967221	2450.504885
847.281960	2479.743577
847.596656	2469.661269
847.911309	2479.239462
848.225919	2470.669500
848.540485	2464.872173
848.855009	2473.190077
849.169490	2465.124231
849.483928	2463.611885
849.798323	2480.751808
850.112675	2465.376288
850.426984	2495.623212
850.741251	2456.554269
851.055474	2466.132462
851.369654	2430.340269
851.683792	2436.893769
851.997887	2472.181846
852.311938	2450.756942
852.625947	2472.685962
852.939914	2464.620115
853.253837	2445.463731
853.567718	2450.252827
853.881555	2475.962712
854.195350	2444.203442
854.509103	2459.831019
854.822812	2474.198308
855.136479	2448.488423
855.450103	2463.863942
855.763685	2491.338231
856.077224	2451.009000
856.390720	2473.946250
856.704173	2498.395846
857.017584	2447.228135
857.330953	2453.781635
857.644278	2470.165385
857.957561	2452.269288
858.270802	2461.343365
858.584000	2446.471962
858.897155	2457.562500
859.210268	2478.483288
859.523339	2440.926692
859.836367	2445.967846
860.149352	2459.326904
860.462295	2452.773404
860.775195	2467.392750
861.088054	2458.318673
861.400869	2476.214769
861.713642	2462.351596
862.026373	2447.228135
862.339062	2452.017231
862.651708	2453.025462
862.964312	2463.611885
863.276873	2440.422577
863.589392	2459.074846
863.901869	2446.219904
864.214303	2453.529577
864.526696	2475.710654
864.839045	2473.694192
865.151353	2452.017231
865.463619	2477.727115
865.775842	2452.773404
866.088023	2451.513115
866.400162	2465.124231
866.712258	2449.496654
867.024313	2474.198308
867.336325	2460.335135
867.648296	2451.765173
867.960224	2469.157154
868.272110	2442.186981
868.583954	2474.198308
868.895755	2455.546038
869.207515	2457.058385
869.519233	2454.285750
869.830909	2439.162288
870.142542	2469.157154
870.454134	2471.677731
870.765684	2487.557365
871.077191	2457.562500
871.388657	2454.537808
871.700081	2430.592327
872.011463	2437.902000
872.322803	2458.570731
872.634101	2458.822788
872.945357	2453.025462
873.256571	2467.644808
873.567744	2469.409212
873.878874	2475.206538
874.189963	2463.359827
874.501010	2467.392750
874.812015	2458.570731
875.122979	2440.422577
875.433900	2464.872173
875.744780	2454.033692
876.055618	2467.896865
876.366415	2478.987404
876.677169	2444.707558
876.987882	2492.346462
877.298554	2468.400981
877.609183	2475.206538
877.919771	2471.677731
878.230317	2470.165385
878.540822	2436.389654
878.851285	2487.305308
879.161707	2472.181846
879.472087	2477.727115
879.782425	2451.513115
880.092722	2458.066615
880.402977	2473.694192
880.713191	2460.587192
881.023363	2488.565596
881.333494	2502.932885
881.643583	2493.858808
881.953631	2478.483288
882.263637	2498.899962
882.573602	2496.883500
882.883526	2482.516212
883.193408	2482.768269
883.503248	2478.987404
883.813048	2461.847481
884.122806	2490.834115
884.432522	2486.549135
884.742197	2477.223000
885.051831	2465.880404
885.361424	2465.628346
885.670975	2451.009000
885.980485	2472.181846
886.289954	2488.313538
886.599382	2472.181846
886.908768	2461.595423
887.218113	2467.140692
887.527417	2467.140692
887.836680	2450.756942
888.145901	2471.677731
888.455082	2487.305308
888.764221	2469.661269
889.073319	2489.321769
889.382376	2440.422577
889.691392	2466.132462
890.000366	2474.702423
890.309300	2454.789865
890.618193	2463.107769
890.927044	2472.685962
891.235855	2475.206538
891.544625	2441.178750
891.853353	2457.310442
892.162041	2464.368058
892.470687	2466.132462
892.779293	2469.913327
893.087858	2454.033692
893.396381	2446.976077
893.704864	2468.148923
894.013306	2486.801192
894.321707	2487.305308
894.630068	2467.896865
894.938387	2478.231231
895.246665	2475.206538
895.554903	2468.905096
895.863100	2483.272385
896.171256	2452.521346
896.479371	2481.760038
896.787446	2480.751808
897.095480	2455.798096
897.403473	2490.330000
897.711425	2479.743577
898.019336	2486.549135
898.327207	2453.277519
898.635038	2465.376288
898.942827	2464.368058
899.250576	2474.450365
899.558284	2479.239462
899.865952	2450.756942
900.173579	2472.685962
900.481165	2460.335135
900.788711	2446.976077
901.096216	2459.578962
901.403681	2451.261058
901.711105	2471.677731
902.018489	2467.644808
902.325832	2458.066615
902.633135	2447.480192
902.940397	2455.546038
903.247619	2445.211673
903.554800	2449.496654
903.861941	2504.697288
904.169041	2461.595423
904.476101	2479.743577
904.783121	2466.132462
905.090100	2472.433904
905.397039	2495.119096
905.703938	2477.223000
906.010796	2454.537808
906.317614	2476.466827
906.624391	2462.603654
906.931129	2466.384519
907.237826	2447.732250
907.544483	2476.970942
907.851099	2439.918462
908.157675	2461.595423
908.464211	2462.603654
908.770707	2460.083077
909.077163	2457.310442
909.383578	2450.000769
909.689954	2439.918462
909.996289	2450.252827
910.302584	2462.603654
910.608839	2486.045019
910.915054	2493.102635
911.221229	2467.644808
911.527363	2464.872173
911.833458	2462.351596
912.139513	2462.351596
912.445527	2460.083077
912.751502	2472.433904
913.057436	2468.653038
913.363331	2476.718885
913.669186	2473.442135
913.975000	2472.181846
914.280775	2462.351596
914.586510	2446.724019
914.892205	2449.244596
915.197859	2511.754904
915.503475	2474.198308
915.809050	2479.491519
916.114585	2460.587192
916.420081	2471.173615
916.725536	2450.504885
917.030952	2468.148923
917.336328	2480.499750
917.641665	2450.000769
917.946961	2475.710654
918.252218	2467.644808
918.557435	2469.661269
918.862612	2443.195212
919.167750	2469.409212
919.472848	2469.157154
919.777906	2468.400981
920.082925	2446.976077
920.387904	2467.644808
920.692843	2469.157154
920.997743	2461.343365
921.302603	2442.439038
921.607423	2440.170519
921.912204	2464.620115
922.216946	2456.302212
922.521647	2471.173615
922.826310	2444.203442
923.130932	2471.173615
923.435516	2462.855712
923.740059	2450.000769
924.044564	2460.335135
924.349028	2452.017231
924.653454	2458.570731
924.957840	2449.244596
925.262186	2458.066615
925.566493	2470.417442
925.870761	2468.905096
926.174989	2467.140692
926.479178	2471.173615
926.783328	2455.293981
927.087438	2469.157154
927.391509	2452.773404
927.695541	2437.649942
927.999533	2467.140692
928.303486	2455.798096
928.607400	2461.847481
928.911275	2467.392750
929.215110	2482.012096
929.518906	2453.277519
929.822663	2487.053250
930.126381	2459.326904
930.430060	2460.335135
930.733699	2465.376288
931.037299	2474.954481
931.340861	2460.587192
931.644383	2466.636577
931.947866	2476.718885
932.251309	2446.219904
932.554714	2480.247692
932.858080	2487.809423
933.161407	2436.137596
933.464694	2475.710654
933.767943	2465.124231
934.071153	2465.880404
934.374323	2449.496654
934.677455	2442.943154
934.980548	2441.430808
935.283602	2448.488423
935.586617	2456.302212
935.889593	2452.017231
936.192530	2479.743577
936.495428	2446.471962
936.798287	2454.537808
937.101108	2463.611885
937.403890	2493.858808
937.706632	2445.967846
938.009336	2449.244596
938.312002	2466.384519
938.614628	2463.863942
938.917216	2449.748712
939.219765	2451.513115
939.522275	2461.595423
939.824747	2475.710654
940.127179	2441.430808
940.429573	2459.578962
940.731929	2458.066615
941.034246	2486.801192
941.336524	2465.124231
941.638763	2464.368058
941.940964	2473.190077
942.243126	2489.069712
942.545250	2454.537808
942.847335	2452.017231
943.149381	2438.658173
943.451389	2464.620115
943.753359	2441.934923
944.055290	2436.389654
944.357182	2461.595423
944.659036	2456.302212
944.960851	2440.170519
945.262628	2468.400981
945.564367	2445.463731
945.866067	2457.814558
946.167729	2441.178750
946.469352	2453.781635
946.770937	2471.677731
947.072484	2463.611885
947.373992	2465.628346
947.675462	2491.338231
947.976893	2445.463731
948.278286	2489.573827
948.579641	2474.198308
948.880958	2447.228135
949.182236	2450.252827
949.483476	2456.050154
949.784678	2461.091308
950.085841	2464.620115
950.386967	2476.718885
950.688054	2432.104673
950.989103	2441.430808
951.290114	2439.666404
951.591087	2446.219904
951.892021	2476.970942
952.192917	2466.888635
952.493776	2468.653038
952.794596	2470.165385
953.095378	2484.028558
953.396122	2450.252827
953.696828	2464.368058
953.997496	2447.732250
954.298126	2441.430808
954.598718	2472.685962
954.899272	2457.814558
955.199788	2476.214769
955.500266	2488.061481
955.800706	2465.124231
956.101108	2456.050154
956.401472	2452.773404
956.701798	2455.293981
957.002087	2451.009000
957.302337	2457.310442
957.602550	2455.041923
957.902724	2456.806327
958.202861	2463.107769
958.502960	2470.921558
958.803022	2453.025462
959.103045	2454.789865
959.403031	2466.888635
959.702979	2442.943154
960.002889	2470.921558
960.302762	2467.392750
960.602596	2449.496654
960.902393	2454.789865
961.202153	2447.732250
961.501875	2448.992538
961.801559	2428.827923
962.101205	2455.293981
962.400814	2479.995635
962.700385	2469.661269
962.999918	2452.017231
963.299414	2454.285750
963.598873	2476.214769
963.898293	2464.116000
964.197677	2473.946250
964.497022	2468.905096
964.796331	2472.938019
965.095601	2446.219904
965.394835	2457.814558
965.694030	2492.598519
965.993189	2453.025462
966.292309	2458.570731
966.591393	2456.554269
966.890439	2463.107769
967.189447	2450.504885
967.488419	2480.751808
967.787353	2464.116000
968.086249	2474.198308
968.385108	2455.293981
968.683930	2439.414346
968.982714	2487.053250
969.281462	2450.000769
969.580172	2468.400981
969.878844	2460.587192
970.177480	2473.694192
970.476078	2469.661269
970.774639	2438.406115
971.073162	2446.219904
971.371649	2473.442135
971.670098	2448.992538
971.968510	2445.463731
972.266885	2449.496654
972.565223	2454.285750
972.863524	2434.121135
973.161788	2477.475058
973.460014	2445.967846
973.758204	2468.148923
974.056356	2486.297077
974.354471	2471.677731
974.652550	2449.496654
974.950591	2443.699327
975.248595	2463.611885
975.546563	2486.045019
975.844493	2470.417442
976.142386	2460.335135
976.440243	2474.450365
976.738062	2480.751808
977.035845	2463.863942
977.333590	2444.959615
977.631299	2464.368058
977.928971	2461.847481
978.226606	2457.562500
978.524204	2451.261058
978.821765	2440.170519
979.119290	2457.310442
979.416777	2473.442135
979.714228	2455.798096
980.011642	2471.425673
980.309020	2444.203442
980.606360	2465.376288
980.903664	2487.809423
981.200931	2464.116000
981.498162	2446.724019
981.795356	2439.918462
982.092513	2466.384519
982.389633	2448.992538
982.686717	2463.863942
982.983764	2448.488423
983.280775	2453.277519
983.577749	2455.041923
983.874686	2441.682865
984.171587	2445.211673
984.468451	2467.644808
984.765279	2457.058385
985.062070	2453.025462
985.358824	2473.190077
985.655543	2455.293981
985.952224	2468.148923
986.248869	2462.099538
986.545478	2424.290885
986.842050	2468.653038
987.138586	2451.009000
987.435086	2470.921558
987.731549	2443.195212
988.027975	2472.685962
988.324366	2456.050154
988.620719	2450.756942
988.917037	2462.855712
989.213318	2465.880404
989.509563	2466.888635
989.805772	2463.359827
990.101944	2451.765173
990.398080	2454.789865
990.694180	2459.578962
990.990244	2462.603654
991.286271	2462.351596
991.582262	2440.170519
991.878217	2441.934923
992.174136	2457.310442
992.470019	2447.480192
992.765865	2473.190077
993.061676	2439.162288
993.357450	2431.852615
993.653188	2472.181846
993.948890	2464.368058
994.244556	2471.425673
994.540186	2442.943154
994.835780	2441.178750
995.131337	2436.389654
995.426859	2463.359827
995.722345	2465.376288
996.017795	2462.603654
996.313208	2459.578962
996.608586	2444.959615
996.903928	2453.025462
997.199234	2456.806327
997.494504	2493.102635
997.789738	2442.439038
998.084936	2464.368058
998.380099	2461.595423
998.675225	2419.753846
998.970316	2444.707558
999.265371	2457.562500
999.560390	2481.760038
999.855373	2467.644808
1000.150320	2456.050154
1000.445232	2467.140692
1000.740108	2448.236365
1001.034948	2421.770308
1001.329752	2460.587192
1001.624521	2464.872173
1001.919254	2451.765173
1002.213951	2448.992538
1002.508613	2474.702423
1002.803239	2447.228135
1003.097829	2447.732250
1003.392384	2451.009000
1003.686903	2463.359827
1003.981386	2482.516212
1004.275834	2467.140692
1004.570246	2480.247692
1004.864623	2446.219904
1005.158964	2472.181846
1005.453270	2445.967846
1005.747540	2472.181846
1006.041775	2441.430808
1006.335974	2468.400981
1006.630138	2454.033692
1006.924266	2463.611885
1007.218359	2439.666404
1007.512416	2439.414346
1007.806438	2448.992538
1008.100425	2459.074846
1008.394376	2457.310442
1008.688292	2433.869077
1008.982172	2467.392750
1009.276017	2443.447269
1009.569827	2425.047058
1009.863602	2480.247692
1010.157341	2463.611885
1010.451045	2490.834115
1010.744714	2461.091308
1011.038347	2469.913327
1011.331945	2455.546038
1011.625508	2440.422577
1011.919036	2424.795000
1012.212528	2439.162288
1012.505986	2450.000769
1012.799408	2457.814558
1013.092795	2478.735346
1013.386147	2448.992538
1013.679464	2449.496654
1013.972745	2472.181846
1014.265992	2430.340269
1014.559204	2452.773404
1014.852380	2449.748712
1015.145521	2475.206538
1015.438628	2460.335135
1015.731699	2438.154058
1016.024736	2430.592327
1016.317737	2453.277519
1016.610703	2464.116000
1016.903635	2458.318673
1017.196531	2486.297077
1017.489393	2468.400981
1017.782219	2471.677731
1018.075011	2458.066615
1018.367768	2442.186981
1018.660490	2459.326904
1018.953177	2459.326904
1019.245829	2459.326904
