Dividing Wavelength (nm)	Counts (n)	Slit_number_9_of_a_total_of_40	
326.493990	2048.976981
326.888308	2048.976981
327.282561	2048.976981
327.676750	2035.617923
328.070874	2035.869981
328.464933	2001.842192
328.858929	2050.489327
329.252859	2037.634385
329.646726	2053.766077
330.040528	2080.736250
330.434265	2094.347365
330.827938	2107.958481
331.221547	2132.408077
331.615091	2168.956442
332.008571	2169.712615
332.401986	2212.562423
332.795338	2220.880327
333.188625	2255.412231
333.581847	2246.590212
333.975006	2274.820673
334.368100	2304.815538
334.761129	2319.434885
335.154095	2289.944135
335.546996	2354.218846
335.939833	2347.161231
336.332606	2395.808365
336.725315	2383.961654
337.117960	2389.254865
337.510540	2399.841288
337.903056	2416.477096
338.295508	2432.356731
338.687896	2445.967846
339.080220	2445.715788
339.472480	2446.219904
339.864676	2442.186981
340.256807	2424.795000
340.648875	2460.839250
341.040879	2450.000769
341.432818	2461.091308
341.824694	2466.132462
342.216506	2477.475058
342.608253	2452.521346
342.999937	2463.107769
343.391557	2422.022365
343.783113	2456.050154
344.174605	2463.611885
344.566033	2432.356731
344.957397	2443.951385
345.348697	2443.447269
345.739934	2422.022365
346.131106	2442.943154
346.522215	2445.715788
346.913260	2456.302212
347.304241	2435.129365
347.695159	2437.397885
348.086012	2436.641712
348.476802	2436.641712
348.867528	2436.641712
349.258191	2449.496654
349.648789	2428.071750
350.039324	2433.869077
350.429796	2440.170519
350.820203	2421.014135
351.210548	2419.753846
351.600828	2390.515154
351.991045	2419.753846
352.381198	2413.200346
352.771288	2414.712692
353.161314	2426.559404
353.551276	2426.811462
353.941175	2419.249731
354.331010	2426.559404
354.720782	2409.167423
355.110490	2400.849519
355.500135	2407.150962
355.889717	2439.162288
356.279235	2407.907135
356.668689	2400.093346
357.058080	2421.770308
357.447408	2437.145827
357.836672	2439.162288
358.225873	2418.745615
358.615010	2432.608788
359.004084	2429.584096
359.393095	2450.504885
359.782043	2419.753846
360.170927	2418.997673
360.559748	2405.890673
360.948505	2433.869077
361.337199	2425.803231
361.725830	2448.740481
362.114398	2408.159192
362.502903	2420.257962
362.891344	2436.893769
363.279722	2420.257962
363.668037	2447.732250
364.056289	2419.501788
364.444478	2425.047058
364.832603	2436.893769
365.220665	2427.819692
365.608665	2450.756942
365.996601	2444.959615
366.384474	2425.551173
366.772284	2460.587192
367.160031	2431.348500
367.547715	2432.356731
367.935336	2435.381423
368.322893	2430.088212
368.710388	2432.356731
369.097820	2440.170519
369.485189	2444.455500
369.872495	2415.972981
370.259738	2446.976077
370.646918	2435.885538
371.034035	2433.364962
371.421090	2444.203442
371.808081	2451.009000
372.195010	2453.277519
372.581875	2409.923596
372.968678	2413.956519
373.355418	2443.699327
373.742096	2420.510019
374.128710	2422.274423
374.515262	2469.661269
374.901751	2451.765173
375.288177	2446.219904
375.674540	2453.025462
376.060841	2441.178750
376.447079	2438.406115
376.833254	2423.534712
377.219367	2431.852615
377.605417	2449.748712
377.991404	2433.112904
378.377329	2423.534712
378.763191	2425.551173
379.148991	2414.208577
379.534727	2433.617019
379.920402	2433.617019
380.306013	2461.595423
380.691563	2439.666404
381.077049	2443.447269
381.462474	2415.468865
381.847835	2469.661269
382.233134	2422.778538
382.618371	2449.748712
383.003545	2444.707558
383.388657	2445.463731
383.773706	2443.195212
384.158693	2450.000769
384.543618	2438.406115
384.928480	2455.798096
385.313280	2453.277519
385.698017	2420.510019
386.082692	2437.649942
386.467305	2450.000769
386.851856	2442.186981
387.236344	2466.132462
387.620770	2448.236365
388.005133	2455.546038
388.389435	2453.025462
388.773674	2469.661269
389.157851	2441.934923
389.541965	2452.269288
389.926018	2444.203442
390.310008	2465.376288
390.693936	2465.124231
391.077802	2451.009000
391.461606	2441.178750
391.845348	2440.926692
392.229027	2447.480192
392.612645	2444.203442
392.996200	2436.389654
393.379694	2437.902000
393.763125	2460.335135
394.146494	2463.359827
394.529801	2442.439038
394.913047	2450.252827
395.296230	2469.157154
395.679351	2433.112904
396.062410	2466.384519
396.445408	2443.699327
396.828343	2454.033692
397.211217	2454.285750
397.594028	2479.239462
397.976778	2451.261058
398.359466	2440.170519
398.742092	2455.798096
399.124656	2470.921558
399.507158	2458.822788
399.889598	2464.620115
400.271977	2444.959615
400.654294	2458.570731
401.036549	2482.768269
401.418742	2450.000769
401.800874	2452.521346
402.182944	2469.661269
402.564952	2459.326904
402.946898	2465.628346
403.328783	2465.628346
403.710606	2461.343365
404.092367	2445.211673
404.474067	2443.447269
404.855705	2424.542942
405.237282	2453.277519
405.618797	2434.877308
406.000250	2448.236365
406.381642	2451.261058
406.762972	2444.455500
407.144240	2445.211673
407.525447	2459.074846
407.906593	2462.099538
408.287677	2465.880404
408.668700	2450.756942
409.049661	2463.359827
409.430560	2454.033692
409.811399	2474.702423
410.192176	2469.661269
410.572891	2478.735346
410.953545	2478.483288
411.334138	2460.587192
411.714669	2462.099538
412.095139	2465.124231
412.475547	2470.417442
412.855894	2479.743577
413.236180	2484.280615
413.616405	2481.760038
413.996568	2474.198308
414.376670	2473.190077
414.756711	2448.992538
415.136691	2474.198308
415.516609	2444.959615
415.896466	2453.781635
416.276262	2472.685962
416.655997	2419.249731
417.035670	2474.954481
417.415283	2471.425673
417.794834	2476.970942
418.174324	2473.442135
418.553753	2443.699327
418.933121	2473.694192
419.312428	2481.003865
419.691674	2466.636577
420.070859	2459.074846
420.449983	2467.392750
420.829045	2455.798096
421.208047	2447.984308
421.586988	2471.677731
421.965867	2468.400981
422.344686	2456.050154
422.723444	2462.603654
423.102141	2464.116000
423.480777	2466.132462
423.859352	2471.173615
424.237866	2466.888635
424.616319	2456.050154
424.994712	2469.157154
425.373044	2476.214769
425.751314	2444.203442
426.129524	2466.888635
426.507673	2460.083077
426.885762	2444.455500
427.263789	2459.831019
427.641756	2457.058385
428.019662	2442.186981
428.397508	2439.918462
428.775292	2467.644808
429.153016	2459.831019
429.530679	2473.694192
429.908282	2484.028558
430.285824	2470.165385
430.663305	2471.173615
431.040726	2471.677731
431.418086	2437.145827
431.795385	2476.214769
432.172624	2432.356731
432.549802	2479.995635
432.926920	2452.017231
433.303977	2444.959615
433.680974	2471.425673
434.057910	2471.425673
434.434786	2468.905096
434.811601	2481.760038
435.188355	2467.896865
435.565050	2448.992538
435.941683	2491.842346
436.318257	2476.466827
436.694770	2503.184942
437.071222	2484.784731
437.447614	2479.239462
437.823946	2485.792962
438.200218	2453.781635
438.576429	2471.425673
438.952580	2454.537808
439.328670	2473.946250
439.704700	2483.524442
440.080670	2481.255923
440.456580	2477.223000
440.832429	2468.148923
441.208218	2467.140692
441.583947	2485.288846
441.959616	2497.891731
442.335224	2474.954481
442.710773	2465.376288
443.086261	2484.028558
443.461689	2499.908192
443.837057	2465.880404
444.212365	2467.644808
444.587612	2463.107769
444.962800	2459.326904
445.337927	2465.124231
445.712995	2470.417442
446.088002	2485.036788
446.462949	2468.400981
446.837837	2488.061481
447.212664	2465.628346
447.587431	2474.198308
447.962139	2461.595423
448.336786	2484.784731
448.711374	2498.647904
449.085901	2477.475058
449.460369	2466.636577
449.834776	2472.685962
450.209124	2462.603654
450.583412	2471.425673
450.957640	2487.053250
451.331808	2467.392750
451.705917	2443.699327
452.079965	2493.354692
452.453954	2471.929788
452.827883	2485.792962
453.201752	2460.083077
453.575562	2470.669500
453.949311	2478.987404
454.323001	2464.116000
454.696632	2480.499750
455.070202	2476.718885
455.443713	2493.606750
455.817164	2482.012096
456.190556	2494.614981
456.563888	2481.760038
456.937160	2505.705519
457.310373	2477.979173
457.683526	2479.239462
458.056619	2481.003865
458.429653	2480.499750
458.802628	2482.516212
459.175542	2479.491519
459.548398	2490.077942
459.921194	2477.223000
460.293930	2463.863942
460.666607	2516.039885
461.039224	2454.285750
461.411782	2496.883500
461.784280	2498.143788
462.156719	2506.713750
462.529099	2486.801192
462.901419	2472.433904
463.273680	2476.970942
463.645882	2489.069712
464.018024	2472.685962
464.390106	2478.987404
464.762130	2452.269288
465.134094	2490.834115
465.505999	2491.338231
465.877845	2463.107769
466.249631	2502.932885
466.621358	2505.957577
466.993026	2500.664365
467.364634	2480.247692
467.736184	2492.850577
468.107674	2468.400981
468.479105	2480.247692
468.850477	2501.672596
469.221790	2494.110865
469.593043	2491.590288
469.964238	2505.705519
470.335373	2490.834115
470.706449	2487.809423
471.077467	2469.157154
471.448425	2455.041923
471.819324	2496.127327
472.190164	2492.598519
472.560945	2488.313538
472.931667	2497.387615
473.302330	2478.231231
473.672934	2474.450365
474.043479	2474.954481
474.413965	2472.685962
474.784393	2475.710654
475.154761	2489.069712
475.525070	2508.982269
475.895321	2489.321769
476.265513	2490.834115
476.635645	2471.173615
477.005719	2529.398942
477.375734	2509.990500
477.745691	2491.590288
478.115588	2505.957577
478.485427	2470.417442
478.855207	2495.623212
479.224928	2524.861904
479.594591	2529.651000
479.964194	2516.796058
480.333739	2538.473019
480.703226	2531.667462
481.072653	2502.680827
481.442022	2510.242558
481.811333	2531.919519
482.180584	2519.820750
482.549777	2518.056346
482.918912	2522.341327
483.287988	2510.998731
483.657005	2532.675692
484.025964	2537.212731
484.394864	2530.911288
484.763706	2533.683923
485.132489	2522.341327
485.501213	2545.278577
485.869879	2552.084135
486.238487	2526.374250
486.607036	2533.935981
486.975527	2553.344423
487.343959	2549.059442
487.712333	2534.944212
488.080648	2539.733308
488.448905	2538.725077
488.817104	2532.171577
489.185244	2560.402038
489.553326	2540.741538
489.921350	2528.390712
490.289315	2566.955538
490.657222	2532.927750
491.025070	2556.873231
491.392861	2563.678788
491.760593	2554.856769
492.128267	2564.687019
492.495883	2547.042981
492.863440	2547.295038
493.230939	2551.580019
493.598380	2540.489481
493.965763	2545.026519
494.333088	2571.492577
494.700354	2553.596481
495.067563	2566.703481
495.434713	2548.807385
495.801805	2553.848538
496.168839	2552.336192
496.535815	2557.629404
496.902733	2556.117058
497.269593	2546.790923
497.636395	2543.766231
498.003139	2557.629404
498.369825	2584.095462
498.736453	2545.530635
499.103023	2524.861904
499.469535	2561.662327
499.835989	2583.339288
500.202385	2544.522404
500.568723	2558.889692
500.935003	2562.418500
501.301226	2589.136615
501.667390	2544.774462
502.033497	2583.339288
502.399546	2547.042981
502.765537	2552.336192
503.131470	2563.930846
503.497345	2589.640731
503.863163	2574.265212
504.228923	2584.347519
504.594625	2583.843404
504.960269	2596.446288
505.325856	2595.690115
505.691385	2567.711712
506.056856	2568.972000
506.422270	2589.640731
506.787625	2563.678788
507.152924	2599.723038
507.518164	2601.991558
507.883347	2626.945269
508.248472	2607.284769
508.613540	2621.652058
508.978550	2620.139712
509.343503	2619.635596
509.708398	2641.060500
510.073236	2642.824904
510.438016	2650.890750
510.802738	2632.994654
511.167403	2638.287865
511.532010	2697.773481
511.896561	2652.403096
512.261053	2674.584173
512.625488	2663.493635
512.989866	2701.050231
513.354186	2722.979250
513.718449	2699.033769
514.082655	2735.078019
514.446803	2704.579038
514.810894	2720.710731
515.174927	2749.445308
515.538904	2775.911365
515.902822	2790.026596
516.266684	2798.848615
516.630488	2795.319808
516.994235	2833.380519
517.357925	2842.454596
517.721558	2847.495750
518.085133	2863.879500
518.448651	2915.299269
518.812112	2929.414500
519.175516	2926.389808
519.538863	2957.140846
519.902152	2996.713904
520.265385	3015.114115
520.628560	3053.931000
520.991678	3073.843558
521.354739	3087.706731
521.717743	3122.238635
522.080690	3181.724250
522.443580	3197.855942
522.806413	3219.280846
523.169189	3253.308635
523.531908	3283.051442
523.894569	3306.744865
524.257174	3392.696538
524.619722	3414.625558
524.982213	3449.661577
525.344647	3485.705827
525.707025	3561.827250
526.069345	3614.759365
526.431608	3668.699712
526.793815	3711.045404
527.155964	3737.511462
527.518057	3790.947692
527.880093	3865.304712
528.242072	3927.058846
528.603995	3962.346923
528.965860	4047.542423
529.327669	4116.102115
529.689421	4145.088750
530.051117	4218.437538
530.412755	4291.282212
530.774337	4397.650558
531.135862	4431.678346
531.497331	4557.203077
531.858743	4581.652673
532.220098	4671.385212
532.581396	4776.493269
532.942638	4846.817365
533.303824	4952.681596
533.664953	5017.964538
534.026025	5134.667250
534.387040	5236.246500
534.747999	5270.022231
535.108902	5431.591212
535.469748	5467.383404
535.830537	5573.499692
536.191270	5729.775462
536.551947	5818.499769
536.912567	5939.739519
537.273131	6067.532769
537.633638	6134.832173
537.994089	6289.343538
538.354483	6344.040058
538.714821	6518.211923
539.075103	6697.677000
539.435328	6841.601942
539.795497	6950.742923
540.155609	7049.801596
540.515665	7234.559885
540.875665	7305.136038
541.235609	7507.286308
541.595496	7663.562077
541.955328	7867.728808
542.315102	7950.655788
542.674821	8099.117769
543.034483	8219.601346
543.394090	8380.666212
543.753640	8497.873038
544.113134	8823.279519
544.472571	8821.263058
544.831953	9118.691135
545.191278	9263.624308
545.550548	9320.841404
545.909761	9554.246827
546.268918	9786.139904
546.628019	9929.812788
546.987064	10049.540192
547.346053	10131.711000
547.704986	10544.581500
548.063863	10552.395288
548.422684	10764.627865
548.781449	10952.914962
549.140158	11118.516865
549.498811	11281.094077
549.857408	11367.801923
550.215949	11754.710481
550.574434	11913.254769
550.932864	12082.637538
551.291237	12354.859846
551.649555	12497.524500
552.007817	12681.778673
552.366022	12780.837346
552.724173	13055.832288
553.082267	13362.838558
553.440305	13651.444615
553.798288	13644.387000
554.156215	13939.042442
554.514086	14187.823385
554.871902	14264.700981
555.229661	14611.532365
555.587365	14715.884250
555.945014	14952.314365
556.302606	15089.937865
556.660143	15446.599500
557.017625	15678.492577
557.375050	15803.765250
557.732421	16117.577077
558.089735	16224.449538
558.446994	16441.723269
558.804197	16856.610231
559.161345	17100.350019
559.518437	16991.209038
559.875474	17402.819250
560.232455	17571.949962
560.589381	17926.091019
560.946251	18036.744346
561.303065	18561.024346
561.659825	18687.809365
562.016528	18756.117000
562.373177	18827.701385
562.729770	19293.251942
563.086307	19308.123346
563.442789	19785.772673
563.799216	19992.712038
564.155587	20114.707962
564.511904	20330.217288
564.868164	20561.102135
565.224370	20967.671192
565.580520	21111.344077
565.936615	21420.870923
566.292654	21632.347327
566.648638	21897.259962
567.004567	22012.450327
567.360441	22294.502885
567.716260	22411.709712
568.072023	22802.903250
568.427732	23095.794288
568.783385	23148.726404
569.138982	23573.947731
569.494525	23668.721423
569.850013	23849.194731
570.205445	23992.867615
570.560823	24224.256577
570.916145	24501.520038
571.271412	24646.957327
571.626625	24675.691904
571.981782	25034.874115
572.336884	24999.081923
572.691931	25329.529558
573.046923	25436.654077
573.401860	25564.447327
573.756743	25612.842404
574.111570	25894.642904
574.466342	26065.790077
574.821059	26340.280904
575.175722	26308.521635
575.530330	26380.106019
575.884882	26526.551538
576.239380	26797.009442
576.593823	26751.387000
576.948211	26939.674096
577.302544	26871.114404
577.656823	26987.060942
578.011047	27274.154654
578.365216	27429.422192
578.719330	27293.311038
579.073389	27310.703019
579.427394	27624.262788
579.781344	27683.496346
580.135239	27599.057019
580.489080	27807.508731
580.842866	27676.942846
581.196597	27845.065327
581.550273	27886.150731
581.903895	28075.950173
582.257463	28440.425596
582.610975	28081.243385
582.964434	28435.132385
583.317837	28330.528442
583.671186	28236.258865
584.024481	28467.899885
584.377721	28342.627212
584.730906	28730.291942
585.084037	28673.074846
585.437113	28632.493558
585.790135	28753.985365
586.143103	28563.933865
586.496016	28711.639673
586.848874	28716.176712
587.201679	28816.999788
587.554428	28585.358769
587.907124	28593.424615
588.259765	28710.631442
588.612352	28887.828000
588.964884	28494.618000
589.317362	28596.953423
589.669786	28601.238404
590.022155	28402.364885
590.374470	28913.033769
590.726731	28491.341250
591.078937	28386.737308
591.431090	28243.820596
591.783188	28330.276385
592.135232	28116.027346
592.487222	28224.412154
592.839157	28206.768115
593.191038	28002.097269
593.542866	27947.148692
593.894639	27525.456173
594.246358	27665.348192
594.598022	27742.981962
594.949633	27497.477769
595.301190	27497.225712
595.652692	27284.993135
596.004141	27391.613538
596.355535	26934.885000
596.706876	26824.483731
597.058162	26655.353019
597.409395	26949.252288
597.760573	26962.611346
598.111698	26546.716154
598.462768	26675.265577
598.813785	26685.852000
599.164748	26250.548365
599.515657	26342.801481
599.866511	26041.088423
600.217312	26326.669788
600.568060	25666.530692
600.918753	25892.374385
601.269392	25933.711846
601.619978	25594.694250
601.970510	25706.355808
602.320988	25771.890808
602.671412	25934.972135
603.021783	25725.260135
603.372100	25390.527519
603.722363	25436.654077
604.072572	25214.591250
604.422728	25232.235288
604.772830	25024.539750
605.122878	24932.286635
605.472872	24852.384346
605.822813	25015.465673
606.172701	24709.467635
606.522534	24594.277269
606.872314	24775.506750
607.222041	24408.006635
607.571714	24541.345154
607.921333	24041.766808
608.270899	24165.023019
608.620411	24250.974692
608.969870	23957.327481
609.319276	23853.983827
609.668627	23825.501308
610.017926	23775.089769
610.367171	23821.468385
610.716362	23736.524942
611.065500	23529.333519
611.414585	23324.158558
611.763616	23405.573192
612.112594	23207.455846
612.461518	23187.543288
612.810389	23264.420885
613.159207	23011.102904
613.507971	22918.093615
613.856682	22862.136808
614.205340	22717.455692
614.553945	22784.503038
614.902496	22434.646962
615.250994	22585.881577
615.599439	22407.172673
615.947830	22277.362962
616.296169	22255.686000
616.644454	21931.791865
616.992686	21853.906038
617.340864	21948.679731
617.688990	21671.164212
618.037063	21706.956404
618.385082	21577.398750
618.733048	21553.705327
619.080961	21245.186712
619.428821	21152.429481
619.776628	21020.855365
620.124382	20757.959192
620.472083	20767.537385
620.819731	20513.715288
621.167326	20359.960096
621.514868	20065.808769
621.862357	19900.710981
622.209793	19696.292192
622.557176	19395.335308
622.904506	19159.409308
623.251783	18974.146904
623.599007	18563.544923
623.946179	18381.559269
624.293297	18158.740269
624.640363	17704.028192
624.987376	17613.791538
625.334336	17282.587731
625.681243	16979.866442
626.028097	16787.798481
626.374899	16590.437308
626.721647	16411.476346
627.068343	16257.721154
627.414987	15941.136692
627.761577	15730.164404
628.108115	15738.734365
628.454600	15446.095385
628.801032	15311.748635
629.147412	15133.543846
629.493739	15016.589077
629.840014	14835.359596
630.186236	14628.420231
630.532405	14481.974712
630.878521	14319.649558
631.224585	14223.615577
631.570597	14007.854192
631.916556	13875.523904
632.262462	13699.839692
632.608316	13634.808808
632.954117	13440.220269
633.299866	13331.583404
633.645562	13182.365250
633.991206	12895.775654
634.336797	12610.698404
634.682336	12531.552288
635.027823	12368.470962
635.373257	12170.101558
635.718639	11889.309288
636.063968	11834.108654
636.409245	11563.902808
636.754470	11497.611635
637.099642	11256.896538
637.444762	11077.431462
637.789829	10937.791500
638.134845	10818.568212
638.479808	10669.098000
638.824719	10493.665846
639.169577	10353.773827
639.514383	10177.081385
639.859137	10070.208923
640.203839	10029.375577
640.548489	9826.469135
640.893086	9797.734558
641.237632	9593.567827
641.582125	9504.087346
641.926566	9453.675808
642.270955	9317.060538
642.615292	9267.657231
642.959576	9200.609885
643.303809	9053.408192
643.647990	8991.906115
643.992118	8999.719904
644.336195	8890.578923
644.680219	8724.724962
645.024192	8796.309346
645.368112	8710.861788
645.711981	8614.071635
646.055797	8745.393692
646.399562	8647.091192
646.743274	8686.412192
647.086935	8711.617962
647.430544	8636.504769
647.774101	8642.302096
648.117606	8597.435827
648.461059	8592.898788
648.804460	8476.952250
649.147810	8372.096250
649.491108	8224.894558
649.834354	8062.569404
650.177548	7847.564192
650.520690	7732.121769
650.863781	7701.370731
651.206820	7598.027077
651.549807	7535.264712
651.892742	7371.679269
652.235626	7261.278000
652.578458	7213.639096
652.921238	7035.686365
653.263967	6982.250135
653.606644	6825.218192
653.949269	6808.330327
654.291843	6678.268558
654.634365	6734.477423
654.976836	6671.463000
655.319255	6550.223250
655.661622	6474.605942
656.003938	6418.145019
656.346203	6386.133692
656.688416	6361.936154
657.030577	6258.088385
657.372687	6201.123346
657.714746	6180.202558
658.056753	6141.385673
658.398708	6053.165481
658.740612	5996.452500
659.082465	6019.389750
659.424266	5944.024500
659.766016	5868.407192
660.107715	5814.970962
660.449362	5803.124250
660.790958	5796.570750
661.132503	5671.046019
661.473996	5658.695192
661.815438	5690.958577
662.156829	5698.016192
662.498168	5625.675635
662.839456	5560.896808
663.180693	5526.869019
663.521879	5498.134442
663.863013	5440.161173
664.204097	5404.368981
664.545129	5443.185865
664.886110	5392.522269
665.227040	5355.469788
665.567918	5340.346327
665.908746	5311.107635
666.249522	5234.986212
666.590248	5281.112769
666.930922	5268.257827
667.271545	5222.131269
667.612118	5181.549981
667.952639	5146.766019
668.293109	5111.477942
668.633528	5089.800981
668.973896	5014.687788
669.314213	5009.646635
669.654480	4946.128096
669.994695	4925.963481
670.334859	4837.995346
670.674973	4865.973750
671.015035	4804.723731
671.355047	4749.523096
671.695008	4770.948000
672.034918	4692.810115
672.374777	4714.235019
672.714585	4647.439731
673.054342	4632.820385
673.394049	4635.088904
673.733705	4555.690731
674.073310	4570.058019
674.412864	4553.674269
674.752368	4444.029173
675.091820	4472.763750
675.431223	4412.017846
675.770574	4371.940673
676.109875	4373.705077
676.449125	4302.120692
676.788324	4283.468423
677.127473	4196.256462
677.466571	4167.017769
677.805619	4124.924135
678.144616	4124.672077
678.483562	4106.775981
678.822458	4035.695712
679.161303	4007.969365
679.500098	3996.122654
679.838842	3963.859269
680.177535	3922.017692
680.516179	3947.223462
680.854771	3932.604115
681.193314	3936.637038
681.531805	3973.689519
681.870247	4008.473481
682.208638	4055.860327
682.546978	4067.202923
682.885268	4031.914846
683.223508	3995.114423
683.561697	3979.738904
683.899836	3989.569154
684.237925	3918.236827
684.575963	3904.373654
684.913951	3856.986808
685.251889	3812.372596
685.589776	3796.492962
685.927614	3796.240904
686.265401	3785.906538
686.603137	3818.421981
686.940824	3799.265596
687.278460	3817.917865
687.616046	3811.868481
687.953582	3824.723423
688.291068	3844.383923
688.628504	3857.995038
688.965889	3811.364365
689.303224	3820.942558
689.640510	3794.224442
689.977745	3749.862288
690.314930	3696.930173
690.652065	3667.187365
690.989150	3578.463058
691.326185	3556.534038
691.663170	3506.878673
692.000105	3485.705827
692.336990	3458.735654
692.673825	3393.704769
693.010610	3360.433154
693.347345	3309.769558
693.684030	3308.257212
694.020665	3264.903288
694.357251	3244.990731
694.693786	3231.631673
695.030272	3217.768500
695.366707	3192.310673
695.703093	3180.716019
696.039429	3147.444404
696.375716	3142.403250
696.711952	3109.131635
697.048139	3130.808596
697.384276	3115.433077
697.720363	3102.830192
698.056400	3108.375462
698.392388	3098.293154
698.728326	3076.364135
699.064214	3075.103846
699.400053	3022.675846
699.735842	3060.988615
700.071581	3033.514327
700.407270	2999.234481
700.742910	3010.829135
701.078501	2983.102788
701.414042	2970.499904
701.749533	2954.872327
702.084974	2951.091462
702.420366	2954.368212
702.755709	2914.543096
703.091002	2927.902154
703.426246	2904.460788
703.761440	2919.836308
704.096584	2895.134654
704.431679	2901.184038
704.766725	2888.833212
705.101721	2881.775596
705.436668	2844.471058
705.771565	2825.566731
706.106413	2845.983404
706.441212	2851.276615
706.775961	2876.482385
707.110661	2820.273519
707.445311	2845.479288
707.779913	2847.999865
708.114465	2857.073942
708.448967	2836.657269
708.783421	2863.879500
709.117825	2840.690192
709.452180	2843.462827
709.786485	2851.276615
710.120742	2866.400077
710.454949	2864.383615
710.789107	2900.679923
711.123216	2907.485481
711.457275	2907.233423
711.791286	2924.121288
712.125247	2932.691250
712.459159	2943.277673
712.793023	2941.261212
713.126837	2926.137750
713.460602	2918.323962
713.794318	2904.460788
714.127985	2911.770462
714.461602	2894.126423
714.795171	2868.164481
715.128691	2847.495750
715.462162	2826.070846
715.795584	2792.547173
716.128957	2811.703558
716.462281	2780.448404
716.795556	2781.960750
717.128782	2750.453538
717.461960	2757.007038
717.795088	2778.431942
718.128167	2751.965885
718.461198	2749.193250
718.794180	2755.998808
719.127113	2730.036865
719.459997	2721.718962
719.792833	2708.864019
720.125619	2723.231308
720.458357	2711.636654
720.791046	2739.110942
721.123686	2693.488500
721.456278	2696.261135
721.788821	2673.323885
722.121315	2682.397962
722.453761	2681.137673
722.786158	2683.406192
723.118506	2678.869154
723.450805	2677.860923
723.783056	2668.030673
724.115259	2666.266269
724.447412	2663.997750
724.779518	2676.096519
725.111574	2675.844462
725.443582	2687.439115
725.775542	2673.575942
726.107453	2682.145904
726.439315	2684.162365
726.771129	2668.534788
727.102895	2692.732327
727.434612	2662.485404
727.766281	2691.976154
728.097901	2703.570808
728.429473	2708.107846
728.760996	2665.510096
729.092471	2720.962788
729.423897	2695.000846
729.755276	2719.702500
730.086606	2685.422654
730.417887	2698.025538
730.749120	2680.129442
731.080305	2673.071827
731.411442	2688.447346
731.742530	2680.129442
732.073570	2697.521423
732.404562	2689.959692
732.735506	2692.228212
733.066401	2696.513192
733.397249	2719.450442
733.728048	2694.244673
734.058798	2668.282731
734.389501	2676.348577
734.720156	2675.340346
735.050762	2649.882519
735.381320	2636.271404
735.711831	2646.353712
736.042293	2631.734365
736.372707	2643.329019
736.703073	2642.572846
737.033391	2633.750827
737.363661	2632.238481
737.693883	2604.260077
738.024056	2616.610904
738.354182	2652.907212
738.684260	2612.830038
739.014290	2619.383538
739.344272	2608.040942
739.674207	2615.854731
740.004093	2652.655154
740.333931	2645.093423
740.663722	2651.898981
740.993464	2630.978192
741.323159	2636.019346
741.652806	2639.800212
741.982405	2639.800212
742.311956	2612.577981
742.641460	2625.180865
742.970915	2610.057404
743.300323	2601.739500
743.629683	2603.251846
743.958996	2597.958635
744.288260	2597.706577
744.617477	2604.764192
744.946647	2584.095462
745.275768	2593.673654
745.604842	2588.632500
745.933869	2583.591346
746.262847	2601.991558
746.591778	2593.673654
746.920662	2584.095462
747.249498	2585.103692
747.578286	2575.273442
747.907027	2575.777558
748.235720	2583.591346
748.564365	2582.583115
748.892963	2590.144846
749.221514	2579.810481
749.550017	2599.975096
749.878473	2577.541962
750.206881	2580.062538
750.535242	2568.719942
750.863555	2588.884558
751.191821	2560.906154
751.520039	2593.673654
751.848210	2583.087231
752.176334	2582.331058
752.504411	2578.550192
752.832440	2549.815615
753.160421	2562.418500
753.488356	2574.769327
753.816243	2566.451423
754.144082	2563.426731
754.471875	2560.654096
754.799620	2549.059442
755.127318	2572.752865
755.454969	2557.377346
755.782572	2537.968904
756.110129	2551.580019
756.437638	2519.820750
756.765100	2549.059442
757.092515	2556.369115
757.419882	2512.259019
757.747203	2576.029615
758.074477	2533.935981
758.401703	2550.823846
758.728882	2562.670558
759.056014	2561.158212
759.383099	2553.596481
759.710138	2576.533731
760.037129	2558.889692
760.364073	2546.034750
760.690970	2546.538865
761.017820	2579.558423
761.344623	2525.618077
761.671379	2546.286808
761.998088	2539.481250
762.324751	2553.596481
762.651366	2595.942173
762.977935	2596.698346
763.304456	2592.665423
763.630931	2641.816673
763.957359	2629.465846
764.283740	2589.892788
764.610074	2616.862962
764.936362	2609.553288
765.262602	2620.139712
765.588796	2555.108827
765.914943	2581.826942
766.241044	2529.651000
766.567097	2545.026519
766.893104	2520.828981
767.219064	2532.927750
767.544978	2533.683923
767.870845	2533.431865
768.196665	2515.535769
768.522438	2531.415404
768.848165	2525.870135
769.173846	2540.489481
769.499479	2538.977135
769.825066	2503.689058
770.150607	2541.497712
770.476101	2521.837212
770.801548	2519.064577
771.126949	2507.469923
771.452303	2500.664365
771.777611	2486.045019
772.102872	2523.349558
772.428087	2532.171577
772.753256	2515.283712
773.078378	2498.395846
773.403453	2493.102635
773.728482	2506.965808
774.053465	2486.801192
774.378401	2508.730212
774.703291	2510.242558
775.028135	2524.609846
775.352932	2506.209635
775.677683	2504.697288
776.002388	2490.834115
776.327046	2532.927750
776.651658	2508.982269
776.976224	2493.354692
777.300743	2502.428769
777.625216	2517.552231
777.949643	2496.127327
778.274024	2510.746673
778.598359	2481.760038
778.922647	2515.283712
779.246889	2470.921558
779.571086	2517.300173
779.895236	2493.858808
780.219339	2508.226096
780.543397	2515.787827
780.867409	2490.077942
781.191374	2496.883500
781.515294	2494.362923
781.839167	2489.573827
782.162995	2490.834115
782.486776	2501.924654
782.810511	2489.825885
783.134201	2470.165385
783.457844	2493.354692
783.781441	2482.516212
784.104993	2475.710654
784.428498	2482.012096
784.751958	2509.990500
785.075372	2483.020327
785.398739	2490.582058
785.722061	2492.346462
786.045337	2462.099538
786.368568	2502.932885
786.691752	2507.217865
787.014891	2509.738442
787.337983	2502.428769
787.661030	2514.023423
787.984031	2507.721981
788.306987	2524.861904
788.629897	2520.324865
788.952760	2512.006962
789.275579	2511.502846
789.598351	2495.371154
789.921078	2490.582058
790.243759	2535.700385
790.566395	2473.190077
790.888984	2500.160250
791.211529	2486.297077
791.534027	2484.028558
791.856480	2502.176712
792.178888	2476.970942
792.501249	2490.330000
792.823566	2522.089269
793.145836	2471.425673
793.468062	2514.779596
793.790241	2485.036788
794.112375	2510.746673
794.434464	2493.354692
794.756507	2502.176712
795.078505	2506.965808
795.400457	2516.291942
795.722364	2488.565596
796.044226	2494.614981
796.366042	2495.119096
796.687812	2463.863942
797.009538	2491.590288
797.331218	2496.883500
797.652852	2474.702423
797.974442	2512.006962
798.295986	2511.502846
798.617484	2481.003865
798.938938	2503.941115
799.260346	2493.606750
799.581709	2484.028558
799.903026	2471.929788
800.224299	2488.817654
800.545526	2482.012096
800.866708	2464.368058
801.187845	2470.669500
801.508936	2488.061481
801.829983	2489.825885
802.150984	2481.003865
802.471940	2491.590288
802.792851	2492.850577
803.113717	2465.880404
803.434538	2447.480192
803.755314	2495.875269
804.076045	2505.957577
804.396731	2503.689058
804.717372	2504.193173
805.037967	2455.293981
805.358518	2504.949346
805.679024	2509.234327
805.999485	2498.395846
806.319901	2491.590288
806.640272	2499.404077
806.960598	2485.540904
807.280879	2485.036788
807.601115	2486.801192
807.921306	2487.809423
808.241453	2498.395846
808.561554	2514.527538
808.881611	2441.682865
809.201623	2497.135558
809.521590	2488.313538
809.841513	2481.255923
810.161390	2462.099538
810.481223	2485.540904
810.801011	2478.735346
811.120755	2485.036788
811.440453	2462.351596
811.760107	2478.483288
812.079716	2493.102635
812.399281	2484.028558
812.718801	2483.272385
813.038276	2486.549135
813.357707	2498.143788
813.677093	2488.061481
813.996434	2475.962712
814.315731	2490.834115
814.634983	2501.420538
814.954191	2496.631442
815.273354	2487.053250
815.592473	2486.801192
815.911547	2501.672596
816.230577	2508.226096
816.549562	2489.321769
816.868502	2488.061481
817.187399	2516.796058
817.506250	2503.184942
817.825058	2478.231231
818.143821	2496.127327
818.462539	2487.809423
818.781213	2485.036788
819.099843	2488.817654
819.418429	2484.280615
819.736970	2501.168481
820.055466	2499.404077
820.373919	2514.023423
820.692327	2522.341327
821.010691	2489.321769
821.329011	2527.886596
821.647286	2567.207596
821.965517	2613.838269
822.283704	2649.378404
822.601847	2679.373269
822.919945	2694.496731
823.237999	2675.340346
823.556010	2647.614000
823.873976	2598.210692
824.191897	2592.161308
824.509775	2594.933942
824.827609	2544.522404
825.145398	2547.295038
825.463144	2550.571788
825.780845	2569.728173
826.098502	2561.158212
826.416116	2531.667462
826.733685	2568.972000
827.051210	2573.004923
827.368692	2559.393808
827.686129	2557.881462
828.003522	2531.163346
828.320872	2526.374250
828.638177	2524.609846
828.955439	2503.437000
829.272656	2507.974038
829.589830	2514.779596
829.906960	2498.899962
830.224046	2488.565596
830.541088	2494.867038
830.858086	2496.883500
831.175041	2486.297077
831.491952	2501.672596
831.808819	2489.069712
832.125642	2514.023423
832.442421	2528.642769
832.759157	2518.056346
833.075849	2503.184942
833.392497	2485.540904
833.709101	2507.217865
834.025662	2504.697288
834.342179	2506.461692
834.658653	2527.130423
834.975083	2519.568692
835.291469	2513.771365
835.607811	2492.850577
835.924110	2489.321769
836.240366	2490.582058
836.556578	2494.110865
836.872746	2505.453462
837.188871	2474.450365
837.504952	2504.193173
837.820990	2495.371154
838.136984	2506.209635
838.452935	2511.754904
838.768842	2509.234327
839.084706	2475.710654
839.400526	2474.450365
839.716303	2490.582058
840.032037	2475.962712
840.347727	2469.913327
840.663373	2473.946250
840.978977	2496.379385
841.294537	2504.697288
841.610054	2491.086173
841.925527	2475.458596
842.240957	2486.045019
842.556344	2497.387615
842.871687	2456.554269
843.186987	2491.842346
843.502244	2474.450365
843.817458	2479.743577
844.132629	2496.379385
844.447756	2469.157154
844.762840	2496.883500
845.077881	2466.132462
845.392879	2471.173615
845.707833	2489.069712
846.022745	2489.573827
846.337613	2486.801192
846.652438	2474.198308
846.967221	2459.326904
847.281960	2471.173615
847.596656	2469.661269
847.911309	2485.540904
848.225919	2503.437000
848.540485	2483.776500
848.855009	2463.863942
849.169490	2477.727115
849.483928	2468.400981
849.798323	2471.929788
850.112675	2499.656135
850.426984	2467.896865
850.741251	2463.611885
851.055474	2494.867038
851.369654	2465.880404
851.683792	2483.272385
851.997887	2466.636577
852.311938	2474.702423
852.625947	2488.565596
852.939914	2473.442135
853.253837	2478.231231
853.567718	2497.135558
853.881555	2473.190077
854.195350	2486.297077
854.509103	2481.760038
854.822812	2477.727115
855.136479	2463.611885
855.450103	2494.362923
855.763685	2470.165385
856.077224	2468.653038
856.390720	2478.987404
856.704173	2493.354692
857.017584	2459.831019
857.330953	2486.297077
857.644278	2444.203442
857.957561	2481.507981
858.270802	2463.611885
858.584000	2485.288846
858.897155	2468.148923
859.210268	2500.664365
859.523339	2478.483288
859.836367	2492.094404
860.149352	2464.620115
860.462295	2468.653038
860.775195	2503.184942
861.088054	2473.694192
861.400869	2474.450365
861.713642	2475.710654
862.026373	2471.173615
862.339062	2471.677731
862.651708	2491.338231
862.964312	2474.702423
863.276873	2477.475058
863.589392	2466.636577
863.901869	2470.417442
864.214303	2489.069712
864.526696	2489.573827
864.839045	2479.743577
865.151353	2458.066615
865.463619	2481.507981
865.775842	2475.962712
866.088023	2472.433904
866.400162	2491.086173
866.712258	2474.450365
867.024313	2491.086173
867.336325	2492.598519
867.648296	2475.206538
867.960224	2509.486385
868.272110	2458.318673
868.583954	2477.979173
868.895755	2475.206538
869.207515	2498.143788
869.519233	2469.661269
869.830909	2482.264154
870.142542	2486.045019
870.454134	2458.066615
870.765684	2481.003865
871.077191	2484.280615
871.388657	2498.647904
871.700081	2472.433904
872.011463	2496.631442
872.322803	2493.354692
872.634101	2484.532673
872.945357	2465.880404
873.256571	2503.437000
873.567744	2487.305308
873.878874	2487.305308
874.189963	2508.478154
874.501010	2448.740481
874.812015	2489.069712
875.122979	2508.982269
875.433900	2509.738442
875.744780	2497.387615
876.055618	2461.595423
876.366415	2510.746673
876.677169	2492.850577
876.987882	2482.768269
877.298554	2463.107769
877.609183	2464.872173
877.919771	2498.143788
878.230317	2481.507981
878.540822	2460.083077
878.851285	2459.831019
879.161707	2487.557365
879.472087	2495.875269
879.782425	2492.346462
880.092722	2487.305308
880.402977	2505.705519
880.713191	2500.160250
881.023363	2512.511077
881.333494	2537.968904
881.643583	2552.084135
881.953631	2546.286808
882.263637	2530.155115
882.573602	2552.084135
882.883526	2533.683923
883.193408	2535.196269
883.503248	2535.196269
883.813048	2542.253885
884.122806	2508.730212
884.432522	2477.979173
884.742197	2511.250788
885.051831	2494.614981
885.361424	2488.061481
885.670975	2503.941115
885.980485	2481.760038
886.289954	2464.116000
886.599382	2506.713750
886.908768	2482.516212
887.218113	2447.732250
887.527417	2513.771365
887.836680	2471.677731
888.145901	2499.908192
888.455082	2516.544000
888.764221	2469.157154
889.073319	2497.639673
889.382376	2482.768269
889.691392	2483.272385
890.000366	2499.404077
890.309300	2487.053250
890.618193	2486.297077
890.927044	2466.384519
891.235855	2482.012096
891.544625	2485.036788
891.853353	2463.107769
892.162041	2505.453462
892.470687	2491.590288
892.779293	2464.368058
893.087858	2467.896865
893.396381	2454.789865
893.704864	2486.045019
894.013306	2485.540904
894.321707	2497.387615
894.630068	2498.143788
894.938387	2525.870135
895.246665	2493.606750
895.554903	2510.998731
895.863100	2468.905096
896.171256	2488.817654
896.479371	2480.751808
896.787446	2487.053250
897.095480	2492.094404
897.403473	2494.867038
897.711425	2486.045019
898.019336	2484.784731
898.327207	2505.201404
898.635038	2486.549135
898.942827	2478.987404
899.250576	2505.957577
899.558284	2475.458596
899.865952	2473.442135
900.173579	2489.321769
900.481165	2482.768269
900.788711	2496.883500
901.096216	2488.565596
901.403681	2466.636577
901.711105	2480.247692
902.018489	2484.028558
902.325832	2473.442135
902.633135	2470.669500
902.940397	2494.110865
903.247619	2477.223000
903.554800	2488.817654
903.861941	2459.326904
904.169041	2504.445231
904.476101	2510.998731
904.783121	2516.796058
905.090100	2502.680827
905.397039	2481.255923
905.703938	2523.853673
906.010796	2497.135558
906.317614	2491.338231
906.624391	2496.883500
906.931129	2489.825885
907.237826	2497.639673
907.544483	2468.905096
907.851099	2474.450365
908.157675	2494.362923
908.464211	2483.272385
908.770707	2453.529577
909.077163	2475.458596
909.383578	2479.239462
909.689954	2486.801192
909.996289	2472.938019
910.302584	2486.297077
910.608839	2472.181846
910.915054	2488.313538
911.221229	2489.321769
911.527363	2484.280615
911.833458	2478.987404
912.139513	2496.379385
912.445527	2474.702423
912.751502	2490.330000
913.057436	2484.784731
913.363331	2493.102635
913.669186	2485.540904
913.975000	2488.061481
914.280775	2472.433904
914.586510	2495.119096
914.892205	2500.160250
915.197859	2461.847481
915.503475	2484.532673
915.809050	2493.102635
916.114585	2495.371154
916.420081	2485.288846
916.725536	2501.420538
917.030952	2521.585154
917.336328	2493.858808
917.641665	2476.970942
917.946961	2492.346462
918.252218	2494.867038
918.557435	2483.020327
918.862612	2501.420538
919.167750	2488.817654
919.472848	2482.012096
919.777906	2481.760038
920.082925	2500.160250
920.387904	2487.557365
920.692843	2469.409212
920.997743	2501.420538
921.302603	2479.743577
921.607423	2516.544000
921.912204	2487.305308
922.216946	2460.083077
922.521647	2509.486385
922.826310	2490.077942
923.130932	2444.707558
923.435516	2476.970942
923.740059	2492.346462
924.044564	2486.297077
924.349028	2490.077942
924.653454	2491.338231
924.957840	2460.587192
925.262186	2483.776500
925.566493	2482.264154
925.870761	2444.455500
926.174989	2451.513115
926.479178	2477.223000
926.783328	2479.491519
927.087438	2472.181846
927.391509	2495.623212
927.695541	2475.962712
927.999533	2491.086173
928.303486	2472.433904
928.607400	2499.908192
928.911275	2476.718885
929.215110	2497.387615
929.518906	2471.929788
929.822663	2481.507981
930.126381	2461.343365
930.430060	2485.540904
930.733699	2457.814558
931.037299	2473.190077
931.340861	2461.091308
931.644383	2493.354692
931.947866	2459.831019
932.251309	2467.140692
932.554714	2476.214769
932.858080	2472.685962
933.161407	2469.157154
933.464694	2459.831019
933.767943	2471.677731
934.071153	2472.938019
934.374323	2478.231231
934.677455	2472.433904
934.980548	2463.107769
935.283602	2469.913327
935.586617	2482.516212
935.889593	2490.077942
936.192530	2441.178750
936.495428	2479.995635
936.798287	2456.806327
937.101108	2467.140692
937.403890	2472.685962
937.706632	2502.680827
938.009336	2467.392750
938.312002	2486.549135
938.614628	2475.458596
938.917216	2478.735346
939.219765	2481.760038
939.522275	2476.466827
939.824747	2462.099538
940.127179	2468.905096
940.429573	2464.116000
940.731929	2452.269288
941.034246	2488.061481
941.336524	2458.318673
941.638763	2472.433904
941.940964	2479.491519
942.243126	2478.231231
942.545250	2486.549135
942.847335	2457.058385
943.149381	2502.428769
943.451389	2461.091308
943.753359	2481.003865
944.055290	2454.789865
944.357182	2481.255923
944.659036	2475.458596
944.960851	2490.582058
945.262628	2514.023423
945.564367	2442.691096
945.866067	2473.946250
946.167729	2446.471962
946.469352	2485.792962
946.770937	2450.756942
947.072484	2475.962712
947.373992	2465.376288
947.675462	2467.644808
947.976893	2468.905096
948.278286	2462.603654
948.579641	2474.702423
948.880958	2437.145827
949.182236	2462.099538
949.483476	2453.781635
949.784678	2478.735346
950.085841	2464.872173
950.386967	2483.524442
950.688054	2485.540904
950.989103	2488.817654
951.290114	2471.677731
951.591087	2470.165385
951.892021	2480.751808
952.192917	2487.809423
952.493776	2478.735346
952.794596	2480.247692
953.095378	2462.351596
953.396122	2487.809423
953.696828	2492.598519
953.997496	2492.094404
954.298126	2494.614981
954.598718	2478.735346
954.899272	2451.765173
955.199788	2476.718885
955.500266	2454.033692
955.800706	2494.362923
956.101108	2476.970942
956.401472	2479.491519
956.701798	2484.532673
957.002087	2465.124231
957.302337	2444.707558
957.602550	2473.946250
957.902724	2472.433904
958.202861	2473.442135
958.502960	2464.620115
958.803022	2465.628346
959.103045	2450.504885
959.403031	2492.346462
959.702979	2458.318673
960.002889	2480.247692
960.302762	2469.913327
960.602596	2443.447269
960.902393	2478.987404
961.202153	2487.557365
961.501875	2470.669500
961.801559	2476.466827
962.101205	2492.850577
962.400814	2444.707558
962.700385	2463.359827
962.999918	2462.351596
963.299414	2488.061481
963.598873	2487.053250
963.898293	2473.694192
964.197677	2467.644808
964.497022	2467.392750
964.796331	2459.074846
965.095601	2490.077942
965.394835	2470.921558
965.694030	2474.954481
965.993189	2472.181846
966.292309	2452.773404
966.591393	2454.033692
966.890439	2472.433904
967.189447	2472.433904
967.488419	2468.905096
967.787353	2492.346462
968.086249	2462.099538
968.385108	2493.354692
968.683930	2467.392750
968.982714	2473.442135
969.281462	2478.231231
969.580172	2479.995635
969.878844	2465.628346
970.177480	2470.669500
970.476078	2474.450365
970.774639	2497.639673
971.073162	2453.025462
971.371649	2466.636577
971.670098	2453.781635
971.968510	2482.768269
972.266885	2489.573827
972.565223	2479.491519
972.863524	2467.644808
973.161788	2491.590288
973.460014	2480.499750
973.758204	2470.669500
974.056356	2456.806327
974.354471	2488.061481
974.652550	2464.368058
974.950591	2469.913327
975.248595	2458.822788
975.546563	2481.507981
975.844493	2460.587192
976.142386	2462.099538
976.440243	2485.540904
976.738062	2467.140692
977.035845	2455.041923
977.333590	2455.798096
977.631299	2468.653038
977.928971	2481.507981
978.226606	2471.173615
978.524204	2465.124231
978.821765	2467.392750
979.119290	2463.107769
979.416777	2462.603654
979.714228	2478.735346
980.011642	2463.611885
980.309020	2457.562500
980.606360	2456.050154
980.903664	2474.702423
981.200931	2467.896865
981.498162	2485.792962
981.795356	2458.066615
982.092513	2475.206538
982.389633	2475.458596
982.686717	2456.302212
982.983764	2472.181846
983.280775	2456.554269
983.577749	2487.305308
983.874686	2455.546038
984.171587	2446.471962
984.468451	2470.921558
984.765279	2486.549135
985.062070	2456.554269
985.358824	2440.926692
985.655543	2467.140692
985.952224	2440.422577
986.248869	2495.623212
986.545478	2460.587192
986.842050	2466.132462
987.138586	2443.951385
987.435086	2478.735346
987.731549	2466.384519
988.027975	2465.124231
988.324366	2469.157154
988.620719	2482.012096
988.917037	2457.814558
989.213318	2472.433904
989.509563	2479.239462
989.805772	2478.987404
990.101944	2494.110865
990.398080	2458.570731
990.694180	2453.529577
990.990244	2484.532673
991.286271	2471.425673
991.582262	2484.784731
991.878217	2449.748712
992.174136	2479.995635
992.470019	2471.173615
992.765865	2484.532673
993.061676	2450.000769
993.357450	2456.050154
993.653188	2461.343365
993.948890	2474.198308
994.244556	2457.310442
994.540186	2442.943154
994.835780	2480.247692
995.131337	2457.058385
995.426859	2483.524442
995.722345	2465.880404
996.017795	2450.252827
996.313208	2469.157154
996.608586	2495.371154
996.903928	2473.190077
997.199234	2476.466827
997.494504	2463.107769
997.789738	2493.102635
998.084936	2435.885538
998.380099	2475.710654
998.675225	2480.751808
998.970316	2454.033692
999.265371	2496.883500
999.560390	2472.433904
999.855373	2483.272385
1000.150320	2462.603654
1000.445232	2480.751808
1000.740108	2460.335135
1001.034948	2484.532673
1001.329752	2479.239462
1001.624521	2486.045019
1001.919254	2459.831019
1002.213951	2486.549135
1002.508613	2481.507981
1002.803239	2446.724019
1003.097829	2467.896865
1003.392384	2448.740481
1003.686903	2467.896865
1003.981386	2456.554269
1004.275834	2447.732250
1004.570246	2471.425673
1004.864623	2454.033692
1005.158964	2491.086173
1005.453270	2482.264154
1005.747540	2496.379385
1006.041775	2477.979173
1006.335974	2478.231231
1006.630138	2468.148923
1006.924266	2486.549135
1007.218359	2482.012096
1007.512416	2465.880404
1007.806438	2437.397885
1008.100425	2474.702423
1008.394376	2464.116000
1008.688292	2464.368058
1008.982172	2451.009000
1009.276017	2478.231231
1009.569827	2485.792962
1009.863602	2468.653038
1010.157341	2480.247692
1010.451045	2477.475058
1010.744714	2462.099538
1011.038347	2468.148923
1011.331945	2471.677731
1011.625508	2461.091308
1011.919036	2462.351596
1012.212528	2473.694192
1012.505986	2453.529577
1012.799408	2476.214769
1013.092795	2452.017231
1013.386147	2474.198308
1013.679464	2468.905096
1013.972745	2488.061481
1014.265992	2486.549135
1014.559204	2451.765173
1014.852380	2464.872173
1015.145521	2454.285750
1015.438628	2461.091308
1015.731699	2473.694192
1016.024736	2474.450365
1016.317737	2488.313538
1016.610703	2467.644808
1016.903635	2488.061481
1017.196531	2467.140692
1017.489393	2465.628346
1017.782219	2452.269288
1018.075011	2476.214769
1018.367768	2436.641712
1018.660490	2440.926692
1018.953177	2440.926692
1019.245829	2440.926692
