Dividing Wavelength (nm)	Counts (n)	Slit_number_24_of_a_total_of_40	
326.493990	2037.962060
326.888308	2037.962060
327.282561	2037.962060
327.676750	2021.805162
328.070874	2014.823163
328.464933	2029.215658
328.858929	2030.097860
329.252859	2041.616896
329.646726	2057.546942
330.040528	2074.838100
330.434265	2091.095821
330.827938	2109.243975
331.221547	2120.863835
331.615091	2158.218785
332.008571	2173.543892
332.401986	2202.379292
332.795338	2207.470858
333.188625	2230.156050
333.581847	2254.076325
333.975006	2267.611823
334.368100	2282.785696
334.761129	2309.831487
335.154095	2310.537248
335.546996	2329.794456
335.939833	2349.555779
336.332606	2360.343848
336.725315	2368.208048
337.117960	2380.558875
337.510540	2390.187479
337.903056	2397.245094
338.295508	2411.335119
338.687896	2413.124729
339.080220	2419.980698
339.472480	2427.088725
339.864676	2424.290885
340.256807	2424.971440
340.648875	2435.809921
341.040879	2431.650969
341.432818	2437.902000
341.824694	2439.767227
342.216506	2442.413833
342.608253	2435.734304
342.999937	2439.212700
343.391557	2438.305292
343.783113	2430.315063
344.174605	2431.323294
344.566033	2426.811462
344.957397	2426.256935
345.348697	2427.466812
345.739934	2422.929773
346.131106	2423.938004
346.522215	2418.997673
346.913260	2419.224525
347.304241	2419.048085
347.695159	2417.082035
348.086012	2412.771848
348.476802	2413.376787
348.867528	2414.561458
349.258191	2408.159192
349.648789	2404.428738
350.039324	2399.967317
350.429796	2404.756413
350.820203	2408.386044
351.210548	2401.958573
351.600828	2403.420508
351.991045	2406.016702
352.381198	2411.309913
352.771288	2410.856210
353.161314	2407.554254
353.551276	2410.352094
353.941175	2400.874725
354.331010	2414.006931
354.720782	2409.621127
355.110490	2401.051165
355.500135	2406.873698
355.889717	2411.587177
356.279235	2415.368042
356.668689	2402.412277
357.058080	2414.838721
357.447408	2402.714746
357.836672	2409.091806
358.225873	2402.185425
358.615010	2415.141190
359.004084	2408.436456
359.393095	2414.637075
359.782043	2418.065060
360.170927	2410.856210
360.559748	2406.999727
360.948505	2409.394275
361.337199	2414.385017
361.725830	2415.695717
362.114398	2412.141704
362.502903	2417.787796
362.891344	2417.737385
363.279722	2413.528021
363.668037	2420.333579
364.056289	2412.066087
364.444478	2411.738412
364.832603	2413.855696
365.220665	2419.174113
365.608665	2418.871644
365.996601	2422.072777
366.384474	2425.778025
366.772284	2416.779565
367.160031	2427.895310
367.547715	2424.240473
367.935336	2417.939031
368.322893	2417.939031
368.710388	2423.232242
369.097820	2424.719383
369.485189	2414.511046
369.872495	2418.342323
370.259738	2431.776998
370.646918	2430.466298
371.034035	2421.543456
371.421090	2430.214240
371.808081	2427.441606
372.195010	2422.904567
372.581875	2428.399425
372.968678	2425.576379
373.355418	2428.298602
373.742096	2434.373192
374.128710	2425.626790
374.515262	2426.710638
374.901751	2426.660227
375.288177	2428.853129
375.674540	2426.030083
376.060841	2427.139137
376.447079	2434.070723
376.833254	2430.113417
377.219367	2423.282654
377.605417	2434.297575
377.991404	2432.457554
378.377329	2432.104673
378.763191	2432.205496
379.148991	2430.768767
379.534727	2439.187494
379.920402	2422.123188
380.306013	2432.659200
380.691563	2438.658173
381.077049	2428.979158
381.462474	2427.416400
381.847835	2436.540888
382.233134	2436.011567
382.618371	2436.944181
383.003545	2438.431321
383.388657	2443.396858
383.773706	2434.171546
384.158693	2436.868563
384.543618	2442.161775
384.928480	2443.270829
385.313280	2442.590273
385.698017	2446.749225
386.082692	2453.504371
386.467305	2453.958075
386.851856	2460.385546
387.236344	2462.981740
387.620770	2462.023921
388.005133	2468.224540
388.389435	2482.415388
388.773674	2485.918990
389.157851	2504.167967
389.541965	2522.139681
389.926018	2539.985365
390.310008	2563.426731
390.693936	2581.902560
391.077802	2617.467900
391.461606	2641.388175
391.845348	2679.398475
392.229027	2709.418546
392.612645	2763.157246
392.996200	2811.224648
393.379694	2859.468490
393.763125	2935.085798
394.146494	2982.951554
394.529801	3066.433062
394.913047	3153.619817
395.296230	3208.467571
395.679351	3282.496915
396.062410	3383.874519
396.445408	3431.992333
396.828343	3532.160060
397.211217	3632.151346
397.594028	3682.411650
397.976778	3786.813946
398.359466	3893.358733
398.742092	3959.498671
399.124656	4063.245617
399.507158	4193.332592
399.889598	4267.765229
400.271977	4382.980800
400.654294	4462.681442
401.036549	4592.566771
401.418742	4665.134181
401.800874	4816.847706
402.182944	4913.284979
402.564952	5106.814875
402.946898	5109.234629
403.328783	5169.652858
403.710606	5307.351975
404.092367	5464.207477
404.474067	5631.750225
404.855705	5610.048058
405.237282	5627.717302
405.618797	5849.351631
406.000250	5983.723587
406.381642	6152.148537
406.762972	6149.678371
407.144240	6108.693790
407.525447	6223.682510
407.906593	6207.954110
408.287677	6328.664538
408.668700	6391.099229
409.049661	6366.372369
409.430560	6438.612104
409.811399	6406.046250
410.192176	6448.165090
410.572891	6460.440300
410.953545	6622.589013
411.334138	6366.422781
411.714669	6563.809160
412.095139	6236.865127
412.475547	6371.337906
412.855894	6259.273056
413.236180	6325.261760
413.616405	6115.196879
413.996568	6149.728783
414.376670	6052.837806
414.756711	5939.184992
415.136691	5937.092913
415.516609	5899.208642
415.896466	5838.563562
416.276262	5818.550181
416.655997	5828.355225
417.035670	5756.947281
417.415283	5830.976625
417.794834	5730.178754
418.174324	5565.912756
418.553753	5428.642137
418.933121	5416.770219
419.312428	5251.092698
419.691674	5116.897183
420.070859	5087.860137
420.449983	4884.651225
420.829045	4876.282910
421.208047	4716.755596
421.586988	4676.401160
421.965867	4590.877985
422.344686	4478.359431
422.723444	4428.149538
423.102141	4137.501813
423.480777	4194.391235
423.859352	4025.386552
424.237866	4030.049619
424.616319	3897.190010
424.994712	3866.993498
425.373044	3734.890062
425.751314	3702.198179
426.129524	3543.502656
426.507673	3521.523225
426.885762	3430.404369
427.263789	3361.390973
427.641756	3293.789100
428.019662	3224.523646
428.397508	3163.802948
428.775292	3108.173815
429.153016	3054.888819
429.530679	3003.998371
429.908282	2955.426854
430.285824	2902.822413
430.663305	2882.531769
431.040726	2816.769917
431.418086	2789.396452
431.795385	2764.115065
432.172624	2743.874833
432.549802	2717.307952
432.926920	2700.571321
433.303977	2676.651046
433.680974	2651.798158
434.057910	2637.128400
434.434786	2626.491565
434.811601	2612.401540
435.188355	2607.259563
435.565050	2599.244129
435.941683	2579.835687
436.318257	2583.742581
436.694770	2576.710171
437.071222	2564.182904
437.447614	2543.564585
437.823946	2550.622200
438.200218	2539.682896
438.576429	2532.247194
438.952580	2539.103163
439.328670	2529.928263
439.704700	2517.552231
440.080670	2519.518281
440.456580	2517.501819
440.832429	2514.880419
441.208218	2509.562002
441.583947	2503.563029
441.959616	2507.142248
442.335224	2504.621671
442.710773	2497.488438
443.086261	2493.984837
443.461689	2496.959117
443.837057	2501.697802
444.212365	2494.917450
444.587612	2496.707060
444.962800	2480.449338
445.337927	2489.145329
445.712995	2486.145842
446.088002	2487.330513
446.462949	2488.212715
446.837837	2482.793475
447.212664	2485.767756
447.587431	2490.556852
447.962139	2488.792448
448.336786	2498.521875
448.711374	2492.170021
449.085901	2483.524442
449.460369	2482.037302
449.834776	2486.675163
450.209124	2480.877837
450.583412	2490.279588
450.957640	2476.542444
451.331808	2489.220946
451.705917	2487.355719
452.079965	2484.860348
452.453954	2478.407671
452.827883	2482.465800
453.201752	2481.281129
453.575562	2483.952940
453.949311	2475.584625
454.323001	2475.735860
454.696632	2478.760552
455.070202	2474.273925
455.443713	2484.935965
455.817164	2486.322283
456.190556	2484.482262
456.563888	2479.189050
456.937160	2481.255923
457.310373	2490.506440
457.683526	2484.381438
458.056619	2484.078969
458.429653	2473.416929
458.802628	2487.784217
459.175542	2481.911273
459.548398	2486.876810
459.921194	2483.978146
460.293930	2481.054277
460.666607	2483.095944
461.039224	2484.381438
461.411782	2484.482262
461.784280	2484.986377
462.156719	2484.860348
462.529099	2488.817654
462.901419	2484.381438
463.273680	2484.532673
463.645882	2474.828452
464.018024	2473.492546
464.390106	2484.709113
464.762130	2490.077942
465.134094	2492.976606
465.505999	2494.640187
465.877845	2495.925681
466.249631	2501.723008
466.621358	2498.597492
466.993026	2495.144302
467.364634	2503.235354
467.736184	2493.203458
468.107674	2487.179279
468.479105	2493.606750
468.850477	2485.288846
469.221790	2494.967862
469.593043	2489.624238
469.964238	2485.666933
470.335373	2490.808910
470.706449	2490.430823
471.077467	2499.756958
471.448425	2493.077429
471.819324	2494.841833
472.190164	2497.589262
472.560945	2493.480721
472.931667	2492.069198
473.302330	2491.161790
473.672934	2478.785758
474.043479	2480.953454
474.413965	2490.002325
474.784393	2481.986890
475.154761	2491.161790
475.525070	2491.287819
475.895321	2483.625265
476.265513	2490.380412
476.635645	2486.952427
477.005719	2483.423619
477.375734	2486.070225
477.745691	2490.531646
478.115588	2489.397387
478.485427	2495.396360
478.855207	2502.580004
479.224928	2486.322283
479.594591	2503.890704
479.964194	2497.261587
480.333739	2504.041938
480.703226	2503.386588
481.072653	2503.487412
481.442022	2499.630929
481.811333	2502.554798
482.180584	2493.531133
482.549777	2491.136585
482.918912	2491.313025
483.287988	2494.589775
483.657005	2501.143275
484.025964	2502.605210
484.394864	2501.344921
484.763706	2495.068685
485.132489	2500.966835
485.501213	2504.369613
485.869879	2498.042965
486.238487	2500.790394
486.607036	2499.605723
486.975527	2494.715804
487.343959	2502.932885
487.712333	2502.706033
488.080648	2503.411794
488.448905	2497.211175
488.817104	2501.723008
489.185244	2503.260560
489.553326	2504.218379
489.921350	2509.007475
490.289315	2516.367560
490.657222	2514.653567
491.025070	2504.092350
491.392861	2515.334123
491.760593	2509.914883
492.128267	2497.538850
492.495883	2511.553258
492.863440	2504.772906
493.230939	2500.336690
493.598380	2502.428769
493.965763	2499.807369
494.333088	2501.596979
494.700354	2499.580517
495.067563	2495.724035
495.434713	2506.386075
495.801805	2499.630929
496.168839	2503.462206
496.535815	2495.043479
496.902733	2508.049656
497.269593	2494.665392
497.636395	2499.908192
498.003139	2500.487925
498.369825	2495.724035
498.736453	2497.286792
499.103023	2497.816113
499.469535	2503.361383
499.835989	2496.076915
500.202385	2492.144815
500.568723	2495.572800
500.935003	2501.571773
501.301226	2498.773933
501.667390	2494.110865
502.033497	2497.513644
502.399546	2496.933912
502.765537	2492.926194
503.131470	2500.210662
503.497345	2495.421565
503.863163	2500.916423
504.228923	2495.043479
504.594625	2500.613954
504.960269	2500.714777
505.325856	2502.504387
505.691385	2493.279075
506.056856	2495.018273
506.422270	2504.747700
506.787625	2500.009015
507.152924	2498.244612
507.518164	2495.900475
507.883347	2505.050169
508.248472	2505.680313
508.613540	2502.453975
508.978550	2496.631442
509.343503	2494.841833
509.708398	2497.790908
510.073236	2502.201917
510.438016	2505.579490
510.802738	2502.101094
511.167403	2497.059940
511.532010	2504.747700
511.896561	2507.495129
512.261053	2502.857267
512.625488	2496.631442
512.989866	2499.454488
513.354186	2505.050169
513.718449	2503.109325
514.082655	2501.017246
514.446803	2499.882987
514.810894	2497.513644
515.174927	2500.513131
515.538904	2504.823317
515.902822	2502.075888
516.266684	2500.487925
516.630488	2502.882473
516.994235	2509.587208
517.357925	2500.210662
517.721558	2500.840806
518.085133	2508.150479
518.448651	2506.108812
518.812112	2488.338744
519.175516	2494.060454
519.538863	2491.615494
519.902152	2502.277535
520.265385	2495.371154
520.628560	2499.555312
520.991678	2497.412821
521.354739	2504.621671
521.717743	2485.868579
522.080690	2501.924654
522.443580	2501.042452
522.806413	2501.823831
523.169189	2499.656135
523.531908	2498.295023
523.894569	2492.220433
524.257174	2492.926194
524.619722	2499.328460
524.982213	2490.481235
525.344647	2493.228663
525.707025	2494.791421
526.069345	2495.446771
526.431608	2487.759012
526.793815	2492.749754
527.155964	2495.043479
527.518057	2487.179279
527.880093	2497.614467
528.242072	2492.951400
528.603995	2498.219406
528.965860	2487.985863
529.327669	2493.077429
529.689421	2494.438540
530.051117	2493.027017
530.412755	2491.439054
530.774337	2495.497183
531.135862	2497.337204
531.497331	2486.977633
531.858743	2491.413848
532.220098	2497.160763
532.581396	2489.649444
532.942638	2506.839779
533.303824	2494.816627
533.664953	2488.061481
534.026025	2492.472490
534.387040	2489.851090
534.747999	2493.984837
535.108902	2492.144815
535.469748	2493.631956
535.830537	2487.330513
536.191270	2494.993067
536.551947	2494.917450
536.912567	2485.288846
537.273131	2488.086687
537.633638	2486.448312
537.994089	2494.060454
538.354483	2489.447798
538.714821	2491.035762
539.075103	2491.615494
539.435328	2489.044506
539.795497	2494.010042
540.155609	2485.213229
540.515665	2492.447285
540.875665	2489.523415
541.235609	2492.422079
541.595496	2485.566110
541.955328	2493.606750
542.315102	2484.104175
542.674821	2489.246152
543.034483	2495.446771
543.394090	2489.876296
543.753640	2489.523415
544.113134	2484.305821
544.472571	2489.951913
544.831953	2489.699856
545.191278	2494.917450
545.550548	2494.816627
545.909761	2487.809423
546.268918	2492.648931
546.628019	2491.136585
546.987064	2490.002325
547.346053	2490.783704
547.704986	2495.976092
548.063863	2485.893785
548.422684	2494.488952
548.781449	2483.978146
549.140158	2490.934938
549.498811	2487.885040
549.857408	2491.943169
550.215949	2480.650985
550.574434	2491.489465
550.932864	2485.969402
551.291237	2484.961171
551.649555	2498.673110
552.007817	2482.717858
552.366022	2493.531133
552.724173	2485.666933
553.082267	2490.556852
553.440305	2489.447798
553.798288	2492.926194
554.156215	2482.818681
554.514086	2481.558392
554.871902	2487.632983
555.229661	2490.481235
555.587365	2479.642754
555.945014	2487.885040
556.302606	2487.935452
556.660143	2482.264154
557.017625	2483.121150
557.375050	2496.883500
557.732421	2481.255923
558.089735	2481.760038
558.446994	2490.607263
558.804197	2485.112406
559.161345	2484.658702
559.518437	2487.078456
559.875474	2495.144302
560.232455	2478.584112
560.589381	2485.288846
560.946251	2480.222487
561.303065	2485.238435
561.659825	2486.952427
562.016528	2484.406644
562.373177	2490.304794
562.729770	2491.489465
563.086307	2488.313538
563.442789	2489.926708
563.799216	2489.825885
564.155587	2490.708087
564.511904	2481.608804
564.868164	2483.549648
565.224370	2475.332567
565.580520	2484.280615
565.936615	2490.077942
566.292654	2482.692652
566.648638	2489.699856
567.004567	2484.809937
567.360441	2483.978146
567.716260	2488.162304
568.072023	2485.162817
568.427732	2482.188537
568.783385	2484.885554
569.138982	2482.516212
569.494525	2484.230204
569.850013	2490.582058
570.205445	2485.666933
570.560823	2484.633496
570.916145	2483.348002
571.271412	2479.214256
571.626625	2488.111892
571.981782	2484.759525
572.336884	2478.029585
572.691931	2487.885040
573.046923	2483.423619
573.401860	2478.483288
573.756743	2480.726602
574.111570	2483.978146
574.466342	2486.271871
574.821059	2482.390183
575.175722	2481.482775
575.530330	2488.842860
575.884882	2477.727115
576.239380	2484.104175
576.593823	2486.095431
576.948211	2484.910760
577.302544	2477.096971
577.656823	2482.768269
578.011047	2485.717344
578.365216	2480.499750
578.719330	2481.331540
579.073389	2481.054277
579.427394	2484.078969
579.781344	2477.374235
580.135239	2486.372694
580.489080	2482.995121
580.842866	2484.608290
581.196597	2485.238435
581.550273	2473.744604
581.903895	2473.089254
582.257463	2485.011583
582.610975	2482.163331
582.964434	2484.860348
583.317837	2478.231231
583.671186	2490.456029
584.024481	2470.316619
584.377721	2481.079483
584.730906	2482.440594
585.084037	2480.146869
585.437113	2483.221973
585.790135	2489.170535
586.143103	2478.810963
586.496016	2487.582571
586.848874	2488.691625
587.201679	2480.197281
587.554428	2480.373721
587.907124	2483.700883
588.259765	2478.004379
588.612352	2479.768783
588.964884	2488.086687
589.317362	2483.549648
589.669786	2477.701910
590.022155	2483.297590
590.374470	2476.063535
590.726731	2481.180306
591.078937	2475.635037
591.431090	2479.920017
591.783188	2485.263640
592.135232	2481.634010
592.487222	2474.601600
592.839157	2477.727115
593.191038	2486.725575
593.542866	2482.037302
593.894639	2491.867552
594.246358	2484.961171
594.598022	2480.827425
594.949633	2490.405617
595.301190	2475.962712
595.652692	2488.666419
596.004141	2479.667960
596.355535	2481.054277
596.706876	2483.020327
597.058162	2474.299131
597.409395	2482.314565
597.760573	2476.214769
598.111698	2479.567137
598.462768	2486.246665
598.813785	2478.432877
599.164748	2482.541417
599.515657	2476.718885
599.866511	2488.716831
600.217312	2472.610344
600.568060	2481.684421
600.918753	2481.760038
601.269392	2482.188537
601.619978	2481.936479
601.970510	2476.113946
602.320988	2474.047073
602.671412	2476.466827
603.021783	2481.886067
603.372100	2476.643267
603.722363	2479.743577
604.072572	2478.634523
604.422728	2476.618062
604.772830	2478.256437
605.122878	2481.659215
605.472872	2473.744604
605.822813	2479.214256
606.172701	2482.415388
606.522534	2482.012096
606.872314	2473.744604
607.222041	2468.552215
607.571714	2482.314565
607.921333	2478.533700
608.270899	2465.855198
608.620411	2479.037815
608.969870	2481.356746
609.319276	2472.938019
609.668627	2476.769296
610.017926	2476.139152
610.367171	2482.188537
610.716362	2484.709113
611.065500	2477.147383
611.414585	2481.356746
611.763616	2481.835656
612.112594	2476.290387
612.461518	2484.003352
612.810389	2476.970942
613.159207	2473.240488
613.507971	2479.642754
613.856682	2479.642754
614.205340	2482.213742
614.553945	2477.500263
614.902496	2482.969915
615.250994	2478.735346
615.599439	2483.978146
615.947830	2487.834629
616.296169	2483.423619
616.644454	2482.163331
616.992686	2482.138125
617.340864	2479.491519
617.688990	2476.996148
618.037063	2484.507467
618.385082	2477.752321
618.733048	2475.256950
619.080961	2473.971456
619.428821	2480.298104
619.776628	2483.978146
620.124382	2481.331540
620.472083	2476.844913
620.819731	2486.221460
621.167326	2483.045533
621.514868	2485.591315
621.862357	2479.491519
622.209793	2477.701910
622.557176	2480.499750
622.904506	2473.391723
623.251783	2471.047587
623.599007	2473.769810
623.946179	2481.104688
624.293297	2473.744604
624.640363	2479.088227
624.987376	2471.224027
625.334336	2464.544498
625.681243	2476.466827
626.028097	2469.081537
626.374899	2476.189563
626.721647	2478.634523
627.068343	2469.384006
627.414987	2479.541931
627.761577	2479.693165
628.108115	2479.063021
628.454600	2468.678244
628.801032	2480.046046
629.147412	2475.786271
629.493739	2473.013637
629.840014	2477.626292
630.186236	2482.869092
630.532405	2479.289873
630.878521	2471.324850
631.224585	2472.610344
631.570597	2467.039869
631.916556	2478.609317
632.262462	2480.121663
632.608316	2474.047073
632.954117	2480.272898
633.299866	2476.013123
633.645562	2475.786271
633.991206	2476.466827
634.336797	2470.619088
634.682336	2483.322796
635.027823	2477.147383
635.373257	2464.821762
635.718639	2480.852631
636.063968	2469.837710
636.409245	2490.229177
636.754470	2478.785758
637.099642	2473.694192
637.444762	2475.055304
637.789829	2472.660756
638.134845	2478.155613
638.479808	2479.743577
638.824719	2468.627833
639.169577	2480.499750
639.514383	2478.407671
639.859137	2472.081023
640.203839	2465.981227
640.548489	2471.072792
640.893086	2473.820221
641.237632	2470.845940
641.582125	2473.416929
641.926566	2474.853658
642.270955	2472.459110
642.615292	2464.796556
642.959576	2477.676704
643.303809	2469.510035
643.647990	2469.862915
643.992118	2472.333081
644.336195	2472.181846
644.680219	2475.534213
645.024192	2475.408185
645.368112	2474.425160
645.711981	2477.953967
646.055797	2473.593369
646.399562	2472.383492
646.743274	2468.325363
647.086935	2474.072279
647.430544	2465.199848
647.774101	2472.887608
648.117606	2475.584625
648.461059	2475.483802
648.804460	2475.483802
649.147810	2475.282156
649.491108	2467.670013
649.834354	2473.643781
650.177548	2476.013123
650.520690	2473.895838
650.863781	2471.602113
651.206820	2481.381952
651.549807	2472.938019
651.892742	2474.450365
652.235626	2465.552729
652.578458	2477.374235
652.921238	2469.031125
653.263967	2474.299131
653.606644	2484.431850
653.949269	2477.298617
654.291843	2471.929788
654.634365	2477.298617
654.976836	2467.367544
655.319255	2474.273925
655.661622	2473.089254
656.003938	2477.172588
656.346203	2471.450879
656.688416	2470.921558
657.030577	2475.509008
657.372687	2467.216310
657.714746	2471.198821
658.056753	2469.686475
658.398708	2474.929275
658.740612	2465.300671
659.082465	2467.241515
659.424266	2465.905610
659.766016	2468.703450
660.107715	2471.879377
660.449362	2464.242029
660.790958	2467.670013
661.132503	2467.493573
661.473996	2470.971969
661.815438	2464.468881
662.156829	2476.441621
662.498168	2465.779581
662.839456	2473.316106
663.180693	2475.382979
663.521879	2472.862402
663.863013	2474.299131
664.204097	2469.157154
664.545129	2474.853658
664.886110	2468.451392
665.227040	2476.088740
665.567918	2469.535240
665.908746	2463.259004
666.249522	2473.038842
666.590248	2470.896352
666.930922	2466.989458
667.271545	2467.972483
667.612118	2472.685962
667.952639	2473.391723
668.293109	2470.644294
668.633528	2468.653038
668.973896	2475.181333
669.314213	2467.922071
669.654480	2477.500263
669.994695	2471.526496
670.334859	2467.216310
670.674973	2470.266208
671.015035	2473.316106
671.355047	2474.727629
671.695008	2465.754375
672.034918	2473.416929
672.374777	2461.696246
672.714585	2469.283183
673.054342	2460.360340
673.394049	2480.298104
673.733705	2464.594910
674.073310	2471.224027
674.412864	2460.385546
674.752368	2473.416929
675.091820	2467.619602
675.431223	2482.062508
675.770574	2473.391723
676.109875	2465.880404
676.449125	2476.340798
676.788324	2468.300158
677.127473	2468.627833
677.466571	2461.872687
677.805619	2472.383492
678.144616	2466.661783
678.483562	2476.996148
678.822458	2472.938019
679.161303	2471.602113
679.500098	2470.215796
679.838842	2475.030098
680.177535	2465.628346
680.516179	2470.669500
680.854771	2465.729169
681.193314	2473.694192
681.531805	2473.013637
681.870247	2469.610858
682.208638	2472.534727
682.546978	2469.938533
682.885268	2471.879377
683.223508	2472.408698
683.561697	2475.282156
683.899836	2469.837710
684.237925	2473.341312
684.575963	2471.097998
684.913951	2482.667446
685.251889	2468.249746
685.589776	2470.417442
685.927614	2471.173615
686.265401	2463.813531
686.603137	2467.392750
686.940824	2466.208079
687.278460	2470.997175
687.616046	2461.923098
687.953582	2470.316619
688.291068	2464.796556
688.628504	2469.106742
688.965889	2472.811990
689.303224	2472.635550
689.640510	2471.879377
689.977745	2463.611885
690.314930	2465.023408
690.652065	2479.617548
690.989150	2470.719912
691.326185	2470.241002
691.663170	2466.813017
692.000105	2468.804273
692.336990	2466.560960
692.673825	2477.172588
693.010610	2466.208079
693.347345	2467.392750
693.684030	2459.024435
694.020665	2466.283696
694.357251	2463.183387
694.693786	2462.326390
695.030272	2477.046560
695.366707	2472.610344
695.703093	2472.585138
696.039429	2462.981740
696.375716	2468.577421
696.711952	2468.073306
697.048139	2466.283696
697.384276	2473.971456
697.720363	2456.453446
698.056400	2459.301698
698.392388	2476.164358
698.728326	2465.754375
699.064214	2461.746658
699.400053	2469.207565
699.735842	2452.319700
700.071581	2463.637090
700.407270	2459.654579
700.742910	2468.829479
701.078501	2467.695219
701.414042	2469.837710
701.749533	2468.930302
702.084974	2464.594910
702.420366	2460.209106
702.755709	2470.417442
703.091002	2470.190590
703.426246	2475.105715
703.761440	2464.620115
704.096584	2470.845940
704.431679	2469.535240
704.766725	2468.400981
705.101721	2460.914867
705.436668	2461.066102
705.771565	2475.030098
706.106413	2471.198821
706.441212	2465.300671
706.775961	2464.922585
707.110661	2466.510548
707.445311	2467.367544
707.779913	2463.183387
708.114465	2465.552729
708.448967	2460.864456
708.783421	2458.469908
709.117825	2465.829992
709.452180	2462.225567
709.786485	2469.409212
710.120742	2460.561987
710.454949	2462.099538
710.789107	2461.721452
711.123216	2463.662296
711.457275	2465.678758
711.791286	2466.913840
712.125247	2471.728142
712.459159	2462.149950
712.793023	2473.845427
713.126837	2461.217337
713.460602	2467.090281
713.794318	2467.493573
714.127985	2462.477625
714.461602	2466.082050
714.795171	2474.500777
715.128691	2461.923098
715.462162	2476.718885
715.795584	2464.720938
716.128957	2469.232771
716.462281	2462.023921
716.795556	2463.057358
717.128782	2462.149950
717.461960	2464.645321
717.795088	2464.846967
718.128167	2466.661783
718.461198	2468.527010
718.794180	2471.072792
719.127113	2466.031638
719.459997	2472.736373
719.792833	2471.224027
720.125619	2465.300671
720.458357	2459.957048
720.791046	2471.224027
721.123686	2469.963738
721.456278	2466.636577
721.788821	2467.846454
722.121315	2467.140692
722.453761	2470.165385
722.786158	2468.300158
723.118506	2466.939046
723.450805	2463.964765
723.783056	2472.660756
724.115259	2464.670527
724.447412	2467.317133
724.779518	2466.182873
725.111574	2470.089767
725.443582	2463.284210
725.775542	2456.655092
726.107453	2477.752321
726.439315	2459.704990
726.771129	2467.972483
727.102895	2465.325877
727.434612	2463.536267
727.766281	2467.468367
728.097901	2461.141719
728.429473	2461.318160
728.760996	2465.502317
729.092471	2468.098512
729.423897	2470.417442
729.755276	2467.039869
730.086606	2468.300158
730.417887	2469.358800
730.749120	2464.267235
731.080305	2463.032152
731.411442	2461.545012
731.742530	2471.097998
732.073570	2468.123717
732.404562	2467.417956
732.735506	2459.931842
733.066401	2468.703450
733.397249	2465.023408
733.728048	2465.930815
734.058798	2466.359313
734.389501	2470.795529
734.720156	2465.325877
735.050762	2463.611885
735.381320	2464.720938
735.711831	2465.275465
736.042293	2465.325877
736.372707	2458.974023
736.703073	2472.912813
737.033391	2467.720425
737.363661	2461.595423
737.693883	2461.141719
738.024056	2469.812504
738.354182	2477.147383
738.684260	2459.377315
739.014290	2463.233798
739.344272	2467.997688
739.674207	2467.569190
740.004093	2461.116513
740.333931	2467.871660
740.663722	2462.528037
740.993464	2468.854685
741.323159	2462.981740
741.652806	2464.998202
741.982405	2459.679785
742.311956	2463.989971
742.641460	2464.141206
742.970915	2466.031638
743.300323	2457.965792
743.629683	2465.225054
743.958996	2464.443675
744.288260	2461.418983
744.617477	2463.359827
744.946647	2462.074333
745.275768	2460.360340
745.604842	2462.225567
745.933869	2462.452419
746.262847	2453.504371
746.591778	2465.653552
746.920662	2465.451906
747.249498	2454.487396
747.578286	2463.183387
747.907027	2461.545012
748.235720	2472.610344
748.564365	2464.368058
748.892963	2464.720938
749.221514	2463.259004
749.550017	2466.888635
749.878473	2463.863942
750.206881	2464.368058
750.535242	2464.897379
750.863555	2469.484829
751.191821	2465.451906
751.520039	2460.511575
751.848210	2464.872173
752.176334	2463.410238
752.504411	2466.838223
752.832440	2461.620629
753.160421	2461.116513
753.488356	2462.502831
753.816243	2469.862915
754.144082	2465.048613
754.471875	2462.427213
754.799620	2459.931842
755.127318	2467.367544
755.454969	2458.595937
755.782572	2472.408698
756.110129	2461.242542
756.437638	2458.898406
756.765100	2463.914354
757.092515	2466.838223
757.419882	2463.309415
757.747203	2458.948817
758.074477	2461.166925
758.401703	2457.587706
758.728882	2458.923612
759.056014	2469.787298
759.383099	2453.504371
759.710138	2457.839763
760.037129	2456.831533
760.364073	2469.283183
760.690970	2449.194185
761.017820	2472.811990
761.344623	2452.823815
761.671379	2465.451906
761.998088	2463.662296
762.324751	2465.477112
762.651366	2467.191104
762.977935	2464.141206
763.304456	2465.099025
763.630931	2460.284723
763.957359	2469.131948
764.283740	2468.098512
764.610074	2462.124744
764.936362	2474.273925
765.262602	2464.494087
765.588796	2460.814044
765.914943	2467.417956
766.241044	2461.545012
766.567097	2461.746658
766.893104	2461.418983
767.219064	2469.056331
767.544978	2461.847481
767.870845	2460.965279
768.196665	2465.325877
768.522438	2464.494087
768.848165	2472.358287
769.173846	2468.325363
769.499479	2460.738427
769.825066	2466.813017
770.150607	2456.075360
770.476101	2458.041410
770.801548	2458.066615
771.126949	2460.335135
771.452303	2445.337702
771.777611	2459.200875
772.102872	2463.309415
772.428087	2460.461163
772.753256	2466.233285
773.078378	2455.848508
773.403453	2457.638117
773.728482	2456.125771
774.053465	2458.923612
774.378401	2461.998715
774.703291	2459.478138
775.028135	2457.007973
775.352932	2458.621142
775.677683	2455.621656
776.002388	2454.336162
776.327046	2459.553756
776.651658	2459.704990
776.976224	2455.243569
777.300743	2459.730196
777.625216	2462.830506
777.949643	2456.327417
778.274024	2471.148410
778.598359	2458.217850
778.922647	2469.232771
779.246889	2466.535754
779.571086	2463.964765
779.895236	2456.932356
780.219339	2457.209619
780.543397	2456.050154
780.867409	2457.990998
781.191374	2463.511062
781.515294	2455.924125
781.839167	2459.200875
782.162995	2462.553242
782.486776	2466.686988
782.810511	2458.797583
783.134201	2462.704477
783.457844	2463.737913
783.781441	2461.141719
784.104993	2459.679785
784.428498	2465.804787
784.751958	2459.528550
785.075372	2452.596963
785.398739	2467.216310
785.722061	2454.260544
786.045337	2468.753862
786.368568	2469.182360
786.691752	2447.127312
787.014891	2464.368058
787.337983	2455.142746
787.661030	2459.377315
787.984031	2464.065588
788.306987	2463.410238
788.629897	2462.074333
788.952760	2464.569704
789.275579	2460.990485
789.598351	2455.470421
789.921078	2461.091308
790.243759	2463.763119
790.566395	2462.880917
790.888984	2459.755402
791.211529	2455.697273
791.534027	2460.183900
791.856480	2461.847481
792.178888	2452.143260
792.501249	2459.931842
792.823566	2455.470421
793.145836	2453.353137
793.468062	2461.091308
793.790241	2458.847994
794.112375	2462.754888
794.434464	2464.443675
794.756507	2463.107769
795.078505	2453.932869
795.400457	2463.712708
795.722364	2460.914867
796.044226	2468.804273
796.366042	2463.863942
796.687812	2460.889662
797.009538	2465.527523
797.331218	2460.637604
797.652852	2461.847481
797.974442	2463.183387
798.295986	2461.091308
798.617484	2458.041410
798.938938	2460.007460
799.260346	2460.158694
799.581709	2456.554269
799.903026	2460.814044
800.224299	2454.638631
800.545526	2466.485342
800.866708	2461.393777
801.187845	2460.965279
801.508936	2463.536267
801.829983	2464.645321
802.150984	2458.873200
802.471940	2461.066102
802.792851	2457.486883
803.113717	2454.537808
803.434538	2458.066615
803.755314	2464.846967
804.076045	2459.478138
804.396731	2457.562500
804.717372	2452.924638
805.037967	2460.763633
805.358518	2450.706531
805.679024	2465.653552
805.999485	2462.654065
806.319901	2458.343879
806.640272	2457.033179
806.960598	2462.402008
807.280879	2460.511575
807.601115	2461.343365
807.921306	2454.865483
808.241453	2459.503344
808.561554	2455.319187
808.881611	2455.873713
809.201623	2452.949844
809.521590	2467.191104
809.841513	2457.562500
810.161390	2463.006946
810.481223	2458.847994
810.801011	2461.696246
811.120755	2462.200362
811.440453	2463.410238
811.760107	2454.159721
812.079716	2457.285237
812.399281	2463.208592
812.718801	2466.813017
813.038276	2460.763633
813.357707	2462.023921
813.677093	2457.965792
813.996434	2464.015177
814.315731	2453.579988
814.634983	2458.192644
814.954191	2457.990998
815.273354	2463.460650
815.592473	2454.210133
815.911547	2460.536781
816.230577	2459.377315
816.549562	2460.108283
816.868502	2461.469394
817.187399	2452.496140
817.506250	2460.713221
817.825058	2452.975050
818.143821	2463.107769
818.462539	2455.722479
818.781213	2464.090794
819.099843	2459.957048
819.418429	2459.780608
819.736970	2461.645835
820.055466	2466.334108
820.373919	2464.645321
820.692327	2461.166925
821.010691	2469.131948
821.329011	2479.365490
821.647286	2492.371667
821.965517	2506.738956
822.283704	2513.519308
822.601847	2518.207581
822.919945	2501.496156
823.237999	2500.412308
823.556010	2499.504900
823.873976	2493.732779
824.191897	2477.701910
824.509775	2478.785758
824.827609	2475.584625
825.145398	2471.803760
825.463144	2469.207565
825.780845	2478.810963
826.098502	2470.442648
826.416116	2477.298617
826.733685	2483.448825
827.051210	2480.726602
827.368692	2484.003352
827.686129	2473.568163
828.003522	2483.146356
828.320872	2469.207565
828.638177	2477.172588
828.955439	2474.652012
829.272656	2473.517752
829.589830	2464.443675
829.906960	2461.595423
830.224046	2457.864969
830.541088	2453.731223
830.858086	2458.167438
831.175041	2460.309929
831.491952	2459.226081
831.808819	2465.023408
832.125642	2460.183900
832.442421	2470.518265
832.759157	2464.519292
833.075849	2466.132462
833.392497	2462.729683
833.709101	2469.106742
834.025662	2468.653038
834.342179	2474.198308
834.658653	2471.224027
834.975083	2468.905096
835.291469	2469.081537
835.607811	2465.199848
835.924110	2460.965279
836.240366	2460.511575
836.556578	2467.770837
836.872746	2463.359827
837.188871	2458.444702
837.504952	2468.426187
837.820990	2453.781635
838.136984	2462.427213
838.452935	2454.134515
838.768842	2461.746658
839.084706	2455.167952
839.400526	2469.257977
839.716303	2460.889662
840.032037	2457.713735
840.347727	2454.815071
840.663373	2460.083077
840.978977	2460.486369
841.294537	2459.906637
841.610054	2453.781635
841.925527	2462.301185
842.240957	2465.653552
842.556344	2460.057871
842.871687	2459.100052
843.186987	2469.358800
843.502244	2455.697273
843.817458	2460.360340
844.132629	2463.712708
844.447756	2460.738427
844.762840	2458.974023
845.077881	2461.595423
845.392879	2463.334621
845.707833	2459.427727
846.022745	2456.150977
846.337613	2453.176696
846.652438	2457.663323
846.967221	2454.663837
847.281960	2460.561987
847.596656	2461.696246
847.911309	2459.578962
848.225919	2461.393777
848.540485	2459.629373
848.855009	2459.074846
849.169490	2457.108796
849.483928	2464.645321
849.798323	2457.285237
850.112675	2458.747171
850.426984	2455.067129
850.741251	2458.772377
851.055474	2453.176696
851.369654	2458.318673
851.683792	2462.729683
851.997887	2452.521346
852.311938	2452.596963
852.625947	2461.444188
852.939914	2460.788838
853.253837	2455.672067
853.567718	2456.403035
853.881555	2456.478652
854.195350	2454.159721
854.509103	2462.956535
854.822812	2456.982767
855.136479	2458.747171
855.450103	2467.493573
855.763685	2446.270315
856.077224	2450.404062
856.390720	2448.564040
856.704173	2445.236879
857.017584	2458.293467
857.330953	2456.655092
857.644278	2451.538321
857.957561	2454.764660
858.270802	2460.461163
858.584000	2454.563013
858.897155	2451.563527
859.210268	2454.563013
859.523339	2447.807867
859.836367	2461.746658
860.149352	2452.874227
860.462295	2452.118054
860.775195	2456.529063
861.088054	2459.730196
861.400869	2454.184927
861.713642	2454.537808
862.026373	2447.581015
862.339062	2453.126285
862.651708	2456.277006
862.964312	2456.327417
863.276873	2459.301698
863.589392	2453.101079
863.901869	2462.376802
864.214303	2450.076387
864.526696	2452.470935
864.839045	2452.420523
865.151353	2462.376802
865.463619	2456.705504
865.775842	2459.805813
866.088023	2452.470935
866.400162	2461.645835
866.712258	2452.067642
867.024313	2461.973510
867.336325	2455.470421
867.648296	2449.219390
867.960224	2455.596450
868.272110	2454.638631
868.583954	2460.360340
868.895755	2456.302212
869.207515	2464.569704
869.519233	2455.369598
869.830909	2455.218363
870.142542	2463.889148
870.454134	2458.621142
870.765684	2465.325877
871.077191	2454.184927
871.388657	2455.873713
871.700081	2458.898406
872.011463	2454.638631
872.322803	2454.436985
872.634101	2460.914867
872.945357	2459.805813
873.256571	2452.924638
873.567744	2462.679271
873.878874	2465.956021
874.189963	2460.713221
874.501010	2464.544498
874.812015	2455.873713
875.122979	2455.621656
875.433900	2460.234312
875.744780	2453.579988
876.055618	2458.419496
876.366415	2467.695219
876.677169	2459.704990
876.987882	2458.444702
877.298554	2454.966306
877.609183	2461.015690
877.919771	2454.462190
878.230317	2461.418983
878.540822	2454.714248
878.851285	2450.051181
879.161707	2465.552729
879.472087	2454.537808
879.782425	2460.309929
880.092722	2461.595423
880.402977	2472.333081
880.713191	2472.081023
881.023363	2474.273925
881.333494	2485.641727
881.643583	2471.224027
881.953631	2488.918477
882.263637	2478.962198
882.573602	2468.476598
882.883526	2474.021867
883.193408	2475.055304
883.503248	2475.937506
883.813048	2474.727629
884.122806	2466.964252
884.432522	2464.720938
884.742197	2459.730196
885.051831	2458.721965
885.361424	2466.586165
885.670975	2458.747171
885.980485	2458.974023
886.289954	2467.871660
886.599382	2461.822275
886.908768	2453.050667
887.218113	2460.536781
887.527417	2456.629887
887.836680	2452.395317
888.145901	2458.419496
888.455082	2451.815585
888.764221	2458.646348
889.073319	2459.301698
889.382376	2460.057871
889.691392	2461.671040
890.000366	2454.210133
890.309300	2466.787812
890.618193	2460.839250
890.927044	2459.352110
891.235855	2462.275979
891.544625	2454.966306
891.853353	2466.409725
892.162041	2456.755915
892.470687	2464.040383
892.779293	2455.344392
893.087858	2459.301698
893.396381	2466.384519
893.704864	2455.117540
894.013306	2456.277006
894.321707	2464.267235
894.630068	2453.731223
894.938387	2465.779581
895.246665	2454.563013
895.554903	2461.746658
895.863100	2458.696760
896.171256	2461.318160
896.479371	2465.426700
896.787446	2450.756942
897.095480	2470.644294
897.403473	2458.142233
897.711425	2463.611885
898.019336	2456.680298
898.327207	2460.309929
898.635038	2467.291927
898.942827	2462.931329
899.250576	2462.502831
899.558284	2451.739967
899.865952	2453.504371
900.173579	2456.176183
900.481165	2457.587706
900.788711	2455.999742
901.096216	2462.099538
901.403681	2457.738940
901.711105	2453.907663
902.018489	2455.520833
902.325832	2451.160235
902.633135	2457.839763
902.940397	2456.251800
903.247619	2452.975050
903.554800	2454.663837
903.861941	2464.872173
904.169041	2466.661783
904.476101	2461.192131
904.783121	2463.309415
905.090100	2463.712708
905.397039	2460.536781
905.703938	2459.528550
906.010796	2466.258490
906.317614	2452.647375
906.624391	2462.855712
906.931129	2461.771863
907.237826	2466.989458
907.544483	2455.470421
907.851099	2454.966306
908.157675	2459.931842
908.464211	2450.983794
908.770707	2445.791406
909.077163	2461.066102
909.383578	2450.958588
909.689954	2451.135029
909.996289	2451.865996
910.302584	2455.596450
910.608839	2449.547065
910.915054	2452.496140
911.221229	2453.907663
911.527363	2451.059412
911.833458	2450.731737
912.139513	2454.588219
912.445527	2452.470935
912.751502	2445.791406
913.057436	2462.528037
913.363331	2452.370112
913.669186	2450.252827
913.975000	2450.882971
914.280775	2457.890175
914.586510	2461.343365
914.892205	2468.148923
915.197859	2460.183900
915.503475	2468.653038
915.809050	2459.100052
916.114585	2467.417956
916.420081	2465.577935
916.725536	2464.443675
917.030952	2468.854685
917.336328	2465.199848
917.641665	2459.150463
917.946961	2459.604167
918.252218	2459.528550
918.557435	2450.908177
918.862612	2460.713221
919.167750	2444.657146
919.472848	2461.393777
919.777906	2458.142233
920.082925	2465.174642
920.387904	2458.948817
920.692843	2458.671554
920.997743	2457.839763
921.302603	2463.259004
921.607423	2455.167952
921.912204	2456.226594
922.216946	2457.915381
922.521647	2460.360340
922.826310	2453.453960
923.130932	2457.562500
923.435516	2453.176696
923.740059	2451.588733
924.044564	2458.091821
924.349028	2459.831019
924.653454	2452.949844
924.957840	2457.940587
925.262186	2460.914867
925.566493	2453.630400
925.870761	2459.679785
926.174989	2461.444188
926.479178	2457.108796
926.783328	2452.017231
927.087438	2461.368571
927.391509	2451.437498
927.695541	2446.950871
927.999533	2456.226594
928.303486	2455.520833
928.607400	2447.228135
928.911275	2451.412292
929.215110	2451.714762
929.518906	2458.671554
929.822663	2448.589246
930.126381	2449.925152
930.430060	2454.840277
930.733699	2454.008487
931.037299	2456.100565
931.340861	2454.689042
931.644383	2455.898919
931.947866	2455.520833
932.251309	2454.512602
932.554714	2453.000256
932.858080	2453.252313
933.161407	2443.800150
933.464694	2453.126285
933.767943	2450.580502
934.071153	2447.505398
934.374323	2456.226594
934.677455	2457.814558
934.980548	2456.856738
935.283602	2465.199848
935.586617	2456.327417
935.889593	2461.267748
936.192530	2448.034719
936.495428	2451.613938
936.798287	2451.689556
937.101108	2455.445215
937.403890	2450.882971
937.706632	2450.782148
938.009336	2457.360854
938.312002	2456.478652
938.614628	2456.629887
938.917216	2456.730710
939.219765	2458.343879
939.522275	2451.765173
939.824747	2446.749225
940.127179	2448.362394
940.429573	2457.814558
940.731929	2453.302725
941.034246	2451.739967
941.336524	2451.034206
941.638763	2449.269802
941.940964	2450.303238
942.243126	2459.049640
942.545250	2465.855198
942.847335	2448.412806
943.149381	2455.319187
943.451389	2451.412292
943.753359	2455.848508
944.055290	2459.301698
944.357182	2454.184927
944.659036	2453.075873
944.960851	2456.050154
945.262628	2452.722992
945.564367	2452.496140
945.866067	2452.672581
946.167729	2460.662810
946.469352	2459.326904
946.770937	2457.965792
947.072484	2451.311469
947.373992	2458.016204
947.675462	2456.604681
947.976893	2451.639144
948.278286	2442.136569
948.579641	2452.042437
948.880958	2452.722992
949.182236	2449.194185
949.483476	2451.739967
949.784678	2455.546038
950.085841	2444.783175
950.386967	2450.530090
950.688054	2455.142746
950.989103	2454.235338
951.290114	2453.781635
951.591087	2453.756429
951.892021	2448.185954
952.192917	2449.572271
952.493776	2460.032665
952.794596	2446.345933
953.095378	2453.706017
953.396122	2451.815585
953.696828	2450.882971
953.997496	2450.404062
954.298126	2453.882458
954.598718	2451.487910
954.899272	2456.453446
955.199788	2447.908690
955.500266	2456.881944
955.800706	2448.891715
956.101108	2456.453446
956.401472	2447.278546
956.701798	2451.992025
957.002087	2449.395831
957.302337	2452.975050
957.602550	2455.319187
957.902724	2453.050667
958.202861	2439.489963
958.502960	2458.822788
958.803022	2447.656633
959.103045	2457.587706
959.403031	2446.194698
959.702979	2454.739454
960.002889	2461.444188
960.302762	2449.950358
960.602596	2453.706017
960.902393	2450.101592
961.202153	2453.176696
961.501875	2448.790892
961.801559	2444.027002
962.101205	2456.856738
962.400814	2449.345419
962.700385	2455.520833
962.999918	2451.840790
963.299414	2453.706017
963.598873	2457.814558
963.898293	2444.959615
964.197677	2454.487396
964.497022	2457.335648
964.796331	2453.050667
965.095601	2444.430294
965.394835	2459.326904
965.694030	2444.556323
965.993189	2447.454987
966.292309	2451.538321
966.591393	2458.495113
966.890439	2451.588733
967.189447	2458.041410
967.488419	2453.630400
967.787353	2454.689042
968.086249	2447.253340
968.385108	2455.672067
968.683930	2445.766200
968.982714	2448.639658
969.281462	2454.789865
969.580172	2451.689556
969.878844	2450.882971
970.177480	2462.427213
970.476078	2448.009513
970.774639	2455.974537
971.073162	2450.429267
971.371649	2449.824329
971.670098	2448.866510
971.968510	2454.613425
972.266885	2450.025975
972.565223	2450.202415
972.863524	2442.514656
973.161788	2456.125771
973.460014	2443.043977
973.758204	2455.142746
974.056356	2449.824329
974.354471	2459.352110
974.652550	2453.680812
974.950591	2454.966306
975.248595	2453.932869
975.546563	2448.614452
975.844493	2457.436471
976.142386	2447.354163
976.440243	2452.092848
976.738062	2446.345933
977.035845	2452.622169
977.333590	2450.656119
977.631299	2451.513115
977.928971	2454.638631
978.226606	2444.505912
978.524204	2443.447269
978.821765	2446.068669
979.119290	2457.436471
979.416777	2452.118054
979.714228	2450.101592
980.011642	2452.319700
980.309020	2448.110337
980.606360	2453.529577
980.903664	2445.438525
981.200931	2449.748712
981.498162	2453.378342
981.795356	2455.268775
982.092513	2455.420010
982.389633	2452.874227
982.686717	2448.866510
982.983764	2453.378342
983.280775	2452.017231
983.577749	2457.738940
983.874686	2454.663837
984.171587	2453.706017
984.468451	2458.772377
984.765279	2444.808381
985.062070	2461.192131
985.358824	2451.311469
985.655543	2455.117540
985.952224	2463.208592
986.248869	2449.899946
986.545478	2458.041410
986.842050	2456.730710
987.138586	2445.715788
987.435086	2447.656633
987.731549	2448.211160
988.027975	2450.555296
988.324366	2445.917435
988.620719	2454.714248
988.917037	2450.000769
989.213318	2447.177723
989.509563	2457.134002
989.805772	2455.243569
990.101944	2446.119081
990.398080	2447.253340
990.694180	2450.530090
990.990244	2462.376802
991.286271	2453.504371
991.582262	2447.001283
991.878217	2449.547065
992.174136	2457.839763
992.470019	2442.439038
992.765865	2450.908177
993.061676	2443.144800
993.357450	2452.244083
993.653188	2458.721965
993.948890	2458.419496
994.244556	2455.697273
994.540186	2450.404062
994.835780	2448.009513
995.131337	2445.867023
995.426859	2447.631427
995.722345	2453.579988
996.017795	2454.487396
996.313208	2449.899946
996.608586	2446.119081
996.903928	2450.303238
997.199234	2455.823302
997.494504	2447.454987
997.789738	2455.394804
998.084936	2450.303238
998.380099	2450.479679
998.675225	2443.951385
998.970316	2457.285237
999.265371	2450.404062
999.560390	2456.730710
999.855373	2455.621656
1000.150320	2454.789865
1000.445232	2447.278546
1000.740108	2453.958075
1001.034948	2457.310442
1001.329752	2443.825356
1001.624521	2446.976077
1001.919254	2455.495627
1002.213951	2445.287290
1002.508613	2439.615992
1002.803239	2457.310442
1003.097829	2457.864969
1003.392384	2451.815585
1003.686903	2453.958075
1003.981386	2459.402521
1004.275834	2449.950358
1004.570246	2445.740994
1004.864623	2454.789865
1005.158964	2450.706531
1005.453270	2464.645321
1005.747540	2447.606221
1006.041775	2455.369598
1006.335974	2448.286777
1006.630138	2450.706531
1006.924266	2454.663837
1007.218359	2452.370112
1007.512416	2451.815585
1007.806438	2452.849021
1008.100425	2432.180290
1008.394376	2441.178750
1008.688292	2451.966819
1008.982172	2449.093362
1009.276017	2451.966819
1009.569827	2451.588733
1009.863602	2445.614965
1010.157341	2447.908690
1010.451045	2447.908690
1010.744714	2448.790892
1011.038347	2447.379369
1011.331945	2445.539348
1011.625508	2448.639658
1011.919036	2454.134515
1012.212528	2452.949844
1012.505986	2444.732763
1012.799408	2447.303752
1013.092795	2442.867537
1013.386147	2452.571758
1013.679464	2450.857765
1013.972745	2450.303238
1014.265992	2449.244596
1014.559204	2443.926179
1014.852380	2445.867023
1015.145521	2458.343879
1015.438628	2454.008487
1015.731699	2443.396858
1016.024736	2458.394290
1016.317737	2450.101592
1016.610703	2452.092848
1016.903635	2447.278546
1017.196531	2457.260031
1017.489393	2443.573298
1017.782219	2456.856738
1018.075011	2457.612912
1018.367768	2446.724019
1018.660490	2451.916408
1018.953177	2451.916408
1019.245829	2451.916408
