Dividing Wavelength (nm)	Counts (n)	Slit_number_7_of_a_total_of_40	
326.493990	2166.099788
326.888308	2166.099788
327.282561	2166.099788
327.676750	2112.747577
328.070874	2136.188942
328.464933	2143.498615
328.858929	2143.834692
329.252859	2148.203692
329.646726	2176.098077
330.040528	2190.045269
330.434265	2216.763385
330.827938	2215.839173
331.221547	2228.274019
331.615091	2275.240769
332.008571	2302.967115
332.401986	2306.327885
332.795338	2332.541885
333.188625	2342.204096
333.581847	2359.596077
333.975006	2387.826538
334.368100	2390.515154
334.761129	2440.506596
335.154095	2429.920173
335.546996	2465.208250
335.939833	2465.292269
336.332606	2481.676019
336.725315	2488.565596
337.117960	2516.039885
337.510540	2516.712038
337.903056	2517.804288
338.295508	2524.273769
338.687896	2530.659231
339.080220	2529.987077
339.472480	2558.301558
339.864676	2565.023096
340.256807	2554.520692
340.648875	2556.621173
341.040879	2556.117058
341.432818	2557.713423
341.824694	2544.858481
342.216506	2551.664038
342.608253	2564.603000
342.999937	2571.240519
343.391557	2550.067673
343.783113	2565.695250
344.174605	2561.158212
344.566033	2561.662327
344.957397	2540.741538
345.348697	2547.799154
345.739934	2552.840308
346.131106	2552.252173
346.522215	2535.364308
346.913260	2545.278577
347.304241	2528.138654
347.695159	2546.034750
348.086012	2534.608135
348.476802	2554.604712
348.867528	2523.097500
349.258191	2537.716846
349.648789	2536.540577
350.039324	2522.089269
350.429796	2537.548808
350.820203	2518.812519
351.210548	2530.995308
351.600828	2540.405462
351.991045	2528.054635
352.381198	2537.632827
352.771288	2522.761423
353.161314	2519.904769
353.551276	2514.107442
353.941175	2534.440096
354.331010	2522.509365
354.720782	2524.693865
355.110490	2512.343038
355.500135	2525.282000
355.889717	2519.988788
356.279235	2514.611558
356.668689	2542.505942
357.058080	2513.267250
357.447408	2538.136942
357.836672	2520.156827
358.225873	2539.313212
358.615010	2527.634538
359.004084	2525.282000
359.393095	2532.087558
359.782043	2536.540577
360.170927	2526.962385
360.559748	2533.347846
360.948505	2527.046404
361.337199	2542.253885
361.725830	2545.362596
362.114398	2536.204500
362.502903	2547.042981
362.891344	2546.370827
363.279722	2552.336192
363.668037	2531.415404
364.056289	2540.825558
364.444478	2526.626308
364.832603	2548.555327
365.220665	2531.583442
365.608665	2532.003538
365.996601	2538.052923
366.384474	2530.659231
366.772284	2552.672269
367.160031	2546.706904
367.547715	2548.891404
367.935336	2532.339615
368.322893	2551.159923
368.710388	2534.692154
369.097820	2542.001827
369.485189	2534.608135
369.872495	2537.716846
370.259738	2541.665750
370.646918	2544.018288
371.034035	2543.682212
371.421090	2554.856769
371.808081	2536.708615
372.195010	2537.380769
372.581875	2537.884885
372.968678	2529.651000
373.355418	2535.532346
373.742096	2543.262115
374.128710	2547.631115
374.515262	2549.395519
374.901751	2553.428442
375.288177	2566.115346
375.674540	2550.739827
376.060841	2547.042981
376.447079	2549.647577
376.833254	2563.174673
377.219367	2545.698673
377.605417	2535.784404
377.991404	2547.042981
378.377329	2544.942500
378.763191	2556.201077
379.148991	2545.782692
379.534727	2541.329673
379.920402	2539.313212
380.306013	2535.112250
380.691563	2549.227481
381.077049	2561.578308
381.462474	2558.049500
381.847835	2551.159923
382.233134	2543.766231
382.618371	2561.242231
383.003545	2533.263827
383.388657	2550.739827
383.773706	2559.897923
384.158693	2552.840308
384.543618	2561.578308
384.928480	2548.135231
385.313280	2554.856769
385.698017	2558.049500
386.082692	2549.227481
386.467305	2548.975423
386.851856	2552.084135
387.236344	2566.871519
387.620770	2544.186327
388.005133	2557.629404
388.389435	2556.285096
388.773674	2565.863288
389.157851	2550.655808
389.541965	2547.883173
389.926018	2560.822135
390.310008	2540.993596
390.693936	2557.041269
391.077802	2545.446615
391.461606	2561.494288
391.845348	2568.719942
392.229027	2553.680500
392.612645	2551.748058
392.996200	2547.715135
393.379694	2553.512462
393.763125	2559.225769
394.146494	2552.504231
394.529801	2559.309788
394.913047	2555.360885
395.296230	2551.916096
395.679351	2567.459654
396.062410	2552.756288
396.445408	2553.176385
396.828343	2554.856769
397.211217	2557.209308
397.594028	2566.871519
397.976778	2558.049500
398.359466	2566.115346
398.742092	2556.285096
399.124656	2543.514173
399.507158	2562.502519
399.889598	2571.492577
400.271977	2572.920904
400.654294	2554.016577
401.036549	2552.504231
401.418742	2557.713423
401.800874	2572.836885
402.182944	2563.510750
402.564952	2562.502519
402.946898	2545.866712
403.328783	2560.738115
403.710606	2562.166442
404.092367	2561.830365
404.474067	2554.268635
404.855705	2553.260404
405.237282	2552.168154
405.618797	2563.006635
406.000250	2551.748058
406.381642	2563.426731
406.762972	2558.217538
407.144240	2555.865000
407.525447	2554.100596
407.906593	2565.527212
408.287677	2563.006635
408.668700	2559.057731
409.049661	2558.637635
409.430560	2566.955538
409.811399	2564.518981
410.192176	2561.914385
410.572891	2571.576596
410.953545	2567.879750
411.334138	2546.874942
411.714669	2555.612942
412.095139	2581.742923
412.475547	2564.771038
412.855894	2557.629404
413.236180	2579.054308
413.616405	2570.064250
413.996568	2565.275154
414.376670	2571.996692
414.756711	2559.897923
415.136691	2561.158212
415.516609	2568.719942
415.896466	2571.240519
416.276262	2579.642442
416.655997	2576.953827
417.035670	2571.744635
417.415283	2569.644154
417.794834	2567.207596
418.174324	2563.846827
418.553753	2574.601288
418.933121	2552.084135
419.312428	2560.570077
419.691674	2559.645865
420.070859	2566.283385
420.449983	2566.871519
420.829045	2571.576596
421.208047	2574.853346
421.586988	2564.771038
421.965867	2561.494288
422.344686	2553.596481
422.723444	2574.853346
423.102141	2557.797442
423.480777	2575.105404
423.859352	2553.092365
424.237866	2561.158212
424.616319	2557.713423
424.994712	2571.156500
425.373044	2570.484346
425.751314	2568.551904
426.129524	2559.057731
426.507673	2577.373923
426.885762	2573.593058
427.263789	2560.738115
427.641756	2569.224058
428.019662	2564.771038
428.397508	2565.191135
428.775292	2572.584827
429.153016	2566.283385
429.530679	2569.140038
429.908282	2574.433250
430.285824	2578.718231
430.663305	2576.953827
431.040726	2563.258692
431.418086	2573.509038
431.795385	2569.140038
432.172624	2580.650673
432.549802	2561.410269
432.926920	2576.785788
433.303977	2562.670558
433.680974	2578.802250
434.057910	2548.555327
434.434786	2572.500808
434.811601	2590.480923
435.188355	2558.049500
435.565050	2583.255269
435.941683	2570.568365
436.318257	2562.166442
436.694770	2573.425019
437.071222	2553.008346
437.447614	2564.434962
437.823946	2569.896212
438.200218	2582.079000
438.576429	2581.910962
438.952580	2564.687019
439.328670	2576.953827
439.704700	2563.426731
440.080670	2566.871519
440.456580	2568.047788
440.832429	2564.098885
441.208218	2558.469596
441.583947	2577.037846
441.959616	2577.121865
442.335224	2584.767615
442.710773	2567.543673
443.086261	2576.281673
443.461689	2573.761096
443.837057	2581.070769
444.212365	2577.457942
444.587612	2563.006635
444.962800	2585.019673
445.337927	2567.039558
445.712995	2575.441481
446.088002	2574.685308
446.462949	2560.065962
446.837837	2575.357462
447.212664	2568.803962
447.587431	2577.457942
447.962139	2579.726462
448.336786	2580.398615
448.711374	2578.214115
449.085901	2589.808769
449.460369	2572.332769
449.834776	2572.920904
450.209124	2589.556712
450.583412	2581.154788
450.957640	2567.879750
451.331808	2571.492577
451.705917	2575.441481
452.079965	2574.937365
452.453954	2570.988462
452.827883	2577.710000
453.201752	2583.171250
453.575562	2564.098885
453.949311	2577.710000
454.323001	2561.494288
454.696632	2586.363981
455.070202	2596.950404
455.443713	2576.029615
455.817164	2573.088942
456.190556	2581.574885
456.563888	2578.382154
456.937160	2577.794019
457.310373	2568.803962
457.683526	2580.230577
458.056619	2571.240519
458.429653	2570.232288
458.802628	2588.548481
459.175542	2575.693538
459.548398	2570.400327
459.921194	2593.673654
460.293930	2568.972000
460.666607	2593.001500
461.039224	2578.298135
461.411782	2584.599577
461.784280	2567.291615
462.156719	2556.537154
462.529099	2579.894500
462.901419	2566.199365
463.273680	2576.953827
463.645882	2575.441481
464.018024	2576.029615
464.390106	2582.835173
464.762130	2582.247038
465.134094	2590.985038
465.505999	2571.996692
465.877845	2578.214115
466.249631	2576.029615
466.621358	2589.220635
466.993026	2582.835173
467.364634	2592.581404
467.736184	2573.172962
468.107674	2590.396904
468.479105	2582.583115
468.850477	2586.868096
469.221790	2583.675365
469.593043	2593.337577
469.964238	2585.103692
470.335373	2592.413365
470.706449	2586.616038
471.077467	2600.479212
471.448425	2588.044365
471.819324	2584.515558
472.190164	2579.474404
472.560945	2582.919192
472.931667	2594.765904
473.302330	2585.103692
473.672934	2588.380442
474.043479	2587.288192
474.413965	2584.767615
474.784393	2595.270019
475.154761	2581.322827
475.525070	2565.695250
475.895321	2583.507327
476.265513	2574.853346
476.635645	2576.953827
477.005719	2591.573173
477.375734	2576.701769
477.745691	2586.448000
478.115588	2588.380442
478.485427	2579.726462
478.855207	2567.459654
479.224928	2596.110212
479.594591	2587.960346
479.964194	2579.474404
480.333739	2582.919192
480.703226	2585.187712
481.072653	2588.800538
481.442022	2591.909250
481.811333	2585.691827
482.180584	2607.368788
482.549777	2584.095462
482.918912	2578.214115
483.287988	2598.462750
483.657005	2578.802250
484.025964	2594.009731
484.394864	2612.409942
484.763706	2604.764192
485.132489	2596.866385
485.501213	2601.403423
485.869879	2577.121865
486.238487	2590.817000
486.607036	2605.436346
486.975527	2598.714808
487.343959	2602.579692
487.712333	2604.428115
488.080648	2591.909250
488.448905	2603.335865
488.817104	2601.823519
489.185244	2602.663712
489.553326	2605.352327
489.921350	2596.698346
490.289315	2599.975096
490.657222	2609.553288
491.025070	2619.971673
491.392861	2588.800538
491.760593	2593.589635
492.128267	2603.419885
492.495883	2604.932231
492.863440	2616.610904
493.230939	2610.645538
493.598380	2604.512135
493.965763	2609.721327
494.333088	2612.493962
494.700354	2609.805346
495.067563	2614.426404
495.434713	2602.915769
495.801805	2612.325923
496.168839	2603.503904
496.535815	2619.299519
496.902733	2623.500481
497.269593	2609.133192
497.636395	2614.342385
498.003139	2612.746019
498.369825	2610.141423
498.736453	2615.518654
499.103023	2610.729558
499.469535	2608.040942
499.835989	2640.052269
500.202385	2620.811865
500.568723	2609.301231
500.935003	2627.953500
501.301226	2611.149654
501.667390	2610.393481
502.033497	2618.039231
502.399546	2613.670231
502.765537	2616.274827
503.131470	2625.769000
503.497345	2634.843077
503.863163	2620.727846
504.228923	2603.419885
504.594625	2601.319404
504.960269	2637.783750
505.325856	2628.541635
505.691385	2619.971673
506.056856	2627.281346
506.422270	2603.083808
506.787625	2629.465846
507.152924	2629.297808
507.518164	2628.373596
507.883347	2623.752538
508.248472	2611.317692
508.613540	2625.180865
508.978550	2619.383538
509.343503	2623.164404
509.708398	2625.348904
510.073236	2621.063923
510.438016	2637.699731
510.802738	2635.515231
511.167403	2636.019346
511.532010	2617.031000
511.896561	2609.721327
512.261053	2619.551577
512.625488	2628.373596
512.989866	2632.574558
513.354186	2629.213788
513.718449	2628.457615
514.082655	2631.230250
514.446803	2613.754250
514.810894	2621.315981
515.174927	2642.404808
515.538904	2620.979904
515.902822	2629.465846
516.266684	2628.793692
516.630488	2635.851308
516.994235	2630.306038
517.357925	2637.279635
517.721558	2626.441154
518.085133	2633.330731
518.448651	2629.549865
518.812112	2622.492250
519.175516	2629.633885
519.538863	2652.487115
519.902152	2641.144519
520.265385	2637.027577
520.628560	2625.853019
520.991678	2634.843077
521.354739	2626.525173
521.717743	2634.759058
522.080690	2635.683269
522.443580	2626.273115
522.806413	2639.128058
523.169189	2644.001173
523.531908	2641.060500
523.894569	2635.431212
524.257174	2630.306038
524.619722	2633.078673
524.982213	2633.330731
525.344647	2642.656865
525.707025	2640.724423
526.069345	2644.925385
526.431608	2646.269692
526.793815	2638.455904
527.155964	2642.572846
527.518057	2652.739173
527.880093	2643.413038
528.242072	2629.969962
528.603995	2632.742596
528.965860	2639.128058
529.327669	2627.029288
529.689421	2636.523462
530.051117	2651.814962
530.412755	2654.251519
530.774337	2651.983000
531.135862	2656.099942
531.497331	2660.552962
531.858743	2663.409615
532.220098	2645.849596
532.581396	2674.920250
532.942638	2658.452481
533.303824	2662.485404
533.664953	2672.399673
534.026025	2681.053654
534.387040	2670.719288
534.747999	2665.510096
535.108902	2661.057077
535.469748	2663.997750
535.830537	2656.436019
536.191270	2676.348577
536.551947	2680.381500
536.912567	2669.038904
537.273131	2663.493635
537.633638	2663.157558
537.994089	2684.834519
538.354483	2683.910308
538.714821	2686.598923
539.075103	2689.371558
539.435328	2679.961404
539.795497	2689.623615
540.155609	2684.414423
540.515665	2695.084865
540.875665	2689.539596
541.235609	2707.939808
541.595496	2695.000846
541.955328	2702.814635
542.315102	2690.463808
542.674821	2715.333500
543.034483	2705.587269
543.394090	2703.738846
543.753640	2705.083154
544.113134	2717.518000
544.472571	2724.491596
544.831953	2724.071500
545.191278	2719.786519
545.550548	2739.447019
545.909761	2723.567385
546.268918	2755.746750
546.628019	2756.418904
546.987064	2757.679192
547.346053	2755.242635
547.704986	2747.428846
548.063863	2770.366096
548.422684	2777.171654
548.781449	2772.550596
549.140158	2786.245731
549.498811	2784.313288
549.857408	2806.242308
550.215949	2824.390462
550.574434	2793.975500
550.932864	2813.888058
551.291237	2825.566731
551.649555	2831.784154
552.007817	2857.157962
552.366022	2841.614404
552.724173	2846.907615
553.082267	2848.503981
553.440305	2875.474154
553.798288	2870.433000
554.156215	2894.966615
554.514086	2891.437808
554.871902	2921.516692
555.229661	2905.216962
555.587365	2934.035558
555.945014	2940.589058
556.302606	2950.503327
556.660143	2960.249558
557.017625	2984.615135
557.375050	3002.091135
557.732421	3006.964250
558.089735	3024.860346
558.446994	3031.329827
558.804197	3062.416942
559.161345	3049.057885
559.518437	3068.718385
559.875474	3086.110365
560.232455	3113.164558
560.589381	3125.515385
560.946251	3144.923827
561.303065	3164.080212
561.659825	3179.119654
562.016528	3209.954712
562.373177	3229.195115
562.729770	3238.773308
563.086307	3272.212962
563.442789	3278.346365
563.799216	3314.138558
564.155587	3319.515788
564.511904	3354.383769
564.868164	3380.765808
565.224370	3400.426308
565.580520	3430.169115
565.936615	3455.794981
566.292654	3484.277500
566.648638	3504.274077
567.004567	3540.906462
567.360441	3570.901327
567.716260	3598.375615
568.072023	3642.653750
568.427732	3681.722692
568.783385	3679.034077
569.138982	3740.704192
569.494525	3761.204885
569.850013	3800.189808
570.205445	3820.942558
570.560823	3877.991615
570.916145	3898.744365
571.271412	3950.836288
571.626625	3986.796519
571.981782	4024.773212
572.336884	4050.315058
572.691931	4120.555135
573.046923	4124.588058
573.401860	4184.493769
573.756743	4224.234865
574.111570	4292.038385
574.466342	4282.460192
574.821059	4371.100481
575.175722	4392.105288
575.530330	4446.801808
575.884882	4505.699288
576.239380	4542.835788
576.593823	4588.122154
576.948211	4628.031288
577.302544	4674.493923
577.656823	4725.241538
578.011047	4817.746712
578.365216	4831.105769
578.719330	4903.614365
579.073389	4931.088654
579.427394	5002.589019
579.781344	5080.306808
580.135239	5118.283500
580.489080	5186.003000
580.842866	5214.233462
581.196597	5299.176904
581.550273	5354.041462
581.903895	5432.263365
582.257463	5513.846038
582.610975	5535.859077
582.964434	5618.786058
583.317837	5696.167769
583.671186	5738.345423
584.024481	5835.639692
584.377721	5867.735038
584.730906	5979.648654
585.084037	6048.124327
585.437113	6101.812615
585.790135	6164.995077
586.143103	6227.337346
586.496016	6310.096288
586.848874	6380.168327
587.201679	6491.409788
587.554428	6472.421442
587.907124	6583.410846
588.259765	6657.599827
588.612352	6742.207192
588.964884	6755.734288
589.317362	6916.127000
589.669786	6942.929135
590.022155	7009.808442
590.374470	7163.479615
590.726731	7173.898000
591.078937	7184.484423
591.431090	7286.483769
591.783188	7322.864096
592.135232	7403.102462
592.487222	7495.691654
592.839157	7583.155673
593.191038	7660.537385
593.542866	7708.260308
593.894639	7712.545288
594.246358	7820.089904
594.598022	7879.743558
594.949633	7902.092673
595.301190	8009.385231
595.652692	8081.053635
596.004141	8196.412038
596.355535	8148.437058
596.706876	8224.390442
597.058162	8265.895942
597.409395	8421.499558
597.760573	8517.197462
598.111698	8547.948500
598.462768	8642.470135
598.813785	8739.260288
599.164748	8707.753077
599.515657	8880.748673
599.866511	8844.704423
600.217312	9030.723000
600.568060	8988.041231
600.918753	9157.928115
601.269392	9220.774500
601.619978	9228.672308
601.970510	9359.322212
602.320988	9484.342827
602.671412	9632.300692
603.021783	9656.246173
603.372100	9646.920038
603.722363	9767.655673
604.072572	9870.831288
604.422728	9921.999000
604.772830	10030.971942
605.122878	10107.177385
605.472872	10126.249750
605.822813	10275.803981
606.172701	10339.238500
606.522534	10441.321865
606.872314	10562.897692
607.222041	10583.062308
607.571714	10752.361058
607.921333	10720.349731
608.270899	10827.474250
608.620411	10986.018538
608.969870	10982.153654
609.319276	11035.085769
609.668627	11157.165712
610.017926	11270.255596
610.367171	11421.742269
610.716362	11472.825962
611.065500	11533.403827
611.414585	11658.928558
611.763616	11778.487923
612.112594	11815.120308
612.461518	11900.651885
612.810389	12025.588481
613.159207	12040.375865
613.507971	12049.365923
613.856682	12274.369423
614.205340	12282.603308
614.553945	12499.456942
614.902496	12441.567692
615.250994	12560.875000
615.599439	12574.822192
615.947830	12741.768404
616.296169	12727.149058
616.644454	12852.421731
616.992686	12889.810288
617.340864	13083.222558
617.688990	12976.014019
618.037063	13240.758615
618.385082	13160.688288
618.733048	13345.446577
619.080961	13304.361173
619.428821	13347.631077
619.776628	13431.398250
620.124382	13448.034058
620.472083	13513.064942
620.819731	13606.662365
621.167326	13557.007000
621.514868	13616.240558
621.862357	13529.532712
622.209793	13587.169904
622.557176	13550.453500
622.904506	13548.605077
623.251783	13517.938058
623.599007	13466.182212
623.946179	13466.854365
624.293297	13546.084500
624.640363	13408.629038
624.987376	13367.627654
625.334336	13383.003173
625.681243	13283.860481
626.028097	13345.110500
626.374899	13290.245942
626.721647	13304.193135
627.068343	13297.807673
627.414987	13228.575827
627.761577	13163.124846
628.108115	13270.753481
628.454600	13099.774346
628.801032	13154.638904
629.147412	13172.871077
629.493739	13126.324423
629.840014	13070.283596
630.186236	13129.601173
630.532405	13064.234212
630.878521	13071.711923
631.224585	12982.231442
631.570597	12900.396712
631.916556	12941.230058
632.262462	12910.142942
632.608316	12928.291096
632.954117	12870.485865
633.299866	12881.240327
633.645562	12897.960154
633.991206	12720.679577
634.336797	12671.780385
634.682336	12646.658635
635.027823	12582.047846
635.373257	12574.066019
635.718639	12518.193231
636.063968	12456.439096
636.409245	12360.825212
636.754470	12349.230558
637.099642	12293.525808
637.444762	12103.642346
637.789829	12192.450673
638.134845	12048.945827
638.479808	12022.227712
638.824719	12030.713654
639.169577	11886.704692
639.514383	11902.248250
639.859137	11822.345962
640.203839	11901.828154
640.548489	11720.010538
640.893086	11744.040038
641.237632	11647.669981
641.582125	11676.572596
641.926566	11644.981365
642.270955	11616.582865
642.615292	11610.449462
642.959576	11577.093827
643.303809	11534.075981
643.647990	11557.937442
643.992118	11529.622962
644.336195	11424.010788
644.680219	11467.028635
645.024192	11503.829058
645.368112	11559.365769
645.711981	11507.693942
646.055797	11662.289327
646.399562	11540.125365
646.743274	11725.471788
647.086935	11760.675846
647.430544	11714.465269
647.774101	11728.412462
648.117606	11780.252327
648.461059	11791.090808
648.804460	11735.049981
649.147810	11549.367481
649.491108	11554.240596
649.834354	11444.427462
650.177548	11233.623212
650.520690	11147.839577
650.863781	11102.469192
651.206820	11076.171173
651.549807	10921.407750
651.892742	10786.220808
652.235626	10697.160423
652.578458	10673.551019
652.921238	10459.974135
653.263967	10507.781077
653.606644	10407.126038
653.949269	10341.338981
654.291843	10214.385923
654.634365	10290.087250
654.976836	10161.369788
655.319255	10128.602288
655.661622	10090.121481
656.003938	10009.210962
656.346203	9968.797712
656.688416	9921.830962
657.030577	9905.951327
657.372687	9790.844981
657.714746	9843.861115
658.056753	9806.808635
658.398708	9662.715654
658.740612	9568.446077
659.082465	9629.864135
659.424266	9563.236885
659.766016	9572.731058
660.107715	9475.184731
660.449362	9472.244058
660.790958	9453.339731
661.132503	9406.877096
661.473996	9355.877423
661.815438	9343.106500
662.156829	9354.617135
662.498168	9274.546808
662.839456	9242.199404
663.180693	9224.471346
663.521879	9224.219288
663.863013	9174.563923
664.204097	9125.244635
664.545129	9169.942865
664.886110	9133.730577
665.227040	9114.070077
665.567918	9057.945231
665.908746	9021.564904
666.249522	9045.846462
666.590248	9011.566615
666.930922	8966.700346
667.271545	8953.845404
667.612118	8893.351558
667.952639	8833.697904
668.293109	8811.852904
668.633528	8727.833673
668.973896	8679.942712
669.314213	8679.690654
669.654480	8582.732462
669.994695	8553.493769
670.334859	8496.444712
670.674973	8399.822596
671.015035	8403.015327
671.355047	8383.354827
671.695008	8332.271135
672.034918	8244.134962
672.374777	8258.418231
672.714585	8167.761481
673.054342	8159.863673
673.394049	8051.814942
673.733705	8061.477154
674.073310	8001.655462
674.412864	7983.759365
674.752368	7893.522712
675.091820	7877.727096
675.431223	7779.760673
675.770574	7687.423538
676.109875	7620.880308
676.449125	7591.641615
676.788324	7525.182404
677.127473	7371.931327
677.466571	7361.176865
677.805619	7235.316058
678.144616	7213.303019
678.483562	7163.227558
678.822458	7108.867115
679.161303	7040.307423
679.500098	6987.291288
679.838842	6922.260404
680.177535	6915.958962
680.516179	6873.865327
680.854771	6855.381096
681.193314	6916.042981
681.531805	6995.189096
681.870247	7049.717577
682.208638	7184.064327
682.546978	7214.983404
682.885268	7207.505692
683.223508	7134.324942
683.561697	7068.621904
683.899836	7005.271404
684.237925	6873.529250
684.575963	6843.282327
684.913951	6741.282981
685.251889	6677.344346
685.589776	6673.647500
685.927614	6631.973962
686.265401	6587.359750
686.603137	6575.933135
686.940824	6608.952692
687.278460	6640.795981
687.616046	6617.522654
687.953582	6625.252423
688.291068	6654.155038
688.628504	6670.706827
688.965889	6628.613192
689.303224	6601.306942
689.640510	6536.528115
689.977745	6413.860038
690.314930	6287.495115
690.652065	6186.335962
690.989150	6052.577346
691.326185	5935.202481
691.663170	5819.676038
692.000105	5699.696577
692.336990	5570.138923
692.673825	5477.129635
693.010610	5382.019865
693.347345	5308.923135
693.684030	5216.333942
694.020665	5135.507442
694.357251	5039.809538
694.693786	5010.402808
695.030272	4962.763904
695.366707	4869.922654
695.703093	4811.529288
696.039429	4782.962750
696.375716	4745.910269
696.711952	4714.571096
697.048139	4685.164365
697.384276	4658.194192
697.720363	4625.342673
698.056400	4607.782654
698.392388	4565.773038
698.728326	4566.193135
699.064214	4513.513077
699.400053	4509.648192
699.735842	4440.164288
700.071581	4404.036019
700.407270	4352.280173
700.742910	4309.094288
701.078501	4255.910115
701.414042	4243.475269
701.749533	4177.520173
702.084974	4122.235519
702.420366	4133.074000
702.755709	4084.174808
703.091002	4020.572250
703.426246	4011.750231
703.761440	3982.679577
704.096584	3939.997808
704.431679	3922.857885
704.766725	3914.287923
705.101721	3877.487500
705.436668	3875.891135
705.771565	3847.072538
706.106413	3869.757731
706.441212	3840.351000
706.775961	3810.440154
707.110661	3831.781038
707.445311	3815.565327
707.779913	3788.343096
708.114465	3785.906538
708.448967	3798.089327
708.783421	3831.528981
709.117825	3855.474462
709.452180	3858.919250
709.786485	3878.663769
710.120742	3929.495404
710.454949	3918.320846
710.789107	3939.829769
711.123216	4009.061615
711.457275	4029.982404
711.791286	4060.985500
712.125247	4072.244077
712.459159	4048.046538
712.793023	4079.049635
713.126837	4021.664500
713.460602	4030.234462
713.794318	3992.005712
714.127985	3939.661731
714.461602	3862.027962
714.795171	3842.115404
715.128691	3751.206596
715.462162	3680.546423
715.795584	3666.599231
716.128957	3631.815269
716.462281	3591.149962
716.795556	3543.595077
717.128782	3492.931481
717.461960	3454.954788
717.795088	3448.737365
718.128167	3385.470885
718.461198	3360.181096
718.794180	3362.365596
719.127113	3356.904346
719.459997	3328.841923
719.792833	3294.814135
720.125619	3276.834019
720.458357	3257.425577
720.791046	3237.765077
721.123686	3224.322000
721.456278	3226.002385
721.788821	3208.694423
722.121315	3176.263000
722.453761	3173.658404
722.786158	3175.254769
723.118506	3167.104904
723.450805	3150.301058
723.783056	3161.139538
724.115259	3134.085346
724.447412	3140.554827
724.779518	3155.678288
725.111574	3151.645365
725.443582	3150.973212
725.775542	3146.688231
726.107453	3162.819923
726.439315	3153.073692
726.771129	3168.785288
727.102895	3174.750654
727.434612	3188.781865
727.766281	3199.116231
728.097901	3207.770212
728.429473	3197.015750
728.760996	3198.108000
729.092471	3201.972885
729.423897	3199.284269
729.755276	3164.248250
730.086606	3176.599077
730.417887	3171.137827
730.749120	3188.697846
731.080305	3196.931731
731.411442	3191.470481
731.742530	3185.001000
732.073570	3196.007519
732.404562	3211.635096
732.735506	3187.353538
733.066401	3188.781865
733.397249	3161.895712
733.728048	3135.681712
734.058798	3102.242058
734.389501	3071.911115
734.720156	3035.362750
735.050762	3005.115827
735.381320	2996.713904
735.711831	2972.768423
736.042293	2954.788308
736.372707	2949.159019
736.703073	2952.015673
737.033391	2946.974519
737.363661	2939.328769
737.693883	2959.241327
738.024056	2947.814712
738.354182	2956.468692
738.684260	2956.300654
739.014290	2961.005731
739.344272	2975.541058
739.674207	2999.486538
740.004093	2986.211500
740.333931	3001.503000
740.663722	2991.252654
740.993464	2983.270827
741.323159	2981.338385
741.652806	2978.733788
741.982405	2951.931654
742.311956	2949.075000
742.641460	2936.724173
742.970915	2921.936788
743.300323	2901.940212
743.629683	2911.602423
743.958996	2909.669981
744.288260	2878.246788
744.617477	2873.205635
744.946647	2848.251923
745.275768	2842.202538
745.604842	2839.009808
745.933869	2845.647327
746.262847	2835.228942
746.591778	2827.163096
746.920662	2825.062615
747.249498	2827.751231
747.578286	2819.265288
747.907027	2839.681962
748.235720	2823.634288
748.564365	2817.332846
748.892963	2825.146635
749.221514	2812.543750
749.550017	2828.087308
749.878473	2808.930923
750.206881	2802.965558
750.535242	2814.728250
750.863555	2803.637712
751.191821	2802.881538
751.520039	2795.991962
751.848210	2791.875019
752.176334	2787.337981
752.504411	2788.682288
752.832440	2771.542365
753.160421	2782.464865
753.488356	2798.428519
753.816243	2778.095865
754.144082	2781.792712
754.471875	2779.944288
754.799620	2762.720346
755.127318	2767.761500
755.454969	2776.583519
755.782572	2773.054712
756.110129	2763.476519
756.437638	2768.601692
756.765100	2746.420615
757.092515	2754.906558
757.419882	2761.208000
757.747203	2758.603404
758.074477	2763.308481
758.401703	2759.443596
758.728882	2759.443596
759.056014	2757.343115
759.383099	2759.443596
759.710138	2770.198058
760.037129	2766.417192
760.364073	2759.695654
760.690970	2788.598269
761.017820	2757.343115
761.344623	2762.552308
761.671379	2764.064654
761.998088	2776.415481
762.324751	2788.010135
762.651366	2808.762885
762.977935	2881.271481
763.304456	2940.252981
763.630931	2953.023904
763.957359	2943.277673
764.283740	2918.492000
764.610074	2910.594192
764.936362	2856.233750
765.262602	2826.070846
765.588796	2801.621250
765.914943	2781.876731
766.241044	2758.939481
766.567097	2741.043385
766.893104	2738.354769
767.219064	2713.149000
767.544978	2724.659635
767.870845	2710.376365
768.196665	2714.829385
768.522438	2701.722385
768.848165	2684.918538
769.173846	2685.170596
769.499479	2672.231635
769.825066	2685.422654
770.150607	2674.668192
770.476101	2678.028962
770.801548	2668.198712
771.126949	2673.323885
771.452303	2665.174019
771.777611	2657.444250
772.102872	2668.114692
772.428087	2660.889038
772.753256	2669.711058
773.078378	2657.276212
773.403453	2654.251519
773.728482	2649.714481
774.053465	2654.335538
774.378401	2653.075250
774.703291	2645.177442
775.028135	2641.816673
775.352932	2633.666808
775.677683	2645.513519
776.002388	2636.943558
776.327046	2641.816673
776.651658	2632.574558
776.976224	2629.465846
777.300743	2635.599250
777.625216	2631.062212
777.949643	2646.185673
778.274024	2622.576269
778.598359	2638.119827
778.922647	2630.642115
779.246889	2641.396577
779.571086	2631.062212
779.895236	2627.785462
780.219339	2624.004596
780.543397	2633.750827
780.867409	2627.953500
781.191374	2640.640404
781.515294	2644.589308
781.839167	2641.396577
782.162995	2635.095135
782.486776	2640.976481
782.810511	2637.699731
783.134201	2607.116731
783.457844	2627.029288
783.781441	2618.207269
784.104993	2624.508712
784.428498	2624.256654
784.751958	2629.969962
785.075372	2634.927096
785.398739	2609.049173
785.722061	2624.760769
786.045337	2629.045750
786.368568	2637.531692
786.691752	2626.609192
787.014891	2622.408231
787.337983	2629.885942
787.661030	2621.904115
787.984031	2635.347192
788.306987	2641.396577
788.629897	2635.935327
788.952760	2627.281346
789.275579	2654.335538
789.598351	2633.414750
789.921078	2635.515231
790.243759	2630.390058
790.566395	2622.072154
790.888984	2620.727846
791.211529	2626.693212
791.534027	2612.241904
791.856480	2624.760769
792.178888	2616.694923
792.501249	2613.922288
792.823566	2617.031000
793.145836	2617.031000
793.468062	2600.983327
793.790241	2601.067346
794.112375	2610.057404
794.434464	2614.426404
794.756507	2616.694923
795.078505	2610.141423
795.400457	2602.159596
795.722364	2627.197327
796.044226	2620.055692
796.366042	2626.777231
796.687812	2629.969962
797.009538	2619.383538
797.331218	2632.406519
797.652852	2623.500481
797.974442	2632.490538
798.295986	2620.223731
798.617484	2619.467558
798.938938	2599.218923
799.260346	2618.795404
799.581709	2596.026192
799.903026	2625.264885
800.224299	2608.629077
800.545526	2620.559808
800.866708	2622.072154
801.187845	2618.795404
801.508936	2596.026192
801.829983	2603.419885
802.150984	2614.594442
802.471940	2604.428115
802.792851	2601.823519
803.113717	2604.428115
803.434538	2614.258365
803.755314	2598.462750
804.076045	2600.563231
804.396731	2607.032712
804.717372	2604.680173
805.037967	2605.604385
805.358518	2606.696635
805.679024	2610.813577
805.999485	2602.747731
806.319901	2619.467558
806.640272	2609.385250
806.960598	2604.428115
807.280879	2606.192519
807.601115	2610.981615
807.921306	2602.411654
808.241453	2614.426404
808.561554	2611.317692
808.881611	2603.924000
809.201623	2620.559808
809.521590	2612.325923
809.841513	2606.024481
810.161390	2600.647250
810.481223	2625.348904
810.801011	2611.485731
811.120755	2593.673654
811.440453	2601.067346
811.760107	2625.432923
812.079716	2601.403423
812.399281	2606.108500
812.718801	2591.405135
813.038276	2598.042654
813.357707	2597.370500
813.677093	2587.540250
813.996434	2604.428115
814.315731	2601.067346
814.634983	2593.421596
814.954191	2594.345808
815.273354	2608.124962
815.592473	2602.411654
815.911547	2599.386962
816.230577	2618.963442
816.549562	2591.153077
816.868502	2611.737788
817.187399	2599.975096
817.506250	2594.261788
817.825058	2610.225442
818.143821	2601.319404
818.462539	2598.126673
818.781213	2615.686692
819.099843	2610.645538
819.418429	2624.256654
819.736970	2609.889365
820.055466	2618.375308
820.373919	2615.854731
820.692327	2641.900692
821.010691	2643.581077
821.329011	2663.409615
821.647286	2737.514577
821.965517	2843.546846
822.283704	2919.332192
822.601847	2955.040365
822.919945	2934.287615
823.237999	2902.108250
823.556010	2843.378808
823.873976	2820.609596
824.191897	2786.581808
824.509775	2761.796135
824.827609	2735.666154
825.145398	2698.025538
825.463144	2702.394538
825.780845	2684.330404
826.098502	2688.867442
826.416116	2701.134250
826.733685	2698.781712
827.051210	2712.980962
827.368692	2703.570808
827.686129	2703.486788
828.003522	2684.246385
828.320872	2666.602346
828.638177	2633.666808
828.955439	2659.544731
829.272656	2641.732654
829.589830	2631.902404
829.906960	2616.358846
830.224046	2612.914058
830.541088	2617.115019
830.858086	2596.614327
831.175041	2595.942173
831.491952	2607.368788
831.808819	2611.401712
832.125642	2612.830038
832.442421	2610.057404
832.759157	2612.914058
833.075849	2607.704865
833.392497	2632.238481
833.709101	2641.900692
834.025662	2649.714481
834.342179	2649.378404
834.658653	2638.707962
834.975083	2626.441154
835.291469	2623.248423
835.607811	2610.057404
835.924110	2614.846500
836.240366	2610.813577
836.556578	2605.016250
836.872746	2595.186000
837.188871	2587.204173
837.504952	2597.202462
837.820990	2602.663712
838.136984	2592.161308
838.452935	2587.792308
838.768842	2598.378731
839.084706	2589.220635
839.400526	2593.505615
839.716303	2597.202462
840.032037	2605.016250
840.347727	2619.383538
840.663373	2603.335865
840.978977	2611.989846
841.294537	2607.956923
841.610054	2599.891077
841.925527	2599.975096
842.240957	2595.101981
842.556344	2589.724750
842.871687	2586.448000
843.186987	2592.329346
843.502244	2583.927423
843.817458	2580.902731
844.132629	2588.212404
844.447756	2578.130096
844.762840	2589.556712
845.077881	2581.658904
845.392879	2574.853346
845.707833	2573.593058
846.022745	2596.446288
846.337613	2600.899308
846.652438	2591.153077
846.967221	2588.464462
847.281960	2595.186000
847.596656	2601.319404
847.911309	2595.942173
848.225919	2596.698346
848.540485	2575.945596
848.855009	2574.601288
849.169490	2583.507327
849.483928	2576.281673
849.798323	2582.331058
850.112675	2572.248750
850.426984	2584.515558
850.741251	2579.390385
851.055474	2592.413365
851.369654	2573.929135
851.683792	2588.380442
851.997887	2574.685308
852.311938	2584.851635
852.625947	2581.910962
852.939914	2577.878038
853.253837	2591.489154
853.567718	2577.794019
853.881555	2583.507327
854.195350	2585.775846
854.509103	2581.826942
854.822812	2581.154788
855.136479	2589.640731
855.450103	2581.574885
855.763685	2586.952115
856.077224	2597.454519
856.390720	2589.640731
856.704173	2589.472692
857.017584	2564.771038
857.330953	2577.205885
857.644278	2594.093750
857.957561	2595.522077
858.270802	2564.771038
858.584000	2591.741212
858.897155	2579.978519
859.210268	2584.095462
859.523339	2584.515558
859.836367	2588.296423
860.149352	2570.568365
860.462295	2581.826942
860.775195	2571.744635
861.088054	2586.616038
861.400869	2580.902731
861.713642	2581.574885
862.026373	2570.988462
862.339062	2580.818712
862.651708	2581.826942
862.964312	2580.314596
863.276873	2582.919192
863.589392	2590.144846
863.901869	2583.843404
864.214303	2580.062538
864.526696	2574.937365
864.839045	2564.266923
865.151353	2567.795731
865.463619	2575.189423
865.775842	2575.105404
866.088023	2583.927423
866.400162	2572.668846
866.712258	2585.523788
867.024313	2583.843404
867.336325	2572.836885
867.648296	2593.589635
867.960224	2598.462750
868.272110	2591.069058
868.583954	2586.027904
868.895755	2583.591346
869.207515	2587.540250
869.519233	2587.204173
869.830909	2579.978519
870.142542	2566.535442
870.454134	2581.994981
870.765684	2582.415077
871.077191	2579.558423
871.388657	2580.818712
871.700081	2587.708288
872.011463	2591.321115
872.322803	2589.724750
872.634101	2583.507327
872.945357	2583.087231
873.256571	2575.525500
873.567744	2584.767615
873.878874	2584.011442
874.189963	2576.197654
874.501010	2580.902731
874.812015	2582.751154
875.122979	2579.474404
875.433900	2584.599577
875.744780	2580.146558
876.055618	2581.238808
876.366415	2580.566654
876.677169	2577.625981
876.987882	2590.985038
877.298554	2591.321115
877.609183	2577.794019
877.919771	2595.101981
878.230317	2588.128385
878.540822	2593.421596
878.851285	2593.169538
879.161707	2590.648962
879.472087	2582.079000
879.782425	2598.546769
880.092722	2596.446288
880.402977	2610.225442
880.713191	2608.040942
881.023363	2626.441154
881.333494	2643.076962
881.643583	2649.546442
881.953631	2650.722712
882.263637	2648.958308
882.573602	2653.075250
882.883526	2636.271404
883.193408	2633.666808
883.503248	2631.314269
883.813048	2645.261462
884.122806	2618.711385
884.432522	2618.375308
884.742197	2605.184288
885.051831	2596.194231
885.361424	2603.083808
885.670975	2599.807058
885.980485	2590.480923
886.289954	2605.856442
886.599382	2591.489154
886.908768	2589.220635
887.218113	2594.429827
887.527417	2591.909250
887.836680	2598.966865
888.145901	2573.929135
888.455082	2595.690115
888.764221	2598.126673
889.073319	2579.222346
889.382376	2577.710000
889.691392	2587.120154
890.000366	2579.390385
890.309300	2577.625981
890.618193	2578.298135
890.927044	2579.558423
891.235855	2569.140038
891.544625	2591.237096
891.853353	2586.952115
892.162041	2599.555000
892.470687	2594.513846
892.779293	2602.075577
893.087858	2577.962058
893.396381	2584.179481
893.704864	2586.868096
894.013306	2583.087231
894.321707	2597.958635
894.630068	2598.546769
894.938387	2609.469269
895.246665	2591.237096
895.554903	2602.579692
895.863100	2606.024481
896.171256	2580.062538
896.479371	2604.512135
896.787446	2602.243615
897.095480	2607.536827
897.403473	2602.159596
897.711425	2593.169538
898.019336	2588.044365
898.327207	2582.751154
898.635038	2589.640731
898.942827	2589.976808
899.250576	2572.080712
899.558284	2580.230577
899.865952	2577.962058
900.173579	2589.220635
900.481165	2563.174673
900.788711	2577.794019
901.096216	2599.218923
901.403681	2597.286481
901.711105	2573.677077
902.018489	2590.985038
902.325832	2588.968577
902.633135	2569.728173
902.940397	2562.502519
903.247619	2575.777558
903.554800	2576.785788
903.861941	2597.118442
904.169041	2599.891077
904.476101	2588.632500
904.783121	2609.133192
905.090100	2595.101981
905.397039	2600.899308
905.703938	2595.270019
906.010796	2604.008019
906.317614	2591.825231
906.624391	2592.413365
906.931129	2591.825231
907.237826	2586.700058
907.544483	2589.136615
907.851099	2587.540250
908.157675	2577.541962
908.464211	2584.683596
908.770707	2580.566654
909.077163	2587.708288
909.383578	2583.675365
909.689954	2590.564942
909.996289	2600.311173
910.302584	2580.566654
910.608839	2588.632500
910.915054	2579.642442
911.221229	2570.400327
911.527363	2570.232288
911.833458	2587.036135
912.139513	2572.668846
912.445527	2578.130096
912.751502	2580.902731
913.057436	2575.189423
913.363331	2569.476115
913.669186	2576.953827
913.975000	2571.912673
914.280775	2586.363981
914.586510	2583.507327
914.892205	2602.999788
915.197859	2579.306365
915.503475	2589.220635
915.809050	2596.614327
916.114585	2597.538538
916.420081	2597.286481
916.725536	2602.075577
917.030952	2573.088942
917.336328	2601.655481
917.641665	2605.436346
917.946961	2597.118442
918.252218	2595.942173
918.557435	2581.742923
918.862612	2574.769327
919.167750	2583.423308
919.472848	2589.556712
919.777906	2593.001500
920.082925	2577.121865
920.387904	2593.589635
920.692843	2581.154788
920.997743	2586.363981
921.302603	2581.910962
921.607423	2575.861577
921.912204	2596.194231
922.216946	2581.238808
922.521647	2586.952115
922.826310	2593.757673
923.130932	2576.869808
923.435516	2571.912673
923.740059	2582.667135
924.044564	2585.607808
924.349028	2581.238808
924.653454	2579.558423
924.957840	2579.390385
925.262186	2591.993269
925.566493	2587.456231
925.870761	2584.179481
926.174989	2576.449712
926.479178	2566.031327
926.783328	2575.273442
927.087438	2576.029615
927.391509	2578.970288
927.695541	2579.726462
927.999533	2583.507327
928.303486	2581.994981
928.607400	2576.281673
928.911275	2569.812192
929.215110	2577.037846
929.518906	2598.126673
929.822663	2568.467885
930.126381	2584.011442
930.430060	2588.800538
930.733699	2588.128385
931.037299	2591.573173
931.340861	2577.794019
931.644383	2580.230577
931.947866	2570.484346
932.251309	2582.415077
932.554714	2574.097173
932.858080	2575.273442
933.161407	2568.551904
933.464694	2585.271731
933.767943	2574.601288
934.071153	2574.349231
934.374323	2588.548481
934.677455	2579.474404
934.980548	2564.098885
935.283602	2577.794019
935.586617	2576.953827
935.889593	2573.929135
936.192530	2585.271731
936.495428	2589.976808
936.798287	2572.752865
937.101108	2562.670558
937.403890	2587.792308
937.706632	2575.021385
938.009336	2581.826942
938.312002	2576.869808
938.614628	2589.388673
938.917216	2572.080712
939.219765	2595.101981
939.522275	2580.818712
939.824747	2581.994981
940.127179	2598.294712
940.429573	2590.817000
940.731929	2575.105404
941.034246	2591.741212
941.336524	2586.279962
941.638763	2587.456231
941.940964	2572.668846
942.243126	2564.939077
942.545250	2586.700058
942.847335	2567.375635
943.149381	2580.146558
943.451389	2571.324538
943.753359	2582.667135
944.055290	2580.902731
944.357182	2581.994981
944.659036	2576.533731
944.960851	2587.624269
945.262628	2568.551904
945.564367	2570.316308
945.866067	2586.532019
946.167729	2565.275154
946.469352	2578.886269
946.770937	2574.853346
947.072484	2572.080712
947.373992	2583.255269
947.675462	2582.079000
947.976893	2566.115346
948.278286	2585.523788
948.579641	2575.609519
948.880958	2564.603000
949.182236	2586.027904
949.483476	2572.584827
949.784678	2597.958635
950.085841	2561.326250
950.386967	2575.693538
950.688054	2573.256981
950.989103	2573.256981
951.290114	2569.224058
951.591087	2594.177769
951.892021	2576.197654
952.192917	2577.373923
952.493776	2579.978519
952.794596	2572.584827
953.095378	2567.291615
953.396122	2565.863288
953.696828	2572.752865
953.997496	2584.431538
954.298126	2570.988462
954.598718	2572.584827
954.899272	2579.138327
955.199788	2574.769327
955.500266	2580.398615
955.800706	2578.214115
956.101108	2583.927423
956.401472	2572.584827
956.701798	2576.701769
957.002087	2569.056019
957.302337	2578.886269
957.602550	2560.402038
957.902724	2559.813904
958.202861	2584.347519
958.502960	2585.019673
958.803022	2579.306365
959.103045	2570.064250
959.403031	2574.937365
959.702979	2572.332769
960.002889	2575.189423
960.302762	2588.128385
960.602596	2563.594769
960.902393	2578.466173
961.202153	2563.594769
961.501875	2584.179481
961.801559	2558.301558
962.101205	2592.245327
962.400814	2586.027904
962.700385	2573.256981
962.999918	2559.309788
963.299414	2574.685308
963.598873	2581.322827
963.898293	2592.245327
964.197677	2557.377346
964.497022	2578.046077
964.796331	2576.785788
965.095601	2586.363981
965.394835	2576.701769
965.694030	2582.919192
965.993189	2566.619462
966.292309	2572.752865
966.591393	2575.105404
966.890439	2586.700058
967.189447	2573.845115
967.488419	2584.683596
967.787353	2573.341000
968.086249	2574.769327
968.385108	2581.574885
968.683930	2579.306365
968.982714	2569.140038
969.281462	2556.033038
969.580172	2572.500808
969.878844	2578.802250
970.177480	2582.079000
970.476078	2574.853346
970.774639	2589.472692
971.073162	2569.392096
971.371649	2576.533731
971.670098	2569.728173
971.968510	2565.611231
972.266885	2573.929135
972.565223	2579.810481
972.863524	2570.064250
973.161788	2567.711712
973.460014	2573.929135
973.758204	2568.383865
974.056356	2573.509038
974.354471	2575.441481
974.652550	2583.843404
974.950591	2576.617750
975.248595	2563.174673
975.546563	2579.810481
975.844493	2575.861577
976.142386	2574.433250
976.440243	2572.080712
976.738062	2585.439769
977.035845	2584.095462
977.333590	2576.953827
977.631299	2590.396904
977.928971	2582.079000
978.226606	2570.904442
978.524204	2580.650673
978.821765	2553.764519
979.119290	2576.701769
979.416777	2582.499096
979.714228	2591.825231
980.011642	2589.304654
980.309020	2567.627692
980.606360	2575.441481
980.903664	2575.021385
981.200931	2567.123577
981.498162	2563.510750
981.795356	2568.131808
982.092513	2564.098885
982.389633	2579.138327
982.686717	2567.459654
982.983764	2569.812192
983.280775	2588.464462
983.577749	2572.080712
983.874686	2584.095462
984.171587	2571.408558
984.468451	2585.775846
984.765279	2567.291615
985.062070	2553.848538
985.358824	2575.609519
985.655543	2593.253558
985.952224	2583.255269
986.248869	2578.802250
986.545478	2575.189423
986.842050	2567.207596
987.138586	2572.248750
987.435086	2563.426731
987.731549	2557.545385
988.027975	2561.242231
988.324366	2571.492577
988.620719	2585.103692
988.917037	2562.754577
989.213318	2578.214115
989.509563	2582.919192
989.805772	2559.309788
990.101944	2572.248750
990.398080	2566.619462
990.694180	2571.576596
990.990244	2565.695250
991.286271	2573.004923
991.582262	2583.003212
991.878217	2560.654096
992.174136	2567.879750
992.470019	2579.726462
992.765865	2558.889692
993.061676	2562.502519
993.357450	2558.637635
993.653188	2578.718231
993.948890	2563.090654
994.244556	2583.339288
994.540186	2554.100596
994.835780	2585.775846
995.131337	2573.509038
995.426859	2570.988462
995.722345	2576.869808
996.017795	2564.266923
996.313208	2571.072481
996.608586	2577.962058
996.903928	2583.591346
997.199234	2577.373923
997.494504	2579.054308
997.789738	2570.484346
998.084936	2578.214115
998.380099	2569.140038
998.675225	2578.130096
998.970316	2566.031327
999.265371	2588.716519
999.560390	2572.668846
999.855373	2575.609519
1000.150320	2592.329346
1000.445232	2582.163019
1000.740108	2558.049500
1001.034948	2580.650673
1001.329752	2584.599577
1001.624521	2579.810481
1001.919254	2575.105404
1002.213951	2567.291615
1002.508613	2581.238808
1002.803239	2570.568365
1003.097829	2558.637635
1003.392384	2575.357462
1003.686903	2575.441481
1003.981386	2576.617750
1004.275834	2573.341000
1004.570246	2566.283385
1004.864623	2565.275154
1005.158964	2580.818712
1005.453270	2573.256981
1005.747540	2570.232288
1006.041775	2582.163019
1006.335974	2561.242231
1006.630138	2550.403750
1006.924266	2565.359173
1007.218359	2573.593058
1007.512416	2576.785788
1007.806438	2571.072481
1008.100425	2568.887981
1008.394376	2556.201077
1008.688292	2571.660615
1008.982172	2566.535442
1009.276017	2573.341000
1009.569827	2578.466173
1009.863602	2565.611231
1010.157341	2577.710000
1010.451045	2571.996692
1010.744714	2574.349231
1011.038347	2564.350942
1011.331945	2564.182904
1011.625508	2580.314596
1011.919036	2577.625981
1012.212528	2563.846827
1012.505986	2565.947308
1012.799408	2564.182904
1013.092795	2576.365692
1013.386147	2573.172962
1013.679464	2578.130096
1013.972745	2566.787500
1014.265992	2578.046077
1014.559204	2581.910962
1014.852380	2570.400327
1015.145521	2554.268635
1015.438628	2576.533731
1015.731699	2571.660615
1016.024736	2569.392096
1016.317737	2582.667135
1016.610703	2561.914385
1016.903635	2578.466173
1017.196531	2566.283385
1017.489393	2562.334481
1017.782219	2575.105404
1018.075011	2572.248750
1018.367768	2575.525500
1018.660490	2569.140038
1018.953177	2569.140038
1019.245829	2569.140038
